#   1 NUMBER                 Running object number                                     
#   2 MAG_AUTO               Kron-like elliptical aperture magnitude                    [mag]
#   3 X_IMAGE                Object position along x                                    [pixel]
#   4 Y_IMAGE                Object position along y                                    [pixel]
#   5 X_WORLD                Barycenter position along world x axis                     [deg]
#   6 Y_WORLD                Barycenter position along world y axis                     [deg]
#   7 A_WORLD                Profile RMS along major axis (world units)                 [deg]
#   8 B_WORLD                Profile RMS along minor axis (world units)                 [deg]
#   9 THETA_WORLD            Position angle (CCW/world-x)                               [deg]
#  10 FWHM_WORLD             FWHM assuming a gaussian core                              [deg]
#  11 ELONGATION             A_IMAGE/B_IMAGE                                           
#  12 ELLIPTICITY            1 - B_IMAGE/A_IMAGE                                       
         1 -10.0987      9.2756     19.6952   1.1650539287e+02   6.8985192620e+01    0.3651232    0.2015379   8.91 0.0005912217    1.887    0.470
         2 -10.2909     24.6108     16.3985   1.0848214030e+02   6.8138545230e+01    0.3250227    0.2291272   8.79 0.0006452632    1.299    0.230
         3  -9.2821     31.6656     10.5443   1.0301244048e+02   6.8150826776e+01    0.3335956    0.1850231  -8.46  0.001379267    1.853    0.460
         4  -8.2574    127.9096     16.9280   7.6370683503e+01   5.0599920274e+01    0.1954861    0.1709662  47.28 0.0004086711    1.016    0.016
         5  -9.7796     63.9011     14.3785   9.2498536627e+01   6.3333305273e+01    0.3759634    0.2132859  23.29 0.0009799888    1.738    0.425
         6  -8.9854     80.0376     12.6015   8.6663804923e+01   6.0802629275e+01    0.2391576    0.2238909  -6.74  0.001067613    1.281    0.219
         7  -9.0246     50.6392     15.0933   9.7496666180e+01   6.5215001313e+01    0.2656358    0.1720867  16.71  0.000809376    1.415    0.293
         8  -9.1255    232.7129     12.7074   6.0615584622e+01   2.6128091271e+01    0.2648171    0.2121473 -54.59 0.0006263728    1.210    0.173
         9  -8.8621     97.2120     12.0359   8.1704344295e+01   5.7610199337e+01    0.2661892    0.1597491  39.77 0.0006809369    1.444    0.308
        10  -8.0974    157.5228     11.0455   6.9224321809e+01   4.4251590340e+01    0.1878574   0.09151158 -51.23 0.0008098131    2.616    0.618
        11  -8.2875    105.9329     10.8021   7.9098453226e+01   5.5954366620e+01    0.2048811    0.1456386  32.73 0.0006792112    1.265    0.209
        12 -10.6701     20.1199      8.8852   1.0725815666e+02   6.9568679263e+01    0.2794978    0.1652101   9.03 0.0004127822    1.606    0.377
        13  -9.8235     74.2464     13.9890   8.8980873160e+01   6.1673843590e+01    0.4002352    0.2469331   3.38  0.001525006    1.744    0.427
        14  -8.2838      2.2336      8.2160   1.1522056652e+02   7.1142969604e+01    0.1899241    0.1324459 -21.21   0.00149622    1.003    0.003
        15  -8.6791    128.4070      7.8236   7.3264994589e+01   5.1342661215e+01    0.1681194    0.1176256   5.57  0.000586852    1.684    0.406
        16  -7.6384     39.5125      8.4717   9.8908724171e+01   6.7458486940e+01    0.1156376   0.08384053   0.31 1.019287e-05    1.087    0.080
        17  -8.0722    119.5357      6.9682   7.4741565184e+01   5.3390392866e+01    0.1728506     0.094694  18.74 0.0007139854    2.376    0.579
        18  -8.5407     76.3840      7.1101   8.5534764403e+01   6.1987895065e+01    0.2220782     0.133835  35.66  0.001239951    1.421    0.296
        19  -9.0300     56.7307      4.7440   9.0856728604e+01   6.5452635875e+01    0.3582764    0.1776332  14.73  0.001740367    2.521    0.603
        20  -8.2912     84.3667      6.3196   8.2923807650e+01   6.0612507663e+01    0.1984442    0.1135831  23.47 0.0008872779    1.761    0.432
        21  -8.8143     68.8180      3.8616   8.6495054404e+01   6.3594377239e+01    0.3279875      0.15664 -11.76  0.001430171    2.358    0.576
        22  -9.9638     48.9958      4.7117   9.3608389382e+01   6.6595116024e+01    0.2497396    0.1665467  12.06 0.0004489585    1.286    0.223
        23  -9.2484    110.8043      4.1590   7.5608298201e+01   5.5512072181e+01    0.3117746    0.1891114 -37.30  0.001421998    1.969    0.492
        24  -8.4610     13.0144      4.8080   1.0868614337e+02   7.0744100039e+01    0.2688932    0.1322161  23.97  0.001077506    2.036    0.509
        25  -8.3689    125.2523      3.7657   7.2528345247e+01   5.2395003616e+01    0.1765094    0.1247055  37.40  0.000578184    1.314    0.239
        26  -8.6193    104.5075      3.0957   7.6625717851e+01   5.6919798188e+01    0.2666951    0.1491812  20.40   0.00137254    2.047    0.511
        27  -7.3731    153.6496      3.2070   6.7535330135e+01   4.5885637958e+01    0.1515448    0.1201129   5.65 0.0002839152    1.541    0.351
        28  -8.0944    143.1028      2.1061   6.8853568649e+01   4.8455672176e+01    0.1957501     0.143088  45.85 0.0002937437    1.251    0.201
        29  -8.2378    139.4120      2.7046   6.9647542531e+01   4.9262515346e+01    0.2004063    0.1455746  84.61 0.0008606742    1.499    0.333
        30  -7.9825    182.0595      2.2825   6.3473429382e+01   3.9166237258e+01    0.1844144    0.1385754  75.29 0.0004318966    1.129    0.114
        31  -7.9798      3.0627      1.3731   1.1188812258e+02   7.1997359676e+01    0.1329193   0.08130807  11.63 0.0003564588    1.547    0.353
        32  -8.0767    195.1374    229.1208   1.1490107877e+02  -2.5479099202e+00     0.202871    0.1594996  13.28 0.0007419553    1.329    0.248
        33  -8.0123    249.1497    250.1759   1.0856195533e+02  -1.4068306082e+01     0.181378    0.1283403  10.56  0.001009877    1.208    0.172
        34  -8.9321    233.3989    248.4663   1.1103996102e+02  -1.1549778857e+01    0.3518335     0.155957 -40.89  0.001220818    2.702    0.630
        35  -8.5122    234.1222    243.1045   1.1002093088e+02  -1.0974194643e+01    0.2155491    0.1498927  28.42 0.0006072005    1.214    0.176
        36  -9.3463    212.5105    250.3125   1.1509523136e+02  -8.5431563976e+00    0.3726303    0.1363467  40.60  0.001689895    2.310    0.567
        37  -9.5513    208.7061    248.8579   1.1556007652e+02  -7.7358479091e+00    0.4001578    0.2631061   2.70  0.001918612    1.933    0.483
        38  -9.9431    200.4473    248.9268   1.1708854273e+02  -6.3995772479e+00    0.3700469    0.2559314  10.03  0.001338874    1.686    0.407
        39  -7.8186    123.4853    250.5315   1.3163712331e+02   6.2860242826e+00    0.2122687    0.1060849  34.97 0.0009168811    2.204    0.546
        40  -8.0043    101.8022    229.1678   1.3318937679e+02   1.3733958220e+01    0.1601105    0.1505196  45.58  0.001067205    1.327    0.246
        41  -8.7996    247.6505    226.1483   1.0466796423e+02  -1.0797221766e+01     0.325175    0.2249842 -34.41  0.001992071    1.539    0.350
        42  -7.4636    174.8775    228.1493   1.1867626923e+02   1.2104685166e+00     0.177719    0.1449552  16.45 0.0004198145    1.341    0.254
        43  -7.2328    158.6259    228.6996   1.2196133139e+02   4.0347953789e+00    0.1332317   0.09986575  14.34 0.0007028732    1.752    0.429
        44  -7.6954    110.6844    227.7056   1.3128376568e+02   1.2568666110e+01    0.1150524    0.1033016   8.40 0.0003868693    1.602    0.376
        45  -7.3537     93.2923    227.7003   1.3465668882e+02   1.5370277158e+01    0.1303068   0.08250349  71.07 0.0002737057    1.566    0.361
        46  -8.5134    186.8371    226.5011   1.1606960620e+02  -6.5790707021e-01    0.3610252    0.1137121  37.39    0.0012777    3.175    0.685
        47  -7.7223     70.4583    226.0072   1.3880740033e+02   1.9115137983e+01    0.1558607   0.09344914 -47.33  0.000807369    2.478    0.596
        48  -7.8237    206.4468    222.6950   1.1163291678e+02  -3.5176684005e+00    0.1723153    0.1204622 -21.28 0.0009379467    1.624    0.384
        49  -7.5054     51.6422    221.6733   1.4188198596e+02   2.2541901386e+01    0.1063255   0.09146894 -45.57 0.0007044153    1.780    0.438
        50  -8.3963    239.8132    219.0983   1.0478418057e+02  -8.5897516865e+00    0.2409195    0.1875703 -23.26 0.0007768452    1.259    0.206
        51  -8.6322    226.2040    219.4038   1.0732517558e+02  -6.4014619655e+00     0.318059    0.1936419 -18.08  0.001557339    1.934    0.483
        52  -8.3106    182.1758    219.8957   1.1587565008e+02   1.2904768817e+00     0.246514    0.1801916  26.59 0.0009867378    1.387    0.279
        53  -7.8649    130.3220    220.2003   1.2635958980e+02   1.0663480173e+01    0.1875867    0.1721584 -32.42 0.0006631506    1.382    0.276
        54  -7.5217    217.3302    219.3506   1.0897325388e+02  -4.8861014788e+00    0.1380953    0.0933697   6.11  0.000704794    1.770    0.435
        55  -7.9687    203.6243    216.6347   1.1110312361e+02  -2.0502350225e+00    0.2024737    0.1468877   6.87 0.0009497216    1.614    0.381
        56  -7.5550    105.6968    217.6740   1.3098568553e+02   1.5383429060e+01    0.1182736     0.106428 -13.89  0.000255391    1.642    0.391
        57  -8.4903    193.5835    215.4728   1.1285585289e+02  -4.2223666663e-02    0.2932184     0.194537  21.02  0.001076994    1.732    0.423
        58  -7.6829    173.3980    219.7057   1.1759008510e+02   2.9318532979e+00    0.1756918    0.1281324 -31.68 0.0009432063    1.627    0.386
        59  -8.7334    249.5730    212.7656   1.0187210915e+02  -9.2342316436e+00    0.2800111    0.1987429 -47.40  0.001287657    1.842    0.457
        60  -8.3048    232.0889    212.3701   1.0494454372e+02  -6.3310732151e+00    0.2528287    0.1662922 -13.79  0.001313333    1.694    0.410
        61  -8.2189    122.4186    213.2922   1.2697393883e+02   1.3420623810e+01    0.2758015    0.1607065  30.94   0.00126367    2.139    0.532
        62  -7.8111    169.4929    212.4752   1.1715912113e+02   4.9535034201e+00    0.1381679    0.1242836  33.48 8.087857e-05    1.066    0.062
        63  -7.8324    186.0327    210.4765   1.1346752885e+02   2.2143569506e+00    0.2092403    0.1246023  39.87   0.00100948    1.537    0.349
        64  -8.0248    163.0681    208.1010   1.1772767352e+02   6.9782744880e+00    0.2138444    0.1830289  18.95 0.0007334015    1.295    0.228
        65  -9.0990    172.5151    206.1438   1.1543998298e+02   5.5519384180e+00    0.3061751     0.225789  39.47 0.0006026696    1.254    0.202
        66  -7.8917    176.2960    204.3105   1.1433624544e+02   5.1713018404e+00    0.1377467    0.1078949   5.51 0.0002636534    1.594    0.373
        67  -8.0737    247.1832    205.0209   1.0082707392e+02  -7.7225755160e+00    0.2054789    0.1527015  -0.49  0.001206989    1.315    0.240
        68  -8.3407    236.5905    204.3886   1.0261005543e+02  -5.8701052233e+00    0.2199251      0.18555 -24.61 0.0006255733    1.180    0.152
        69  -8.0378    215.7547    205.5527   1.0672625536e+02  -2.4152918444e+00    0.2521183    0.1206732  37.09  0.001112318    2.008    0.502
        70  -8.1269    118.0309    204.9591   1.2666162695e+02   1.5902626542e+01     0.203331    0.1738916   1.25  0.001127471    1.699    0.411
        71  -8.6952    228.2171    201.4952   1.0359621207e+02  -3.9717034265e+00    0.5732453    0.2374328 -23.12  0.001757607    5.004    0.800
        72  -7.4545    157.4750    203.5571   1.1810837865e+02   8.9151144900e+00    0.1409068    0.1282787  51.34 0.0002261316    1.010    0.010
        73  -8.5829    195.5692    200.3549   1.0969473438e+02   2.2114913276e+00    0.3434885    0.2290172  52.73  0.001577341    1.617    0.382
        74  -7.4666    184.8422    200.1055   1.1181627082e+02   4.3089176089e+00    0.1949097    0.1621441   5.50 0.0007503253    1.354    0.261
        75  -7.8429     99.7428    199.0097   1.2967481199e+02   2.0290298838e+01    0.1697441      0.11148 -65.08 0.0008754118    1.514    0.340
        76  -7.4404    244.1243    197.5891   9.9932539234e+01  -6.0894458743e+00    0.1768928    0.1127614  26.18 0.0006744192    1.600    0.375
        77  -8.2998    166.2926    197.2859   1.1514119275e+02   8.4414169545e+00    0.2625127    0.1639624  33.79 0.0009333456    1.668    0.401
        78  -7.7485    140.6722    197.6733   1.2066626812e+02   1.3290894295e+01    0.1389396     0.114215  -0.58 0.0007050348    1.701    0.412
        79  -8.3541    193.0964    193.6919   1.0891731756e+02   3.8929324412e+00    0.2454331    0.1810693 -20.57  0.001237997    1.583    0.368
        80  -7.6430    124.8274    193.3693   1.2338142264e+02   1.7144650921e+01    0.1987179    0.1298823  33.63  0.000830111    1.718    0.418
        81  -7.5019    246.5102    189.9609   9.8000734049e+01  -5.2998594176e+00    0.1827044    0.1052321 -12.67 0.0006979317    2.329    0.571
        82  -7.4601    161.7628    190.0252   1.1476231907e+02   1.0774577170e+01    0.1844912     0.122906 -49.26 0.0008727472    1.591    0.371
        83  -7.7509    224.8327    189.1880   1.0180714165e+02  -1.3342329995e+00    0.1969808    0.1524132   4.49 0.0006530582    1.382    0.277
        84  -7.7175     64.8127    189.3974   1.3584849771e+02   2.7714511319e+01    0.1620328    0.1254766  30.02  0.000705913    1.673    0.402
        85  -7.0670    179.6755    188.6681   1.1070541434e+02   7.4840134618e+00    0.1481577    0.1132261   3.59 0.0006308294    1.706    0.414
        86  -7.3196    148.7089    185.3401   1.1672452672e+02   1.4319529930e+01    0.1489435    0.1125997  83.28  0.000270547    1.647    0.393
        87  -7.9058    139.2022    185.2114   1.1880151830e+02   1.6199045674e+01    0.2363573    0.1646856  -5.43 0.0009509718    2.795    0.642
        88  -7.5130    217.5113    184.4732   1.0224834310e+02   8.4867442058e-01    0.1401812    0.1287723   4.27 0.0002255578    1.012    0.012
        89  -7.8041    130.2559    183.1740   1.2043212218e+02   1.8350005801e+01    0.2254741    0.1599337  -8.70 0.0007305891    2.671    0.626
        90  -7.2284    249.7092    182.2798   9.5892683583e+01  -4.6237269481e+00    0.1176717    0.1057451 -67.27  0.000291405    1.526    0.345
        91  -7.7176    165.2117    182.6201   1.1260335553e+02   1.1593603561e+01    0.2148441    0.1341185  34.42 0.0009475145    1.704    0.413
        92  -8.2445    156.1561    181.0813   1.1427933599e+02   1.3736201604e+01    0.2268151    0.2043668   8.93  0.001221098    1.280    0.219
        93  -7.9828     96.5159    178.4765   1.2729063107e+02   2.5411335746e+01    0.2220458    0.1386347  28.25 0.0006999349    2.119    0.528
        94  -8.2304    148.4726    174.8197   1.1476877594e+02   1.6615429986e+01     0.300875    0.1963303  26.86  0.001226596    1.962    0.490
        95  -7.2152    138.3132    175.3486   1.1716862796e+02   1.8518164041e+01    0.1476572    0.1198368  -9.49 0.0005984794    1.719    0.418
        96  -7.7873     46.9783    175.5127   1.3799975304e+02   3.3147352862e+01    0.1738112    0.1248433  37.42  0.001034038    1.624    0.384
        97  -7.9869     14.5291    170.4712   1.4438155330e+02   3.7658206508e+01    0.1656584    0.1192824   6.41 0.0009718119    2.354    0.575
        98  -8.3594    176.8372    168.2234   1.0715868024e+02   1.2157930531e+01    0.2984414    0.2028584 -16.45  0.001249968    2.161    0.537
        99  -7.5064    143.4606    169.5249   1.1485903917e+02   1.8779765213e+01    0.1471183    0.1446791  57.95 0.0008079189    1.068    0.063
       100  -7.6625    150.5331    165.9646   1.1252214418e+02   1.8124550603e+01    0.2019723    0.1323012 -24.06 0.0008052519    2.303    0.566
       101  -7.5649    169.1460    163.5935   1.0784868094e+02   1.4744365411e+01    0.2231672     0.141496  33.88 0.0009494921    1.748    0.428
       102  -7.9648    122.7162    162.5958   1.1833274396e+02   2.4409046806e+01    0.2823882    0.1445479  37.68  0.001126106    2.110    0.526
       103  -7.4613    200.5070    161.4690   1.0074711806e+02   8.5325101232e+00     0.148031    0.1421239  -0.09 0.0002009953    1.026    0.025
       104  -7.4053    138.4782    158.5001   1.1376730219e+02   2.2245940775e+01    0.1532981    0.1436321  84.61 -1.781474e-05    1.046    0.044
       105  -8.1592     20.7057    157.7117   1.4174695952e+02   3.9961480423e+01    0.2781664    0.1197546 -41.46  0.001140016    3.956    0.747
       106  -7.3684    151.6984    157.2889   1.1042746358e+02   1.9790019079e+01    0.1529497    0.1199173  84.29 0.0006981818    1.563    0.360
       107  -8.0057    168.5429    151.9516   1.0542822275e+02   1.7349381620e+01    0.2197653    0.1358111 -21.86 0.0008088475    2.537    0.606
       108  -7.5495    145.1994    151.7791   1.1074569228e+02   2.2375669564e+01    0.2485996    0.1222929  34.43 0.0008796218    2.510    0.602
       109  -7.4153    107.0565    152.0000   1.2005030345e+02   2.9765850046e+01    0.2315005   0.08372609  40.33 0.0004837798    2.863    0.651
       110  -7.2306    188.6890    150.3121   1.0069356514e+02   1.3294229589e+01    0.1534172    0.1223042 -84.79 0.0007028858    1.629    0.386
       111  -7.9356    133.0936    147.9281   1.1279766851e+02   2.5738323518e+01     0.240528    0.1916427 -12.06 0.0008861249    1.720    0.419
       112  -7.7597    213.5261    145.9827   9.4712190481e+01   8.7800972530e+00    0.2129539    0.1295606 -16.46 0.0008096128    2.513    0.602
       113  -9.4223     67.1947    144.6258   1.2872618981e+02   3.7803432601e+01    0.4879868    0.3088821  63.97  0.002276725    1.891    0.471
       114  -7.4628     41.6403    140.2670   1.3450065961e+02   4.1923870450e+01    0.1285494   0.08787031  72.16 0.0006990809    1.640    0.390
       115  -7.8494    139.9854    137.9637   1.0887662258e+02   2.6578975674e+01    0.2464316    0.1959753  -2.71  0.001121339    1.734    0.423
       116 -10.1164    230.1960    135.9698   8.9359882019e+01   7.1474134610e+00    0.2768241    0.2539392  44.68 0.0003734699    1.165    0.142
       117  -7.5993    107.7568    137.1942   1.1679722417e+02   3.3114993697e+01    0.2207376    0.1182387  30.46 0.0006636114    2.412    0.585
       118  -7.7503     55.1962    135.0105   1.3016067074e+02   4.1614420728e+01    0.2230481    0.1271936 -42.22  0.001035073    1.962    0.490
       119  -8.5230      4.7936    134.0751   1.4276096514e+02   4.6553502718e+01    0.2059747    0.1243605 -37.56   0.00122689    2.084    0.520
       120  -8.6997     23.2017    130.4087   1.3773481277e+02   4.5967195120e+01    0.3583485    0.1861882 -23.19  0.001505457    3.932    0.746
       121  -7.7304    133.1184    124.3740   1.0732252100e+02   3.1079456377e+01    0.3110145    0.1455249  36.66  0.001095243    2.522    0.603
       122  -9.4399     12.5587    120.9122   1.3914900880e+02   4.8950309294e+01    0.3213345    0.1705557 -53.08  0.001841296    1.593    0.372
       123  -7.9058     99.9972    119.1820   1.1475675476e+02   3.8683073702e+01    0.2356168    0.1740465   0.82  0.001072581    1.996    0.499
       124  -9.0763    248.3048    117.1176   8.2093754533e+01   6.7977225551e+00    0.2542404     0.231362  67.65 0.0003395347    1.221    0.181
       125  -7.6953    142.9814    111.5028   1.0159050810e+02   3.1768396941e+01    0.2133254    0.1368181  22.44 0.0005711808    2.352    0.575
       126  -9.1042      2.1918    109.8963   1.4036580846e+02   5.2066724205e+01    0.3290077    0.1094375 -52.29  0.001600637    2.308    0.567
       127  -7.6663    133.4080    106.7537   1.0272549504e+02   3.4873219161e+01    0.2258761    0.1443342 -33.59 0.0009510599    1.717    0.418
       128  -7.7867    124.0057    107.4694   1.0534551958e+02   3.6700515287e+01    0.2181633    0.1346975  20.39 0.0008093533    2.601    0.616
       129  -9.1613     14.0102    105.8400   1.3648905913e+02   5.2197037312e+01    0.2944486    0.1613276 -32.47  0.001612188    2.200    0.545
       130  -8.4770     17.3717    103.2877   1.3510266184e+02   5.2518972808e+01    0.1775354    0.1530389 -45.93 0.0006339979    1.178    0.151
       131  -8.3897    248.6654    103.6812   7.9020370589e+01   9.0587770852e+00    0.1373805    0.1105425   5.82 0.0007048897    1.699    0.411
       132  -7.7958     93.7772    103.4077   1.1258317483e+02   4.3305407032e+01    0.2004537    0.1396853  23.99 0.0009518905    1.727    0.421
       133  -8.6326      2.8217    102.1921   1.3907853035e+02   5.3705289316e+01    0.1680962    0.1043678 -49.73  0.001076645    1.370    0.270
       134  -9.7309     10.2010     95.9928   1.3595057968e+02   5.4596407683e+01    0.3144185    0.1766505   9.81  0.001834819    2.424    0.587
       135  -7.0955    202.6684     94.7340   8.4392182946e+01   2.1032824331e+01    0.1477905    0.1192126  22.57 0.0006972046    1.580    0.367
       136  -9.5769     20.4087     92.1522   1.3216408579e+02   5.4717533816e+01     0.438647    0.1343446 -45.69  0.001866948    2.781    0.640
       137  -8.6656     44.2351     92.1750   1.2475064197e+02   5.2587220549e+01    0.3246293    0.1846652 -21.48  0.001524219    2.521    0.603
       138  -7.4166     83.4656     93.5382   1.1300112124e+02   4.7140355949e+01     0.140493    0.1280319 -36.68 0.0008084258    1.005    0.005
       139  -7.9884     96.2669     90.4953   1.0838274162e+02   4.5632006389e+01    0.3194895     0.205845  14.46   0.00137493    2.278    0.561
       140  -7.5362     57.1460     91.6174   1.2057398610e+02   5.1246065756e+01    0.1628775    0.1229132   4.46 0.0002707204    1.602    0.376
       141  -8.4779     67.3756     85.8769   1.1587733701e+02   5.1135675627e+01    0.3698722     0.189561  18.59  0.001521866    2.969    0.663
       142  -9.4950     35.8236     82.2565   1.2511902846e+02   5.5525456793e+01    0.5538736    0.2584236 -30.42  0.002465665    2.756    0.637
       143  -7.8740    126.4873     83.9991   9.8134573942e+01   4.0995559442e+01    0.3084328     0.184237  14.27  0.001036784    3.455    0.711
       144  -8.4537     88.5479     78.7983   1.0729836083e+02   4.9328118456e+01    0.4493609    0.2386973  17.63  0.001612825    3.521    0.716
       145  -7.6419    184.4088     78.1844   8.3459003901e+01   2.8436004843e+01    0.2123538    0.1365114 -48.95 0.0009361583    1.586    0.369
       146  -8.7075     49.0295     76.9761   1.1941738145e+02   5.5253970604e+01    0.3383317    0.2485899  -4.01  0.001994945    1.564    0.360
       147  -7.4163    105.3186     76.3607   1.0162341857e+02   4.6767568545e+01      0.15144    0.1100977  -3.11 0.0007042869    1.766    0.434
       148  -8.7825     29.7931     68.4176   1.2370172883e+02   5.8879118905e+01     0.257199    0.1636576  -0.61  0.001504896    1.914    0.478
       149  -9.4944     24.3801     73.2020   1.2676735134e+02   5.8372391038e+01    0.5276355    0.1922374 -38.61  0.001711095    2.694    0.629
       150  -8.0704     23.4449     69.4809   1.2617979784e+02   5.9192002925e+01    0.1816282    0.1645995 -25.21 0.0005770231    1.183    0.155
       151  -7.5083    149.2421     75.6496   9.0096227050e+01   3.7407602576e+01    0.1501447    0.1149033 -66.19 0.0004348923    1.577    0.366
       152  -8.0359     74.7598     74.7912   1.1039156304e+02   5.2312860433e+01     0.253911    0.1718191   3.70 0.0009645395    1.940    0.484
       153  -8.1521     61.3562     71.2711   1.1370813341e+02   5.4885099966e+01    0.2717572    0.1626353 -46.02 0.0009079527    1.492    0.330
       154  -8.4063     62.2068     67.0000   1.1214520887e+02   5.5590339206e+01    0.2792068    0.1668343 -38.51 0.0008777404    1.487    0.328
       155  -9.5306     65.6069     61.0750   1.0915299305e+02   5.6218737205e+01    0.4071882    0.2972104 -32.98 6.973093e-05    1.217    0.179
       156  -8.3704     43.1481     67.8112   1.1889071271e+02   5.7714256246e+01     0.304255    0.1466992 -33.89  0.001460425    2.095    0.523
       157  -8.1195     80.4888     67.9977   1.0649654626e+02   5.2714541618e+01    0.2523896    0.1494282 -31.82 0.0004047075    1.680    0.405
       158  -8.4928     84.0228     63.9852   1.0410966390e+02   5.2866667345e+01    0.3602182    0.2165432   2.11   0.00148663    2.820    0.645
       159  -9.8656      7.9948     77.4372   1.3318071861e+02   5.8638220329e+01    0.4906236    0.1902923 -36.35  0.002382454    2.658    0.624
       160  -9.5299     17.7844     62.0052   1.2629309604e+02   6.1081365436e+01    0.3869334    0.1974274 -39.92  0.001609459    1.596    0.374
       161  -9.9470    242.3048     60.6368   7.0158942134e+01   1.7498616667e+01       0.4336    0.3116316  22.98 0.0007327853    2.394    0.582
       162  -8.9198     51.3394     60.5312   1.1387965374e+02   5.8172256741e+01     0.322458     0.280179 -77.47  0.001898726    1.656    0.396
       163 -10.8223     38.3704     57.6056   1.1760586053e+02   6.0141117153e+01    0.4639358    0.2633751 -11.45  0.000522138    2.327    0.570
       164  -7.2086    127.6251     59.7845   9.0447402100e+01   4.5052263291e+01    0.1464276    0.1021193  29.19 0.0006841415    1.588    0.370
       165  -7.4308    111.5078     58.4661   9.4234242509e+01   4.8697473476e+01    0.1443403    0.1266664  10.39 6.609457e-05    1.124    0.110
       166  -9.5986      3.1271     55.5780   1.3001701174e+02   6.3228586084e+01    0.4325017    0.2735955 -44.86  0.002979794    1.163    0.140
       167  -8.5975     99.2055     54.9812   9.6548300567e+01   5.1689040489e+01    0.4263841    0.2288981 -17.77  0.001716585    2.700    0.630
       168  -9.2680     75.0345     50.5594   1.0251236559e+02   5.6617975949e+01    0.3751179    0.2483968   1.59 0.0004101525    1.829    0.453
       169  -8.0736    118.4173     51.1625   9.0003327235e+01   4.8402084506e+01    0.2600828    0.1844299  69.07  0.001266465    1.830    0.454
       170  -7.8311     81.1732     51.6777   1.0091509883e+02   5.5440253078e+01    0.2310143    0.1169818  48.98  0.001036579    2.382    0.580
       171 -10.2765     45.3248     49.1033   1.1236874731e+02   6.0908455669e+01    0.2512995    0.1840404 -14.50 0.0006899012    1.268    0.211
       172  -9.0419      2.0399     45.5847   1.2786599310e+02   6.5136733524e+01    0.2427559    0.1835167 -37.47  0.001148676    1.048    0.046
       173  -9.6297     17.7974     38.9559   1.1963098850e+02   6.5269955672e+01    0.5987711      0.26665 -20.38  0.002878542    2.955    0.662
       174  -8.8601      3.6021     40.1566   1.2572713986e+02   6.6016226878e+01      0.27834   0.08230043 -54.48  0.001332292    2.631    0.620
       175  -7.2213     91.3272     49.3078   9.6950033590e+01   5.4050257734e+01    0.1391229   0.09723124   7.45 0.0007038061    1.655    0.396
       176  -8.2918    106.9203     48.0740   9.2032658870e+01   5.1251417993e+01    0.2018212    0.1785979  18.06            0    1.051    0.049
       177  -9.7775     24.3728     47.2693   1.1967456104e+02   6.3301226311e+01     0.476457    0.2328029   6.66  0.002443825    2.764    0.638
       178  -8.8684     31.5767     44.2208   1.1592318855e+02   6.3185032365e+01    0.2724228     0.160489 -22.30 0.0008947108    1.651    0.394
       179 -10.0489      9.7243     47.5653   1.2542563630e+02   6.4326849835e+01    0.5172977    0.2504442 -26.63  0.002026676    2.079    0.519
       180 -10.2327     83.1157     40.2548   9.6269811707e+01   5.6861847326e+01    0.3636473    0.2407977  -5.44  0.001921752    1.718    0.418
       181  -9.4945     44.1992     40.6315   1.0987803690e+02   6.2447232406e+01    0.4207147    0.2413657  -4.02  0.002182631    2.252    0.556
       182  -8.8188     93.8818     42.4526   9.3791331950e+01   5.4606738974e+01    0.4626962    0.1841905  40.59  0.001914711    2.466    0.594
       183  -7.7065    123.3985     40.7290   8.5306924378e+01   4.8813862082e+01    0.1855879    0.1300202 -12.25 0.0008288255    1.638    0.390
       184  -8.9296    106.4587     36.8162   8.8273686466e+01   5.2928024040e+01    0.3459933    0.2049179  22.34  0.001604412    2.090    0.522
       185 -10.2180    138.2334     36.6082   8.0597213035e+01   4.5992131809e+01    0.2382201    0.2199099  29.28 0.0002420788    1.069    0.065
       186  -9.4627     96.0072     33.2970   8.9896861109e+01   5.5455547614e+01    0.2580838    0.2075357  10.55 0.0003065739    1.182    0.154
       187  -9.4859     54.7645     36.5849   1.0449816407e+02   6.1758822954e+01    0.2871052    0.1990626  13.86  0.001005106    1.422    0.297
       188  -9.4960     37.9252     35.5598   1.1045871030e+02   6.3956342272e+01    0.3552216    0.2030204   9.12  0.001507865    2.023    0.506
       189  -8.7664     70.3197     35.7942   9.8770838637e+01   5.9613143910e+01    0.2485769    0.1432308  16.30   0.00122808    2.119    0.528
       190  -9.1858      6.9984     33.9272   1.2243725598e+02   6.6879259279e+01    0.3037782    0.2007433 -36.72  0.002180893    1.113    0.102
       191  -8.5912     76.5038     34.2791   9.6170775036e+01   5.8825470126e+01    0.2649327    0.2124463  40.55   0.00165695    1.353    0.261
       192  -8.7412     92.1817     36.8802   9.2298659439e+01   5.5704328842e+01    0.3246605    0.1968023  37.31 0.0009165124    1.563    0.360
       193  -8.6375     81.8900     32.1676   9.3674542678e+01   5.8192157369e+01    0.2166321    0.1669386  -1.62 0.0003975645    1.226    0.184
       194  -8.1776    104.9745     31.6976   8.6863084224e+01   5.3886321866e+01    0.1868152    0.1591638  34.20 0.0005388848    1.072    0.067
       195  -8.3969    112.6309     29.8031   8.4230185234e+01   5.2531420524e+01    0.3251477    0.1942558  23.83  0.001550825    1.992    0.498
       196  -8.9941      1.4361     29.9518   1.2351063905e+02   6.7878775610e+01    0.2525784   0.08001715 -51.89  0.001091611    2.470    0.595
       197  -9.5972     71.5168     26.0209   9.4640404246e+01   6.0734418589e+01     0.396532    0.2487325  25.06  0.001514985    1.538    0.350
       198  -8.4673     65.6939     23.4555   9.5575874760e+01   6.1983545778e+01    0.2704931    0.1466691  52.07  0.001359379    2.532    0.605
       199  -8.7228     61.6836     26.9728   9.8350027426e+01   6.2141571918e+01    0.2372762    0.1630652  -2.78 0.0006729934    1.406    0.289
       200  -8.7873     57.4640     25.3627   9.9208982408e+01   6.2968822198e+01    0.2770563    0.1640408  37.09  0.001000825    1.706    0.414
       201  -8.0590    153.8842     26.7219   7.4467650937e+01   4.3478234723e+01    0.2408602   0.06009942  46.52 0.0006994962    4.301    0.768
       202  -7.4191    123.7488     26.6777   8.0525528426e+01   5.0486742887e+01    0.1327064   0.09388773  22.64 0.0002206851    1.537    0.349
       203  -9.0912     48.0952     25.8287   1.0284409046e+02   6.4180188143e+01    0.3229663    0.1612791  27.02  0.001282963    2.048    0.512
       204  -8.6962    127.8748     30.1753   8.0768023650e+01   4.9156517151e+01    0.2079446    0.1825629  17.67 0.0002999325    1.145    0.126
       205  -8.7479     80.3158     23.3375   9.0799168518e+01   5.9573596093e+01     0.231907    0.1837159   4.84  0.001290125    1.132    0.117
       206  -9.2075     84.5946     21.9618   8.8976726253e+01   5.8969961771e+01    0.3448871    0.2023581  46.57  0.001885738    1.634    0.388
       207  -8.7972     92.0406     21.2471   8.6559734754e+01   5.7664476002e+01    0.2912827    0.1921715  16.19   0.00150196    1.592    0.372
       208  -7.4456    131.0176     21.7487   7.7317366010e+01   4.9396459391e+01    0.1678723    0.1036283  57.83 0.0002962052    1.464    0.317
       209  -8.5454    243.0212    244.6283   1.0870156198e+02  -1.2504998909e+01    0.2467503    0.1517509 -15.52  0.001387048    1.727    0.421
       210  -7.5640    116.8100     19.9058   7.9790910029e+01   5.2749823520e+01    0.1586264    0.1491933 -76.34 0.0002421552    1.299    0.230
       211  -8.0365     45.4744     19.7734   1.0139791679e+02   6.5323566546e+01    0.2019026   0.09922078 -36.32  0.001116303    1.953    0.488
       212  -7.5104    146.7899     19.3421   7.3504284333e+01   4.5981677806e+01    0.1914192    0.1030931  52.83 0.0002787759    1.611    0.379
       213  -9.5465    224.5358    245.9592   1.1221523369e+02  -9.8647014778e+00    0.2198537     0.188812   2.28 0.0003840071    1.134    0.118
       214 -10.3682    192.8558    245.1012   1.1790567023e+02  -4.5884393553e+00    0.3569681    0.2785113 -37.28  0.001399777    1.499    0.333
       215  -7.7065     74.3075    247.3454   1.4015020267e+02   1.4451499412e+01   0.09896175   0.09400059 -39.76 0.0004514699    1.698    0.411
       216  -7.9477     17.9325    248.0000   1.4949715754e+02   2.1450381997e+01    0.1549036   0.05085303  40.10 0.0008014524    2.936    0.659
       217  -9.3887    218.2684    245.4924   1.1327501411e+02  -8.8135708234e+00    0.2557912    0.1794125  -4.17  0.001539465    1.594    0.373
       218  -9.6686    157.1828    244.7354   1.2458222967e+02   1.5718997091e+00    0.2199946    0.1907247  33.57 0.0008274268    1.151    0.131
       219  -7.7365    189.3368     15.6899   6.6014610802e+01   3.6063087617e+01    0.1399313   0.09065941 -71.93 0.0007044137    1.683    0.406
       220  -9.2460    176.2873    243.5663   1.2079055911e+02  -1.5347333662e+00    0.2024606    0.1516294 -13.04 0.0005321397    1.784    0.440
       221  -8.1468    146.7013     14.1011   7.1914573725e+01   4.6532644932e+01    0.1722627    0.1575441  42.66 0.0003125095    1.094    0.086
       222  -8.0846    103.9786     17.0214   8.1834448591e+01   5.5752125831e+01     0.281384     0.120055  25.26 0.0009660962    4.192    0.761
       223  -7.8172    134.6125     13.2283   7.3836753367e+01   4.9435194816e+01    0.1676989      0.12146   2.66 0.0003260348    1.641    0.390
       224  -8.1941     95.2586    243.7472   1.3605495527e+02   1.2001865804e+01     0.150584    0.1363283  48.73 0.0007180932    1.343    0.255
       225  -8.6648     89.1921     12.9906   8.4200807720e+01   5.9075140834e+01    0.3137603    0.1225076  38.31  0.001388615    2.418    0.586
       226  -7.2450    133.6660    242.7093   1.2877182757e+02   5.9408612169e+00    0.1187453   0.09633513  18.53  0.000496134    1.633    0.388
       227  -9.3707    151.1916    249.5690   1.2637027390e+02   1.8106563743e+00    0.3616027    0.1744063  41.23  0.001369152    1.748    0.428
       228  -8.0781     26.0057    241.4596   1.4782357004e+02   2.1763765893e+01    0.1525044   0.08840294  49.48 0.0009265146    1.556    0.357
       229  -9.3823    170.6475    239.5939   1.2127050049e+02   7.1725186403e-02    0.3093077    0.2009395  25.68  0.001177465    1.722    0.419
       230  -8.8338    249.8404    238.5736   1.0647505395e+02  -1.2747206976e+01    0.1830528    0.1307059 -29.08 0.0008748701    1.469    0.319
       231  -9.3531    242.1400    236.6098   1.0748791280e+02  -1.1349504116e+01     0.454918    0.2239287 -20.45  0.002209946    2.521    0.603
       232  -7.3615    214.3671    239.2733   1.1296944144e+02  -7.3263137168e+00    0.1296851    0.0845385  15.43  0.000700266    1.670    0.401
       233  -8.4084    121.9856    239.0040   1.3052079992e+02   8.5668745119e+00    0.2010362    0.1325782  68.40 0.0006465346    1.581    0.368
       234  -8.3515    224.4787    238.4511   1.1097707641e+02  -8.8473621245e+00    0.1243762    0.1021084  18.66 0.0003246843    1.005    0.005
       235  -7.8540     79.4933    238.4994   1.3838903971e+02   1.5361863762e+01    0.1223613   0.09678793  69.96 -6.775317e-05    1.022    0.021
       236  -8.6310    231.0242    237.0195   1.0954656811e+02  -9.6892669383e+00    0.1675623    0.1477056  58.37 0.0003186757    1.615    0.381
       237  -7.5919    148.4456    237.5287   1.2524428371e+02   4.2975761844e+00    0.1292372    0.1106075  47.67 0.0001860746    1.034    0.033
       238  -7.2350    112.3014    237.6579   1.3219631688e+02   1.0416274375e+01    0.1323452   0.08450405  71.52 0.0007037948    1.675    0.403
       239 -10.1539    189.1124    234.4779   1.1693587158e+02  -2.3370416989e+00    0.3153907    0.2557224  49.21   0.00108417    1.234    0.189
       240  -8.4507    162.1443    234.3500   1.2212607830e+02   2.4332858230e+00    0.2300798    0.1886354  18.21 0.0006403088    1.390    0.281
       241  -8.0459    248.5633    233.2473   1.0576960132e+02  -1.1876379536e+01    0.1972927    0.1094342 -36.27 0.0005842575    1.920    0.479
       242  -7.4077    138.4843    234.5311   1.2675811011e+02   6.5599013711e+00    0.1302377    0.1115234  51.24 0.0001177794    1.042    0.040
       243  -7.6157    153.3332    232.3423   1.2354772001e+02   4.3400376235e+00    0.1292346    0.1007572   9.02 0.0007050894    1.755    0.430
       244  -8.2405    236.4711    229.2731   1.0721730163e+02  -9.4890722224e+00    0.2437868    0.1510667 -43.60  0.001001238    1.975    0.494
       245  -7.7262    237.3130    225.3285   1.0636368299e+02  -9.0737088419e+00    0.1836688    0.1106657  23.19 0.0006522659    1.636    0.389
       246  -7.7088    204.9421    230.7815   1.1331045636e+02  -4.5047457561e+00    0.1747522    0.0925913  39.00 0.0004892477    1.658    0.397
