#   1 NUMBER                 Running object number                                     
#   2 MAG_AUTO               Kron-like elliptical aperture magnitude                    [mag]
#   3 X_IMAGE                Object position along x                                    [pixel]
#   4 Y_IMAGE                Object position along y                                    [pixel]
#   5 X_WORLD                Barycenter position along world x axis                     [deg]
#   6 Y_WORLD                Barycenter position along world y axis                     [deg]
#   7 A_WORLD                Profile RMS along major axis (world units)                 [deg]
#   8 B_WORLD                Profile RMS along minor axis (world units)                 [deg]
#   9 THETA_WORLD            Position angle (CCW/world-x)                               [deg]
#  10 FWHM_WORLD             FWHM assuming a gaussian core                              [deg]
#  11 ELONGATION             A_IMAGE/B_IMAGE                                           
#  12 ELLIPTICITY            1 - B_IMAGE/A_IMAGE                                       
         1 -10.3362      9.0189     24.9745   1.3281317372e+02   7.0845579139e+01    0.9964413   0.04245013 -50.14  0.003139051    4.822    0.793
         2 -10.9435     25.2630     20.2169   1.2161131426e+02   7.0602726275e+01    0.4657511    0.2472519 -25.02  0.002240382    2.334    0.572
         3 -11.0728    217.6798     16.0192   6.7949578147e+01   2.8062543816e+01    0.5565531    0.2039929  50.60  0.002055395    2.979    0.664
         4 -10.7553     60.6041     14.9399   1.0081682198e+02   6.6697651870e+01    0.3125256    0.1200275 -37.50  0.001221961    2.434    0.589
         5 -11.4920    132.0452     13.2529   7.8534034842e+01   5.0655028288e+01    0.5864874    0.3304743  21.41   0.00233216    2.381    0.580
         6 -10.4440     99.1367     12.6878   8.6000473375e+01   5.8968884233e+01    0.4645421    0.1726304 -39.44  0.001676378    2.864    0.651
         7 -10.8471     26.3738     13.5348   1.1793983909e+02   7.1821865859e+01    0.2297297     0.171567 -27.96 0.0006867193    1.204    0.169
         8 -11.6427     80.9154      6.5547   8.8471836061e+01   6.3867064621e+01    0.4747123    0.2634662  22.97 0.0006549234    2.328    0.570
         9  -9.3929      7.0489      8.5430   1.2821875241e+02   7.4449721352e+01     0.150775   0.08734015  46.57 0.0008088463    2.538    0.606
        10  -9.6571     59.5689      5.2656   9.5907188554e+01   6.8345119520e+01    0.3536006   0.09478855  43.67  0.001214264    3.734    0.732
        11 -10.0293     91.2433      3.8169   8.3832047374e+01   6.1860517045e+01    0.1988603    0.1835328 -42.01 0.0006400562    1.223    0.182
        12  -9.5499     75.3020      4.3464   8.9196328577e+01   6.5343623608e+01    0.1453402   0.09620479  16.60 0.0007039108    1.687    0.407
        13 -11.1891     27.2863      3.1627   1.1182321726e+02   7.3634923625e+01    0.2348833    0.1975272  19.56 0.0004584039    1.298    0.230
        14 -11.6800     27.8965    246.0612   1.4919086124e+02   2.3634244846e+01    0.2599758    0.1439359 -84.72  0.001752539    1.928    0.481
        15 -10.0357    243.2345    247.4351   1.1348288021e+02  -3.2123034037e+00    0.1496038    0.1145958   2.54 0.0005747326    1.316    0.240
        16 -10.8486    247.8020    249.8390   1.1312889170e+02  -3.9472582678e+00    0.3726254    0.1044603  35.44   0.00201357    2.585    0.613
        17 -10.8118    250.3490    244.4212   1.1203289919e+02  -3.8308697257e+00    0.3032244      0.16025 -18.21   0.00220122    1.974    0.493
        18 -11.3457    178.7774    243.6920   1.2317894672e+02   5.4750958935e+00    0.3916989    0.1006813  41.45  0.001765876    2.982    0.665
        19 -11.3601    182.7278    246.2748   1.2282513221e+02   4.6711819861e+00    0.2412921    0.1356428  24.95  0.001611431    1.531    0.347
        20  -9.4632    168.2354    250.6280   1.2570964835e+02   6.1468736739e+00    0.1448742   0.07215033  31.95  0.000219091    1.531    0.347
        21 -10.2958    128.0122    249.5112   1.3238871902e+02   1.1595297602e+01    0.1560718    0.1374673  -1.01  0.000980793    1.508    0.337
        22  -9.5006     72.5481    249.9549   1.4190819345e+02   1.8366203796e+01    0.1102421   0.07997298 -37.64 0.0008079048    2.475    0.596
        23 -12.2787     21.5288    249.0526   1.5032512706e+02   2.3799873631e+01    0.3704155    0.1373137  44.64  0.002509757    1.704    0.413
        24 -11.7345     14.5117    244.6889   1.5132904257e+02   2.5082517955e+01    0.2289502    0.1107404  73.36  0.001566141    1.764    0.433
        25  -9.7569    137.1906    246.8323   1.3056600784e+02   1.0717909785e+01    0.1372248    0.1036142  23.50 0.0007322359    1.333    0.250
        26 -11.5195     74.2188    238.5974   1.4091061500e+02   1.9793295586e+01    0.4418194    0.1741026  42.83  0.002664131    1.763    0.433
        27  -9.5725     50.0087    240.4889   1.4523771984e+02   2.2221247276e+01    0.1453306   0.07455976  38.90 0.0005466952    1.508    0.337
        28 -10.6758    174.5114    238.5201   1.2328922174e+02   6.6219015452e+00     0.223678     0.142742  26.80  0.001567425    1.273    0.215
        29 -11.1437    177.6652    235.0318   1.2233533717e+02   6.5742990142e+00     0.242281    0.1725448  15.41  0.001082658    1.362    0.266
        30 -11.4701    156.3815    240.7029   1.2663554588e+02   8.8648259567e+00    0.2141528    0.1335029  43.64  0.001491771    1.312    0.238
        31  -9.6874    135.3813    237.2925   1.2994073557e+02   1.2155561469e+01    0.1076915   0.07185944  18.74 0.0006845326    1.750    0.429
        32 -10.7014    159.8531    235.9310   1.2550419419e+02   8.9515612989e+00    0.2016392    0.1204666  35.08 0.0007750472    1.241    0.194
        33 -10.9316     73.6546    232.9109   1.4063352700e+02   2.0703476980e+01    0.2043646    0.1468577  56.70 0.0008435576    1.109    0.098
        34 -10.7404    167.2589    233.8915   1.2398404005e+02   8.1586973114e+00    0.2363213    0.1371834  36.83  0.001174056    1.275    0.216
        35 -10.4439    153.1768    234.0476   1.2645789316e+02   1.0110037726e+01    0.1696266    0.1234208  20.18  0.001219634    1.371    0.271
        36 -10.4854     86.2084    233.7407   1.3843247599e+02   1.9066022146e+01     0.185636    0.1100062  81.49  0.001210829    2.149    0.535
        37  -9.7524     53.6689    234.6995   1.4430035171e+02   2.2699507206e+01   0.08538426    0.0756459  15.90 0.0005837612    1.648    0.393
        38  -9.9166    240.9326    231.4169   1.1163375800e+02  -1.5977761230e+00    0.1516597    0.1090602   5.99 0.0005488503    1.171    0.146
        39 -10.0508     79.4986    231.2646   1.3946348126e+02   2.0252907116e+01    0.1933926    0.1095133  40.75 0.0005707417    1.342    0.255
        40  -9.7673    236.0107    230.3320   1.1223106299e+02  -8.6991510969e-01    0.1507709   0.09827634  22.26 0.0005142207    1.088    0.081
        41  -9.4993     13.3012    230.6762   1.5112419488e+02   2.7325875697e+01    0.1045304   0.04515062  57.87 0.0007028428    1.633    0.388
        42 -10.2143    169.8938    228.8672   1.2292061466e+02   8.3794182669e+00    0.1724714    0.1213746  23.39  0.001016303    1.248    0.199
        43  -9.2784     93.6723    229.3266   1.3672990511e+02   1.8784047828e+01    0.1137473    0.0629662  57.83 0.0007050329    1.701    0.412
        44 -10.5011    129.6795    226.7205   1.2987790426e+02   1.4347180684e+01    0.3302018    0.1457693  50.19  0.001363057    2.160    0.537
        45 -10.3835    190.3214    226.3687   1.1908186029e+02   5.7586067142e+00    0.1883065    0.1598881  13.82 0.0007361606    1.202    0.168
        46  -9.9266    152.6831    227.6832   1.2582037967e+02   1.0976776713e+01    0.1092054   0.07473914  15.88 0.0007038743    1.652    0.395
        47 -10.3557     88.1194    227.1499   1.3757487444e+02   1.9811456799e+01    0.1572319     0.130338  35.45   0.00122969    1.271    0.213
        48  -9.7429      6.6636    227.2942   1.5215527136e+02   2.8440405071e+01     0.105203   0.04351175  56.05 0.0007027671    1.646    0.392
        49 -10.6139     81.4958    224.9731   1.3863023358e+02   2.0967881060e+01    0.1901562    0.1605655  61.15 0.0007757713    1.158    0.136
        50 -10.4874     66.5864    226.3262   1.4147712190e+02   2.2541393313e+01    0.2392423    0.1068786  40.63  0.000767618    1.662    0.398
        51  -9.7642     24.9806    226.2338   1.4895667532e+02   2.6953277408e+01    0.1281205   0.06328167  38.67 0.0008566789    1.610    0.379
        52  -9.6511    115.6711    225.3326   1.3231583286e+02   1.6471098996e+01    0.1145935   0.06892901  58.23 0.0007051839    1.719    0.418
        53 -10.8850    181.9957    223.0816   1.2007715228e+02   7.3242449605e+00    0.2374066    0.1598655 -37.29  0.001635962    1.889    0.471
        54 -10.6102     13.2511    222.1641   1.5087004419e+02   2.8688354974e+01    0.1576741     0.127322  54.93 0.0004930052    1.231    0.188
        55 -11.4446    141.4716    221.3964   1.2712841312e+02   1.3408838161e+01    0.3449211    0.1889481  23.62  0.001265959    2.143    0.533
        56 -11.0121    123.5903    221.3543   1.3044015979e+02   1.5951442138e+01    0.2594418    0.1715879  37.70  0.001192405    1.192    0.161
        57  -9.2130     51.6686    222.6946   1.4399034191e+02   2.4798406857e+01   0.08732989   0.07958731   5.87 0.0004749927    1.660    0.397
        58  -9.9110    165.8295    220.6125   1.2260749009e+02   9.9740415031e+00    0.1498533     0.120915  21.32 0.0005183039    1.149    0.130
        59 -10.3857    174.0634    220.0251   1.2106576822e+02   8.8419619858e+00    0.1776325    0.1334149  30.19 0.0005694192    1.014    0.014
        60  -9.9283     21.9866    220.0347   1.4924980164e+02   2.8239622979e+01    0.1205837   0.08384005  56.60 0.0003595385    1.028    0.027
        61  -9.8172    250.1639    219.1391   1.0844569096e+02  -1.7116329592e+00     0.164908    0.1047991  12.64 0.0007057426    1.213    0.176
        62  -9.0582    233.4834    219.4718   1.1104981409e+02   4.6003578617e-01    0.1100687   0.07853328  18.32 7.924553e-05    1.003    0.003
        63 -11.1531    192.5965    216.4609   1.1734160617e+02   6.5481114138e+00    0.3384548     0.197821  11.96  0.001955233    2.055    0.513
        64  -9.5953     50.3639    218.2766   1.4397561173e+02   2.5659230748e+01   0.08969806   0.07919201  10.79  0.000404226    1.670    0.401
        65 -10.7861     10.0329    217.0033   1.5127563170e+02   2.9817078668e+01    0.2632513    0.1241931  53.26  0.001201553    1.474    0.321
        66 -10.5762    201.6054    215.9682   1.1573188919e+02   5.2906445394e+00    0.2150145    0.1309689  28.91  0.001393973    1.279    0.218
        67  -9.4660    137.2143    215.6318   1.2725226728e+02   1.4825853502e+01      0.16852   0.08848762  32.12 0.0009436219    1.689    0.408
        68 -11.5051    210.2913    211.6346   1.1363578845e+02   4.5051353497e+00    0.4166169    0.2008514  28.23  0.001437294    1.799    0.444
        69 -10.1831    170.2214    213.1732   1.2084330355e+02   1.0266331394e+01    0.1526787    0.1202921  47.14 0.0008282953    1.330    0.248
        70  -8.8920    115.0000    214.9829   1.3139711008e+02   1.8092027479e+01     0.150735     0.065985 -57.85 0.0006862716    2.890    0.654
        71 -11.1663     20.6480    211.5679   1.4916368893e+02   2.9776953115e+01    0.2530679      0.12114  63.86 0.0006890864    1.662    0.398
        72 -11.2327    218.0544    207.3878   1.1170272736e+02   3.8355791367e+00    0.3421699    0.1702792  -9.96  0.001712026    2.964    0.663
        73 -11.4818      5.3183    207.5699   1.5183869433e+02   3.1806881021e+01    0.3689394    0.1506309  86.61  0.002292619    2.234    0.552
        74 -10.0532      1.4796    207.0972   1.5252414649e+02   3.2203741597e+01    0.1703553    0.1216093  81.60  0.001409883    1.251    0.201
        75  -8.9743     32.2789    209.6725   1.4690878927e+02   2.8986776540e+01    0.1103201   0.05526849  60.59 0.0004305178    1.595    0.373
        76 -11.4328     12.1190    206.8361   1.5056426675e+02   3.1352758676e+01    0.2844231    0.1683896 -63.06  0.002017853    2.135    0.532
        77  -9.7940    247.4357    207.2610   1.0702245160e+02  -2.7402512673e-01    0.1327804   0.09365162 -27.18 0.0009481099    1.700    0.412
        78  -9.4797     27.5568    205.4730   1.4760471463e+02   3.0173428593e+01    0.1070856   0.07498547  60.46  0.000806732    1.053    0.051
        79  -9.7712    238.7534    201.2158   1.0739640598e+02   1.5084787880e+00    0.1582951   0.09987252  14.35 0.0005694159    1.337    0.252
        80 -11.5900    210.1730    200.9241   1.1201594115e+02   5.7142482506e+00    0.2231793    0.1580648  13.19  0.001177906    1.245    0.197
        81 -11.8412    215.5634    194.0818   1.1000566390e+02   5.6779866875e+00    0.3490537    0.1694621 -32.00  0.001543836    2.267    0.559
        82 -10.3472    185.7860    200.9802   1.1629176260e+02   9.4432255683e+00    0.2331621     0.126683  28.51  0.001294114    1.657    0.396
        83 -11.3639    227.2575    196.6983   1.0849718939e+02   3.6339103405e+00    0.3151274    0.1797817   5.77  0.001324057    1.964    0.491
        84 -12.4166    231.8066    191.8094   1.0695130040e+02   3.4857809028e+00    0.4114924    0.1962323  22.17  0.002119583    2.212    0.548
        85 -11.9504    191.9815    194.6706   1.1420562253e+02   9.2729756249e+00    0.2946834    0.2531356  49.44  0.001766143    1.446    0.308
        86  -9.9671    203.0345    195.9724   1.1245862871e+02   7.3836375220e+00    0.1838201    0.1459789  19.19 0.0007472054    1.028    0.028
        87  -9.6966      7.2221    195.9937   1.5111486616e+02   3.3675153235e+01    0.1279874   0.06915586 -89.77 0.0005081419    1.658    0.397
        88  -9.3942     59.8561    192.8072   1.4037233371e+02   2.8998100667e+01    0.1624042    0.1028621  59.51 0.0005727459    1.337    0.252
        89 -10.5542    250.2635    190.1320   1.0378061005e+02   9.8711764966e-01    0.2181074    0.1444973 -32.13 0.0009019996    1.828    0.453
        90 -10.4630    246.3365    189.8795   1.0433783477e+02   1.5704183340e+00    0.3275658    0.1642014  -2.91  0.001697348    2.482    0.597
        91  -9.8286    198.6268    191.2397   1.1247093540e+02   8.6535239468e+00    0.1564507    0.1051911 -16.77 0.0009501236    1.642    0.391
        92  -9.9063    163.5043    190.5231   1.1886698218e+02   1.4398242109e+01    0.1928861    0.1132946 -28.29 0.0007255178    2.235    0.552
        93  -9.3419    205.5306    190.4585   1.1112990894e+02   7.6596231053e+00    0.1219906    0.0946964  19.81 0.0002714651    1.032    0.031
        94 -11.3887    187.5801    188.8377   1.1407234289e+02   1.0731026758e+01     0.302919    0.1934763 -11.60  0.001701832    1.972    0.493
        95  -9.4126    179.3208    189.3261   1.1567801482e+02   1.2003257358e+01    0.1258983   0.08426794  12.40 0.0007047216    1.683    0.406
        96 -10.8346    218.1443    187.3624   1.0845112355e+02   6.0547934918e+00    0.2931952   0.07174994 -37.60  0.001100856    4.709    0.788
        97  -9.5156    200.5115    185.5331   1.1119396103e+02   9.0695974447e+00    0.1230723   0.09883358  21.69  0.000350888    1.009    0.009
        98 -10.0471    166.7857    183.3503   1.1711787010e+02   1.4908809231e+01     0.186331    0.1401438  34.11  0.000693503    1.112    0.101
        99  -9.4935     61.7572    184.9994   1.3932916343e+02   3.0216705524e+01    0.1410386    0.0913107 -77.18 0.0008857739    1.609    0.379
       100 -11.7647     16.0334    183.2465   1.4886119429e+02   3.5267962297e+01    0.3298748    0.1770526  81.68  0.002137953    1.627    0.386
       101 -12.1251    224.0932    178.3652   1.0589419083e+02   6.1704893214e+00    0.2894469    0.2284132  17.02 0.0005963804    1.026    0.026
       102  -9.9183     22.9715    180.8383   1.4730076083e+02   3.5104499025e+01    0.1593035    0.1250845 -26.74  0.001106967    2.105    0.525
       103 -10.5384      2.2153    180.0955   1.5156197495e+02   3.6999449554e+01    0.1805411    0.1202668  51.44 0.0005299101    1.219    0.180
       104 -11.2155    200.8705    176.3514   1.0955132904e+02   1.0192508507e+01    0.3205515    0.1837257  32.27  0.001266213    1.525    0.344
       105  -9.3223     70.4205    177.5188   1.3674897709e+02   3.0572267695e+01    0.1172118   0.09977907  61.11  0.000134674    1.041    0.039
       106 -10.5398    211.4596    174.8781   1.0741973251e+02   8.6291037145e+00     0.241958    0.1209852  24.06 0.0008998618    2.230    0.552
       107 -12.0945    248.9163    182.3852   1.0264793458e+02   1.9618740065e+00    0.4196396    0.2257846  16.71  0.002391094    1.843    0.458
       108 -12.9953    244.7961    177.6820   1.0244869184e+02   3.0609290271e+00     1.046057    0.4952945  -3.41   0.00468962    3.190    0.686
       109 -10.2981    193.2458    172.7083   1.1029359465e+02   1.1964207452e+01    0.1856489   0.09867381 -22.51 0.0008896185    2.354    0.575
       110 -10.8851    188.2757    180.9955   1.1264893805e+02   1.1668611605e+01    0.1731941    0.1457379  13.98 0.0004478869    1.078    0.072
       111  -9.6929     74.4805    171.4917   1.3521346451e+02   3.1218053628e+01    0.1211291    0.1031859  60.14  7.93976e-05    1.021    0.021
       112 -10.6381    196.8727    169.1046   1.0897860655e+02   1.1837123597e+01    0.1855623    0.1678583  37.84  0.000724984    1.266    0.210
       113  -9.8225      4.6070    167.7365   1.5060181767e+02   3.9195743912e+01    0.2010144    0.0835093 -78.87  0.001141142    2.143    0.533
       114 -10.3209    210.1094    166.2007   1.0606961880e+02   9.9617050239e+00    0.1985369    0.1460175  13.52 0.0006035955    1.249    0.199
       115 -10.5367     40.9046    165.0250   1.4231340971e+02   3.6467773231e+01    0.1745412    0.1356875  66.99 0.0002914244    1.055    0.052
       116  -9.3096    229.5206    164.5646   1.0247082024e+02   6.9283790079e+00    0.1255198   0.09819275  12.03 0.0002487671    1.046    0.044
       117 -11.6225    246.5043    162.4754   9.9385208187e+01   4.4541223628e+00    0.2166002    0.1538112  29.39 0.0007390185    1.274    0.215
       118 -11.6056    247.8088    158.8233   9.8489288764e+01   4.6561372962e+00     0.394817    0.2578846 -21.13   0.00245174    1.415    0.293
       119  -9.5085    200.0472    162.9625   1.0726137392e+02   1.2128398485e+01    0.1580656    0.1292201  24.38 0.0004295704    1.051    0.049
       120 -10.5602     55.0515    160.4772   1.3859492915e+02   3.5837343409e+01    0.2130286    0.1546523 -58.02 0.0006826385    1.557    0.358
       121 -11.0941     36.1769    160.5311   1.4306007507e+02   3.7870692794e+01    0.2305547    0.1641524 -88.87  0.000305985    1.271    0.213
       122  -9.4049    224.3125    161.2986   1.0271047903e+02   8.1857404624e+00    0.1292272   0.08244863  12.51 0.0004163307    1.604    0.376
       123 -10.6368    238.8344    158.8571   9.9885122066e+01   6.0853805390e+00    0.1991649    0.1402361  11.76 0.0008547169    1.259    0.206
       124 -10.0659     48.0332    158.9995   1.4012590979e+02   3.6938531354e+01     0.178469    0.1513435  71.07 0.0004312432    1.034    0.033
       125  -9.2805      8.2725    158.3516   1.4937684839e+02   4.0791047738e+01    0.1015951   0.07435389 -59.40 0.0004646573    1.634    0.388
       126 -10.4557     22.7117    156.2623   1.4591868185e+02   4.0024421011e+01     0.315306    0.1574538  35.64  0.001836745    1.871    0.466
       127  -9.3832     23.7155    152.6617   1.4543962695e+02   4.0685986228e+01    0.1785206    0.1210407 -69.60 0.0005796082    1.472    0.320
       128  -9.9688    217.7307    154.6051   1.0252218139e+02   1.0156441675e+01    0.2492585    0.1061396  39.70  0.001136507    2.155    0.536
       129 -10.0476    222.1677    152.3307   1.0131898135e+02   9.6782135973e+00     0.260314    0.1402991 -50.51  0.001102033    3.470    0.712
       130 -10.1994    205.4167    152.3481   1.0423363389e+02   1.2638764107e+01     0.238318    0.1209819 -26.98   0.00112697    2.111    0.526
       131  -9.9365    196.9787    153.5290   1.0600679874e+02   1.3997932128e+01    0.2057943    0.1174574  41.63  0.001037732    1.609    0.379
       132  -9.0633    151.6374    153.3099   1.1505715327e+02   2.2360255404e+01    0.1358107    0.1035103  70.63  0.000494186    1.747    0.428
       133 -10.2884     11.1296    152.7799   1.4843404805e+02   4.1712658489e+01    0.3507286   0.08900544  40.05  0.001657659    2.864    0.651
       134 -10.6355    178.3905    151.4221   1.0915684306e+02   1.7732072142e+01    0.2779991    0.2270491  53.60  0.001615328    1.372    0.271
       135  -9.2314    154.5186    150.5465   1.1391895297e+02   2.2309384549e+01    0.1359366    0.1217055  32.45 0.0001772821    1.004    0.004
       136  -9.6604     92.8072    148.1679   1.2785847025e+02   3.3336812156e+01    0.1717825    0.1584811  -3.94  0.001072871    1.345    0.257
       137  -9.1070    233.4965    147.4412   9.8478938503e+01   8.3386478115e+00    0.1279136    0.1037199   8.20 0.0008075883    1.025    0.024
       138 -10.5545     17.5512    146.7114   1.4653541193e+02   4.2469516174e+01    0.2352802    0.1585064  10.63 0.0009659612    2.097    0.523
       139 -10.5771    206.8848    145.9848   1.0268493060e+02   1.3255260606e+01     0.225857    0.1741305  34.29 0.0007046358    1.201    0.168
       140 -10.2408     52.4825    144.9487   1.3761397514e+02   3.9412543906e+01    0.1738533    0.1117364 -74.14 0.0003236297    1.489    0.329
       141 -11.3298      3.5570    144.0219   1.4978711268e+02   4.4104416546e+01    0.3992045    0.1420833  34.17  0.002121541    2.487    0.598
       142 -10.8202    212.0189    142.0091   1.0095487111e+02   1.2861723070e+01    0.3961646    0.2211255  30.67  0.001943216    1.800    0.444
       143 -10.9184     12.2317    140.4667   1.4745557191e+02   4.4225354707e+01    0.1780957    0.1555147  83.54 0.0008555091    1.141    0.124
       144 -11.5643     57.4822    138.2733   1.3553605326e+02   4.0279688153e+01    0.4013868    0.2140546  65.20   0.00118214    2.132    0.531
       145  -9.9508     44.2015    138.5589   1.3906755254e+02   4.1724049446e+01    0.3228078    0.1611916 -89.62  0.001561184    2.201    0.546
       146  -9.2961     41.4904    135.5031   1.3946079276e+02   4.2684129587e+01    0.1235247    0.1039934  77.29   0.00081057    1.014    0.014
       147 -10.3392     17.2599    137.6983   1.4599828467e+02   4.4428811414e+01     0.263202   0.09180158 -60.11  0.001222627    2.810    0.644
       148  -9.9790     23.5122    136.5583   1.4429763878e+02   4.4157128050e+01    0.1807207   0.08916713  44.15  0.000685891    1.838    0.456
       149  -9.1881    230.2680    137.3127   9.6906811476e+01   1.0170504002e+01    0.1304058   0.08740647   7.83  0.000237494    1.546    0.353
       150 -11.1939      9.2874    136.7171   1.4796842016e+02   4.5252533144e+01     0.204707    0.1934981 -63.92 0.0002290925    1.334    0.250
       151 -10.3230      2.8123    136.3797   1.4958501391e+02   4.5778742592e+01    0.2226446    0.1131573 -87.64 0.0009449436    1.642    0.391
       152 -10.3172      6.0496    133.9180   1.4862898377e+02   4.6088080334e+01    0.2303548    0.1680039 -53.15 0.0005487849    1.627    0.385
       153 -10.0154    138.3437    135.2779   1.1453466080e+02   2.8100783713e+01    0.2664639    0.1603102  32.62 0.0007710974    1.746    0.427
       154  -9.4331     67.7381    133.9855   1.3223484016e+02   3.9933855958e+01    0.1629158    0.1061757 -68.10 0.0007038809    1.501    0.334
       155 -11.9212     36.4623    130.9832   1.4034057025e+02   4.4198962375e+01     0.333691    0.2372026 -77.53 0.0006689425    1.271    0.213
       156 -10.5908    249.5589    130.3716   9.2486668909e+01   7.6469966358e+00    0.2518571    0.2166956 -14.14  0.001339583    1.172    0.146
       157 -10.2825     74.0414    129.1835   1.2981017799e+02   4.0143845576e+01    0.2223429    0.1858859 -65.74 0.0007966681    1.195    0.163
       158 -10.1857    126.5103    129.4823   1.1617547016e+02   3.1447661701e+01    0.1396946    0.1321062  41.79 8.311939e-05    1.018    0.018
       159 -11.4547     44.6749    125.7644   1.3748492770e+02   4.4531181233e+01    0.2239814    0.1990915 -75.46 0.0004713943    1.135    0.119
       160 -10.3820    219.4025    124.5139   9.5909681953e+01   1.3873433644e+01    0.2306145    0.1990105   2.16  0.000456904    1.018    0.018
       161 -11.8548     10.0785    122.3791   1.4681596835e+02   4.8344803300e+01    0.3969683     0.284414  -4.24  0.002531941    2.034    0.508
       162 -11.1994     18.0981    116.5069   1.4408108912e+02   4.9081169464e+01     0.365424    0.2499532 -43.47  0.001337845    1.788    0.441
       163 -12.4423     16.5194    108.6994   1.4382372163e+02   5.0986791034e+01    0.4853205    0.3464297 -66.47   0.00106727    1.293    0.227
       164 -10.7986     21.7754    121.0479   1.4344235709e+02   4.7759304560e+01    0.3561437    0.2000329 -36.65  0.001016004    2.639    0.621
       165  -9.4326     81.6875    124.6771   1.2696783907e+02   4.0043387276e+01    0.1313641    0.1052468 -24.75   0.00070396    1.656    0.396
       166 -10.1838    166.4969    119.0671   1.0466525566e+02   2.5439787299e+01    0.2056564    0.1413233 -35.57 0.0005127991    1.504    0.335
       167 -10.1669    179.1587    116.1681   1.0135607543e+02   2.3277810386e+01    0.2155665     0.184027  16.30 0.0003984011    1.159    0.137
       168  -8.9785    107.7076    115.6723   1.1809830848e+02   3.7739820621e+01    0.1393753    0.1125444 -12.94  0.000386414    1.623    0.384
       169 -10.6169     35.2959    113.2048   1.3866497775e+02   4.8360795500e+01    0.2926986    0.1549897 -76.96  0.001503375    1.728    0.421
       170 -10.1243     38.3027    111.3027   1.3751694506e+02   4.8508775310e+01     0.181657    0.1313841  24.68 0.0002661995    1.611    0.379
       171  -8.9338    212.5258    112.4931   9.4307409305e+01   1.6909151322e+01    0.1396026    0.1226472   4.45 0.0008098591    1.033    0.032
       172  -8.9650     66.6803    112.7585   1.2919437593e+02   4.4860259874e+01    0.1221811    0.1032071 -20.93 0.0001875801    1.518    0.341
       173 -10.2540     42.3329    110.4913   1.3618204414e+02   4.8287739032e+01    0.2140574    0.1728573 -74.03 0.0003010726    1.120    0.107
       174  -9.9304    167.4629    108.9246   1.0201539667e+02   2.6998863941e+01    0.2371201    0.1961349  16.66 0.0007793488    1.276    0.216
       175  -9.8432    133.1965    107.2883   1.0952795935e+02   3.4562312189e+01    0.2347525    0.1829373  24.40  0.001167773    1.436    0.304
       176  -9.6903     60.8833    107.3873   1.3000730782e+02   4.6859578115e+01    0.1644461    0.1291184  14.36 0.0001621236    1.602    0.376
       177  -9.0296     49.4831    107.4538   1.3353556661e+02   4.8218738762e+01    0.1312794    0.1133658  83.29  3.06028e-05    1.074    0.068
       178 -10.9277     23.0724    106.6443   1.4161325178e+02   5.0958622396e+01    0.2483627    0.1564006 -76.69 0.0006206838    1.362    0.266
       179 -10.5593      5.8233    106.2187   1.4683231026e+02   5.2273117247e+01    0.2318675    0.1797268 -56.24 0.0007903948    1.378    0.274
       180 -10.5641      2.5305    105.4375   1.4776268460e+02   5.2645806543e+01    0.1970933    0.1545225 -62.81 0.0006301537    1.294    0.227
       181  -9.8107    223.3122    103.9472   9.0518383532e+01   1.5910863683e+01     0.194126    0.1583976 -17.31 0.0005238233    1.123    0.110
       182 -11.7662     70.1399    102.6733   1.2626820856e+02   4.6705219983e+01    0.5268832     0.230761  35.23  0.001783376    2.357    0.576
       183 -10.3313    247.5107    102.4793   8.6629190407e+01   1.1382762228e+01    0.1310045     0.111012  -6.70 0.0001987702    1.010    0.010
       184 -10.0354    120.4080    101.1421   1.1130185067e+02   3.8391653603e+01    0.2524636    0.1962526  30.16 0.0004685209    1.384    0.278
       185 -10.1416     27.9963    100.9666   1.3939059249e+02   5.1874958636e+01    0.1770674    0.1548422  84.72  0.001181621    1.054    0.051
       186 -11.5404     19.8560     99.8037   1.4186071070e+02   5.2802040211e+01    0.4063004    0.1597892 -63.92  0.001532553    2.102    0.524
       187 -10.9189     64.1163     98.1823   1.2727340100e+02   4.8574722904e+01    0.4966964    0.2255294  27.24  0.002016786    2.701    0.630
       188  -9.5337     49.4495     97.9098   1.3196895054e+02   5.0458641247e+01    0.1843168    0.1181983 -69.46 0.0003262879    1.431    0.301
       189 -10.8163      8.2003     94.7992   1.4510398130e+02   5.4758365466e+01     0.274131    0.1979103 -48.14  0.001240033    1.508    0.337
       190 -10.2763     10.1133     91.4748   1.4414371032e+02   5.5415193350e+01    0.1789574    0.1388496 -64.36 0.0007938382    1.202    0.168
       191  -9.9988    109.2870     92.5310   1.1215220824e+02   4.2381054867e+01    0.3149941     0.180078 -60.82  0.001267044    2.147    0.534
       192  -9.0442     98.7036     93.2967   1.1542472306e+02   4.4204984301e+01    0.1431181    0.1126251  82.47 0.0003558166    1.568    0.362
       193 -10.7475      4.5199    100.8695   1.4680578250e+02   5.3574818582e+01    0.2592037    0.1474004  39.09  0.001545105    1.819    0.450
       194 -10.2279      2.1567     93.0803   1.4691533007e+02   5.5498474903e+01    0.3640173    0.1146003 -55.62  0.001610999    2.894    0.654
       195 -10.9323     78.3605     90.6134   1.2104691341e+02   4.8249698806e+01    0.4309941    0.2674521  74.82  0.001788719    2.596    0.615
       196 -10.0663    185.0509     90.9083   9.3819489961e+01   2.6092971738e+01    0.2123809    0.1931794 -60.20 0.0003806667    1.260    0.207
       197  -9.5955    115.9887     91.4769   1.0999203523e+02   4.1276639742e+01    0.2021596    0.1282188  68.45 0.0006052466    2.338    0.572
       198 -10.4335     96.9902     89.9891   1.1508951719e+02   4.5237634359e+01    0.2352804    0.1820637 -11.95  0.001143789    1.737    0.424
       199  -9.4812     25.5079     91.8824   1.3900753335e+02   5.4219847645e+01    0.1824671    0.1069793 -73.41 0.0003155306    1.464    0.317
       200 -11.0717     47.1608     83.8074   1.3010242396e+02   5.4041531238e+01     0.602258    0.3278246 -85.98  0.002619758    2.453    0.592
       201  -9.5860     23.9975     85.4939   1.3862625574e+02   5.5850216661e+01    0.1658671    0.1252698  23.89  0.001020979    1.556    0.357
       202 -11.1627    118.3845     82.8518   1.0692748799e+02   4.2551711703e+01    0.3516905    0.2882958 -15.50  0.001031552    1.419    0.295
       203 -10.4600     85.8136     83.0664   1.1675114872e+02   4.8730222564e+01     0.225891    0.1943303  84.91  0.001228162    1.302    0.232
       204  -9.4616    130.2997     82.3123   1.0357935410e+02   4.0097591698e+01    0.1516482    0.1191223   5.72 0.0004202437    1.605    0.377
       205 -11.4865     77.9455     71.8466   1.1626540889e+02   5.2537241739e+01    0.3645439    0.3190458 -62.18 0.0002993004    1.129    0.114
       206 -11.2766     71.8514     79.1163   1.2035684438e+02   5.1870348635e+01     0.278103    0.2516207 -37.24 0.0003638743    1.139    0.122
       207 -10.9916     74.6016     76.1662   1.1862871527e+02   5.2112318865e+01     0.325646    0.2240668 -40.13 0.0004720404    1.500    0.333
       208 -10.9294      7.5644     80.1745   1.4379950407e+02   5.8208054996e+01    0.5590633    0.1948632  39.50  0.002503861    2.951    0.661
       209 -11.4931      7.4820     73.7421   1.4306322964e+02   5.9720736150e+01    0.5283363    0.2789671  -5.61  0.002729413    2.757    0.637
       210 -11.0974     67.4803     84.8204   1.2326188548e+02   5.1207819545e+01    0.2515345    0.2039337 -29.42 0.0006142962    1.421    0.296
       211 -10.0352     18.4294     79.7698   1.3980188736e+02   5.7618618967e+01    0.1758386   0.09281188 -61.39 0.0004510418    1.587    0.370
       212  -9.9315     36.5720     78.6972   1.3293285561e+02   5.6358532422e+01    0.2351808    0.1082924 -63.47 0.0007892663    1.848    0.459
       213 -11.4007     23.7907     78.0418   1.3756119802e+02   5.7630174971e+01    0.2329207    0.1408828 -57.41 0.0008133458    1.450    0.310
       214 -10.0651    150.2259     77.9309   9.7421089312e+01   3.6372463800e+01    0.2317003    0.2023683 -59.42  0.001188145    1.266    0.210
       215 -11.0423     93.4951     76.7720   1.1254458945e+02   4.8744324170e+01    0.4904461    0.3281733 -16.46  0.001774705    2.325    0.570
       216 -10.5150     88.2488     77.3909   1.1440492292e+02   4.9557976252e+01    0.2707707    0.2064212  51.82 0.0006088418    1.402    0.287
       217  -9.2029     12.3054     78.2930   1.4184663870e+02   5.8371307614e+01    0.1222331   0.07771493 -48.19 0.0003375953    1.578    0.366
       218  -9.9003     46.1676     65.7078   1.2638838667e+02   5.8391785856e+01    0.2046134    0.1614456  59.64  0.000710114    1.458    0.314
       219 -11.9319     49.4988     69.7586   1.2610190110e+02   5.7062370014e+01    0.4638719     0.393689 -35.54   0.00180448    1.232    0.188
       220 -10.8046     42.9906     68.2776   1.2826747191e+02   5.8150213362e+01    0.2177423    0.1979287  36.25  0.001012621    1.231    0.188
       221 -11.5816     58.2107     75.6660   1.2430641970e+02   5.4598276178e+01    0.4260247    0.2903594  89.43  0.001703515    1.916    0.478
       222 -10.5209     54.6229     72.2061   1.2477033572e+02   5.5863430019e+01    0.2171465    0.1963354 -70.72 0.0001959833    1.058    0.055
       223 -10.1941    121.1684     76.2955   1.0422140233e+02   4.3267241653e+01    0.2397226    0.1861754  29.17 0.0006163112    1.414    0.293
       224 -11.0107    108.1512     75.6993   1.0774013036e+02   4.6123866493e+01    0.3394256    0.2636668   0.77  0.001196329    1.695    0.410
       225 -11.3839     62.0782     71.9204   1.2193816906e+02   5.4935461302e+01    0.3992263    0.2983212  74.41  0.001398293    1.691    0.409
       226 -10.2311     40.6870     73.0962   1.3024781800e+02   5.7266584458e+01    0.2624787    0.2241063  77.36  0.001617974    1.242    0.195
       227 -11.4344    152.1283     72.1994   9.5265172205e+01   3.6925289981e+01     0.499395    0.1436394  47.25  0.001491193    3.423    0.708
       228 -10.1780    115.7894     70.8923   1.0404797448e+02   4.5491128432e+01    0.3434824    0.1921583 -47.38  0.001432342    1.830    0.454
       229 -10.4600    136.8667     70.7121   9.8401804874e+01   4.0792484038e+01    0.2639917    0.2103943 -20.12  0.001286937    1.357    0.263
       230  -8.9144    215.3307     70.6767   8.3320099499e+01   2.2144535672e+01    0.1455691    0.1048172 -58.68     0.000705    1.700    0.412
       231 -12.0858     96.4324     66.9116   1.0860323641e+02   5.0268317670e+01    0.5425641    0.4481342 -17.25  0.002819822    1.367    0.269
       232 -10.2226     93.4241     61.6936   1.0787017693e+02   5.1923894868e+01     0.329797    0.2251047 -39.99 0.0007323201    1.431    0.301
       233 -10.8297     68.5871     67.3221   1.1827857609e+02   5.5025836259e+01    0.2928543    0.2192919 -33.91 0.0001319549    1.421    0.296
       234 -10.0758      2.5626     72.1939   1.4473751971e+02   6.0333414276e+01     0.253631     0.141411 -59.52  0.001466935    1.527    0.345
       235 -10.5074    130.8326     67.4662   9.8893093553e+01   4.2783975587e+01    0.3275983    0.1951791 -53.56  0.001335312    2.010    0.502
       236 -10.6241     31.1121     66.4805   1.3258932700e+02   5.9749851996e+01    0.2847844    0.1818512 -69.52 0.0007570128    1.392    0.281
       237 -10.0900      6.4894     68.0529   1.4271421742e+02   6.1107414837e+01    0.1935359    0.1483871 -38.44 0.0006149714    1.428    0.300
       238  -9.9977     64.0056     68.2282   1.2022246594e+02   5.5501202253e+01    0.1914519    0.1763009  87.80  0.001134702    1.164    0.141
       239 -10.1391    156.4726     66.5056   9.2556452590e+01   3.6838927752e+01    0.1500983     0.148012  -5.82 0.0002928242    1.021    0.021
       240 -10.3808    119.2877     65.8735   1.0145599207e+02   4.5697403847e+01    0.3096996    0.2317999  30.54 0.0005926484    1.473    0.321
       241 -10.2994    121.9518     61.8139   9.9380144397e+01   4.5859354353e+01     0.242243    0.2031647  17.30  0.001126046    1.326    0.246
       242 -11.6039     85.0209     64.3227   1.1154146572e+02   5.2948068723e+01    0.5684684    0.3668728 -66.86  0.002514777    2.039    0.510
       243 -10.6720     86.0342     58.0026   1.0910460331e+02   5.4081675038e+01    0.3439229    0.2315121 -52.31 0.0004380394    1.508    0.337
       244 -10.7325     38.0434     66.5068   1.2981315326e+02   5.9083305182e+01    0.2275597    0.1347326  17.29 0.0008880298    2.113    0.527
       245 -10.0002     41.4683     64.4768   1.2795768105e+02   5.9199692977e+01     0.131691    0.1161263 -60.76 7.886571e-05    1.004    0.004
       246 -10.7469    136.9966     65.2720   9.6637847995e+01   4.1739465370e+01    0.4890637    0.1788933  53.38   0.00162345    2.801    0.643
       247 -10.7670     77.3014     65.4050   1.1456742119e+02   5.4056094438e+01     0.384248    0.1613055  45.61  0.001475181    2.629    0.620
       248 -11.0341    174.3825     63.9117   8.8164446743e+01   3.2852675451e+01    0.2818133    0.2455379  71.09  0.001471652    1.245    0.197
       249  -9.8891    109.5543     63.7424   1.0353655216e+02   4.8226771808e+01    0.2162886    0.1395336 -51.36 0.0009551338    1.659    0.397
       250 -10.0224     51.9358     62.5790   1.2327496327e+02   5.8415570232e+01    0.2693316     0.159113 -44.40 0.0007827695    1.623    0.384
       251 -11.0765     11.3840     61.9538   1.3983647947e+02   6.2268518755e+01    0.3283682    0.1877199 -52.03 0.0009327417    1.551    0.355
       252 -10.7700      2.9704     63.2068   1.4348242404e+02   6.2412825744e+01     0.184855    0.1405341  73.64  0.001108433    1.335    0.251
       253 -10.7598     70.3858     60.4305   1.1552204221e+02   5.6265035584e+01    0.4483611    0.3455989 -55.05  0.002416223    1.249    0.199
       254 -11.1380     65.2402     60.4030   1.1745273925e+02   5.7066070355e+01    0.3396039    0.1920522  48.61  0.001249488    2.076    0.518
       255  -9.3712     56.2993     62.2834   1.2147181411e+02   5.7915736892e+01    0.1344692   0.09941183 -27.31 0.0002380479    1.548    0.354
       256 -10.7412     27.2111     61.1953   1.3306604392e+02   6.1326888309e+01    0.3500785    0.1743103  25.62  0.001447427    2.285    0.562
       257 -10.2132     32.6434     60.6823   1.3067294118e+02   6.0966664778e+01    0.2792931    0.1592838 -43.09 0.0009958907    1.735    0.423
       258 -10.6535     18.1284     59.4431   1.3655120250e+02   6.2429235977e+01    0.2734124    0.1596505 -82.13   0.00064256    1.689    0.408
       259 -10.9095      4.8246     58.7202   1.4208836488e+02   6.3372491934e+01     0.247872    0.1745976   8.03  0.001575558    1.772    0.436
       260 -11.3804    137.4313     56.4876   9.3621305340e+01   4.3156415840e+01    0.5306888    0.2834347 -23.21  0.001839255    2.270    0.559
       261 -12.5270    128.1015     51.3023   9.4125328068e+01   4.6282420127e+01     0.463737    0.3300393 -20.34 0.0003476866    1.545    0.353
       262 -11.4187    135.4262     50.2384   9.1942602915e+01   4.4682378530e+01    0.4554465    0.3161129 -83.44  0.001893896    2.218    0.549
       263 -10.1448    113.4569     57.6428   1.0032523680e+02   4.8540519680e+01    0.4868548    0.1568651  42.13  0.001481397    3.508    0.715
       264  -9.8840     96.2463     52.9938   1.0392513295e+02   5.3090906247e+01    0.2189582    0.1923972  -8.07 0.0003040743    1.205    0.170
       265 -10.5076    102.3727     55.6980   1.0295064987e+02   5.1302823373e+01    0.3290611    0.2232741  63.56  0.001478672    1.857    0.462
       266 -10.5933     98.4746     56.4576   1.0444388715e+02   5.1963718595e+01    0.2941798    0.2351972  27.63  0.001183706    1.356    0.262
       267 -10.1527     80.7080     56.9386   1.1060694510e+02   5.5269455711e+01    0.2205849    0.1951196  11.74 0.0003789551    1.226    0.184
       268  -9.4673     74.8354     56.7943   1.1268583147e+02   5.6316897245e+01    0.1819316    0.1627602 -86.34   0.00034034    1.299    0.230
       269 -10.5345    122.0127     56.2502   9.7461069827e+01   4.6855989002e+01     0.206494    0.1977888  38.57 0.0003977262    1.047    0.045
       270  -9.6215     58.2915     56.3338   1.1889940986e+02   5.8972259018e+01    0.1408312   0.09897713 -27.59  0.000201968    1.634    0.388
       271 -11.2420    157.1969     53.1939   8.8142704116e+01   3.8783974297e+01    0.2981146    0.2463726 -12.43  0.000500497    1.280    0.218
       272 -11.1896     38.4868     51.5847   1.2580145332e+02   6.2477756621e+01    0.5661448    0.3105993 -45.77  0.002839771    1.660    0.397
       273 -11.2303      5.4467     52.5384   1.4084981718e+02   6.4780926282e+01    0.4741634    0.1780688 -29.04  0.001930016    3.893    0.743
       274 -10.0678     73.7410     52.4520   1.1160167492e+02   5.7412588786e+01    0.2668468    0.1637729 -56.33 0.0006019145    1.740    0.425
       275 -12.1036     13.7486     49.9981   1.3660898818e+02   6.4914229779e+01    0.6239932    0.2376347 -45.06  0.002425301    2.461    0.594
       276 -12.1175      8.1028     44.3808   1.3811539990e+02   6.6532093209e+01    0.5253263    0.4040039 -73.08  0.003470444    1.128    0.113
       277  -9.9454     86.9331     52.5402   1.0687790553e+02   5.5017474915e+01    0.2134279    0.1427178  43.09  0.001018623    1.558    0.358
       278 -10.4037     44.9245     51.2628   1.2289451972e+02   6.1827832672e+01    0.2419122    0.1758144 -54.12 0.0006418012    1.216    0.178
       279 -10.0267     83.1586     51.1776   1.0770621083e+02   5.5999569515e+01    0.2201617    0.1881883 -16.29 0.0007570173    1.230    0.187
       280 -10.8738     52.1109     49.4214   1.1922587326e+02   6.1333305971e+01    0.3135942     0.223678 -41.82  0.001537244    1.296    0.229
       281 -11.0350     51.7590     43.5344   1.1735827832e+02   6.2649889158e+01    0.5078252    0.1775132 -47.71  0.001311554    2.507    0.601
       282 -10.2469     48.1984     43.4182   1.1889171127e+02   6.3145048106e+01    0.2246651     0.204305  89.95 0.0008976373    1.301    0.231
       283 -10.7226    114.9348     49.4613   9.6979769656e+01   4.9687593331e+01    0.2778575    0.2382052 -22.16 0.0006279804    1.178    0.151
       284 -10.2028     77.0184     49.5016   1.0932190279e+02   5.7450438282e+01    0.2656369    0.1858353 -29.78 0.0006644787    1.508    0.337
       285 -11.7232    142.0493     46.0280   8.8928669083e+01   4.3704143082e+01     0.531597    0.3461075 -43.45  0.002378248    1.593    0.372
       286 -10.1349    162.8556     47.7678   8.5243262473e+01   3.8155667354e+01    0.2240613    0.1981618  28.85 0.0004482098    1.165    0.142
       287 -11.2205    153.4979     47.5048   8.6997043646e+01   4.0582079244e+01    0.3486232    0.2176686 -65.91  0.001367506    2.372    0.578
       288 -10.5997    122.0968     45.2238   9.3465595084e+01   4.8734287005e+01    0.2519369    0.2104819 -28.58 0.0007685804    1.192    0.161
       289 -11.3898    120.6100     40.1248   9.1925671970e+01   4.9917267212e+01       0.6208    0.3621983 -53.57 0.0009702523    2.197    0.545
       290 -10.5699     91.9418     45.4274   1.0251692311e+02   5.5403128536e+01    0.2825868    0.2045003 -41.46 0.0005427763    1.345    0.256
       291  -9.7412    233.1267     45.1804   7.4286547544e+01   2.1308780021e+01    0.1942201    0.1712945   3.49 0.0004233494    1.186    0.156
       292 -10.5231     86.3611     44.8816   1.0421438749e+02   5.6617807407e+01    0.2302164    0.1718672  36.08 0.0007125405    1.398    0.284
       293 -10.4470    123.4624     38.5144   9.0572808890e+01   4.9478901417e+01    0.2680955    0.1919071 -17.53 0.0004841012    1.517    0.341
       294  -9.4143     75.0122     44.0000   1.0800799455e+02   5.8905345059e+01    0.2170949   0.08073515  41.97  0.000787888    2.843    0.648
       295 -11.6824     65.1760     40.9396   1.1069430957e+02   6.1186678029e+01    0.5486702    0.3551765   5.82  0.001107701    2.389    0.581
       296  -9.6396    207.8960     41.8792   7.6368047944e+01   2.7587363619e+01    0.1928496    0.1569958 -53.97 0.0002582212    1.264    0.209
       297  -9.7562    163.3247     42.2920   8.3337216759e+01   3.8811263987e+01    0.1569796    0.1118753  28.18 0.0003057241    1.616    0.381
       298 -10.6450     24.0132     41.6113   1.2968383958e+02   6.6096319556e+01    0.2504212    0.2254416  13.66  0.001543967    1.285    0.222
       299  -9.7313    226.3148     40.9321   7.3909257964e+01   2.3340614794e+01    0.1967928    0.1673825 -26.22 0.0007641519    1.088    0.081
       300 -10.7750     95.5605     40.5067   9.9386672862e+01   5.5546241942e+01    0.3709749    0.2563518  61.15  0.001306667    1.735    0.424
       301 -10.6642     89.9546     40.3674   1.0119104382e+02   5.6737274330e+01    0.3054958    0.2310001 -65.42 0.0007657884    1.742    0.426
       302  -9.8898     44.2870     40.1714   1.1952286174e+02   6.4333648627e+01    0.2195122     0.143016 -43.34  0.001171894    1.370    0.270
       303 -10.2322    126.9750     38.9738   8.9872497249e+01   4.8546631889e+01    0.1798179    0.1729231  -5.89 0.0003007451    1.026    0.026
       304 -11.8736     82.6516     36.5068   1.0215880959e+02   5.8895314535e+01    0.3688187     0.349441  42.99 0.0007567856    1.143    0.125
       305  -9.4888     29.7870     38.3958   1.2587031671e+02   6.6301326063e+01    0.1539832    0.1180633  -5.02 0.0002258858    1.505    0.336
       306 -10.6704    135.2657     37.5743   8.7387026382e+01   4.6686633913e+01    0.2238613    0.1335488  46.72 0.0009549906    1.657    0.397
       307 -11.5316    104.4846     35.8178   9.4708614744e+01   5.4384855022e+01    0.5541646     0.366057  18.42  0.001484481    2.021    0.505
       308 -11.1976     24.5216     35.3310   1.2754963494e+02   6.7452936406e+01     0.230522    0.1978776 -47.42 0.0001749395    1.027    0.026
       309 -10.6357    110.7589     34.1291   9.2210466971e+01   5.3205831322e+01    0.4449055    0.2156215 -44.68  0.001359981    2.270    0.559
       310 -10.7063     96.4385     33.9915   9.6424037693e+01   5.6474878723e+01    0.4306277    0.2316756 -21.67  0.001710419    2.312    0.568
       311 -11.2197      9.8435     34.1679   1.3490568430e+02   6.8758953766e+01    0.4672553    0.2535042  82.30  0.002216802    2.753    0.637
       312 -11.5929      6.4891     29.5489   1.3553640789e+02   6.9974030260e+01    0.5745375    0.2528989 -10.38  0.002634831    3.294    0.696
       313 -10.2372    150.6298     34.0461   8.2871869706e+01   4.3233628657e+01    0.2881669    0.1777218  88.09  0.001138115    2.325    0.570
       314 -11.3105    144.9802     31.8282   8.3179376838e+01   4.5000946803e+01    0.3969832    0.2753698  27.86 0.0004669884    1.660    0.398
       315 -10.7798     76.4760     33.5329   1.0317890542e+02   6.0618376308e+01    0.2760772    0.2129579  25.65 0.0009961922    1.385    0.278
       316 -11.8192     78.1712     30.0193   1.0100138009e+02   6.0917154870e+01    0.4976379    0.3056653  35.00 0.0002640924    1.747    0.428
       317 -10.1630     52.5075     34.4173   1.1355456482e+02   6.4435926944e+01    0.3558653    0.1741362  19.81  0.001371935    3.333    0.700
       318 -11.3478     57.2998     29.3040   1.0923005560e+02   6.4718216220e+01     0.541729    0.2196977 -29.32  0.001317954    4.399    0.773
       319 -12.6126    226.1348    246.0132   1.1587401550e+02  -9.8026568013e-01    0.8764541     0.300731  32.95  0.004920943    2.165    0.538
       320  -8.9865     90.2712     31.3533   9.7307879180e+01   5.8236927348e+01    0.1476292    0.1088376   2.78 0.0005080962    1.635    0.388
       321 -10.6626     49.7502     28.5140   1.1235402306e+02   6.6001465048e+01    0.3368597    0.1884549 -31.11  0.001252506    1.916    0.478
       322  -9.7976     64.4626     29.5870   1.0625050748e+02   6.3493153186e+01    0.1350588    0.1244671 -20.74 0.0001136669    1.034    0.033
       323 -10.7105    150.1436     26.6950   8.0300586984e+01   4.4313296323e+01    0.4691449    0.1668673  62.65  0.001502361    2.723    0.633
       324  -9.7161     24.6310     26.8342   1.2458101175e+02   6.9282731820e+01    0.1731358    0.1079473 -65.33 0.0004605326    1.631    0.387
       325 -10.3079    129.0390     23.4919   8.3319211434e+01   5.0213204604e+01    0.3075159    0.1927998 -30.34 0.0007990746    1.592    0.372
       326 -11.1222    113.2009     24.7623   8.7642691836e+01   5.4004786938e+01    0.4334127    0.2330517 -41.91  0.001540667    1.977    0.494
       327  -9.8740     90.0234     26.1572   9.5085773356e+01   5.9130019287e+01    0.3325661    0.2074906  78.80  0.001266843    3.185    0.686
       328 -10.9441     71.3112     25.8313   1.0173494938e+02   6.2942948241e+01    0.3599167    0.2276854  35.71 0.0007852057    1.662    0.398
       329 -11.8304     67.4110     21.5234   1.0125804918e+02   6.4392947987e+01    0.3814237    0.2723211  32.59   0.00163049    1.451    0.311
       330 -10.5737    100.1031     22.5996   9.0323603087e+01   5.7416007515e+01    0.2940122    0.2501812 -42.58  0.001107185    1.256    0.204
       331 -10.5415     54.1385     23.5103   1.0802629763e+02   6.6294907878e+01     0.248543    0.1877497 -23.57 0.0005829787    1.275    0.216
       332 -11.0956    156.3350    246.0172   1.2721380911e+02   8.2526566167e+00    0.1459249    0.1112916  33.05 0.0006150695    1.070    0.065
       333 -11.4414     20.2050     18.9242   1.2404741987e+02   7.1331548872e+01    0.2134314     0.187911  -5.14 0.0003756677    1.219    0.180
       334 -10.3715    124.0166     21.7584   8.3738663434e+01   5.1715540885e+01     0.231391    0.2092711 -22.81 0.0003374777    1.117    0.105
       335 -10.9599     84.1603     22.1654   9.5227520927e+01   6.0996504069e+01    0.2426276    0.1841989  31.87 0.0006371139    1.334    0.250
       336 -10.8651      6.4906    245.0712   1.5262690129e+02   2.5734220215e+01    0.1859147   0.09675832  78.15 0.0009191527    1.667    0.400
       337  -9.7175    136.9824     20.2209   8.0357147206e+01   4.8561741093e+01     0.200785    0.1191524  63.15 0.0004036163    1.657    0.396
       338 -10.4310    103.5252     19.9721   8.8154362170e+01   5.6983735647e+01    0.2732859    0.1758129 -11.03  0.001190504    1.776    0.437
       339 -10.2885    107.5748     16.9867   8.5706659964e+01   5.6408288154e+01    0.3840517    0.2132902  62.89  0.001063273    1.923    0.480
       340  -9.8684     45.0396     20.5221   1.1101031313e+02   6.8195334692e+01    0.1856676    0.1273544  32.13 0.0005884355    1.581    0.368
       341  -9.8313    166.1607     19.1684   7.4964218947e+01   4.0946544924e+01    0.2061615    0.1654642 -58.50 0.0004326077    1.321    0.243
       342 -10.5652     81.3245     18.7632   9.4585416250e+01   6.2106173345e+01    0.2727791    0.2006612 -21.31 0.0003972533    1.332    0.249
       343  -9.4561     84.7682     15.1839   9.1632140804e+01   6.1893640096e+01    0.2432045    0.1521722  31.75 0.0003924062    1.720    0.419
       344  -9.5978     34.9163     19.5477   1.1587838156e+02   6.9694030264e+01    0.1818041     0.123841  23.30 0.0002645758    1.624    0.384
       345  -9.1695      5.2768     17.6894   1.3278911983e+02   7.2632705815e+01    0.1076588   0.08616485  81.34 0.0004568098    1.558    0.358
       346 -11.7626      8.5630    241.8550   1.5221614002e+02   2.6031985353e+01    0.3172662    0.1311584  60.35  0.002259638    1.706    0.414
       347 -10.8936    147.2238    244.4174   1.2860296377e+02   9.6678514993e+00    0.2085682   0.07818592  35.99  0.001049006    2.011    0.503
       348  -9.6192    115.4360    244.2571   1.3409722738e+02   1.3898533628e+01    0.1203688   0.09417982  78.40 0.0009438039    1.580    0.367
       349 -10.4078    109.9088    243.2599   1.3497807251e+02   1.4742813714e+01    0.2190777    0.1294656  64.49  0.001440868    1.999    0.500
       350  -9.7188    115.1798     13.1535   8.2102010336e+01   5.4999088665e+01    0.1976186    0.1686043 -55.81 0.0005170036    1.330    0.248
       351 -10.1397     71.9715    244.0103   1.4164642993e+02   1.9270895099e+01    0.1579062    0.1155569  47.74 0.0007377125    1.070    0.066
       352 -11.7919     34.6997    241.5010   1.4788789990e+02   2.3645229617e+01    0.3546324    0.2075709  38.41  0.002717735    1.429    0.300
       353 -10.5249     31.5875    237.1766   1.4824186335e+02   2.4605409187e+01    0.2328527    0.1031027  61.64 0.0008708408    1.800    0.445
       354 -10.4858     28.7497    232.8072   1.4855595580e+02   2.5554891486e+01    0.3926529    0.1115324  38.54  0.002232828    2.353    0.575
       355 -11.6870     19.8875    238.0898   1.5024714615e+02   2.5581671414e+01    0.4345216    0.1272612  37.92  0.002587057    2.309    0.567
