#   1 NUMBER                 Running object number                                     
#   2 MAG_AUTO               Kron-like elliptical aperture magnitude                    [mag]
#   3 X_IMAGE                Object position along x                                    [pixel]
#   4 Y_IMAGE                Object position along y                                    [pixel]
#   5 X_WORLD                Barycenter position along world x axis                     [deg]
#   6 Y_WORLD                Barycenter position along world y axis                     [deg]
#   7 A_WORLD                Profile RMS along major axis (world units)                 [deg]
#   8 B_WORLD                Profile RMS along minor axis (world units)                 [deg]
#   9 THETA_WORLD            Position angle (CCW/world-x)                               [deg]
#  10 FWHM_WORLD             FWHM assuming a gaussian core                              [deg]
#  11 ELONGATION             A_IMAGE/B_IMAGE                                           
#  12 ELLIPTICITY            1 - B_IMAGE/A_IMAGE                                       
         1 -13.1660     65.6649    105.7751   1.0239698188e+02   4.6913460564e+01     5.194645     2.776841  44.10   0.02344003    2.113    0.527
         2 -13.3982     37.8508    122.2333   1.1386949236e+02   4.6126222888e+01     2.615168      1.64387 -36.48     0.013691    1.941    0.485
         3 -10.0223     80.2868     12.5410   6.5179938830e+01   6.2181866474e+01    0.2858628     0.191982 -36.50  0.001088206    1.715    0.417
         4  -8.4794    114.3148      9.7100   5.4626194681e+01   5.5106218919e+01    0.1278902    0.1047944 -71.50 0.0001969997    1.591    0.371
         5  -9.4805     17.0075      2.9132   8.8039190235e+01   7.2753300642e+01     0.179249     0.131672 -15.62 0.0005285212    1.014    0.014
         6  -8.9448    105.9764      2.0000   5.3419565833e+01   5.7719755136e+01    0.2215763   0.06762215  60.91 0.0008039225    2.953    0.661
         7 -11.2737    207.1279    215.9232   8.9722967247e+01  -1.4164975848e+00    0.8089356    0.4722968 -23.17  0.004198675    1.983    0.496
         8  -9.0418    211.0870    250.3938   9.4514855400e+01  -6.5914657628e+00     0.333695    0.1156138  45.16  0.001433063    3.067    0.674
         9  -9.2182    201.9371    249.8742   9.6086456405e+01  -5.1571389267e+00    0.3553764    0.1494708  49.18  0.001566411    3.085    0.676
        10  -9.8441    164.4769    249.3536   1.0291360385e+02   7.3343264549e-01    0.4093354    0.2043566  37.51  0.002211606    1.594    0.373
        11 -10.8055    212.2907    216.0866   8.8773437550e+01  -2.2924067040e+00     0.728237    0.3527761 -35.86  0.003489079    2.244    0.554
        12  -7.8372    127.9757    243.5417   1.0907042222e+02   7.3823370812e+00    0.1671216   0.09698423  22.61 0.0008086251    2.526    0.604
        13  -7.4634    114.9642    241.9663   1.1135845421e+02   9.6561720050e+00     0.143022    0.1142173  52.16 0.0003368171    1.010    0.010
        14  -8.1212    224.9840    239.7853   9.0393864287e+01  -7.3750560200e+00    0.1963727    0.1069111  17.87 0.0007822625    1.876    0.467
        15  -8.9569    144.7464    238.3785   1.0523535316e+02   5.5389768189e+00    0.2726537    0.1819017  62.26  0.001379833    1.731    0.422
        16  -8.0029     90.4858    237.4539   1.1551951442e+02   1.4081660749e+01    0.1222303   0.09261304  59.59 0.0001053488    1.053    0.050
        17  -7.5152    201.0136    235.0000   9.4011560197e+01  -3.0908656222e+00    0.2077804   0.05857212  39.63 0.0008023931    2.942    0.660
        18 -11.5689    189.2297    235.6699   9.6327774611e+01  -1.2976541051e+00     1.687727    0.9005864  -8.67  0.006350376    4.683    0.786
        19  -8.9882    159.0647    232.2994   1.0163851844e+02   4.1534800964e+00    0.1938155    0.1792613  82.23 0.0009109024    1.327    0.246
        20  -8.9133    155.2456    229.5774   1.0200520835e+02   5.2215652153e+00    0.2519706    0.1023921  43.41 0.0009306924    2.052    0.513
        21  -8.2194    138.0518    232.1883   1.0574247107e+02   7.6338646649e+00    0.1773791    0.1533879  28.19 0.0005473367    1.210    0.173
        22  -8.1051    106.6936    231.3192   1.1178524151e+02   1.2764120368e+01    0.1277285   0.08023986  65.16 0.0007030688    1.634    0.388
        23  -8.4115    141.2549    227.4738   1.0448777684e+02   7.8982601201e+00    0.2410272     0.157326 -71.80  0.001285406    2.182    0.542
        24 -10.1068    234.3361    210.7291   8.3755407946e+01  -5.0913472256e+00    0.5214645    0.3503105  28.62  0.003113255    1.304    0.233
        25  -9.0628    221.8595    225.4563   8.8603713198e+01  -5.1004477978e+00    0.4471842    0.1950369 -24.32   0.00199846    2.965    0.663
        26  -9.4700    221.2304    188.5898   8.1994376781e+01   2.7950389898e-01    0.6101333     0.302044  25.05  0.002419662    2.435    0.589
        27 -10.3650    231.4675    203.4341   8.2933776346e+01  -3.6325460307e+00    0.7134867    0.4233661  13.57  0.003431695    1.872    0.466
        28 -10.5240    227.1413    197.1407   8.2542646576e+01  -2.0188455723e+00    0.6549502    0.5126514 -84.83  0.002718761    2.965    0.663
        29 -10.4320    220.1642    209.9204   8.6206191850e+01  -2.7078767893e+00     1.052287    0.5092596 -49.32  0.004480259    3.402    0.706
        30 -10.2003    226.2650    209.1871   8.4943924873e+01  -3.5970770988e+00    0.3763863     0.266729  29.41  0.001671549    1.242    0.195
        31  -9.8990    157.1926    223.4230   1.0073487856e+02   5.8974357310e+00    0.2771261    0.1986166   3.11  0.001488101    1.961    0.490
        32  -9.5434    153.0859    217.0096   1.0061379436e+02   7.6821235054e+00    0.3324869    0.2188854  28.10  0.001133775    1.549    0.355
        33 -10.5299    185.7247    214.0031   9.3556557481e+01   2.5102106275e+00     0.320336    0.2986408  31.05  0.001240235    1.166    0.142
        34 -10.9696    182.7421    223.7960   9.5736828162e+01   1.5038835633e+00    0.5143117    0.3985061  88.77  0.002825939    2.298    0.565
        35  -8.8641    174.5376    214.8707   9.5932311759e+01   4.3142426192e+00    0.2882772    0.1811381  40.20 0.0009249941    1.374    0.272
        36  -9.1439    190.2124    209.3341   9.1872295663e+01   2.4678585827e+00    0.3663231    0.1697594 -42.10  0.001664729    2.434    0.589
        37 -10.2188    185.3376    208.1409   9.2638468419e+01   3.5147607197e+00    0.3422219    0.2399175  23.90  0.001871817    1.376    0.273
        38 -10.3024    167.3437    204.6198   9.5708395837e+01   7.3172422202e+00    0.3966299    0.3498326   6.12 0.0009511613    1.190    0.160
        39  -7.8611    136.8187    203.5955   1.0198147626e+02   1.2949616279e+01    0.1935264    0.1123839  49.50 0.0004156171    1.600    0.375
        40  -8.5711    182.4228    202.2203   9.2195482868e+01   5.0111212413e+00    0.1751972    0.1321901 -54.69  0.000948747    1.688    0.408
        41  -9.3925    211.2434    196.6273   8.5447867404e+01   7.8041558952e-01    0.4038104    0.1496933  38.68  0.001619099    2.492    0.599
        42 -10.1855    207.3841    199.8066   8.6789337239e+01   9.6092108072e-01    0.2851822    0.1892216 -32.92  0.001538647    1.582    0.368
        43 -10.0897    203.8460    199.1467   8.7356751358e+01   1.6855055541e+00    0.3621396    0.2240237   1.10   0.00166322    2.263    0.558
        44  -7.5745    157.6056    204.1262   9.7658327428e+01   9.1557894864e+00    0.1659861    0.1281584 -29.34 0.0005291406    1.534    0.348
        45 -10.5757    172.6879    187.5449   9.1560400176e+01   9.3908720272e+00    0.5926037    0.2844157 -51.42  0.002429385    2.550    0.608
        46  -9.6751    212.4746    180.9991   8.2161953064e+01   3.0579158032e+00    0.6155905    0.3762027 -44.90  0.002994589    1.874    0.466
        47 -10.1335    209.5199    171.9246   8.0880806958e+01   5.1287487615e+00    0.7094715    0.2379969 -43.85  0.002454278    3.315    0.698
        48 -11.2806    206.3641    176.5411   8.2456402656e+01   4.9396245636e+00    0.6578001    0.3396943 -41.09  0.002925129    2.023    0.506
        49 -11.1745    207.3768    185.4833   8.4051409161e+01   3.2550015955e+00    0.4698032    0.4377213 -52.41  0.002845186    1.372    0.271
        50 -10.9605    186.6561    179.9613   8.7156772040e+01   8.1021979037e+00    0.3869429    0.2958304  51.16  0.001850734    1.410    0.291
        51  -9.8129    178.6577    183.1486   8.9460346768e+01   9.0595965374e+00    0.2812417    0.1763432  51.86 0.0008939697    1.734    0.423
        52 -10.7991    183.0928    185.6522   8.9009431930e+01   7.7613372786e+00    0.5064537    0.3024696 -18.81  0.002153427    2.427    0.588
        53  -8.3861     17.3040    178.4781   1.2499455882e+02   3.4967687050e+01    0.2959164    0.1363671  76.11  0.001335357    2.136    0.532
        54  -8.1643     27.9809    175.7704   1.2250552525e+02   3.4544738526e+01    0.1872876    0.1682518  16.31  0.001318946    1.576    0.366
        55 -11.3978    194.7766    172.0065   8.3862955018e+01   7.9586686162e+00    0.6082764    0.2533911 -38.67  0.001750799    2.486    0.598
        56 -12.5248    182.2778    164.8980   8.5000250427e+01   1.1762827212e+01    0.9367511    0.7413467  -0.93  0.004739573    1.443    0.307
        57 -11.5537    201.9370    165.7020   8.1079537190e+01   7.6821538272e+00    0.5312406     0.488674 -44.61  0.003034857    1.240    0.193
        58 -11.8997    191.3226    155.0810   8.0952491821e+01   1.1778364069e+01    0.7575144    0.5312092  41.79  0.003655066    1.401    0.286
        59 -11.0334     22.9009    157.7046   1.2202702695e+02   3.9117845287e+01    0.5499551     0.306391  62.59  0.003054863    1.773    0.436
        60  -9.4740      3.8242    156.8906   1.2630706845e+02   4.0866955891e+01    0.5160355    0.1938304 -60.43  0.002585592    2.376    0.579
        61 -10.9219     16.7156    161.8477   1.2381213407e+02   3.8719428556e+01     0.507091    0.2822425  85.84   0.00189603    1.583    0.368
        62 -10.4713      9.4474    158.7487   1.2519267632e+02   4.0019749273e+01    0.3726804    0.3228676 -46.94  0.002717894    1.506    0.336
        63  -7.9805     39.7557    166.3822   1.1897084178e+02   3.5447280018e+01    0.1474487    0.1225835  20.58 0.0005367294    1.606    0.378
        64  -9.4974    163.6735    165.4029   8.9194809234e+01   1.5430533662e+01    0.3007676    0.1367073  46.58  0.001142539    2.166    0.538
        65 -10.3725      6.4977    167.1897   1.2646430130e+02   3.8372030780e+01    0.3744948    0.2814708 -81.27 0.0008803625    1.139    0.122
        66  -8.9260      1.4708    164.1050   1.2732673819e+02   3.9439452296e+01    0.3027633   0.08711147 -76.92 0.0009958472    2.688    0.628
        67  -7.5080    107.7383    160.6766   1.0159468717e+02   2.7171498804e+01    0.1380828    0.1132772 -26.06  0.000268913    1.556    0.357
        68 -10.6753     10.4716    139.7984   1.2332252464e+02   4.4274110160e+01    0.6259364    0.4385359 -34.83  0.002971563    1.916    0.478
        69 -13.5685     58.9465    129.8521   1.0910248968e+02   4.1938559603e+01     3.955713     2.489181 -20.67   0.01750192    2.715    0.632
        70  -9.7776    204.2609    156.1686   7.8541962786e+01   8.9306481421e+00     0.292479    0.2080839  53.54   0.00141362    1.608    0.378
        71 -10.2523    217.2778    219.7962   8.8482229477e+01  -3.6186387224e+00    0.4446838    0.2909328 -27.35  0.002473982    1.610    0.379
        72  -9.1130     90.0462    150.4105   1.0426288524e+02   3.2533397937e+01    0.2523584     0.192541 -60.36 0.0001797291    1.261    0.207
        73  -8.6324      9.5348    150.3981   1.2449291679e+02   4.1906391591e+01     0.311053    0.1766659  57.96  0.001833172    1.734    0.423
        74  -9.5626     19.4350    170.0543   1.2388741543e+02   3.6633588766e+01    0.1898993    0.1706734 -18.43 0.0007738792    1.656    0.396
        75  -8.3179     15.7221    144.5715   1.2248873901e+02   4.2764851217e+01    0.2339427     0.109537 -65.55  0.001118727    1.732    0.423
        76 -10.5839     50.6513    141.3910   1.1318255803e+02   4.0132539080e+01    0.4996195    0.3723594 -34.30  0.002784979    1.719    0.418
        77  -9.3143    182.4991    142.4904   7.9967643379e+01   1.6085944210e+01    0.3281472    0.1491862  45.41   0.00121752    2.188    0.543
        78 -11.3756     93.0111    108.3164   9.4587651708e+01   4.2125162882e+01     1.211039    0.4886165  51.32  0.001088411    3.501    0.714
        79  -8.5104    249.6880    134.6695   6.5484283285e+01   3.7011536159e+00     0.141983    0.1000422   0.65 0.0007043311    1.672    0.402
        80 -12.5566    102.9591    103.1499   9.0295957183e+01   4.1543696128e+01     2.678825     1.224088  46.91  0.003234048    2.404    0.584
        81 -12.3764     16.9769    115.3527   1.1888113348e+02   4.9538095210e+01     1.461123    0.7867336  35.94  0.008087394    2.128    0.530
        82 -10.1166     90.9914    102.3580   9.3692643459e+01   4.3866378465e+01    0.3183683    0.2820819 -47.37 0.0002839207    1.058    0.054
        83 -12.2033      8.0196    131.4436   1.2313420150e+02   4.6386627843e+01     1.839258    0.6418489 -57.90  0.008672937    2.369    0.578
        84 -10.5598      3.5653    126.9307   1.2384123930e+02   4.7724432303e+01    0.5487506     0.212437 -82.22 0.0004961262    2.254    0.556
        85  -9.7329    106.9016    246.9620   1.1338620473e+02   1.0042288023e+01    0.4347504    0.2573344  28.16  0.002394576    2.092    0.522
        86  -8.8325    249.7490    117.9647   6.1687621928e+01   6.3782013894e+00    0.1897493    0.1069342 -33.30 0.0008837737    1.569    0.363
        87  -8.7420    205.0940    117.6956   6.9297819807e+01   1.5847508888e+01    0.2476523    0.2086957 -33.08 0.0005124763    1.135    0.119
        88  -7.5457    164.5090    117.5169   7.7858061086e+01   2.5204180345e+01    0.1584335    0.1537766  -0.91 -2.470458e-05    1.031    0.030
        89  -7.7294    151.3811    115.1237   8.0369647543e+01   2.8708504843e+01    0.2272439    0.1470258 -53.76 0.0009332976    1.690    0.408
        90 -11.2577    130.6057    107.5956   8.3691675605e+01   3.4954403013e+01    0.8548661    0.5904354 -89.50  0.003292505    2.472    0.595
        91  -9.2126    134.4813    105.5098   8.2093355603e+01   3.4567853787e+01    0.4247928    0.2703269  39.51  0.001793975    1.631    0.387
        92  -8.6781    144.7948    110.3327   8.0737880232e+01   3.1225325497e+01    0.2540004    0.2313932 -80.64 0.0006717677    1.217    0.178
        93  -8.1418     16.9694    104.2955   1.1736152054e+02   5.2149359802e+01    0.1613669    0.1413855 -61.78  0.000351259    1.127    0.113
        94  -9.0933     93.9722     94.3518   9.0634845874e+01   4.5187267099e+01    0.3006399     0.261806  37.26 0.0006670549    1.215    0.177
        95  -8.7742     62.9742     91.3139   9.9862136346e+01   5.0685732477e+01    0.2776926    0.1884103 -52.30 0.0006113779    1.299    0.230
        96  -9.1847    109.9610     75.1711   7.9977157572e+01   4.6228911216e+01    0.2364553    0.2098473 -30.73 0.0003189268    1.089    0.081
        97  -8.0689    206.3639     69.8466   5.6565383567e+01   2.3943336759e+01    0.2156775    0.1406769 -22.01 0.0009485046    1.758    0.431
        98  -7.9377     94.7349     52.3977   7.6882455683e+01   5.3597654282e+01    0.1860044    0.1313399  31.29  0.000288715    1.437    0.304
        99  -7.5331    104.9779     48.4954   7.2242249231e+01   5.2171346750e+01     0.195758    0.1391236  43.70 -0.0001047652    1.387    0.279
       100  -7.7139     92.3030     36.6702   7.1624856834e+01   5.6644857538e+01    0.1313991    0.1125431 -67.42 0.0002177768    1.651    0.394
       101 -12.5385     34.9320    108.6086   1.1254235621e+02   4.9682157220e+01     1.328181      1.25426  34.26  0.008958261    1.265    0.210
       102  -9.5119     84.7912     20.9498   6.7474255840e+01   6.0303393052e+01    0.3550718    0.1921783 -36.71   0.00170676    1.994    0.499
       103  -8.2652     30.1868     22.1991   9.0370149058e+01   6.8468204439e+01    0.1497916    0.1293366 -31.78  0.000450838    1.303    0.233
       104 -10.1560     74.9621     17.9097   6.9440180233e+01   6.2560663428e+01    0.2673666    0.2549068   6.24 0.0007351277    1.269    0.212
       105  -8.3914    166.4682     18.0418   4.7847607586e+01   4.1259867571e+01    0.1984018    0.1415178 -23.78 0.0006407124    1.550    0.355
       106  -9.0896    134.2427     15.0097   5.2407407194e+01   4.9772695861e+01    0.1912639    0.1760221  26.95 0.0004278037    1.090    0.083
       107  -8.7524    188.3933    249.4680   9.8499632696e+01  -3.0302334270e+00    0.2885612    0.1822831  23.22  0.001733848    1.475    0.322
       108 -11.3681    200.4171    208.5297   8.9724673161e+01   8.2198860666e-01    0.7233286    0.5403613 -50.44  0.003476713    1.764    0.433
       109 -11.5273    178.5291    239.3094   9.8891574870e+01  -8.4746586323e-02     0.923391    0.7646084 -42.45  0.006239407    1.514    0.339
