#   1 NUMBER                 Running object number                                     
#   2 MAG_AUTO               Kron-like elliptical aperture magnitude                    [mag]
#   3 X_IMAGE                Object position along x                                    [pixel]
#   4 Y_IMAGE                Object position along y                                    [pixel]
#   5 X_WORLD                Barycenter position along world x axis                     [deg]
#   6 Y_WORLD                Barycenter position along world y axis                     [deg]
#   7 A_WORLD                Profile RMS along major axis (world units)                 [deg]
#   8 B_WORLD                Profile RMS along minor axis (world units)                 [deg]
#   9 THETA_WORLD            Position angle (CCW/world-x)                               [deg]
#  10 FWHM_WORLD             FWHM assuming a gaussian core                              [deg]
#  11 ELONGATION             A_IMAGE/B_IMAGE                                           
#  12 ELLIPTICITY            1 - B_IMAGE/A_IMAGE                                       
         1 -13.6903     68.5970    144.9086   9.2219952535e+01   3.7602099614e+01     4.376307     2.247281 -87.77  0.003132015    4.870    0.795
         2 -13.3435    210.4264     43.1835   3.4921160330e+01   2.8337890921e+01     1.648106     1.256539  34.45  0.009097079    2.072    0.517
         3 -12.8912    226.5385     29.4342   3.0622848616e+01   2.6816565073e+01    0.7414692    0.6277547 -75.51  0.002700106    1.143    0.125
         4 -11.9930    248.4402      7.0736   2.5028106829e+01   2.5240215925e+01    0.6499841    0.3096607 -40.95  0.004090398    1.894    0.472
         5  -9.9396      2.0056      3.0597   7.7929447938e+01   7.4386420634e+01    0.3021762   0.08952115 -40.92  0.001433396    3.298    0.697
         6  -9.2873     72.8451    205.3606   1.0055866647e+02   2.1634014283e+01     0.245333     0.189729 -89.33  0.001211044    1.365    0.267
         7  -9.8023    102.0143    250.0079   9.9117134768e+01   7.7219531707e+00    0.2292334    0.1940183  48.48  0.001205515    1.105    0.095
         8 -10.9435    101.2001    243.3967   9.8513886424e+01   9.1520654329e+00    0.3935542    0.2014006 -63.44  0.001850972    2.297    0.565
         9 -15.5341      8.6819    207.5666   1.1644477547e+02   2.8428675865e+01     10.54346      1.57543 -76.71   0.02036779    6.469    0.845
        10 -12.7593     15.9671    248.7051   1.1744180823e+02   1.8626332654e+01    0.2999719    0.2389497  70.53 0.0007292579    1.045    0.043
        11 -15.6924      7.7865    245.3333   1.1888623460e+02   2.0135246974e+01     8.077228     2.684546  17.78  0.008072637    8.170    0.878
        12  -9.2824    123.8614    202.3067   8.7213783216e+01   1.4522581029e+01    0.2423746    0.2001268 -71.36 0.0007601145    1.395    0.283
        13 -10.4386    192.2767    193.5605   7.0039311534e+01   5.0528885540e+00    0.9385934    0.4744938 -64.48  0.002373589    7.918    0.874
        14  -8.3640    145.4531    183.5034   7.8521767950e+01   1.5071877841e+01    0.1470609    0.1435629  -0.89 8.109427e-05    1.041    0.039
        15  -8.8675     99.5140    180.9559   8.9843204177e+01   2.3592195015e+01    0.2229679    0.2005833  36.49 0.0004611221    1.101    0.092
        16 -12.4018     30.4486    196.9109   1.1035508140e+02   2.8889688800e+01    0.5159567     0.395792 -33.63  0.001324456    1.672    0.402
        17 -10.6318    231.1629    170.1503   5.8302653961e+01   3.3728005659e+00     0.228236    0.1894888  46.33  0.001415679    1.505    0.335
        18 -11.3087     59.4025    171.8250   9.9535220386e+01   3.1865504020e+01    0.4688939    0.3122411 -31.79  0.002144587    1.906    0.475
        19 -11.2256     64.5811    167.0504   9.7309895399e+01   3.2411162376e+01    0.3956124    0.2917689 -30.48  0.001153528    1.622    0.384
        20 -10.0338    103.1338    171.9210   8.7231292521e+01   2.5230777494e+01    0.4117986    0.2554819  59.91  0.001667624    2.096    0.523
        21 -10.5337    240.4263    169.0590   5.6586376391e+01   2.2095693424e+00    0.1843167    0.1669346   5.96 0.0006396875    1.223    0.182
        22 -11.6503     82.4212    152.0933   8.9382660807e+01   3.3656834110e+01    0.7569765    0.5109931 -21.39  0.002077715    2.035    0.508
        23 -12.4478     75.1608    158.0505   9.2669071254e+01   3.3235563985e+01     1.497101    0.6084001  49.80 0.0008446635    3.201    0.688
        24 -12.8197     61.7423    153.9212   9.5976960461e+01   3.6214572195e+01    0.5552121    0.3701315 -38.96  0.001370978    1.646    0.392
        25 -10.6553    119.7171    245.0518   9.4548618292e+01   6.1597332164e+00    0.3123132    0.1841881 -40.29  0.001263164    2.004    0.501
        26 -10.0289     37.2242    160.9934   1.0442644383e+02   3.7315813526e+01    0.3752752    0.2192968  60.63  0.001684236    2.005    0.501
        27 -10.9970     33.1439    157.6037   1.0517787922e+02   3.8621104146e+01    0.6172803    0.3889682  58.18  0.001920444    1.769    0.435
        28  -8.3601    124.7464    150.3280   7.6946137811e+01   2.6623760978e+01    0.2543024    0.1204869 -40.63 0.0008984272    2.298    0.565
        29 -10.6645     54.9440    148.2742   9.7098705991e+01   3.8578455668e+01    0.4434657    0.2069146 -62.52  0.001770303    1.998    0.499
        30  -9.5192    133.3399    142.8616   7.3005864618e+01   2.6714059563e+01    0.4544854    0.1501212 -49.09  0.001403037    2.992    0.666
        31  -9.0699     47.7370    145.4343   9.8878030539e+01   4.0203140013e+01    0.1905102    0.1428067   3.68 0.0009429348    1.614    0.380
        32  -9.2153     28.4917    142.9316   1.0456984898e+02   4.2890209432e+01    0.2177146    0.1239626 -66.96 0.0007401998    1.554    0.356
        33  -9.7202     96.9986    139.5039   8.2387284674e+01   3.4402467999e+01     0.325724    0.2980689  25.02  0.001015902    1.125    0.111
        34  -9.0210    100.0467    136.4928   8.0803732244e+01   3.4602361217e+01    0.3278067    0.2450651   1.44  0.001058227    1.752    0.429
        35 -11.6991     84.8703    137.7125   8.5677957177e+01   3.6925893660e+01    0.3243879    0.2850384 -40.35 0.0003920871    1.128    0.113
        36  -8.5135    110.7586    167.5363   8.4310976236e+01   2.5002682506e+01     0.209411    0.1420982  48.40 0.0005504931    1.553    0.356
        37 -10.2667    107.1116    130.1661   7.7248797826e+01   3.4831170163e+01    0.4995649    0.3444348  22.02  0.001936774    1.721    0.419
        38  -9.8262     44.1647    129.6427   9.7265170581e+01   4.4709872539e+01    0.2042604     0.181265 -82.69  0.001137582    1.166    0.142
        39  -8.6189    174.7142    149.3280   6.4689465658e+01   1.7115241459e+01     0.146157    0.1175873 -78.74 0.0002871127    1.610    0.379
        40 -14.8066     54.2228    234.1625   1.0820189052e+02   1.7430227612e+01     2.651071     2.528185  77.09   0.01054499    1.149    0.130
        41  -8.6494     96.3342    124.6907   7.9151826725e+01   3.8151908704e+01    0.2140003    0.1762489 -16.38  0.001027367    1.381    0.276
        42  -8.5923    115.3231    124.3181   7.3468228761e+01   3.4617853339e+01    0.1606144    0.1240089  -8.70 0.0002648147    1.670    0.401
        43  -8.4760    162.4909    119.9960   6.0592992709e+01   2.5733685888e+01    0.2281671     0.143119 -47.67   0.00100563    1.547    0.353
        44  -9.0963    105.9868    118.1759   7.4627887955e+01   3.7876215772e+01    0.2193581    0.2153667  15.55 0.0003451849    1.022    0.021
        45  -9.7512    231.1770    113.8795   4.7109636136e+01   1.3322524792e+01    0.2757632    0.2193148 -52.70 0.0007857734    1.092    0.084
        46  -8.3339    158.5538    114.7679   6.0185402627e+01   2.7646681346e+01    0.2098846    0.1377191 -56.94 0.0009202758    1.652    0.395
        47  -8.6263    135.0000    113.0157   6.5323134586e+01   3.3076579798e+01    0.2585617   0.08683421 -45.01 0.0008037181    2.951    0.661
        48  -9.3271    205.4450    110.3634   5.0241422036e+01   1.8752332631e+01    0.2641497     0.215136  54.86 0.0009829852    1.357    0.263
        49  -9.1293     33.8284    110.6271   9.7220992422e+01   5.0610350549e+01    0.3268527     0.174676  52.12   0.00135869    2.617    0.618
        50  -8.8303     74.5031    110.0779   8.2578030507e+01   4.5413316006e+01     0.216019    0.2011354  22.75 0.0004847795    1.096    0.087
        51  -8.9620    249.6684    100.3239   4.2060133168e+01   1.2381794717e+01    0.1281393   0.08088876 -65.29  5.14004e-06    1.704    0.413
        52  -9.8057    247.9900     94.7720   4.1187994611e+01   1.3548905090e+01    0.1450368    0.1012644  63.55 0.0008871384    1.686    0.407
        53  -9.9475     53.0945     90.8085   8.5262670724e+01   5.3054246961e+01    0.2846175    0.1601265 -30.37 0.0006055204    2.037    0.509
        54  -9.0953    234.4722     86.4951   4.1144372231e+01   1.7257846315e+01     0.127566    0.1040126 -58.18 9.117195e-05    1.012    0.012
        55  -8.5043    161.3124     84.3282   5.1926765635e+01   3.2858620019e+01    0.1419364    0.1156112  13.74 0.0007042604    1.668    0.401
        56  -8.2732     45.4947     68.5365   8.1801933706e+01   5.8798303629e+01    0.1366577     0.118379 -12.82  4.07944e-05    1.018    0.017
        57 -10.3993      1.9333     62.4113   9.9758124880e+01   6.4121066355e+01    0.3637169    0.1511617 -69.50  0.001576765    2.894    0.654
        58  -9.2485     33.7447     62.0589   8.4835783350e+01   6.1523415234e+01    0.3029577    0.1890055  46.98   0.00150954    2.252    0.556
        59  -8.6602     28.9753     59.4682   8.6174281566e+01   6.2555004082e+01    0.2544595    0.1521945  41.52  0.001296669    2.126    0.530
        60 -11.0103     13.1245     60.1363   9.3825166479e+01   6.3863439675e+01    0.3040001    0.2610566 -24.78  0.000595563    1.074    0.069
        61 -12.4282    201.2700     49.1413   3.7230011462e+01   2.9465897000e+01    0.6682888      0.54529 -86.25  0.001896133    1.089    0.082
        62  -9.0755    113.3114    245.6433   9.6061738930e+01   6.9699689269e+00    0.1362503   0.09440366  61.22 0.0007043467    1.736    0.424
        63 -11.6378    220.1136     35.0284   3.2288264936e+01   2.7404761949e+01    0.3997001    0.2939733  57.74  0.001359229    1.635    0.388
        64  -9.1526     87.0071    206.2157   9.7078955706e+01   1.9400893806e+01    0.2313959    0.1996525 -78.37 0.0005403306    1.202    0.168
        65  -9.5932     36.4736     56.5085   8.1783028754e+01   6.2265682781e+01    0.2316773    0.2050093  34.97  0.000659311    1.373    0.272
        66  -9.0257     21.2600     56.4341   8.8829279494e+01   6.3915706728e+01    0.2385386    0.1375941  31.24 0.0008497065    1.888    0.470
        67  -9.4202     17.3421     55.0160   9.0272592219e+01   6.4543697171e+01    0.2056402    0.1504268  -8.18 0.0004810562    1.257    0.205
        68 -10.7319      3.5861     49.6215   9.5508649165e+01   6.6619023941e+01    0.3324738    0.1883007  21.30  0.001915683    1.870    0.465
        69  -8.8374    198.1849     23.7575   3.2004927627e+01   3.3312526862e+01     0.148614    0.1371137  65.21 0.0006710974    1.354    0.261
        70 -14.4998     41.1309    187.8379   1.0665706843e+02   2.9988144089e+01     3.172635     1.828495  81.59   0.01437306    2.012    0.503
        71  -8.5841    189.5943     15.1810   3.0957892951e+01   3.6106117000e+01    0.1392315    0.1164085 -23.38 0.0006219265    1.602    0.376
        72 -10.1414    148.4973    228.4994   8.5672055851e+01   5.0966839654e+00    0.2521072    0.1112836  42.27  0.001037234    2.294    0.564
