#   1 NUMBER                 Running object number                                     
#   2 MAG_AUTO               Kron-like elliptical aperture magnitude                    [mag]
#   3 X_IMAGE                Object position along x                                    [pixel]
#   4 Y_IMAGE                Object position along y                                    [pixel]
#   5 X_WORLD                Barycenter position along world x axis                     [deg]
#   6 Y_WORLD                Barycenter position along world y axis                     [deg]
#   7 A_WORLD                Profile RMS along major axis (world units)                 [deg]
#   8 B_WORLD                Profile RMS along minor axis (world units)                 [deg]
#   9 THETA_WORLD            Position angle (CCW/world-x)                               [deg]
#  10 FWHM_WORLD             FWHM assuming a gaussian core                              [deg]
#  11 ELONGATION             A_IMAGE/B_IMAGE                                           
#  12 ELLIPTICITY            1 - B_IMAGE/A_IMAGE                                       
         1 -14.4652    157.9903     55.6690   7.9414950772e+01   3.8086387214e+01      1.39217     1.166971  55.31  0.001056876    1.103    0.093
         2 -14.7070    170.6519     40.4320   7.2878303275e+01   3.7100121453e+01      1.12825     1.001862  -0.74  0.004026333    1.365    0.267
         3 -14.8587    190.9418      7.9147   6.1787733030e+01   3.5871691169e+01     2.331387    0.7508496  62.77  0.008017285    2.450    0.592
         4  -9.3280     22.2413    244.6235   1.4687189114e+02   2.1606050084e+01    0.1152026   0.06052439  73.90 0.0006930851    1.628    0.386
         5 -19.8318     62.1188    167.1373   1.3095906259e+02   3.3366968407e+01     18.94622     5.957248 -65.00   0.06784635    3.139    0.681
         6 -11.6089     20.3013    219.4069   1.4545937272e+02   2.6770329773e+01    0.1955796    0.1251939  50.54 0.0008140174    1.456    0.313
         7 -11.2915     16.6655    217.4522   1.4597557205e+02   2.7547519857e+01    0.1924925    0.1457385 -72.33  0.001378738    1.348    0.258
         8  -9.5740    131.0180    214.0293   1.2233249887e+02   1.1826193191e+01    0.1854891    0.1479055  74.75  0.001012826    1.367    0.268
         9 -10.0657    110.6442    211.7260   1.2638436951e+02   1.5865890250e+01    0.1644242    0.1237806 -78.62  0.000282009    1.437    0.304
        10 -11.5521    133.5542    249.5105   1.2685112719e+02   4.7562352575e+00    0.2472802    0.1672132 -46.16  0.001419645    1.827    0.453
        11 -10.0277    152.0656    210.1105   1.1715759059e+02   8.7452028572e+00    0.2077036     0.163854  79.87 0.0005718448    1.588    0.370
        12 -11.1922    106.7231    206.6748   1.2650250251e+02   1.7595688857e+01     0.234019    0.1937597  43.66 0.0005911001    1.188    0.158
        13 -12.4480    105.4125    202.9445   1.2624084571e+02   1.8616292851e+01    0.3845627    0.3078186  34.40  0.001278198    1.347    0.257
        14 -10.6688     30.0113    205.4955   1.4248894150e+02   2.8623317478e+01    0.1837206    0.1607677   7.15  0.001266646    1.773    0.436
        15 -11.3374    157.4194    199.2321   1.1408582365e+02   9.8804920332e+00    0.2769645    0.2423876  61.11  0.001085747    1.182    0.154
        16 -12.0484    163.0880    202.2350   1.1339691740e+02   8.1997427824e+00    0.3932157    0.2893098  82.99  0.001173326    2.021    0.505
        17 -11.6448    160.4474    197.9422   1.1318825580e+02   9.5542656662e+00    0.3015355    0.2307956 -88.75 0.0009720207    1.821    0.451
        18 -10.1073    153.5223    202.0384   1.1544147599e+02   1.0065296385e+01    0.2063638    0.1437629 -52.66  0.001020323    1.575    0.365
        19 -10.8661     20.3697    202.5161   1.4411537930e+02   3.0278990920e+01    0.1175577    0.1030646  79.91 0.0004635812    1.203    0.169
        20  -9.8770    138.7063    200.3532   1.1841468308e+02   1.3208993602e+01    0.2293866    0.1975777  71.74  0.001265336    1.213    0.176
        21 -10.2824    141.2949    198.5915   1.1753395526e+02   1.3087327419e+01    0.2378141    0.1985901 -73.08 0.0006273962    1.339    0.253
        22 -10.2129    112.6573    196.4420   1.2361579681e+02   1.8778814132e+01    0.4194572    0.2951784   1.34  0.001826718    2.643    0.622
        23 -11.4509    153.2015    193.5752   1.1398172072e+02   1.1840809766e+01    0.3300357    0.2694843  60.12  0.000933904    1.276    0.216
        24 -11.5720    180.6668    193.4657   1.0797935160e+02   6.4986579574e+00    0.2963774    0.2533169 -87.24  0.001350881    1.520    0.342
        25 -10.3936    103.7923    194.1297   1.2526343804e+02   2.0815226197e+01    0.4186689    0.2249473  28.46  0.001740528    2.444    0.591
        26 -12.6442    101.0006    250.4917   1.3324824053e+02   9.8687029254e+00    0.2603267    0.1048047  41.08 0.0007307202    2.139    0.532
        27 -13.3881    165.9944    186.7414   1.0984894982e+02   1.0717934415e+01    0.8787429    0.5547272 -78.56  0.003256103    3.201    0.688
        28 -12.7482    169.8408    182.3987   1.0814428648e+02   1.0828409843e+01    0.6248163    0.3474799  49.13  0.001851806    1.817    0.450
        29 -12.5522    172.9523    188.9653   1.0876125539e+02   8.8911500472e+00    0.4136385    0.3467316  50.51  0.001550999    1.195    0.163
        30 -11.9101    176.0167    186.0440   1.0752263152e+02   8.8610796287e+00    0.3201853    0.3045934 -71.70 0.0009012289    1.173    0.148
        31 -11.4916    153.0546    186.2659   1.1264245680e+02   1.3382845090e+01    0.2779474    0.2238847 -60.90 0.0007315991    1.366    0.268
        32 -13.5644    101.8908    246.5991   1.3264392336e+02   1.0440296405e+01    0.4284823    0.2419191 -53.39  0.002218849    2.108    0.526
        33 -12.6250    142.4944    175.1952   1.1291738966e+02   1.7841180353e+01     1.004591    0.6402964 -14.27   0.00366547    3.148    0.682
        34 -13.3009    137.8624    171.4247   1.1326046131e+02   1.9587498291e+01    0.6860966    0.4097061  46.79  0.001750531    1.631    0.387
        35 -12.8582    204.3989    176.1586   9.9556230877e+01   5.1198579110e+00    0.7018647    0.4282278 -60.38  0.002746403    2.441    0.590
        36 -11.2974    201.5121    169.0192   9.8637966314e+01   7.0473110979e+00    0.4403192    0.2941891 -71.43  0.001605307    2.602    0.616
        37 -12.2972    204.4531    165.7321   9.7340574001e+01   7.0797884450e+00    0.5848439    0.3847943 -50.26  0.001774468    1.657    0.397
        38 -10.4767     16.1681    250.4385   1.4822513295e+02   2.1186650218e+01   0.09600236   0.06167003 -69.03 0.0006601556    1.667    0.400
        39 -10.4709    198.9048    178.1549   1.0108857742e+02   5.8299473984e+00     0.219438    0.2135305   9.22 0.0005425602    1.062    0.058
        40 -12.9736    193.9419    166.8320   9.9728812782e+01   9.0150256716e+00    0.8554137    0.4481749 -53.92  0.001295119    2.383    0.580
        41 -11.4855    189.9451    155.8042   9.8159967975e+01   1.2036131090e+01    0.4993053     0.489905 -19.59  0.002384193    1.024    0.024
        42 -11.5012    230.0943    166.2125   9.2511724472e+01   1.9680502718e+00    0.2679464    0.1815806 -61.45  0.001242887    2.108    0.526
        43 -10.9638    141.1933    163.9556   1.1095100255e+02   2.0574085760e+01    0.2280364    0.2028616  86.43 0.0003803807    1.222    0.181
        44 -14.0264    133.8543    145.4657   1.0875173895e+02   2.6204316443e+01     1.578758    0.4895089 -55.26  0.004171782    4.562    0.781
        45 -13.4941    135.9265    127.8405   1.0410969699e+02   2.9688322359e+01     2.049928    0.3463733 -49.19   0.00413406    7.448    0.866
        46 -11.6341    134.6001    108.7456   9.9610153773e+01   3.4050420637e+01     1.188535    0.1724089 -44.30  0.002495505    6.936    0.856
        47 -13.1284    144.0408    145.8163   1.0632434277e+02   2.4007755671e+01    0.7021522    0.4609966 -74.41  0.002772762    2.307    0.567
        48 -13.0753    142.3568    139.0335   1.0517592847e+02   2.5861971732e+01     0.519072     0.408142 -84.73  0.001943888    1.622    0.384
        49 -12.4805     14.2670    148.7088   1.4011665111e+02   4.2728530717e+01    0.9904389     0.466472 -74.16  0.005146651    1.794    0.443
        50 -12.7809      5.7956    139.6216   1.4111537865e+02   4.5407930174e+01    0.5852271    0.4076533  85.99  0.002511768    1.385    0.278
        51 -13.4056      3.4973    125.3007   1.3995245855e+02   4.8740191716e+01     1.739474    0.5432999 -73.11  0.007313459    2.897    0.655
        52 -11.9459      2.8943    112.3493   1.3836535878e+02   5.1616742774e+01    0.3147318     0.212513 -61.65 0.0009972159    1.142    0.124
        53 -12.6107     10.7242    110.9527   1.3594279570e+02   5.1424413379e+01    0.5672411    0.2554811   0.93  0.002144075    3.877    0.742
        54 -11.0176    174.2867    148.6921   9.9945348517e+01   1.6865039018e+01    0.3541662    0.2830349 -74.48  0.001277116    1.554    0.356
        55 -10.9868    166.9607    155.4784   1.0311393108e+02   1.7024240396e+01    0.2364635     0.149346  46.32 0.0008883202    1.561    0.359
        56  -9.9915    167.6660    134.0447   9.8012318617e+01   2.1389010978e+01    0.2141311    0.2009082 -50.30 0.0005027103    1.076    0.071
        57 -11.8192    160.3931    127.5351   9.8104512687e+01   2.4385696156e+01    0.4668269    0.2977692 -53.24  0.001371384    1.695    0.410
        58 -12.3570    113.8296    118.1862   1.0751709929e+02   3.6320881386e+01    0.3405858    0.3018816  73.58 0.0005280398    1.269    0.212
        59 -10.0018    131.7659    235.7199   1.2535926627e+02   7.5174742184e+00    0.1663975    0.1332668  72.22 0.0003137483    1.325    0.245
        60 -10.8973    168.3696    113.1395   9.2703101606e+01   2.5510294174e+01    0.4031814    0.2911877 -75.54  0.001286467    1.899    0.473
        61 -11.0559    205.1445    110.6978   8.4645418646e+01   1.7455721751e+01    0.3676887     0.296718  13.45   0.00117933    1.602    0.376
        62 -12.8580    117.2373    109.4451   1.0436443866e+02   3.7537752690e+01    0.4226272    0.3306917  22.75  0.002064224    1.437    0.304
        63 -10.6392    138.6103    229.2636   1.2303507295e+02   7.5240202726e+00    0.2699196    0.1916938  62.57 0.0009379156    1.502    0.334
        64 -11.8195    168.0873    248.5340   1.1994300357e+02  -9.3121833569e-01    0.2946776    0.2131326 -48.05  0.001031685    1.670    0.401
        65 -10.4971    219.3368    224.6024   1.0598866027e+02  -5.8652519088e+00     0.252359    0.1568259 -50.72 0.0009382356    2.207    0.547
        66 -10.5856    147.1892     80.8109   8.8874797875e+01   3.6594507508e+01    0.2052938    0.1764618  14.45 0.0004698112    1.308    0.236
        67 -10.6687     93.0555     79.0825   1.0284080254e+02   4.8257901167e+01    0.2079096    0.1951359  -3.10 0.0003980886    1.027    0.027
        68 -12.3781    124.9963    247.2935   1.2824075774e+02   6.5701432513e+00    0.3071049    0.1721545 -56.77   0.00162156    2.089    0.521
        69  -9.9821    150.5993    247.4882   1.2323158630e+02   2.2182376324e+00    0.1276976     0.108719  43.41 0.0001353383    1.020    0.020
        70 -13.0157    174.6967     33.2894   7.0319442258e+01   3.7005577114e+01    0.3882135    0.3517517  18.85 0.0008891228    1.324    0.245
        71 -10.7439     13.4806     59.6156   1.2462941787e+02   6.1781629707e+01    0.1972055    0.1532064 -38.16  0.000426111    1.030    0.029
        72  -9.7436    140.0148    250.1104   1.2566735935e+02   3.5695919796e+00    0.1989002    0.1348818  64.28 0.0009738742    1.657    0.397
        73 -11.4644    187.9655     30.9678   6.7759675487e+01   3.4071767038e+01    0.2130139    0.1852815  77.26 0.0006327439    1.018    0.018
        74 -10.5124    129.8425     28.2017   7.7043523832e+01   4.8246264446e+01    0.2658164    0.1693105  68.71 0.0008589866    1.686    0.407
