#   1 NUMBER                 Running object number                                     
#   2 MAG_AUTO               Kron-like elliptical aperture magnitude                    [mag]
#   3 X_IMAGE                Object position along x                                    [pixel]
#   4 Y_IMAGE                Object position along y                                    [pixel]
#   5 X_WORLD                Barycenter position along world x axis                     [deg]
#   6 Y_WORLD                Barycenter position along world y axis                     [deg]
#   7 A_WORLD                Profile RMS along major axis (world units)                 [deg]
#   8 B_WORLD                Profile RMS along minor axis (world units)                 [deg]
#   9 THETA_WORLD            Position angle (CCW/world-x)                               [deg]
#  10 FWHM_WORLD             FWHM assuming a gaussian core                              [deg]
#  11 ELONGATION             A_IMAGE/B_IMAGE                                           
#  12 ELLIPTICITY            1 - B_IMAGE/A_IMAGE                                       
         1 -12.3766    121.4806     25.5833   4.3131092124e+01   5.0528975928e+01     0.503543    0.4389293  61.53  0.003225041    1.011    0.011
         2 -14.1163    146.9537     29.4198   3.9775447686e+01   4.4203386711e+01      1.24177    0.6177458  68.04   0.00595805    1.822    0.451
         3 -13.1017    132.1251     32.6393   4.3245693426e+01   4.7280767816e+01    0.5453676    0.4007952  64.27   0.00176508    1.201    0.167
         4 -13.3697      3.1564     10.2899   8.0824046612e+01   7.3307869102e+01    0.7540522     0.518786 -24.64  0.005360093    1.240    0.194
         5 -12.8580      8.1378      2.6349   7.3845547497e+01   7.3810288785e+01    0.4937246    0.3173479  40.02  0.002525364    2.128    0.530
         6 -15.7689     13.3422     20.6334   7.9540328149e+01   7.0840274766e+01     1.825405    0.9905211 -20.54  0.008813946    1.802    0.445
         7 -14.0793     25.1674     13.7314   6.9899509015e+01   7.0389197152e+01     0.740361    0.3968807  36.48  0.003791002    1.784    0.439
         8 -11.7096    188.1017      9.7735   2.9903810519e+01   3.6986117890e+01    0.3157378    0.2091654 -78.15  0.001939194    1.323    0.244
         9 -13.5825     57.0443     26.8943   6.1594875548e+01   6.3829542327e+01     1.018709    0.3746884  38.32  0.003914854    2.482    0.597
        10 -13.2383    189.2609     26.3459   3.3487536645e+01   3.4945803338e+01    0.9897162    0.3592026 -52.20  0.004285141    2.810    0.644
        11 -11.8137     83.3041      8.7999   4.5868144931e+01   6.0583152743e+01    0.3929549    0.2405342  78.00  0.002036668    2.200    0.546
        12 -15.0411     98.9494     11.7882   4.3244196239e+01   5.6951467404e+01     1.385691    0.6919469  61.13  0.004872836    1.696    0.410
        13 -13.7463    165.9913     31.0161   3.7408667713e+01   3.9621160940e+01    0.8897719     0.461771  79.88   0.00338126    2.013    0.503
        14 -12.4213     70.0473     16.2213   5.2606263010e+01   6.2602480479e+01    0.3574144    0.2937283  72.55  0.001891571    1.563    0.360
        15 -11.4708     59.0848     15.9576   5.6194289549e+01   6.4716977848e+01    0.2737478    0.2297377   8.79  0.001860596    1.143    0.125
        16 -13.4322    215.6179     11.1640   2.7917234335e+01   3.1076854427e+01    0.6607195    0.3034361 -60.87  0.002479437    1.971    0.493
        17 -11.7889    222.3472      9.8532   2.7176262536e+01   2.9872987255e+01    0.3035282    0.1784263 -73.21  0.001480956    1.433    0.302
        18 -11.5635     46.6980     13.2497   5.9733746265e+01   6.7188666934e+01    0.2642928    0.1828272  33.75  0.001661222    1.199    0.166
        19 -13.6629     41.8557      4.2546   5.7484628972e+01   6.8905152503e+01    0.6374441    0.4417608  27.50   0.00354704    1.156    0.135
        20 -12.5471     85.7052     14.1815   4.7293747018e+01   5.9598291809e+01    0.4043238    0.3184805 -46.32  0.002099423    1.595    0.373
        21 -11.5225    153.0600      8.8487   3.3398055957e+01   4.4898489583e+01    0.2333992    0.1718803  64.35  0.001149599    1.215    0.177
        22 -10.4501    144.9936      8.2986   3.4278803954e+01   4.6793487981e+01    0.1720482    0.1294963  75.55 0.0002861581    1.103    0.093
        23 -10.4355    133.2570      8.6116   3.6008311873e+01   4.9459803662e+01    0.1751594   0.09375327  60.03 0.0003727523    1.542    0.351
        24 -10.8360     59.4509      7.8539   5.2539139539e+01   6.5438701530e+01    0.2576196    0.1152841  40.31  0.001309157    1.860    0.462
        25 -11.9173    224.9775      4.5205   2.5994851383e+01   2.9915582493e+01    0.2442022    0.1623459  55.12   0.00104253    1.995    0.499
        26 -11.8727    119.9758      3.7558   3.6616508040e+01   5.2897838922e+01    0.4269159    0.1696459  73.30  0.001878677    2.441    0.590
        27 -11.1624    117.2090      1.5931   3.6393913997e+01   5.3692519866e+01     0.293478    0.1546763  67.92  0.001446774    1.562    0.360
        28 -11.1118    232.5606      1.7992   2.5026048808e+01   2.8735420712e+01    0.1986734    0.1251419  88.09  0.001194571    1.336    0.252
        29 -10.7851    169.4366      2.0036   2.9897743085e+01   4.1822599310e+01    0.2952341   0.06691051  61.82  0.001167221    3.307    0.698
        30 -11.4420     81.0779      1.6443   4.3666058460e+01   6.1621589705e+01    0.4821599    0.0912024  56.06  0.001786753    3.359    0.702
        31 -11.5674     61.2488      1.6361   4.9216323663e+01   6.5623435191e+01    0.3854108    0.1319841  57.48  0.001609092    2.741    0.635
        32 -10.5451    182.2679      1.4111   2.8574541636e+01   3.9055111649e+01     0.167113   0.09167741  88.29  0.000948697    1.598    0.374
        33 -12.0025    111.2356    156.2714   8.1903873570e+01   2.7693195049e+01    0.5273798    0.2971548 -73.33  0.001819977    2.890    0.654
        34 -12.6792      2.9372    249.0956   1.2002215035e+02   1.9821957768e+01    0.5061671    0.3276628  75.78  0.002709464    1.283    0.220
        35 -13.3819      9.3193    245.6083   1.1859655081e+02   1.9929535230e+01    0.7407498     0.372427  62.78  0.003350008    1.720    0.419
        36 -12.4780     76.9616    156.8616   9.1916698366e+01   3.3272653860e+01     0.599081    0.3800977  24.73  0.001735631    1.743    0.426
        37 -13.5776     73.2500    153.9898   9.2499725235e+01   3.4570467982e+01    0.8557761    0.6369984  19.36  0.003351268    1.509    0.337
        38 -11.7387     85.4262    153.7495   8.8810683231e+01   3.2753470017e+01    0.5282654    0.2223465 -46.10  0.001859638    2.456    0.593
        39 -11.5406    103.3246    149.9059   8.2796012859e+01   3.0689977131e+01    0.3970372    0.2681246 -33.56  0.001710033    1.699    0.411
        40 -10.9701    191.6553    150.6848   6.1509434632e+01   1.3643953812e+01    0.1477775    0.1104091  -6.36 0.0007047884    1.715    0.417
        41 -12.2215     60.4851    147.7219   9.5274126425e+01   3.7999556701e+01    0.4640647    0.3295488   2.69  0.002158478    1.805    0.446
        42 -12.5901    210.9843    154.1392   5.8608685122e+01   9.5351541513e+00    0.4089459    0.2843641  20.35  0.002079058    1.847    0.459
        43 -11.4167     38.1105    145.9133   1.0198623074e+02   4.1155874373e+01    0.2211172    0.1870425  76.24 0.0006073914    1.242    0.195
        44 -11.9122    165.0003    197.4931   7.6623759068e+01   8.7071649965e+00    0.2015165    0.1190997  56.05 0.0008105136    2.568    0.611
        45 -12.1958     40.7449    137.2609   9.9747757060e+01   4.3124097613e+01    0.3509781    0.2773643  71.79  0.001850611    1.430    0.301
        46 -11.9855     45.2622    134.0838   9.7709651835e+01   4.3440577553e+01    0.4363555    0.2901773 -58.67  0.002134984    1.362    0.266
        47 -12.4604    246.4448    135.0760   4.9174947161e+01   7.1477918172e+00    0.3612492    0.2486426 -88.44  0.001882389    2.507    0.601
        48 -12.8701    135.9928    132.6575   6.9936106022e+01   2.8526766366e+01    0.6147455    0.2468288  41.39  0.002108596    2.551    0.608
        49 -12.0913    111.8314    132.1782   7.6366175608e+01   3.3448521387e+01    0.3715419    0.2974412 -23.76  0.001622755    1.414    0.293
        50 -10.1709     11.6313    133.6940   1.0867532723e+02   4.6652219545e+01    0.1446588   0.08494141 -40.26 0.0007035003    1.753    0.430
        51 -12.1950    222.9175    127.8167   5.1184220475e+01   1.2331312617e+01    0.3186842     0.172215 -46.23   0.00154414    1.611    0.379
        52 -10.0835     58.6905    125.2849   9.1490569221e+01   4.4016159891e+01    0.1454405    0.1134993  68.10 0.0003891514    1.571    0.363
        53 -11.2338    126.6566    124.5911   7.0419146914e+01   3.2268374383e+01    0.2958543    0.1516702  37.27  0.001117622    2.074    0.518
        54 -13.1336    111.3866    117.1317   7.2784520644e+01   3.7055763118e+01     1.799527    0.4589704  35.21  0.004087497    6.014    0.834
        55 -12.6175     28.3199    121.8985   1.0130204950e+02   4.8312366222e+01    0.3648652    0.3034896 -36.32  0.002098415    1.182    0.154
        56 -12.5652    181.1990    121.1350   5.6998552548e+01   2.1597734207e+01    0.3812915    0.2124827  48.63  0.001669434    1.913    0.477
        57 -13.4398     95.2824    110.3919   7.5874061483e+01   4.1712150771e+01    0.7593752    0.6898293  71.74  0.003167708    1.248    0.199
        58 -13.0810     84.1687    115.1294   8.0635205510e+01   4.2600360529e+01     1.208109    0.5407084  22.82  0.003798769    3.537    0.717
        59 -12.0905     78.2936    110.4601   8.1395971518e+01   4.4702016046e+01    0.4588509    0.3336049 -88.65  0.001629067    2.065    0.516
        60 -11.9830      4.4051    119.8286   1.0923306712e+02   5.0619129749e+01    0.5326232    0.2035302  15.85  0.002265517    3.033    0.670
        61 -13.9774    108.3086    124.7993   7.5600074952e+01   3.5878365412e+01     1.312692    0.6507509  38.29  0.005013388    2.053    0.513
        62 -11.9681     42.3697     90.8588   8.9445521986e+01   5.4399248026e+01    0.2912956    0.2348984 -53.36 0.0003681492    1.213    0.176
        63 -11.6439     34.8977     86.5552   9.1337813446e+01   5.6211004939e+01    0.3823935     0.251932 -23.92   0.00116637    1.580    0.367
        64 -13.4083      2.3948     97.4010   1.0661788939e+02   5.6212977343e+01    0.7588708    0.4356679 -74.05  0.002938163    1.664    0.399
        65 -12.5939     36.6628     93.0975   9.2256249157e+01   5.4524859638e+01     0.519136    0.3004925  13.90  0.001624396    1.946    0.486
        66 -14.3388     17.9691    110.8018   1.0306279638e+02   5.1957689906e+01    0.9565105    0.7207582 -51.53  0.003939999    1.142    0.124
        67 -14.7378     22.3106     94.9755   9.8370006775e+01   5.5448230069e+01     1.357922     1.051998   8.55  0.007308041    1.389    0.280
        68 -13.0541     29.5768     89.4104   9.4203236488e+01   5.6097119649e+01    0.8260071    0.5050761  75.34  0.003355267    3.342    0.701
        69 -13.9398     11.5398    103.8909   1.0424385693e+02   5.4108732508e+01    0.6286139    0.5989578 -31.45  0.003842035    1.135    0.119
        70 -12.2309    121.4094    112.3109   6.8720979885e+01   3.6096645914e+01    0.3989315    0.3167637  86.12   0.00129947    1.646    0.393
        71 -11.7894     62.4146    110.5914   8.6888353168e+01   4.7135262554e+01    0.6215562     0.313818  53.62  0.002233376    3.074    0.675
        72 -11.1245    222.5052    109.4965   4.7441480504e+01   1.5648873017e+01    0.1334848    0.1148074 -50.81 0.0008106214    1.015    0.014
        73 -11.6337     41.8154    107.0693   9.3522610526e+01   5.0634987924e+01     0.309802    0.1887832  29.65  0.001186483    1.737    0.424
        74 -13.4699    120.4847    102.1635   6.6274071291e+01   3.8472825838e+01    0.7734007    0.3476537  39.97  0.002829771    2.328    0.570
        75 -12.7822    136.2470    103.2288   6.2460949774e+01   3.4857023595e+01    0.7283376    0.3370185  50.75   0.00152756    2.232    0.552
        76 -12.1202     61.0668     98.2125   8.4255103299e+01   5.0250657837e+01    0.5081569    0.3505978  66.29  0.002255113    2.259    0.557
        77 -12.0634     46.9681     99.8698   8.9922332038e+01   5.1755664820e+01    0.5107704    0.3750567  60.02  0.002546056    1.828    0.453
        78 -11.3183     52.2575     97.9115   8.7442748787e+01   5.1542086009e+01     0.370448    0.2306231 -18.76  0.001387694    2.048    0.512
        79 -11.8821     49.3871     93.8452   8.7487800783e+01   5.2853959804e+01    0.4210733    0.3398411  79.58  0.001882962    1.720    0.419
        80 -12.3874    163.3398     98.2420   5.5057633260e+01   2.9859738263e+01    0.3618859    0.3249971  76.61 0.0007773864    1.134    0.118
        81 -12.6587    136.3051     95.3238   6.0334581535e+01   3.6429304862e+01    0.4953304    0.3351493  55.90  0.002283381    1.525    0.344
        82 -14.2934    106.5819    105.3958   7.1103567223e+01   4.0645636747e+01     1.288557    0.9952535 -21.67  0.005574814    1.502    0.334
        83 -10.9456    125.0127     92.0027   6.2267322107e+01   3.9567233675e+01    0.2397347    0.1874079 -89.39  0.001127083    1.678    0.404
        84 -13.3592    187.8622     84.5374   4.7224687800e+01   2.6939484893e+01    0.6719213    0.3259886  44.92  0.002493678    2.512    0.602
        85 -11.8762    242.5797     84.2108   3.9755532480e+01   1.6147506915e+01    0.3272215    0.1795454  72.27  0.001733358    2.250    0.555
        86 -12.4300    237.6265     80.6588   3.9615013982e+01   1.7591126278e+01    0.3231851    0.2112478 -79.27  0.001837312    1.738    0.425
        87 -11.9489    159.3454     68.1391   4.8090232769e+01   3.6027034801e+01    0.8615419    0.2552353 -44.60  0.002895297    3.404    0.706
        88 -13.2783    164.6356     71.8287   4.8081257811e+01   3.4222814652e+01    0.9668046    0.5048332  51.37  0.004311534    1.917    0.478
        89 -14.2315    169.5106     76.9970   4.8518984310e+01   3.2266066317e+01     1.471702    0.4351931  55.12  0.004988006    3.282    0.695
        90 -12.1941    158.1869     83.6232   5.2365384079e+01   3.3689831336e+01    0.3459273    0.2244059  53.94 0.0007342887    1.527    0.345
        91 -13.3074    161.8304     80.1331   5.0744809907e+01   3.3472165754e+01    0.6837195    0.3950212  39.87  0.002529007    2.121    0.529
        92 -12.1001     47.5899     81.9310   8.4956485274e+01   5.5739971961e+01    0.3979828    0.3497974 -82.94  0.002283155    1.486    0.327
        93 -13.1145     91.6977     58.1838   6.1366669705e+01   5.2756827083e+01    0.5159068      0.45813 -19.41  0.002077531    1.172    0.147
        94 -13.4353     54.0745     68.4589   7.8256068069e+01   5.7617706182e+01     1.695959    0.6366459  34.52  0.006697851    2.624    0.619
        95 -13.1817     87.1980     65.3987   6.5187500162e+01   5.2447152615e+01    0.9961411    0.5635421  18.10  0.003786565    2.965    0.663
        96 -12.9895     63.7387     57.1220   7.0625618207e+01   5.8177462970e+01    0.9347289     0.550532   7.50  0.003955962    2.613    0.617
        97 -12.8159     65.6686     49.7649   6.7256304912e+01   5.9066341382e+01     0.643649    0.4976009  32.73  0.003734789    1.195    0.163
        98 -12.9927     54.4111     82.1126   8.2312826500e+01   5.4778056220e+01    0.5656008    0.4640813 -56.42  0.003146363    1.339    0.253
        99 -14.0198     61.3203     75.7026   7.7709581983e+01   5.5086130354e+01    0.6636841    0.4948049 -24.06  0.001227553    1.357    0.263
       100 -13.0633     71.3131     75.1336   7.3806457036e+01   5.3568174762e+01    0.6435809    0.4167327   3.70  0.002124751    2.162    0.538
       101 -12.3981     77.1600     73.3356   7.1152591990e+01   5.2889413578e+01    0.5487658    0.3717838  -9.03  0.001779788    1.958    0.489
       102 -12.5979    218.5787     74.7294   4.0658858855e+01   2.2144557321e+01    0.6386916    0.2151175 -47.85  0.002587263    2.639    0.621
       103 -13.1089    211.5894     78.1056   4.2277604818e+01   2.3018070838e+01    0.5570976     0.356364 -82.28   0.00284483    1.901    0.474
       104 -12.4757    135.9115     79.8277   5.6161742978e+01   3.9424352979e+01    0.6341311    0.3220385  49.96  0.002069023    1.903    0.475
       105 -11.9357    113.7023     80.5128   6.1994043287e+01   4.4228696668e+01    0.3380824    0.3043722  27.59 0.0005616776    1.124    0.110
       106 -11.6102     41.9094     76.7824   8.5792436117e+01   5.7555701807e+01    0.4288507    0.1957341 -56.46  0.001809814    2.328    0.570
       107 -15.0214      6.4079     68.7826   9.9222641808e+01   6.2508747480e+01      1.30138    0.7599463 -59.02  0.005405645    1.537    0.350
       108 -11.4717     26.8395     75.5442   9.1841833299e+01   5.9456117170e+01    0.4008602    0.2670665  79.81  0.001810827    2.968    0.663
       109 -13.5249    198.9783     70.3234   4.2266658401e+01   2.6861959516e+01    0.7434838    0.4633016  45.89  0.002889038    1.988    0.497
       110 -12.2790    135.0018     66.4543   5.2571302777e+01   4.1906838060e+01     0.503712    0.2831585  50.90  0.001635411    1.683    0.406
       111 -11.9891     24.7604     59.4281   8.8114708804e+01   6.2993489185e+01    0.3992131    0.3623139 -40.49  0.001571221    1.236    0.191
       112 -11.3231     32.0512     65.0742   8.6536821361e+01   6.1112690491e+01    0.3836133    0.1858786 -40.43  0.001813182    1.874    0.466
       113 -11.8441     30.6121     60.8081   8.5852050597e+01   6.2117073823e+01    0.2864463    0.2168965 -65.57  0.001526445    1.748    0.428
       114 -10.7549     99.9659     65.5277   6.1285906223e+01   4.9827569745e+01    0.2211357     0.133497  46.79 0.0006769779    1.567    0.362
       115 -11.6556    199.7724     61.8627   4.0252006948e+01   2.7975046860e+01    0.2619514    0.2125545 -65.05  0.001604173    1.091    0.084
       116 -13.1943    178.1001     58.4497   4.2492952471e+01   3.3235103225e+01    0.5853392    0.4957293 -56.32  0.002069822    1.141    0.124
       117 -12.3728     79.4243     60.9158   6.6273797461e+01   5.4719588871e+01    0.4822914    0.4137886   8.15   0.00275044    1.141    0.124
       118 -12.9929     81.8901     54.6669   6.3296826530e+01   5.5279404669e+01    0.7268101    0.4137108  37.58  0.002802566    1.668    0.401
       119 -11.7524     38.7190     60.3154   8.2057769574e+01   6.1270148831e+01    0.2764907    0.2227179  59.24   0.00156773    1.869    0.465
       120 -11.1411    111.6008     59.2440   5.6051697631e+01   4.8343819464e+01    0.2713737    0.2178468  20.65 0.0008004922    1.407    0.289
       121 -14.3442    120.5030     54.9676   5.2492837976e+01   4.7002347839e+01    0.7898644    0.4784421  40.45  0.002138276    1.708    0.414
       122 -11.2113     17.6524     55.8280   9.0373690165e+01   6.4357935858e+01    0.3009684     0.179542 -46.47  0.001684508    1.476    0.323
       123 -11.3771    247.6596     54.5316   3.3583227498e+01   1.9572460947e+01     0.418091    0.1023657 -53.40  0.001462218    4.432    0.774
       124 -13.4975    102.9250     50.5664   5.5565206779e+01   5.1557891796e+01     0.916684    0.6522973 -86.13  0.002884175    2.258    0.557
       125 -12.8386     97.8319     50.8061   5.7064986613e+01   5.2617093193e+01    0.3682947    0.3573261  81.04  0.001486998    1.165    0.141
       126 -11.6961     35.4584     54.0581   8.1403500504e+01   6.2843376055e+01    0.2597507    0.1641149   7.43  0.001375235    1.669    0.401
       127 -11.6538    136.3338     49.8619   4.7487491235e+01   4.4096653332e+01      0.28473    0.2485318  58.25 0.0007756462    1.069    0.065
       128 -10.7248     23.2564     50.3119   8.5865237096e+01   6.4889006935e+01    0.1931619    0.1320591  -7.33 0.0006642253    1.395    0.283
       129 -11.2583    249.1647     49.0752   3.2444164748e+01   2.0040414000e+01     0.163305    0.1452524 -66.01 0.0007356734    1.257    0.205
       130 -11.8074    151.9597     47.0000   4.3761172725e+01   4.0852300013e+01    0.3152031    0.1901759  63.64  0.001088931    1.526    0.345
       131 -12.5859    158.7565     43.7449   4.1760660246e+01   3.9707675914e+01    0.5983394    0.3323882  48.72  0.002897407    1.897    0.473
       132 -10.2107     21.6899     46.7072   8.5393122305e+01   6.5707186034e+01    0.1295015   0.07973189 -18.17 0.0002181739    1.587    0.370
       133 -12.6714      3.9406     43.7172   9.3524145880e+01   6.7728189929e+01    0.4826925    0.3321263 -10.18  0.002923785    1.301    0.231
       134 -12.1725     11.7603     43.6859   8.9402231427e+01   6.7157359590e+01    0.4132859    0.2385496  -8.18  0.001845703    1.757    0.431
       135 -13.6899    217.3194     42.4041   3.4054417075e+01   2.7025128976e+01    0.9280445    0.3430756  63.65   0.00404657    2.627    0.619
       136 -13.0888    205.0089     40.3028   3.4880583799e+01   2.9847154186e+01    0.9516594    0.3914714  87.41  0.003482553    4.081    0.755
       137 -12.2285     28.3008    245.2900   1.1471681262e+02   1.8042499488e+01    0.4172886      0.24303  41.91  0.002430446    1.471    0.320
       138 -13.6998    171.7478    242.4095   8.2797101552e+01  -8.5667707650e-01    0.7942811    0.5202739  19.20   0.00440585    1.415    0.293
       139 -12.6419    138.9932     21.6701   3.8868757340e+01   4.6892797771e+01    0.6627291    0.2077578  61.41  0.002049019    2.558    0.609
       140 -12.1702    109.1988     42.0632   5.1132036812e+01   5.1355780689e+01    0.5338208    0.1932033  53.71  0.001585108    2.419    0.587
       141 -12.9260    101.8891    238.7762   9.7789893969e+01   9.9957815755e+00    0.6797249    0.3267252  35.72  0.003122123    1.810    0.448
       142 -12.2128    113.6484     38.0682   4.8769502703e+01   5.0868806199e+01    0.4354964    0.2817379  64.61  0.001994193    1.511    0.338
       143 -13.5855    121.9608     37.0930   4.6621359630e+01   4.9095234649e+01     0.843179    0.4230024  42.94  0.002675022    2.071    0.517
       144 -12.3648     75.5394     37.2717   5.9101188771e+01   5.9067327485e+01     0.398865    0.2145755  46.43  0.001127895    1.677    0.404
       145 -11.7748     70.7325     36.5674   6.0465815591e+01   6.0082921324e+01    0.2583125    0.2413928  47.33   0.00079752    1.246    0.198
       146 -12.6379    242.2015     36.1643   3.0630996342e+01   2.2990188179e+01    0.4769416    0.2339217  72.90  0.002036727    2.048    0.512
       147 -10.4624    104.4576     36.9403   5.0607655479e+01   5.3065057635e+01    0.1820657    0.1056333 -56.21 0.0008086161    2.532    0.605
       148 -10.7857     35.2429     35.0051   7.4340998325e+01   6.6091080647e+01    0.2163899    0.1621475  13.37 0.0007630148    1.163    0.140
       149 -12.3919     45.9488     33.7259   6.8971350521e+01   6.4740882123e+01    0.4919744    0.4204519  -5.51  0.003268639    1.110    0.099
       150 -11.5144     39.5471     32.3512   7.1249651857e+01   6.5891575238e+01    0.3747457    0.2732983 -15.14  0.002327505    1.288    0.224
       151 -12.1691    147.5126    239.1300   8.7520231453e+01   3.2171637566e+00    0.2170829     0.176581  44.17 0.0009132891    1.312    0.238
       152 -13.5977     92.9715    230.1564   9.8786564658e+01   1.3100054236e+01    0.6374661    0.5104616  19.92  0.003622635    1.316    0.240
       153 -13.7115     26.0849    226.7589   1.1389082762e+02   2.2311894397e+01    0.9893399    0.3752209 -58.81  0.004397488    2.728    0.633
       154 -13.5873     20.2501    224.1960   1.1499586240e+02   2.3491849215e+01    0.9766747    0.4719987 -57.88  0.004882391    2.226    0.551
       155 -11.0744    194.7404     23.5665   3.2302568574e+01   3.4073869738e+01    0.2535968    0.1874501  67.77  0.001631746    1.334    0.250
       156 -13.2095     63.4691    223.8729   1.0503689366e+02   1.8557921843e+01    0.8482944    0.5434155  33.98  0.004461909    1.480    0.324
       157 -10.2088     75.5104     31.5069   5.6914539575e+01   5.9815030510e+01    0.1331736    0.1091546  27.00 0.0008091413    1.085    0.078
       158 -12.7792    217.2124     29.0804   3.1351614384e+01   2.8721142544e+01    0.3335393    0.1887048 -70.82  0.001750924    1.670    0.401
       159 -13.9127     63.9476    214.7747   1.0391939755e+02   2.0597938508e+01     0.696439    0.4620095  75.95  0.003508173    1.683    0.406
       160 -11.2908     35.9669     23.5415   6.9121608779e+01   6.7635170339e+01    0.2781625    0.2059733 -16.82  0.001807078    1.274    0.215
       161 -10.8121     31.0416     25.4874   7.2343782681e+01   6.8051532396e+01    0.2689333    0.1022078  28.86  0.001202053    2.593    0.614
       162 -12.0823      3.9543    212.3407   1.1781975117e+02   2.7733906118e+01    0.4635051    0.2096362 -87.16  0.002267057    2.042    0.510
       163 -12.1020    171.7939     28.4031   3.6000565575e+01   3.8603083660e+01    0.3052481    0.2740996 -83.61  0.001205099    1.092    0.084
       164 -12.0508    224.0728     21.1006   2.9206185251e+01   2.8286635072e+01    0.2429743    0.2189744 -81.67  0.001182479    1.284    0.221
       165 -11.9754     48.7566     20.6682   6.2221504882e+01   6.6006011493e+01    0.6444687    0.2118578  42.87   0.00276787    2.658    0.624
       166 -12.4987     14.1804    222.4225   1.1620948921e+02   2.4492281372e+01    0.4319414    0.2833755 -86.01  0.001724267    1.371    0.271
       167 -11.1014    149.9697    207.4938   8.1855198725e+01   9.1061013506e+00     0.227044    0.1342423  34.05  0.001041962    1.618    0.382
       168 -11.5969    156.6614    214.8513   8.1594794084e+01   6.5277184520e+00    0.2808314     0.115696 -41.44  0.001093265    2.551    0.608
       169 -12.9644     15.7017    196.9298   1.1399924924e+02   3.0333839076e+01    0.5707456    0.3992743 -66.61  0.002672122    1.361    0.265
       170 -13.2938     22.2656    166.6873   1.0942451094e+02   3.7312753948e+01    0.6255329    0.3850237  47.90 0.0008515176    1.678    0.404
       171 -14.0184     29.9170    169.3923   1.0758412652e+02   3.5889762164e+01     1.249646     1.013309  62.00  0.007175085    1.234    0.189
       172 -15.1943      8.3555    183.4371   1.1472744984e+02   3.4282053292e+01     1.568553     1.096323 -78.32   0.00915181    1.237    0.191
       173 -15.1775     15.8322    175.4095   1.1207925111e+02   3.5660315796e+01     2.459362     1.109696  65.86   0.01004098    2.732    0.634
       174 -13.1945     40.4138    195.2212   1.0765677133e+02   2.8222960475e+01    0.4414942    0.2199616  87.59  0.001811434    2.493    0.599
       175 -10.2482    123.4594     11.4528   3.8403369835e+01   5.1457597278e+01     0.125609    0.1045959  65.79 0.0003593301    1.010    0.010
       176 -12.2476    200.8802    191.7415   6.7970550819e+01   4.0496836269e+00    0.3649555    0.2663967 -22.62  0.001326029    1.313    0.238
       177 -11.3504     80.0847    193.0309   9.6983888372e+01   2.3609566180e+01    0.4014757    0.1574397  43.00  0.001477991    2.478    0.596
       178 -12.5870     98.8191    187.2557   9.1103245141e+01   2.2155907472e+01     0.451901    0.3144363  -3.34  0.001961462    2.080    0.519
       179 -12.2711    156.0806    185.3312   7.6355899284e+01   1.2799749496e+01     0.266216    0.2020514 -32.92   0.00130935    1.326    0.246
       180 -11.7260     48.9329    182.3748   1.0390677124e+02   3.0464596997e+01    0.2906082    0.1971602 -60.13  0.001319348    1.412    0.292
       181 -12.1846    198.3063    181.5734   6.6516353243e+01   6.3909466502e+00    0.3215062    0.2737945  25.96  0.001673832    1.232    0.188
       182 -11.2921    122.4367    181.6172   8.3909893177e+01   1.9556044378e+01    0.3653063    0.2247955  89.20  0.001225357    3.532    0.717
       183 -13.1447    123.9789    166.6989   8.0606466674e+01   2.2841235157e+01    0.6714381    0.4362221 -72.86  0.002728558    2.131    0.531
       184 -10.9505    177.6703    167.3198   6.7890321028e+01   1.2791318659e+01    0.1434069    0.1183913 -89.18 0.0007048064    1.689    0.408
       185 -11.2109    102.1923    161.3787   8.5468981651e+01   2.8021836593e+01    0.2311766    0.1380351  45.05 0.0009557692    1.730    0.422
       186 -13.6237     22.2202    181.3587   1.1096317279e+02   3.3582557116e+01      1.05911    0.4256742 -57.95  0.004527837    2.272    0.560
       187 -12.3371    237.8419    159.7068   5.5208951501e+01   4.2102658523e+00    0.5369238    0.1131159  40.68  0.001668232    6.036    0.834
