#   1 NUMBER                 Running object number                                     
#   2 MAG_AUTO               Kron-like elliptical aperture magnitude                    [mag]
#   3 X_IMAGE                Object position along x                                    [pixel]
#   4 Y_IMAGE                Object position along y                                    [pixel]
#   5 X_WORLD                Barycenter position along world x axis                     [deg]
#   6 Y_WORLD                Barycenter position along world y axis                     [deg]
#   7 A_WORLD                Profile RMS along major axis (world units)                 [deg]
#   8 B_WORLD                Profile RMS along minor axis (world units)                 [deg]
#   9 THETA_WORLD            Position angle (CCW/world-x)                               [deg]
#  10 FWHM_WORLD             FWHM assuming a gaussian core                              [deg]
#  11 ELONGATION             A_IMAGE/B_IMAGE                                           
#  12 ELLIPTICITY            1 - B_IMAGE/A_IMAGE                                       
         1 -14.3923    199.9333     18.2512   6.5346831117e+01   3.3208607914e+01     2.129456     1.343036  45.17  0.008553405    1.848    0.459
         2 -13.4081      5.3250     10.6208   1.1474823925e+02   7.0588007131e+01     1.506479    0.5595552 -34.79  0.008595216    2.088    0.521
         3 -14.0105    205.5119     10.8903   6.2926225678e+01   3.2679167463e+01     2.906066     1.656528  21.70  0.001361176    4.005    0.750
         4 -10.5398    173.2415    221.1304   1.1785746705e+02   2.7109665902e+00    0.2635354    0.1675742  63.06  0.001252549    2.051    0.512
         5 -10.4242    249.2197    249.6104   1.0845577467e+02  -1.4010968275e+01    0.3782057    0.1104694  32.19  0.001494153    3.568    0.720
         6 -12.3970    140.1007    248.8178   1.2834551529e+02   3.8110927843e+00    0.5270393    0.3260998  55.07  0.002973691    1.458    0.314
         7 -13.2073    106.0643    246.7045   1.3439870518e+02   9.7716309431e+00    0.8606501     0.450909  34.19  0.003603292    2.272    0.560
         8 -13.1812    103.6726    243.1221   1.3444247516e+02   1.0800245684e+01    0.6952082    0.6384178 -80.48  0.004183318    1.294    0.227
         9 -13.2406     89.4311    245.1555   1.3725694949e+02   1.2632572470e+01     0.898625    0.3779756  54.13  0.002900661    2.075    0.518
        10 -12.5111     85.4103    239.8443   1.3744711235e+02   1.4229183464e+01    0.3849617    0.3399005 -69.27 0.0009786931    1.400    0.286
        11 -12.9632     80.8177    234.6888   1.3776378476e+02   1.5899502862e+01    0.7429117    0.3776112  75.43  0.001440453    2.444    0.591
        12 -15.0662     33.4859    247.5945   1.4702189657e+02   1.9748740291e+01     9.423853     2.757313  33.14   0.03158802    7.508    0.867
        13 -15.5093     52.8411    214.3256   1.4097376715e+02   2.3902499378e+01     4.475839       2.0437  57.73   0.02271851    2.054    0.513
        14 -10.1382    229.2687    206.7102   1.0439953954e+02  -4.9804032014e+00    0.2496793    0.2057835 -60.27 0.0009804306    1.714    0.417
        15 -10.3559    192.5046    194.0018   1.0909730040e+02   3.9508530498e+00    0.6811019    0.3199745 -62.35  0.001774743    6.785    0.853
        16 -11.7660     68.7466    193.6399   1.3553963940e+02   2.6221244190e+01    0.3945881    0.2550971 -45.25   0.00152628    2.065    0.516
        17 -11.8271     73.7531    186.5844   1.3356290451e+02   2.7089170098e+01     0.306382    0.2276477 -52.90 0.0009104081    1.504    0.335
        18  -8.8493    181.5071    192.4509   1.1105462081e+02   6.3933334392e+00    0.1426736    0.1336908  34.65 0.0001015072    1.005    0.005
        19 -11.1757     82.5293    174.7875   1.2991681940e+02   2.8485856115e+01    0.2545543    0.2176996 -68.45 0.0004844618    1.140    0.123
        20 -13.3899     70.0199    172.1644   1.3239624808e+02   3.0929633709e+01    0.4971836    0.2786685 -44.80  0.001601966    2.235    0.553
        21 -12.4425     58.0930    132.0764   1.2887684170e+02   4.1949108614e+01     2.808623    0.8135123 -69.60  0.005761014    9.782    0.898
        22 -12.3247     89.0636    166.3887   1.2705167746e+02   2.9423117671e+01    0.7684301    0.5396025  58.45  0.003980896    1.452    0.311
        23 -13.3974     68.1613    145.4139   1.2861690768e+02   3.7484942758e+01     1.533495    0.8091779  89.05  0.003037885    3.476    0.712
        24  -9.3894    164.4993    157.4958   1.0756159245e+02   1.7031932340e+01    0.1522451    0.1487516  76.25  0.000810646    1.013    0.013
        25 -10.1020    101.0842    150.0136   1.2114660570e+02   3.1283575610e+01    0.3269652    0.2639872 -53.51 0.0007897709    1.208    0.172
        26  -9.5060    103.8384    145.9910   1.1965010232e+02   3.1750820103e+01    0.3335173    0.2091869 -29.74  0.001365813    2.397    0.583
        27 -12.1984     90.0284    149.2614   1.2377823690e+02   3.3309721794e+01    0.2893101    0.2537288 -41.68 0.0005102867    1.265    0.210
        28 -10.1694     35.5048    150.4929   1.3745506306e+02   4.0187552219e+01    0.1276544    0.1029551 -77.98 6.245219e-05    1.000    0.000
        29 -10.8432     43.1506    148.9118   1.3539713090e+02   3.9742470092e+01    0.2068446    0.1570712  86.42 0.0009114778    1.258    0.205
        30 -13.7874     44.9240    227.5109   1.4359961785e+02   2.2216403323e+01    0.7082494    0.4065402  72.47  0.001149103    1.518    0.341
        31  -9.7619    111.6097    135.6933   1.1547381607e+02   3.2755889200e+01    0.3121845    0.2396946 -15.13  0.001312049    1.827    0.453
        32 -10.6892     99.1682    132.7732   1.1807441485e+02   3.5675992321e+01      0.28817    0.2182685 -35.75  0.000425311    1.473    0.321
        33 -14.3168     10.2609    206.6223   1.4813910289e+02   3.0313377997e+01     1.500866     1.050093 -60.54  0.007270922    1.686    0.407
        34 -11.8418     44.0921    128.2836   1.3194467606e+02   4.4453771947e+01     0.402126    0.1971754 -71.16  0.001658074    1.983    0.496
        35  -8.6329    117.2717    128.3925   1.1234094890e+02   3.3368919388e+01    0.1560989    0.1175845 -21.91  0.000698874    1.726    0.421
        36 -14.6326      4.9174    150.2555   1.4447265795e+02   4.2939801020e+01     2.014529     1.458609  64.52  0.001269952    1.423    0.297
        37  -9.5440    108.1481    123.0909   1.1348746388e+02   3.6314733760e+01    0.2081816    0.1916525 -27.42 0.0002989403    1.165    0.142
        38 -11.2181    168.0364    113.0378   9.6124429221e+01   2.5719097243e+01    0.3765028    0.3140633 -78.47 0.0007160075    1.372    0.271
        39  -9.6325    204.4819    110.8563   8.8091695258e+01   1.7582652164e+01    0.3289655    0.1954322  37.17  0.001338388    2.067    0.516
        40 -11.6939     43.2838    109.2793   1.2868835376e+02   4.8901613718e+01    0.4070196    0.2059114  34.14  0.002037593    2.279    0.561
        41 -11.2203      1.8281     87.7780   1.3705389176e+02   5.6836552222e+01    0.4374473   0.08067697 -63.81  0.001665466    3.518    0.716
        42 -11.0760      2.5030     76.5063   1.3478639354e+02   5.9136812638e+01    0.2557134     0.147102 -65.74  0.001589528    1.447    0.309
        43  -9.5522    156.1697     76.6128   8.8813969959e+01   3.5592427060e+01    0.2143155    0.1363309  43.39 0.0002932821    1.612    0.379
        44 -10.2173    128.2878     54.6314   8.8645590419e+01   4.5719522972e+01    0.2672918    0.2207675 -78.30 0.0007012016    1.572    0.364
        45 -11.0401    120.3370     49.5682   8.8987512167e+01   4.8228906562e+01    0.4234838     0.295602  81.13  0.001097226    2.272    0.560
        46 -11.8825    125.4803    244.3190   1.3051873595e+02   7.0346285117e+00    0.2500071    0.2223482  64.28  0.001292241    1.104    0.094
        47 -15.5053      3.0812    230.7522   1.5084133763e+02   2.6225215732e+01     10.74581          nan -71.12   0.03224108    8.174    0.878
