#   1 NUMBER                 Running object number                                     
#   2 MAG_AUTO               Kron-like elliptical aperture magnitude                    [mag]
#   3 X_IMAGE                Object position along x                                    [pixel]
#   4 Y_IMAGE                Object position along y                                    [pixel]
#   5 X_WORLD                Barycenter position along world x axis                     [deg]
#   6 Y_WORLD                Barycenter position along world y axis                     [deg]
#   7 A_WORLD                Profile RMS along major axis (world units)                 [deg]
#   8 B_WORLD                Profile RMS along minor axis (world units)                 [deg]
#   9 THETA_WORLD            Position angle (CCW/world-x)                               [deg]
#  10 FWHM_WORLD             FWHM assuming a gaussian core                              [deg]
#  11 ELONGATION             A_IMAGE/B_IMAGE                                           
#  12 ELLIPTICITY            1 - B_IMAGE/A_IMAGE                                       
         1 -14.0259    214.9894      3.7184   4.4291462179e+01   2.9803502186e+01     1.747811    0.8956671  64.30  0.005712103    1.863    0.463
         2 -15.1960    191.0630     32.7610   5.5546432019e+01   3.2841426435e+01     3.390063     1.920954  20.74   0.01272272    2.832    0.647
         3 -13.1551     42.2526      4.3331   8.2676700845e+01   7.0169844932e+01    0.6220636    0.3919497  32.31  0.002938636    1.661    0.398
         4 -19.1930     13.7148    104.7306   1.2252895954e+02   5.2225245525e+01     15.68801    0.6879889 -72.67   0.02684833   17.191    0.942
         5 -16.7368     71.1198    146.3173   1.1285690394e+02   3.6838211203e+01     10.50887     4.918282  77.24   0.03408367    4.532    0.779
         6 -11.3057     39.2243    212.7283   1.2577128614e+02   2.7628120658e+01    0.1696541   0.09483278  53.67 0.0005415566    1.363    0.266
         7 -17.3810     28.8334    242.2911   1.2902857607e+02   2.3852806750e+01     3.328716     2.059886 -88.84   0.02396908    1.512    0.338
         8 -16.8774     62.2103    248.1594   1.2404633045e+02   1.9179782731e+01      8.19703     2.354104  32.92   0.02645954    8.143    0.877
         9 -13.5903    111.9333    196.2280   1.1049174885e+02   2.0813738865e+01    0.9011106    0.5402707  28.05  0.004694632    2.171    0.539
        10  -9.1948     85.3068    218.3434   1.1789436586e+02   2.0930394417e+01   0.09583909   0.08866117   3.36 0.0005709655    1.691    0.409
        11 -12.9547    107.0156    203.4356   1.1230787947e+02   2.0320023246e+01    0.5584975    0.2984014  53.61  0.003088367    1.627    0.385
        12 -11.6772     71.8359    210.1276   1.1965820849e+02   2.4145072187e+01    0.3653259    0.2461649  26.29 0.0004260651    2.087    0.521
        13 -10.4480     37.1510    206.6837   1.2577115427e+02   2.8929048808e+01    0.1490065   0.09429819  58.25 0.0009242881    1.205    0.170
        14 -10.7652    157.6738    200.8733   1.0222992627e+02   1.2457183839e+01    0.2779241    0.1863089 -89.27  0.001377494    2.799    0.643
        15 -10.8622     95.0359    200.2233   1.1427985865e+02   2.2676975613e+01    0.2894268    0.1847009  70.59 0.0008320176    1.593    0.372
        16 -11.3095     99.0414    196.9121   1.1312584167e+02   2.2674620184e+01    0.2753741    0.2408876 -25.79  0.001850068    1.716    0.417
        17  -9.8790     80.9959    220.5060   1.1886282594e+02   2.1155641154e+01    0.1664846     0.088659  43.92 0.0004849889    1.532    0.347
        18 -11.8513    193.2099    194.8902   9.4690644394e+01   7.1370239497e+00    0.8150871    0.4492171 -62.69  0.002964932    5.521    0.819
        19 -12.7960     46.1505    215.0757   1.2469181026e+02   2.6436686736e+01    0.4371835    0.1702846  62.70   0.00150895    2.386    0.581
        20 -12.0156     36.7861    200.2364   1.2542946998e+02   3.0140025294e+01    0.1697754    0.1302823  66.43 0.0005091433    1.081    0.075
        21  -8.9638     46.7539    198.1817   1.2342017330e+02   2.9401813145e+01    0.1007882   0.05979524  60.29  0.000638061    1.347    0.258
        22 -11.0867    208.4066    196.8737   9.2313345887e+01   4.2433896271e+00    0.2065588    0.1503962  43.18 0.0005544338    1.290    0.225
        23  -9.9847     81.8682    195.6776   1.1638988850e+02   2.5387468338e+01    0.2528313    0.2345972   8.52  0.001810061    1.589    0.371
        24 -11.6454    153.2917    193.7299   1.0201217025e+02   1.4331877258e+01    0.3376246    0.2210554  65.93  0.001484894    1.942    0.485
        25 -12.8694     69.5798    189.7025   1.1824409415e+02   2.8175916013e+01    0.6140982     0.533181 -76.20  0.004458657    1.310    0.237
        26  -8.5988     61.5188    187.9330   1.1969608188e+02   2.9554791598e+01    0.2863375    0.2217731  32.19  0.001198469    1.595    0.373
        27 -11.3145     44.4818    210.4702   1.2469085525e+02   2.7435530442e+01    0.2047058    0.1049939  52.01 0.0007113703    1.502    0.334
        28 -10.1824     94.5150    250.3088   1.1894683489e+02   1.4742905842e+01    0.1855118    0.1033482  47.69  0.001270016    1.293    0.227
        29  -9.1840     98.5967    213.7302   1.1500901404e+02   1.9824740656e+01    0.1445844    0.1011325 -89.27 0.0009385627    1.569    0.363
        30 -13.2780     60.5473    203.6359   1.2123358067e+02   2.6745376647e+01    0.6030557     0.438084  85.04  0.001961634    1.237    0.192
        31 -12.2670    107.6190    210.4207   1.1297016660e+02   1.9043219305e+01    0.5676616    0.2523575  45.42  0.001884125    1.798    0.444
        32 -11.7965    150.0358    181.4221   1.0074418742e+02   1.6937001454e+01    0.3528891    0.2345689  81.01  0.001379404    2.488    0.598
        33 -11.3610     99.4736    180.7331   1.1108671725e+02   2.5606381051e+01    0.2323698    0.1935275  58.59 0.0005635075    1.042    0.040
        34  -9.6647     68.8241    177.8410   1.1720143365e+02   3.0581957920e+01    0.1677666    0.1130024  64.38 0.0004500728    1.301    0.231
        35 -12.9156     53.8091    210.0206   1.2297013350e+02   2.6424858178e+01    0.4118643    0.1584244  58.11  0.001812192    2.300    0.565
        36 -10.3487     49.0019    172.5714   1.2086651913e+02   3.4110644517e+01    0.2435859    0.1987045  39.56  0.000926314    1.420    0.296
        37 -10.3022    164.9853    171.5299   9.6062086844e+01   1.5848887074e+01     0.213213     0.184452 -74.54 0.0003562135    1.430    0.301
        38 -10.5110    201.4577    168.6185   8.8483630782e+01   9.3754251162e+00    0.3643115    0.2295457 -56.74  0.001721597    2.535    0.606
        39 -10.9451    204.2125    165.1807   8.7310684948e+01   9.3577194169e+00    0.4731707    0.2863322 -39.96  0.001602054    1.838    0.456
        40 -11.3161    193.8415    166.6886   8.9534207268e+01   1.1114246345e+01    0.2950631    0.2628478  30.70 0.0007558637    1.041    0.040
        41 -10.2668    191.1523    161.8991   8.9114579497e+01   1.2374447649e+01    0.3048456    0.2530876  84.65  0.001232831    1.720    0.419
        42 -10.1343    139.1622    167.5823   1.0070784094e+02   2.1360578004e+01    0.2088121    0.1812426 -80.49 0.0003489916    1.284    0.221
        43 -10.7116    159.4435    163.8564   9.5801087216e+01   1.8218698788e+01    0.2425594    0.2016254  74.28 0.0007581132    1.409    0.290
        44 -11.6544     48.1758    205.9685   1.2371362850e+02   2.7813848255e+01    0.2424174    0.1807244  49.36  0.001158739    1.274    0.215
        45 -12.6197     96.5953    154.2692   1.0800086907e+02   3.1352943337e+01    0.5829167    0.4494058 -27.69  0.002262984    1.930    0.482
        46 -11.6098    133.8308    144.9534   9.7773754009e+01   2.6694275373e+01     1.112944    0.2964474 -55.13  0.002958431    5.801    0.828
        47 -10.2469    113.0903    151.5639   1.0374300557e+02   2.9157999649e+01    0.2413818    0.1809937 -81.30 0.0005295587    1.490    0.329
        48 -10.5675    174.5553    148.9999   8.9793803848e+01   1.7813721429e+01    0.2586875    0.2317701  53.14  0.000662873    1.133    0.117
        49 -11.3907    144.0227    146.9511   9.5877019057e+01   2.4326011434e+01    0.4288442    0.2407146 -62.41  0.001804746    2.429    0.588
        50  -9.5938    160.1555    147.3996   9.2463995067e+01   2.1023731552e+01    0.1984591    0.1265693  55.55 0.0003529805    1.636    0.389
        51 -11.1384    189.0815    154.9726   8.8129804696e+01   1.3883264216e+01     0.415333    0.3627291  71.14  0.002394169    1.402    0.287
        52 -10.1180    115.6999    144.3919   1.0186541133e+02   3.0173516716e+01     0.216636    0.1526875  75.06 0.0005316673    1.702    0.413
        53 -12.1014    107.9297    139.9270   1.0290022909e+02   3.2480766432e+01    0.5157043    0.3573148 -34.80    0.0025582    1.913    0.477
        54 -12.5293     96.0881    139.7157   1.0574324364e+02   3.4522924470e+01    0.2834518    0.2624262 -76.90 0.0004515677    1.097    0.089
        55 -11.4513    105.9811    130.4955   1.0159462425e+02   3.4837983990e+01    0.4222361    0.2995763 -62.80  0.002187186    1.429    0.300
        56 -11.2322    102.6955    126.3171   1.0159893639e+02   3.6317719230e+01    0.2938728    0.2572122 -24.75   0.00112673    1.419    0.295
        57 -11.3612    115.0622    130.1514   9.9272912696e+01   3.3277116886e+01    0.3184027    0.2772953 -19.60 0.0009474644    1.438    0.305
        58 -11.3175    135.8445    127.9015   9.3781841037e+01   2.9724107601e+01    0.4757943    0.1541459 -50.44  0.001545157    3.386    0.705
        59 -10.2875    160.4934    127.4834   8.8081980536e+01   2.4654589938e+01     0.298063    0.1459891 -42.47  0.001199466    2.127    0.530
        60 -11.0956    119.8498    124.5018   9.6907645823e+01   3.3575685897e+01     0.270741    0.2278879 -18.42 0.0009178045    1.504    0.335
        61 -10.0754    135.0000    119.9601   9.2192376794e+01   3.1513244480e+01    0.2397258   0.08375201 -46.28 0.0008004779    2.929    0.659
        62 -10.1903    110.2142    119.0653   9.8161079321e+01   3.6547101341e+01    0.2232725    0.1963123  53.79 0.0003024701    1.124    0.110
        63 -10.1711    168.0103    112.9685   8.2972779064e+01   2.5708998031e+01    0.3470429    0.2430414 -81.89  0.001354917    2.337    0.572
        64 -10.1482    135.0000    112.5106   9.0424411817e+01   3.3036385935e+01    0.3238629   0.08445518 -45.24 0.0009292987    3.891    0.743
        65 -11.6979    119.5956    110.4746   9.3785707180e+01   3.6599684897e+01    0.5987352    0.3074355  49.68    0.0024759    1.997    0.499
        66 -10.2862    205.6180    110.0950   7.4825913619e+01   1.7658103216e+01    0.2756432    0.2058703  40.04 0.0006613905    1.332    0.249
        67 -11.4844     53.5979     90.9366   1.0826450878e+02   5.1602891855e+01    0.2884242    0.2466944  87.21  0.001265785    1.190    0.160
        68 -10.6276     41.7196     91.9549   1.1220826822e+02   5.2696121112e+01    0.1893317    0.1820055  74.42 0.0004772197    1.171    0.146
        69 -10.0020     70.2142     72.1923   9.8266956379e+01   5.3577064835e+01    0.1925445    0.1734557 -38.59 0.0004683268    1.082    0.075
        70 -12.0031    165.2658     65.6486   7.0302707132e+01   3.4798055218e+01    0.6205398    0.3900319 -44.89 0.0004910744    1.647    0.393
        71 -10.1532     72.0677    230.0491   1.2119446185e+02   2.0766500738e+01    0.1553268    0.1083425  60.60 0.0003996415    1.064    0.060
        72 -13.5768    176.0098     47.7429   6.2629417505e+01   3.4796770363e+01    0.8877856    0.7381858 -12.54 0.0008622101    1.293    0.226
        73  -9.6176     64.2211    223.6587   1.2209280249e+02   2.2805917501e+01    0.1065126    0.0617505  70.12  0.000683784    1.532    0.347
