#   1 NUMBER                 Running object number                                     
#   2 MAG_AUTO               Kron-like elliptical aperture magnitude                    [mag]
#   3 X_IMAGE                Object position along x                                    [pixel]
#   4 Y_IMAGE                Object position along y                                    [pixel]
#   5 X_WORLD                Barycenter position along world x axis                     [deg]
#   6 Y_WORLD                Barycenter position along world y axis                     [deg]
#   7 A_WORLD                Profile RMS along major axis (world units)                 [deg]
#   8 B_WORLD                Profile RMS along minor axis (world units)                 [deg]
#   9 THETA_WORLD            Position angle (CCW/world-x)                               [deg]
#  10 FWHM_WORLD             FWHM assuming a gaussian core                              [deg]
#  11 ELONGATION             A_IMAGE/B_IMAGE                                           
#  12 ELLIPTICITY            1 - B_IMAGE/A_IMAGE                                       
         1 -13.3658     65.2286     52.5935   6.9720208767e+01   5.8857197866e+01     1.231376    0.6851964 -23.90  0.005602211    2.094    0.522
         2 -14.8578      6.3439     71.2628   1.0168617959e+02   6.1807194265e+01     1.103568    0.6907077 -48.34  0.004675335    1.264    0.209
         3 -14.2888    212.1491     41.2554   3.4529414604e+01   2.8161575779e+01     2.064025    0.8885343  82.32  0.008809486    2.986    0.665
         4 -13.7681    189.0315     26.0556   3.3625925325e+01   3.5025095599e+01     1.440997    0.5597608 -62.52  0.005430675    3.726    0.732
         5 -14.0256    187.7143     12.1896   3.0594569453e+01   3.6822280323e+01     1.191684    0.5654849 -52.47  0.006259453    2.026    0.506
         6 -14.6496    147.1140     29.6289   4.0151021626e+01   4.4254559145e+01     1.339702    0.8364573  57.49  0.007178838    1.432    0.301
         7 -13.1126      7.9857      2.7700   7.5618953540e+01   7.3962614167e+01    0.5770252     0.392836  37.34  0.002563683    2.050    0.512
         8 -13.6699      3.0647     10.2601   8.2640009476e+01   7.3423745364e+01    0.7660891    0.4896016 -34.58  0.005181167    1.450    0.310
         9 -15.9674     12.7668     21.3942   8.1911078476e+01   7.0892990188e+01     1.895613     1.018921 -21.39  0.009088685    1.718    0.418
        10 -14.1963     25.3142     13.9108   7.1335105309e+01   7.0530597372e+01    0.7684625    0.3283897  31.25  0.003978482    2.085    0.520
        11 -14.6324    217.7725     13.0787   2.8204831827e+01   3.0366675517e+01     1.085392    0.9258733 -26.45  0.006861484    1.614    0.380
        12 -12.9671    120.5417     25.8467   4.3853569860e+01   5.0895000236e+01     0.704774    0.4356427  37.27  0.003637898    1.738    0.425
        13 -13.2698     55.4585     27.2895   6.3493989805e+01   6.4279160293e+01    0.6501774    0.3456951  40.77  0.002464917    1.696    0.410
        14 -12.0548     63.7375     25.1253   5.9363800791e+01   6.3072709859e+01    0.5171894    0.3322397  -4.50  0.002810314    1.775    0.436
        15 -15.2147     99.0297     11.4216   4.3562037835e+01   5.7178502472e+01     1.560252    0.7363015  61.43  0.007160648    1.828    0.453
        16 -12.4622     69.9056     16.0104   5.3350708588e+01   6.2895820263e+01    0.3449595    0.3010677  68.65  0.002018094    1.473    0.321
        17 -11.6608     46.6214     13.0293   6.0721232307e+01   6.7458655920e+01    0.2644746    0.2193503  28.80   0.00166958    1.192    0.161
        18 -13.9039     41.6062      4.3353   5.8633084066e+01   6.9175629764e+01    0.6826686    0.4793584  26.81  0.004533258    1.112    0.101
        19 -12.9398     85.6219     14.3595   4.7986327607e+01   5.9833177846e+01    0.4439032     0.361843 -28.73  0.001959711    1.443    0.307
        20 -12.4098    152.8566      9.0807   3.3674263358e+01   4.5008340720e+01    0.2602477    0.2040237  58.28  0.001424802    1.236    0.191
        21 -11.7400     59.1153     16.2429   5.7229584774e+01   6.4923620420e+01     0.331599    0.2331882  45.84  0.002016824    1.348    0.258
        22 -10.9720    133.2040      8.7991   3.6327591793e+01   4.9590597856e+01    0.1812975    0.1472488  81.92 0.0004087689    1.127    0.113
        23 -11.0522    145.0000      8.2769   3.4482960434e+01   4.6898240189e+01    0.1738032    0.1336613  74.04 0.0002936784    1.084    0.078
        24 -10.6403     59.2225      7.5986   5.3306975197e+01   6.5750765513e+01    0.1765285   0.08850473  40.60 0.0003153132    1.609    0.378
        25 -12.1256    120.1851      3.6215   3.6816486716e+01   5.3020349397e+01    0.4528414    0.1982155  77.79   0.00198573    2.530    0.605
        26 -11.2610    117.0461      1.5008   3.6664736326e+01   5.3899803982e+01    0.2844799     0.151534  72.21  0.001295562    1.672    0.402
        27 -10.1927     67.3004      4.3193   4.9168152137e+01   6.4469758670e+01    0.1284402      0.07401  29.82 0.0005739336    1.622    0.383
        28 -11.1754    232.6048      1.7875   2.5047690026e+01   2.8630575275e+01    0.2009646    0.1261731  86.10  0.001385901    1.366    0.268
        29 -14.5612    166.5210     28.7816   3.7035539151e+01   3.9817238309e+01     1.158559    0.8049241  76.26  0.005321719    1.294    0.227
        30 -11.4902    169.7582      1.7309   2.9914094144e+01   4.1809739089e+01    0.3762536   0.09202614  66.09  0.001519409    3.032    0.670
        31 -11.4757     61.3289      1.5747   4.9856596533e+01   6.5857479319e+01    0.3105652    0.1190287  54.64  0.001451569    2.259    0.557
        32 -13.2509    132.1380     32.9935   4.3794727119e+01   4.7388457126e+01     0.579467    0.5242851   1.35  0.002159106    1.298    0.229
        33 -11.3708     81.6218      1.4431   4.3945487914e+01   6.1750340992e+01    0.4093474   0.09450611  59.38  0.001506436    3.388    0.705
        34 -13.8823    121.9603     36.7622   4.7062140334e+01   4.9311318399e+01    0.9423599    0.5023238  38.07  0.004239719    2.114    0.527
        35 -14.2951     97.3432    239.2514   1.0054455169e+02   9.9674624272e+00    0.8560605    0.7751564  68.24  0.005364547    1.150    0.130
        36 -12.5429      2.9557    249.2296   1.2153527760e+02   1.9129113139e+01    0.4572383     0.288951  74.81  0.002922243    1.301    0.231
        37 -13.5806      9.4872    245.7230   1.2010464038e+02   1.9229606844e+01    0.7642968    0.3957058  59.13   0.00346036    1.608    0.378
        38 -11.5486    103.3656    150.1155   8.4349139728e+01   3.0355586354e+01    0.4049108    0.2542413 -29.73   0.00159969    1.999    0.500
        39 -11.1717     12.5170    148.9228   1.1195639351e+02   4.2176943042e+01    0.2157974    0.1160854 -73.20  0.001030069    1.584    0.368
        40 -11.8531    244.3409    147.4897   5.2502384943e+01   4.9313174104e+00    0.2471582     0.101272 -41.23  0.001094172    1.977    0.494
        41 -12.4055     60.5427    147.2731   9.6879126943e+01   3.7760092583e+01    0.4846486    0.3511366   8.53  0.002295963    1.660    0.398
        42 -12.2709    209.8297    155.1998   5.9890127917e+01   9.1342515887e+00    0.5721794    0.2924845  30.11  0.002378656    2.589    0.614
        43 -11.5381      6.6711    145.3301   1.1329660115e+02   4.3510188829e+01    0.2398097    0.1374725   5.12   0.00118126    2.265    0.558
        44 -12.2166     44.8683    134.7162   9.9689911978e+01   4.2988233881e+01     0.468934    0.2820207 -63.46  0.002153588    1.514    0.340
        45 -12.9718    246.5083    135.0268   4.9713869447e+01   6.7690947701e+00    0.3688682    0.2677615 -76.72  0.002033321    2.033    0.508
        46 -11.7660    135.7566    132.4390   7.1155203125e+01   2.8452233700e+01    0.4962337    0.1550396  42.89  0.001466934    3.271    0.694
        47 -12.2956    222.9834    128.0032   5.1836451124e+01   1.1971031293e+01    0.2224773    0.1606543 -68.56  0.001151075    1.735    0.424
        48 -14.1193    106.7457    121.4832   7.6606833708e+01   3.6854346304e+01      1.66452     1.222626  29.79  0.007582904    1.428    0.300
        49 -13.2573     84.2797    115.1930   8.2126138066e+01   4.2468424319e+01      1.25962      0.84865  45.36  0.005628606    1.622    0.383
        50 -14.4397    106.2053    106.3222   7.2747074591e+01   4.0497457561e+01     1.470404     1.120945 -32.69  0.006831935    1.350    0.259
        51 -13.6108     95.5470    110.6774   7.7265922175e+01   4.1544813242e+01     1.022542    0.9291904 -85.08  0.004665384    1.292    0.226
        52 -11.8891      3.7984    119.8143   1.1118190502e+02   5.0234394863e+01    0.4695413    0.1907459  10.34   0.00197882    3.043    0.671
        53 -11.6738     34.3379     86.8174   9.3384087413e+01   5.6102293860e+01    0.4230309    0.2524645  -4.27  0.001978869    2.001    0.500
        54 -14.6351     15.7261    108.1591   1.0521196495e+02   5.2460102097e+01     2.065854     1.106391 -71.00  0.009792042    1.747    0.428
        55 -12.4121     36.8872     93.1799   9.3934953391e+01   5.4348944204e+01    0.4310508       0.2798   4.36  0.001433622    1.733    0.423
        56 -14.2932     23.1864     95.1677   9.9858730822e+01   5.5119509976e+01     1.209498    0.7876351  16.34  0.005389039    1.689    0.408
        57 -10.9953     45.1741    111.5428   9.5004911767e+01   4.8951245786e+01      0.49735    0.1740201 -33.24  0.001215701    6.137    0.837
        58 -12.0372     62.9798    110.9919   8.8426771221e+01   4.6825721424e+01    0.3813556    0.3370897 -80.29  0.002023921    1.308    0.236
        59 -13.0692     29.5616     89.4311   9.5990079246e+01   5.5947374797e+01    0.9606159    0.5275071  59.56  0.003654075    3.690    0.729
        60 -11.4195    170.3365    108.6663   5.7002692132e+01   2.6211975643e+01    0.1570681    0.1172204 -78.42 0.0007052053    1.741    0.426
        61 -10.8625     42.1989    107.3497   9.5181116263e+01   5.0332623775e+01    0.2007274    0.1274496  33.92 0.0009543877    1.724    0.420
        62 -13.3226      2.3330     97.1606   1.0839702987e+02   5.5950980685e+01    0.7319906    0.2880051 -72.70  0.003093333    2.384    0.580
        63 -12.3576    136.0370    103.1178   6.3489851200e+01   3.4902682649e+01    0.6779267    0.3221501  49.76  0.001484705    2.185    0.542
        64 -13.2656    121.0295    102.0336   6.7213716449e+01   3.8384319782e+01    0.6605016    0.3693336  34.28  0.002601329    1.991    0.498
        65 -11.5825     46.0129     98.9961   9.1781235861e+01   5.1952419830e+01     0.476007    0.3522228  73.94  0.002287988    2.011    0.503
        66 -11.8286     52.4443     97.9022   8.9040413476e+01   5.1427046721e+01    0.5514069    0.2915999 -18.50  0.002003104    3.005    0.667
        67 -12.3039     49.5632     93.6915   8.9057547346e+01   5.2786851191e+01    0.4479343    0.3681227  65.68  0.001484658    1.642    0.391
        68 -11.6513    163.7202     98.3654   5.5775798711e+01   2.9690514482e+01    0.2908061     0.261568 -69.76 0.0004919249    1.135    0.119
        69 -12.0164     60.9211     97.8015   8.5812102269e+01   5.0306059795e+01    0.3977354    0.3157832  77.79  0.001946866    1.813    0.448
        70 -12.6307    135.8106     95.1256   6.1347307368e+01   3.6590076426e+01    0.4537647    0.3251113  44.94  0.001694812    1.396    0.283
        71 -11.3315    121.7307    112.6329   6.9910357645e+01   3.5904290858e+01    0.2599819    0.2501963 -25.38 0.0005508341    1.019    0.019
        72 -11.9369     42.5742     90.9100   9.1091723163e+01   5.4269836874e+01    0.3425293     0.250096 -62.20 0.0006435712    1.450    0.310
        73 -12.4120    188.4728     84.3603   4.7604869784e+01   2.6753362476e+01    0.5462078    0.2503992  44.55  0.002165682    2.674    0.626
        74 -12.8748    237.6554     80.6873   3.9924694294e+01   1.7383454904e+01    0.3889159    0.2436069 -82.71  0.002070033    2.010    0.502
        75 -13.7281    164.2904     71.7151   4.8676713861e+01   3.4337948010e+01     1.348215    0.8892561  64.47  0.006571538    1.539    0.350
        76 -12.8875    160.9989     80.9232   5.1760934994e+01   3.3528004815e+01     1.131181    0.6502516  23.77  0.003800966    3.889    0.743
        77 -13.9794    169.5469     76.9919   4.9081900719e+01   3.2248756934e+01     1.086584    0.4448743  52.58  0.004030274    2.418    0.586
        78 -13.2452     28.3857    245.8390   1.1632356360e+02   1.7277125919e+01    0.4627983    0.3024338  56.01  0.002865104    1.274    0.215
        79 -13.2440     91.6750     58.0571   6.2354087036e+01   5.2962753976e+01    0.5105575    0.4870546  -2.54  0.001814103    1.094    0.086
        80 -13.4799     54.1417     68.1713   7.9661302791e+01   5.7739955710e+01     1.717289    0.7661678  31.08  0.007258284    2.242    0.554
        81 -13.3169     87.2341     65.3623   6.6304892874e+01   5.2602775964e+01     1.010307     0.599776  13.20    0.0039717    2.677    0.626
        82 -13.0381     54.6794     82.3622   8.3878422184e+01   5.4691389201e+01    0.5920886    0.3990353 -42.20  0.001897812    1.372    0.271
        83 -14.0602     61.0955     75.8413   7.9341769681e+01   5.5154003693e+01    0.7146119    0.4803359 -24.97  0.001337117    1.544    0.353
        84 -13.0030     71.1585     75.1897   7.5276442514e+01   5.3675293987e+01    0.5968325    0.4092292  -5.17  0.002376044    1.790    0.441
        85 -12.2748     77.1590     73.3115   7.2463901089e+01   5.3006794324e+01    0.5531612    0.3153435 -23.67  0.001717564    2.257    0.557
        86 -11.8671     47.3259     81.8264   8.6687893666e+01   5.5775047945e+01    0.3561715    0.2743632 -49.36   0.00167196    1.271    0.213
        87 -12.8767    212.8784     78.5012   4.2571482270e+01   2.2558860037e+01    0.7744881    0.4278547  89.45  0.003237605    2.945    0.660
        88 -12.5959    135.5947     79.9253   5.7086016769e+01   3.9547504640e+01    0.6823738    0.3398806  50.58  0.002461422    1.958    0.489
        89 -11.9720    114.1127     80.2456   6.2810883561e+01   4.4289369863e+01     0.359216    0.3461064 -65.66  0.001056198    1.130    0.115
        90 -11.7529     42.0188     77.5158   8.7640236360e+01   5.7365822693e+01    0.4911183    0.1977146 -58.17  0.001862667    2.799    0.643
        91 -13.6210    171.5693    242.9733   8.4379060187e+01  -1.5317136772e+00    0.7445817    0.4943169   5.62  0.004019268    1.549    0.355
        92 -14.0590      4.9781     63.5976   1.0047684806e+02   6.3561521596e+01    0.6865484    0.5232911  -3.81  0.004129308    1.327    0.246
        93 -11.4307     27.1003     75.8788   9.3594310425e+01   5.9275682126e+01    0.3805067      0.25091  80.21   0.00166312    3.089    0.676
        94 -12.5481    218.1828     74.1830   4.0929248218e+01   2.2168891806e+01    0.2743937    0.2082512 -67.83  0.001462233    1.231    0.188
        95 -13.5466    199.5077     69.8403   4.2464995929e+01   2.6743958255e+01    0.7067596    0.4430601  51.67  0.002852161    1.767    0.434
        96 -12.1056    199.6513     61.9037   4.0611431746e+01   2.7929032777e+01     0.339504     0.230993 -38.07  0.001722401    1.482    0.325
        97 -12.7216    134.1595     66.0512   5.3358764736e+01   4.2275093470e+01    0.6542549    0.4959889  49.91   0.00252723    1.258    0.205
        98 -12.3278     31.5871     62.9070   8.7787092532e+01   6.1605203303e+01    0.5514799    0.3137748 -61.17  0.002625236    2.198    0.545
        99 -10.8129    100.0155     65.5127   6.2276242162e+01   4.9977619224e+01    0.2248235    0.1367021  45.79 0.0006849896    1.569    0.363
       100 -13.5252    177.7543     57.3036   4.2658449041e+01   3.3485267955e+01    0.8598237    0.5186877 -50.52  0.003383631    1.637    0.389
       101 -12.7943     78.8431     60.4265   6.7492956088e+01   5.5078642518e+01    0.5561589    0.4739169 -51.97   0.00311413    1.429    0.300
       102 -12.9323     82.4243     54.5808   6.4179424521e+01   5.5376549530e+01    0.5835478    0.4491093  24.62   0.00244325    1.238    0.192
       103 -14.5635    120.1671     54.5795   5.3174913393e+01   4.7297004703e+01    0.9099641    0.5996507  39.76  0.002684596    1.519    0.342
       104 -12.0929     24.8431     59.2590   8.9781118431e+01   6.3012656518e+01    0.4529479    0.2433561 -44.43  0.001904717    1.594    0.373
       105 -10.9552     38.7826     59.9716   8.3550608140e+01   6.1384208423e+01    0.1974193    0.1630255 -85.10  0.001083662    2.017    0.504
       106 -11.6593    248.3583     55.6775   3.3907452084e+01   1.9120593220e+01    0.4043078    0.1620952 -55.86  0.001936805    2.318    0.569
       107 -12.3599    249.0232     48.8312   3.2557687902e+01   1.9938929714e+01     0.397775    0.2989571 -19.20  0.002500024    2.084    0.520
       108 -10.3661     47.2966     56.6303   7.8608579571e+01   6.0922977662e+01    0.1223107      0.11048  82.75 0.0007029353    1.731    0.422
       109 -11.4366     17.7613     55.4064   9.1992049310e+01   6.4407760095e+01    0.3121467    0.1652125 -55.35  0.001593163    1.854    0.461
       110 -13.8831    102.8944     50.3703   5.6340877541e+01   5.1785866871e+01    0.8843712    0.7009752 -66.37   0.00273342    1.690    0.408
       111 -12.6590     97.9980     50.4991   5.7795412465e+01   5.2823627968e+01    0.3971718     0.300909  80.70  0.001418254    1.917    0.478
       112 -11.7398     36.9824     52.7258   8.1859148568e+01   6.2981587934e+01    0.5156829    0.2530214 -15.97  0.002004687    3.184    0.686
       113 -11.8822    135.6441     50.1825   4.8288993603e+01   4.4345213602e+01    0.4815937    0.2715007  33.85  0.001835525    2.361    0.576
       114 -10.6535     23.5602     50.2458   8.7434018702e+01   6.4903290535e+01    0.1745576   0.09818032 -36.16  0.000410241    1.530    0.346
       115 -13.1353    157.5008     44.0423   4.2437621658e+01   4.0038345795e+01    0.8401018    0.4502524  44.92  0.003843979    2.099    0.524
       116 -12.9748      3.8219     43.4892   9.5392774282e+01   6.7737879113e+01    0.5018395    0.3105189 -12.87  0.003026047    1.463    0.317
       117 -12.3209     11.7649     43.6786   9.1220043244e+01   6.7160962161e+01    0.4416161    0.2386972 -12.45  0.001856658    1.874    0.466
       118 -12.2552     51.5847    248.8432   1.1169577849e+02   1.4003123058e+01    0.3660124     0.284166 -84.80  0.002348081    1.311    0.237
       119 -11.9203    147.4008    239.2190   8.9098801135e+01   2.6330786746e+00    0.1699893    0.1330858 -62.58  0.000946898    1.661    0.398
       120 -12.5138     24.7936    217.2483   1.1508080228e+02   2.3978101549e+01    0.4991374     0.301558  58.94  0.002741877    1.514    0.339
       121 -12.9731    113.6448     38.0674   4.9386886947e+01   5.1061285934e+01    0.4151671    0.2885691  63.82  0.001978873    1.416    0.294
       122 -12.2979     14.1099    222.2293   1.1779441522e+02   2.3886070725e+01    0.4250515     0.280398 -89.35  0.001639459    1.340    0.254
       123 -13.3902    138.4745     21.8821   3.9339362125e+01   4.7123915729e+01    0.9010488    0.2875117  63.19  0.002406697    2.609    0.617
       124 -12.4097     75.7635     37.2701   6.0003957255e+01   5.9247885249e+01    0.4017871    0.2191292  44.78  0.001115267    1.656    0.396
       125 -12.7341    242.3080     36.2240   3.0747744689e+01   2.2830921398e+01    0.4854967    0.2388081  74.89  0.002072906    2.064    0.516
       126 -11.3956     35.1012     34.9115   7.5869409869e+01   6.6274069836e+01    0.3736416    0.2281797  -1.87  0.001584784    1.760    0.432
       127 -12.8213     45.7476     33.6846   7.0375952015e+01   6.4965091831e+01    0.7139364    0.4414895  38.38  0.003850918    1.628    0.386
       128 -13.9775     26.0519    226.8217   1.1551067052e+02   2.1658270290e+01    0.8744617    0.3769207 -55.04  0.004038933    2.637    0.621
       129 -13.5364     20.2280    224.2969   1.1660426443e+02   2.2821756261e+01     0.536373    0.4868832 -69.48  0.002508448    1.279    0.218
       130 -14.1710     65.2210    223.4925   1.0625129356e+02   1.7824762038e+01     1.048199    0.7094659  46.18    0.0056604    1.343    0.255
       131 -14.0895     64.2360    214.5785   1.0550418298e+02   2.0026874616e+01    0.7645742    0.4709331  43.89  0.003848306    1.502    0.334
       132 -12.5366     94.3790    218.5636   9.8601032389e+01   1.4900772039e+01    0.2698232    0.2515321   9.54   0.00145649    1.148    0.129
       133 -11.6731     70.7385     36.5668   6.1493864894e+01   6.0304288150e+01    0.2697905    0.2603031 -10.74 0.0008935634    1.262    0.207
       134 -10.8360    136.5291    211.4784   8.7208392939e+01   9.9180282557e+00    0.1446198    0.1340685  14.46 0.0001407786    1.008    0.008
       135 -11.7029     72.3764    206.9966   1.0256814695e+02   2.0753091579e+01    0.3192393     0.291826  73.99  0.001869935    1.043    0.041
       136 -12.1406     41.1082    206.6692   1.1032593503e+02   2.4743098015e+01    0.2420377    0.1706845  84.97  0.001315533    1.376    0.273
       137 -10.7176     98.5512     27.3190   4.9415404101e+01   5.5716708390e+01    0.2399186    0.1072876  55.37   0.00106729    1.949    0.487
       138 -11.2904     30.7570     25.7489   7.4070766425e+01   6.8218481289e+01    0.2969694     0.138234  19.02  0.001392709    2.366    0.577
       139 -11.2494     36.1631     23.7743   7.0498434719e+01   6.7765255819e+01    0.2829711    0.1894264 -24.20  0.001725906    1.426    0.299
       140 -11.9993     46.8845     20.6033   6.4126898370e+01   6.6545605425e+01    0.3634143    0.2428823  16.51  0.002163034    1.357    0.263
       141 -11.1676     51.5100     20.5606   6.2149352805e+01   6.5782904513e+01    0.2255724    0.1512243  29.82 0.0007129993    1.255    0.203
       142 -12.8110    223.5370     20.6873   2.9259027055e+01   2.8355601321e+01    0.2999995    0.2583002  76.36  0.001515063    1.331    0.249
       143 -12.7181     57.4307    203.2823   1.0590254985e+02   2.3622600738e+01    0.5133274     0.277256 -85.70  0.002208206    2.212    0.548
       144 -13.0912     16.2750    196.8401   1.1548048045e+02   2.9672788021e+01     0.846368    0.2394332 -61.68  0.003277163    2.991    0.666
       145 -13.5630    216.1607     28.1886   3.1394741596e+01   2.8969847951e+01    0.4984915    0.2506863 -60.35  0.002550742    1.861    0.463
       146 -12.5533     22.5355    166.8023   1.1105486912e+02   3.6713416091e+01     0.309597    0.2708007   9.15 0.0003393845    1.374    0.272
       147 -12.4089    109.5001     42.1589   5.1779672541e+01   5.1471416341e+01    0.5069826    0.1881685  52.39  0.001494069    2.357    0.576
       148 -13.4120     29.9338    169.3105   1.0927162324e+02   3.5375634841e+01     1.025176    0.8650813 -38.15  0.005943964    1.332    0.249
       149 -13.6495     22.2833    181.1974   1.1259958105e+02   3.3030572735e+01     1.014087    0.4223566 -55.41  0.004355522    2.277    0.561
       150 -15.0871      8.1782    183.5480   1.1640816534e+02   3.3646647365e+01     1.351187      1.06668 -82.18  0.008384009    1.081    0.075
       151 -15.0666     15.7320    175.1651   1.1374604436e+02   3.5143924738e+01     2.108747     1.071584  61.68  0.009644083    2.161    0.537
       152 -12.3509    164.2810    195.6775   7.7786965048e+01   8.7077478178e+00     0.355853    0.2410551 -72.76  0.001487352    2.562    0.610
       153 -11.4237    200.7936    192.1476   6.9178436749e+01   3.4681763379e+00    0.2467802    0.2159428 -17.36 0.0008354927    1.044    0.042
       154 -12.0336     97.6018    188.2016   9.3212868715e+01   2.1654136046e+01     0.219458    0.1344627 -47.62 0.0009527159    1.673    0.402
       155 -12.7144     36.8651    195.4994   1.1026780847e+02   2.7961235941e+01    0.3530765    0.2655913  85.10  0.001975711    1.250    0.200
       156 -11.7603     49.0622    182.1429   1.0554412842e+02   2.9980482290e+01    0.3727403    0.1980472 -63.26  0.001670914    1.732    0.423
       157 -12.2395    198.4434    181.6271   6.7573034100e+01   5.8771606361e+00    0.2875266    0.2678125 -25.28  0.001417719    1.142    0.124
       158 -11.5605     91.3249    182.6614   9.3991359349e+01   2.4029367124e+01    0.1602782    0.1142676  68.57 0.0007051295    1.724    0.420
       159 -12.7609    124.1156    166.6675   8.2021700158e+01   2.2471265415e+01    0.6904822    0.4474456 -69.27  0.002800897    2.019    0.505
       160 -11.5586     25.6097    158.9472   1.0928042124e+02   3.8492612694e+01    0.3539702    0.2397243  -4.81  0.001773259    1.970    0.492
       161 -11.1751      1.9319    159.3334   1.1601270902e+02   4.0218786078e+01    0.2781244    0.1595456 -70.12  0.001458164    1.432    0.302
       162 -11.9545     76.8677    156.8770   9.3608808943e+01   3.2926612174e+01    0.4291385    0.3192513  19.98  0.001283117    1.494    0.330
       163 -13.3139     73.2831    153.7908   9.4123233968e+01   3.4268636322e+01    0.7732745    0.5936225  15.01  0.003121832    1.481    0.325
