#   1 NUMBER                 Running object number                                     
#   2 MAG_AUTO               Kron-like elliptical aperture magnitude                    [mag]
#   3 X_IMAGE                Object position along x                                    [pixel]
#   4 Y_IMAGE                Object position along y                                    [pixel]
#   5 X_WORLD                Barycenter position along world x axis                     [deg]
#   6 Y_WORLD                Barycenter position along world y axis                     [deg]
#   7 A_WORLD                Profile RMS along major axis (world units)                 [deg]
#   8 B_WORLD                Profile RMS along minor axis (world units)                 [deg]
#   9 THETA_WORLD            Position angle (CCW/world-x)                               [deg]
#  10 FWHM_WORLD             FWHM assuming a gaussian core                              [deg]
#  11 ELONGATION             A_IMAGE/B_IMAGE                                           
#  12 ELLIPTICITY            1 - B_IMAGE/A_IMAGE                                       
         1 -14.3948    161.8900     47.7329   2.9019644185e+02   6.3055316270e+00    0.0797128   0.05159823 -38.31  0.006005329    1.720    0.419
         2 -13.5067    178.2920     24.9970   2.8986778116e+02   6.4754222800e+00   0.02681717   0.02519239 -12.96  0.001276128    1.090    0.083
         3 -14.4201    174.5666     31.6930   2.8995078960e+02   6.4190754203e+00   0.05102939   0.04333523 -50.31  0.003790086    1.234    0.190
         4 -12.8986    189.6252     14.9129   2.8967132335e+02   6.5273842487e+00   0.01625928   0.01527075 -56.94  0.001144911    1.130    0.115
         5 -13.1422    192.3643      2.4497   2.8956912897e+02   6.6562328269e+00   0.03830486   0.01671613  27.39  0.003100416    2.079    0.519
         6 -11.2812     22.2859    204.9656   2.9279150324e+02   5.2734017239e+00  0.009858901  0.008989697   2.82  0.000285442    1.092    0.085
         7 -19.7808     52.8899    167.3793   2.9220672776e+02   5.5368707196e+00    0.9792022    0.3282739 -68.83    0.0678496    3.604    0.723
         8 -11.0670    120.2795    205.0615   2.9156976881e+02   4.7144318030e+00    0.0122705  0.009113993 -15.05 0.0007564123    1.541    0.351
         9 -13.7218    196.2444    195.8761   2.9057334988e+02   4.3870794704e+00   0.04646849    0.0295051  40.50  0.002189582    1.514    0.340
        10 -11.6899    188.3289    186.6649   2.9062197043e+02   4.5394757327e+00   0.02234435   0.01911631  79.80  0.002111155    1.315    0.240
        11 -10.1209      1.8421    251.0000   2.9329418171e+02   4.8536309687e+00   0.00985163  0.003698074  24.51 0.0007357793    2.500    0.600
        12 -11.4179    117.8589    201.7827   2.9158220879e+02   4.7663880396e+00   0.01701368  0.009253746  21.32  0.001552567    1.787    0.440
        13 -10.6138    136.3016    197.3008   2.9132801332e+02   4.7132438603e+00   0.01458048   0.00854968  56.88  0.001315538    2.079    0.519
        14 -11.9143    179.9734    193.3158   2.9076214325e+02   4.5099566005e+00   0.02725917    0.0153877  82.74  0.002229173    2.839    0.648
        15 -12.0187    112.9466    195.9944   2.9161214296e+02   4.8617564973e+00   0.02945523    0.0151726 -18.35  0.002144786    3.406    0.706
        16 -11.5716    104.4205    186.3171   2.9166611507e+02   5.0229778272e+00   0.01894103  0.007788956  49.07  0.001391234    2.986    0.665
        17 -12.3587    103.8202    193.9947   2.9171514070e+02   4.9370782885e+00   0.02478352   0.01523604   6.90  0.002323799    1.863    0.463
        18 -10.5764    158.6684    194.1561   2.9103217903e+02   4.6220221431e+00   0.01053813  0.008323522  72.94 0.0009653346    1.471    0.320
        19 -12.1346    207.6491    185.3893   2.9037440137e+02   4.4436917309e+00    0.0191991   0.01654582 -30.40   0.00123463    1.227    0.185
        20 -12.1769    212.0587    181.4786   2.9029825544e+02   4.4638916236e+00   0.01743584   0.01513881 -36.44  0.001094691    1.211    0.174
        21 -10.6432    223.9826    184.0079   2.9016352877e+02   4.3661776380e+00  0.009686198  0.007829125 -19.96  0.001065325    1.351    0.260
        22 -11.5016    119.6259    182.5031   2.9145581744e+02   4.9805878950e+00   0.02036112  0.009010284  48.84  0.001587774    2.652    0.623
        23 -11.7332     21.1777    214.0851   2.9285446401e+02   5.1735580892e+00   0.01982428   0.01384722  -3.95  0.002000083    1.659    0.397
        24 -11.5684    198.3268    177.4583   2.9044745488e+02   4.5892741393e+00   0.02047725   0.01429245  88.05  0.001335897    1.801    0.445
        25  -9.8399    157.3260    178.3037   2.9096297435e+02   4.8140555404e+00  0.007104249  0.005045207 -22.76 0.0004242577    1.644    0.392
        26 -10.3439    145.4941    178.4604   2.9111133456e+02   4.8798670057e+00  0.006829044  0.006400007  16.99 0.0001741122    1.020    0.020
        27 -10.2452      1.1612    177.3687   2.9290640159e+02   5.7144393473e+00  0.006597271  0.004465838 -45.53 0.0003192002    1.561    0.359
        28 -11.2267    179.1041    173.8418   2.9066732793e+02   4.7413635193e+00   0.01099268  0.009062281  52.05  0.001236315    1.256    0.204
        29 -12.2697    137.7819    171.0465   2.9116731617e+02   5.0101657790e+00   0.02216131   0.01565887  49.00  0.002245592    1.467    0.318
        30 -11.2714    228.0093    170.7415   2.9004132459e+02   4.4972767432e+00   0.01434886   0.00822831  73.90  0.001181486    2.716    0.632
        31 -12.0135    125.1519    172.8132   2.9133441153e+02   5.0617578271e+00   0.01907118   0.01375103  -0.23  0.001973181    1.545    0.353
        32 -11.5757    145.1843    168.4433   2.9106089203e+02   4.9981407217e+00   0.01446689   0.01225593  30.12 0.0009358493    1.104    0.094
        33 -10.0779      4.5608    214.3946   2.9306340979e+02   5.2642434029e+00  0.006801626   0.00623669   0.42 0.0001883445    1.092    0.084
        34 -10.5646    165.2854    208.1145   2.9102536251e+02   4.4218644723e+00   0.01268233  0.009357301  30.54   0.00025508    1.257    0.205
        35 -10.2101    200.5053    163.9867   2.9034716049e+02   4.7333992603e+00   0.00958561  0.005702216  75.01 0.0007689241    2.499    0.600
        36 -11.7104    100.6864    163.0283   2.9158663866e+02   5.3152112198e+00   0.01216938    0.0118444 -60.83 0.0003847164    1.095    0.087
        37 -10.4396     13.9144    160.1548   2.9265433238e+02   5.8424097692e+00   0.01134853  0.009740983 -59.78 0.0006080501    1.231    0.188
        38 -11.3646    164.7162    157.9087   2.9076020157e+02   5.0089533614e+00   0.01163059  0.009240231   5.58 0.0004888739    1.298    0.229
        39 -12.9525    105.0707    155.3120   2.9149013319e+02   5.3799605844e+00   0.03240777   0.01830692 -42.57  0.003004513    1.952    0.488
        40 -11.3212     27.5117    156.8954   2.9246694176e+02   5.8031314549e+00   0.01794242   0.01275199  -3.66  0.001222108    1.609    0.378
        41 -11.0196     22.8809    156.3636   2.9252189668e+02   5.8356211711e+00   0.01304392   0.01214963  19.74 0.0005640067    1.015    0.015
        42 -12.3726    133.6625    144.9972   2.9107744951e+02   5.3366627738e+00   0.04572874   0.01463321 -72.28  0.002776666    4.783    0.791
        43 -12.6103     16.0215    206.2464   2.9287655997e+02   5.2940550287e+00   0.01258344   0.01197828 -51.83 0.0008467135    1.110    0.099
        44 -10.8551     98.9666    150.5260   2.9154038790e+02   5.4704573018e+00   0.01720564  0.006384063  24.78 0.0009787189    2.520    0.603
        45 -11.0158    174.5362    149.1875   2.9059042640e+02   5.0541546932e+00    0.0131405  0.009375199  23.65 0.0007611683    1.320    0.242
        46 -11.3711     92.1052    148.3064   2.9161400810e+02   5.5354101262e+00   0.02031076   0.00942918  39.19  0.001233999    2.026    0.506
        47 -11.9017    144.5605    145.8675   2.9094621606e+02   5.2642491998e+00   0.01778771   0.01221082  65.78  0.001771133    1.782    0.439
        48 -10.0060      1.8427    147.0358   2.9273429744e+02   6.0635482863e+00  0.008912668  0.008298685  18.98            0    1.018    0.017
        49 -12.3986    113.2836    140.2549   2.9130603260e+02   5.5082203657e+00   0.02342604   0.01332523 -45.17  0.002195462    1.887    0.470
        50 -12.5560    102.8552    140.6473   2.9143832368e+02   5.5631789112e+00    0.0142746   0.01253144  22.23 0.0005122035    1.072    0.067
        51 -10.0424     11.8778    142.4984   2.9258445174e+02   6.0594130477e+00    0.0101342  0.006376334  25.42 0.0004685519    1.482    0.325
        52 -11.7199     22.4325    135.7129   2.9241594694e+02   6.0784392342e+00   0.01239258   0.01105795   3.12 0.0003967794    1.121    0.108
        53 -11.0697    150.0942    134.2785   2.9081428461e+02   5.3673582903e+00   0.01456113  0.008528168  47.11 0.0009064471    1.784    0.439
        54 -11.5995    118.8578    130.5328   2.9118373368e+02   5.5894561433e+00    0.0172402   0.01494184 -24.79   0.00116193    1.220    0.180
        55 -12.1201    106.4712    128.8319   2.9132912967e+02   5.6799608774e+00   0.02939734   0.01373565 -53.95  0.002446252    2.154    0.536
        56 -12.0958    135.3941    122.3698   2.9093304901e+02   5.5898825117e+00   0.02514887  0.009605238 -69.20  0.001867201    3.111    0.679
        57 -11.4436    160.2282    128.1799   2.9065475268e+02   5.3802800791e+00   0.01434087   0.01329986 -56.35  0.001728586    1.141    0.124
        58 -11.6264    125.5183    127.4973   2.9108413384e+02   5.5867062959e+00   0.01800997  0.009978304  50.61  0.001615161    2.025    0.506
        59 -11.3282    121.6878    125.3133   2.9112009278e+02   5.6339871163e+00   0.01188534  0.009498567   0.04 0.0008077958    1.321    0.243
        60 -12.3329     85.6380    121.6844   2.9155051308e+02   5.8819402051e+00   0.01840177   0.01302355  27.44  0.001197686    1.312    0.238
        61 -10.8901    113.0162    119.4942   2.9119676966e+02   5.7511829311e+00   0.01193214   0.01028179 -60.41 0.0003849101    1.229    0.186
        62 -13.3786     11.6137    205.7355   2.9292879943e+02   5.3250148281e+00   0.02811781   0.01861305  20.05  0.002132858    1.461    0.315
        63 -11.3338    168.0256    113.7790   2.9047923762e+02   5.5030420260e+00   0.01627628   0.01336127  61.85 0.0007716087    1.332    0.249
        64 -10.5708    130.3841    206.1586   2.9144973408e+02   4.6439960602e+00  0.009540606  0.006643158 -84.88 0.0009539581    1.744    0.426
        65  -9.6242     25.4885    206.4350   2.9275946747e+02   5.2381165046e+00   0.01437124  0.009332127  48.37 9.376215e-05    1.607    0.378
        66 -10.6696    205.4876    110.1614   2.8999244416e+02   5.3303776510e+00   0.01484312   0.00984317  11.73  0.001015362    1.583    0.368
        67 -11.4549     90.4561    108.8163   2.9142056742e+02   6.0041099378e+00   0.01292401   0.01089189  -5.54 0.0007370512    1.245    0.197
        68 -11.2473    134.5333    104.1150   2.9084465746e+02   5.8070323682e+00   0.02022933  0.007134241 -67.29  0.001462948    3.220    0.689
        69 -10.4993     88.6665     78.0118   2.9127576869e+02   6.3724565018e+00  0.009120603  0.008831086 -52.69 0.0003752655    1.096    0.087
        70 -10.0268     13.6478     59.9309   2.9211572089e+02   7.0095917828e+00  0.009073007  0.008601138 -76.14 0.0004107983    1.135    0.119
        71 -11.2903    176.8590    243.1467   2.9107094373e+02   3.9483349867e+00   0.01062656  0.008860325  51.85  0.000492708    1.239    0.193
        72 -11.6790    187.1430    220.8942   2.9082235569e+02   4.1482785057e+00   0.01085735  0.008975031  54.51 0.0008307616    1.270    0.213
        73 -10.8028    150.4945    220.5193   2.9127683312e+02   4.3621142585e+00   0.00683367  0.006409475  21.48 6.364583e-05    1.005    0.005
        74 -10.4411    125.6664     26.7792   2.9053480984e+02   6.7562707502e+00   0.01364471  0.007141964  46.56 0.0009689544    2.018    0.504
        75 -10.8497     20.4321    219.7205   2.9289411759e+02   5.1122043826e+00   0.01108968  0.008011739  24.90 0.0003028977    1.296    0.228
