#   1 NUMBER                 Running object number                                     
#   2 MAG_AUTO               Kron-like elliptical aperture magnitude                    [mag]
#   3 X_IMAGE                Object position along x                                    [pixel]
#   4 Y_IMAGE                Object position along y                                    [pixel]
#   5 X_WORLD                Barycenter position along world x axis                     [deg]
#   6 Y_WORLD                Barycenter position along world y axis                     [deg]
#   7 A_WORLD                Profile RMS along major axis (world units)                 [deg]
#   8 B_WORLD                Profile RMS along minor axis (world units)                 [deg]
#   9 THETA_WORLD            Position angle (CCW/world-x)                               [deg]
#  10 FWHM_WORLD             FWHM assuming a gaussian core                              [deg]
#  11 ELONGATION             A_IMAGE/B_IMAGE                                           
#  12 ELLIPTICITY            1 - B_IMAGE/A_IMAGE                                       
         1 -18.3221    149.6543    119.8238   7.1220099307e+01   2.8229691102e+01     5.620604     2.787705 -52.96   0.02098018    2.171    0.539
         2 -17.9988    111.0987    148.5042   8.7763179142e+01   2.9420086050e+01     3.877299     2.587729  87.00   0.01564103    2.256    0.557
         3 -19.1615     74.4145    195.1744   1.0504483671e+02   2.4095900745e+01     7.064299     6.607872  29.44   0.04311969    1.248    0.199
         4 -18.0496     55.1904    126.5723   9.9719155004e+01   4.3810364335e+01     4.795546     2.357788  36.35   0.02080557    2.130    0.530
         5 -12.2028    210.8369      7.1634   3.2959427194e+01   3.2210531150e+01     0.154729    0.1375346  70.48 0.0007610903    1.331    0.249
         6 -12.3545    144.2689      5.5475   3.9741456175e+01   4.7824313137e+01     0.259525    0.1135758  75.19  0.001147884    2.189    0.543
         7 -11.4438    234.0288      3.4903   3.0483189327e+01   2.7668997885e+01    0.1516425   0.07860839  55.12 0.0007482684    2.488    0.598
         8 -12.0253    131.3968      3.2969   4.0973700391e+01   5.1060553608e+01    0.1664718    0.1126915 -40.89 0.0003630024    1.653    0.395
         9 -13.2984    149.0112    216.6532   9.0898118779e+01   7.4473625904e+00    0.2846464    0.2125521  83.02  0.001446913    1.979    0.495
        10 -11.3837    172.0859    249.9649   9.1109815808e+01  -1.9727509619e+00    0.1864593    0.1325071   0.83 0.0004943142    1.610    0.379
        11 -13.7142    177.3525    215.1300   8.4636107221e+01   3.0592024753e+00    0.3165814    0.2364828 -17.55 0.0009195594    1.479    0.324
        12 -12.7146     18.7321    179.1269   1.1681282784e+02   3.4635070965e+01    0.6612431     0.179222  48.72  0.002477248    3.554    0.719
        13 -11.7939    180.2336    244.3248   8.8684438951e+01  -2.2873119650e+00    0.1893439    0.1537883 -19.67 0.0006290012    1.288    0.224
        14 -14.2041    191.0953    177.1843   7.4822868554e+01   7.8160719554e+00    0.3925999    0.2538537  46.05  0.001909935    1.653    0.395
        15 -13.2066    184.4731    236.2648   8.6621973500e+01  -1.6392359790e+00    0.3243128    0.1764911  24.62 0.0002103047    1.841    0.457
        16 -11.7376    127.9216    234.8448   9.8085117689e+01   7.3778066769e+00    0.2293699    0.1783449 -18.14  0.001300534    1.711    0.415
        17 -14.2422    158.6150    172.3472   8.0853087103e+01   1.4840894130e+01     0.511641    0.3758328  76.04   0.00232763    1.956    0.489
        18 -13.8164    160.6074    169.8087   7.9891348032e+01   1.5005247578e+01    0.4260504    0.2740156 -65.64  0.001817334    2.072    0.517
        19 -12.0867      9.4241    172.3054   1.1848315275e+02   3.7099742546e+01    0.1996063    0.1665849 -82.48 0.0004745241    1.105    0.095
        20 -12.2944     27.6848    171.0632   1.1384983910e+02   3.5716799317e+01    0.2619616    0.2072185  72.16 0.0006133885    1.149    0.130
        21 -12.6782     27.0299    166.6457   1.1356008639e+02   3.6867475542e+01    0.3030797    0.1978981 -81.67  0.001196553    1.340    0.254
        22 -11.3806     29.5308    215.5084   1.1730017659e+02   2.5125851800e+01     0.267645    0.1862387  60.12  0.001294275    1.207    0.172
        23 -14.2338    181.3407    163.4437   7.4044322062e+01   1.2357121259e+01    0.7601454    0.1858867 -43.40  0.002188031    4.014    0.751
        24 -12.7696     28.0195    211.8144   1.1734466168e+02   2.6109631199e+01    0.3784428    0.1660071  56.34  0.001839644    2.076    0.518
        25 -12.2382     22.9177    161.1404   1.1405059302e+02   3.8621625683e+01    0.2346317    0.1675909 -67.09 0.0006302102    1.256    0.204
        26 -12.1283     28.5232    160.0757   1.1245543288e+02   3.8345824447e+01    0.2072711    0.1955333  27.25 0.0004074703    1.291    0.226
        27 -10.8131    169.2667    243.3354   9.0715349854e+01  -5.0073408479e-01    0.1231323   0.08974683  -2.57  0.000215461    1.589    0.371
        28 -11.8485      2.3130    159.3826   1.1918577149e+02   4.0765720257e+01    0.2530744     0.152662  59.50 0.0008998385    1.624    0.384
        29 -12.0882     13.5844    166.0594   1.1692415659e+02   3.8253086105e+01    0.3221214    0.2201667 -64.38  0.001211375    1.356    0.263
        30 -12.1343    184.4950    157.4912   7.2129961609e+01   1.2960663299e+01    0.1454377    0.1394422 -29.10 0.0008105671    1.014    0.014
        31 -15.3548    169.0168    205.3226   8.4704025918e+01   6.2589128448e+00    0.9094494    0.3782905  47.06  0.003518984    2.679    0.627
        32 -13.3446    143.6663    211.1373   9.1196001937e+01   9.4265992055e+00    0.4064373    0.3396217 -18.62  0.001889631    1.383    0.277
        33 -11.5682    218.2103    153.7952   6.4857250039e+01   7.3571586748e+00     0.185575    0.1519486 -13.47 0.0003746623    1.284    0.221
        34 -14.2443    179.9709    150.3589   7.1538254676e+01   1.5314379616e+01     0.523145    0.3548292  78.44  0.002133844    2.519    0.603
        35 -15.7713    147.0132    202.7874   8.9081124800e+01   1.0543239649e+01     1.570672     0.591143  50.39  0.005205739    3.508    0.715
        36 -13.7317    152.8360    211.3828   8.9219506015e+01   7.8307526762e+00     0.518177    0.3094564  13.57   0.00212506    2.549    0.608
        37 -14.2139    186.6987    225.0340   8.4386253811e+01  -1.3721986044e-01    0.3383477    0.2428052  -6.42  0.001899111    1.560    0.359
        38 -12.7113    124.1074    207.0157   9.4962158919e+01   1.3572632158e+01    0.4045464    0.2121685  40.47  0.001336005    1.742    0.426
        39 -12.2703    117.8423    213.2280   9.7313087820e+01   1.3296031253e+01       0.2741    0.2299733  56.43 0.0006588641    1.135    0.119
        40 -11.7937    116.7672    238.7126   1.0094621037e+02   8.3747246543e+00    0.3699672    0.1894132 -67.98  0.001718007    2.612    0.617
        41 -11.8614    139.1391    217.7218   9.3221129104e+01   8.8746950296e+00    0.1993812     0.181977 -84.86 0.0004960638    1.247    0.198
        42 -12.3985    113.5009    212.5619   9.8204726999e+01   1.4142290285e+01    0.3309431    0.1926008  42.73  0.001261688    1.551    0.355
        43 -13.9868    188.8980    221.3742   8.3342140455e+01   1.3737373738e-01    0.3326703    0.2672572 -58.46  0.001965642    1.648    0.393
        44 -11.4998    105.8112    233.8290   1.0268416065e+02   1.0989873808e+01    0.5903644    0.1615455  45.46  0.002084193    3.289    0.696
        45 -12.6755    125.6569    221.9993   9.6816899229e+01   1.0229193443e+01    0.4994912    0.2417972 -57.21  0.002242404    2.332    0.571
        46 -13.9627    125.6914    131.1839   8.0015980190e+01   3.0729858020e+01    0.3834568    0.2737363 -39.66  0.001002891    1.468    0.319
        47 -13.1366    181.7582    218.9888   8.4381343770e+01   1.6689265475e+00    0.1778065    0.1619086  -6.53 0.0003602972    1.081    0.075
        48 -16.1672     26.1637    150.7200   1.1201369862e+02   4.0906559327e+01     1.732734     1.216525  22.26  0.009746192    1.718    0.418
        49 -12.6685    121.4053    218.7053   9.7293358292e+01   1.1582153296e+01    0.3989239     0.251888 -59.98  0.002027353    1.766    0.434
        50 -14.3540    165.3303    209.1686   8.6151658076e+01   6.1502685350e+00    0.6095518    0.2160691 -43.29  0.002284601    3.031    0.670
        51 -14.7169    120.1788    120.8962   7.9016820210e+01   3.4245858713e+01    0.5881259    0.3991712 -54.02  0.001718114    1.478    0.324
        52 -12.0338    198.9002    119.5540   6.0830663585e+01   1.7604580690e+01    0.3139592    0.1758132 -54.96  0.001317938    1.958    0.489
        53 -12.5575      5.1020    120.1652   1.1448749879e+02   5.0124600561e+01    0.1953933    0.1453964 -54.36 0.0005796476    1.232    0.188
        54 -14.2806     12.2356    114.3213   1.1146221299e+02   5.1075660850e+01     0.514231    0.1721842 -51.61  0.002151492    2.493    0.599
        55 -14.2673    109.2967    109.4906   7.9174496986e+01   3.9062577214e+01     0.678174    0.3393131  61.99  0.002091093    3.733    0.732
        56 -12.5206    167.2111    227.7403   8.8780863612e+01   2.4484526604e+00    0.2429154    0.1462457  38.47 0.0007491854    1.504    0.335
        57 -12.5162    118.0115    103.5126   7.5128572269e+01   3.8624974500e+01    0.3027404    0.2231978 -63.97  0.001385539    1.535    0.349
        58 -12.8302    108.5482    104.3142   7.8026313755e+01   4.0383512233e+01    0.3160946    0.1816499  55.61 0.0007770389    2.076    0.518
        59 -13.9728     53.3942     84.9426   9.0946798947e+01   5.4021001470e+01     1.173204    0.5645488  52.33  0.004388853    3.425    0.708
        60 -13.8602     60.0335     96.0107   9.1427977012e+01   5.0605177733e+01    0.5756252    0.3223404 -37.06  0.001598248    1.934    0.483
        61 -12.8989    188.4969    204.9809   8.0592315244e+01   3.0612753379e+00    0.1981349    0.1292756 -41.55 0.0004169152    1.564    0.361
        62 -11.8718      1.4596    101.4948   1.1322960253e+02   5.4818920592e+01    0.1253271    0.1010401 -65.35  2.22081e-05    1.004    0.004
        63 -11.6105    201.6612    236.3018   8.3291698877e+01  -4.1579722799e+00    0.1126713   0.09601913  56.00 0.0003395688    1.669    0.401
        64 -11.5158     99.6558     99.2180   7.9283574863e+01   4.3268646325e+01    0.2122986    0.1355832 -40.49 0.0003417442    1.591    0.372
        65 -13.4756    185.6084    186.2524   7.7718195828e+01   7.0434046008e+00    0.3172112     0.200565   3.11  0.001325163    2.521    0.603
        66 -13.2725    173.6847    235.8436   8.8710231447e+01   5.9393531937e-02    0.2769575    0.1973029  23.35 0.0009566311    1.288    0.224
        67 -11.3922      6.3917    202.6801   1.2131683411e+02   3.0311057460e+01    0.3240847    0.1215637 -88.72  0.001455906    2.539    0.606
        68 -11.6530    214.7528     91.4128   5.1684309592e+01   1.9405062665e+01    0.1855164    0.1306389  47.99 0.0009512885    1.634    0.388
        69 -12.6557    173.0743    218.5092   8.6084779192e+01   3.1469591216e+00    0.2040667    0.1208471  35.20 0.0006871055    1.553    0.356
        70 -11.7917     20.0619     91.4721   1.0492598575e+02   5.5972716535e+01    0.1749427     0.128161  13.82  0.000637328    1.577    0.366
        71 -11.5674      3.3012     91.3344   1.1105660053e+02   5.7102647317e+01    0.1335837     0.071554 -44.53 0.0004235434    1.657    0.396
        72 -12.9862    137.1092     87.3189   6.5640340016e+01   3.7810458027e+01     0.496519    0.2399485 -39.29  0.001249314    2.134    0.531
        73 -13.8544     72.1911     87.1873   8.4835482432e+01   5.0790933476e+01    0.3881336    0.2604928  19.61  0.001843661    1.761    0.432
        74 -15.0328    167.0072    181.5170   8.0774653337e+01   1.1342201103e+01    0.6878086    0.5441557   9.54  0.002597858    1.451    0.311
        75 -12.8878    115.4969     86.5047   7.1059293113e+01   4.2759223411e+01    0.3169697    0.1474637  45.94  0.001204766    2.144    0.534
        76 -13.5810     68.8881     82.6780   8.4704811659e+01   5.2294869954e+01    0.4237938    0.1684511 -41.12  0.001568018    2.613    0.617
        77 -12.2845    105.3107     79.8067   7.1988718057e+01   4.6242446882e+01    0.2856666    0.2195842 -86.35  0.001218979    1.835    0.455
        78 -13.1153     63.3090     80.6557   8.6119505917e+01   5.3579610946e+01     0.301881    0.1908185 -20.23  0.001356108    2.088    0.521
        79 -11.6468    172.1607     80.1298   5.6087966004e+01   3.0973322763e+01    0.2082187    0.2000665  30.56 0.0003984373    1.190    0.159
        80 -11.5150    153.0013     80.3038   6.0012439478e+01   3.5453586505e+01    0.2096636    0.1894497  63.18 0.0004060244    1.090    0.082
        81 -11.2622    215.2238     79.4402   4.8865468929e+01   2.1329486909e+01    0.1916884    0.1270821  81.82 0.0009457728    1.760    0.432
        82 -11.6819    189.6503     77.6891   5.2358800966e+01   2.7327740472e+01    0.1412355    0.1143283  21.57 0.0006278435    1.717    0.417
        83 -11.6608     14.2137    201.8238   1.1959138440e+02   2.9772199974e+01    0.1818067     0.134363  75.36 0.0009590054    1.087    0.080
        84 -12.7472     50.3016     76.0733   8.9661414182e+01   5.6363621298e+01    0.3091563    0.1781869 -53.37  0.001066218    1.647    0.393
        85 -13.2253     58.2490    100.2682   9.3095014237e+01   4.9851459112e+01    0.3929241    0.3241789 -65.64  0.001053037    1.217    0.178
        86 -12.8609    116.3064     73.3589   6.6897377938e+01   4.5144234724e+01    0.2996699    0.2084039  -7.95  0.001291565    2.149    0.535
        87 -11.8915    125.2097     73.2436   6.4508963474e+01   4.3185116940e+01    0.2204796    0.2041963  28.02  0.001202718    1.127    0.113
        88 -13.4429     75.5271     75.7358   8.0303729090e+01   5.2676643867e+01    0.3101856     0.265209 -41.62 0.0006315385    1.140    0.123
        89 -13.7292     98.8432     66.4875   6.9745493535e+01   5.0108053514e+01    0.4413756    0.2995165 -56.36  0.002086313    1.778    0.437
        90 -12.7149     87.0173     68.5122   7.4132366732e+01   5.2050485999e+01    0.2200941    0.1881928 -36.73 0.0004682352    1.163    0.140
        91 -12.6690    212.8992    200.7939   7.5060039766e+01  -1.2024122481e-01     0.277769    0.2119627  73.03  0.001427353    2.425    0.588
        92 -11.5706      1.9738     68.4945   1.0741209404e+02   6.2314951845e+01    0.1571055    0.1155772   3.39 0.0007208952    1.540    0.351
        93 -12.8474     58.8370     76.8048   8.6643512367e+01   5.5052510832e+01     0.236684    0.2183977 -18.52  0.000513499    1.029    0.028
        94 -11.5520    188.1456     65.1405   4.9446209446e+01   2.9750349311e+01    0.2012885    0.1535957 -70.71 0.0004579404    1.318    0.242
        95 -13.1748    155.3472    213.7213   8.9055232775e+01   6.9562506762e+00    0.3610163    0.2108674  41.24  0.001088603    1.591    0.372
        96 -15.7140    189.4739    193.9664   7.8384028407e+01   4.9139092827e+00    0.8479694    0.4663906  34.81  0.001369189    1.810    0.448
        97 -12.5612     45.2388     60.4571   8.6942726894e+01   6.0221814339e+01     0.236916    0.2084226 -53.69 0.0007028091    1.273    0.214
        98 -12.1001      1.8807     60.5343   1.0572654091e+02   6.4023621119e+01    0.2460831    0.1209812 -52.51 0.0004346929    1.550    0.355
        99 -12.4233    109.4935     59.9384   6.4517100771e+01   4.9016160319e+01    0.2145201    0.1411563 -38.58  0.000854524    1.571    0.363
       100 -13.7396    165.9630    197.5225   8.3982543163e+01   8.2992080718e+00    0.3664382    0.2442347   8.33  0.001665494    2.078    0.519
       101 -12.7343    156.0426    198.0606   8.6254037262e+01   9.9305100856e+00    0.2121636    0.1985447  22.47 0.0003264868    1.017    0.016
       102 -11.8894    138.9504     56.3566   5.6120458779e+01   4.2867272937e+01    0.2044652    0.1766875  60.38 0.0004887115    1.099    0.090
       103 -14.4090    190.4924    190.4879   7.7523735373e+01   5.3888752595e+00    0.4688235    0.2445217  45.14  0.001838871    2.042    0.510
       104 -12.5128    228.0381    192.1971   7.0694614075e+01  -1.0100989560e+00    0.2114336    0.1641013 -28.79 0.0002848187    1.157    0.136
       105 -12.0032    111.5233     53.5257   6.1851413358e+01   4.9623679859e+01    0.1410313    0.1327031  35.91 7.032165e-05    1.020    0.020
       106 -11.2982     65.3619     52.4799   7.6266789243e+01   5.8794914626e+01    0.1693013    0.1257296  45.21 0.0009268367    1.484    0.326
       107 -11.9057    154.5692    230.6698   9.1859459686e+01   3.9337944291e+00    0.2483875    0.1435985  39.42 0.0005981818    1.538    0.350
       108 -11.3406     17.3229     51.3350   9.6304833318e+01   6.4896102628e+01    0.1326609   0.07403751 -29.53 0.0007050628    1.710    0.415
       109 -12.4742    198.1671     45.8663   4.3234564155e+01   3.0314159565e+01    0.1716356    0.1633377  42.41 0.0005018839    1.326    0.246
       110 -12.3861    145.0826     45.2149   5.1496580047e+01   4.3063803151e+01    0.2389216    0.1578881 -86.65  0.001093543    1.967    0.492
       111 -11.6448    153.4719     44.0068   4.9565603632e+01   4.1212433998e+01    0.1989152    0.1383568 -34.70 0.0004130086    1.542    0.351
       112 -13.4416    117.1695    190.6383   9.3998629170e+01   1.8347404584e+01    0.4554666    0.2975199  12.20  0.001408774    2.363    0.577
       113 -12.7157     11.6691     36.7574   9.4372388267e+01   6.8104401818e+01    0.2866003    0.1864944 -52.44  0.001794817    1.488    0.328
       114 -12.9629     27.0950     35.9375   8.6437145311e+01   6.6841239241e+01    0.2977288    0.1615796 -33.01  0.001165615    1.678    0.404
       115 -13.0609     43.2750     35.2097   7.8697077918e+01   6.5000353368e+01    0.3379523    0.1892417  -0.95  0.001524375    2.738    0.635
       116 -11.9570    106.8213     31.9066   5.5648893587e+01   5.3749856168e+01    0.2078774    0.1745144  23.24  0.001219189    1.235    0.190
       117 -11.8506    141.7969     29.5915   4.7387202030e+01   4.5896339997e+01     0.194275    0.1213922  76.19 0.0009461294    1.653    0.395
       118 -12.0225     39.1435     29.0762   7.8031246489e+01   6.6514972685e+01    0.1928639     0.141569  -5.32 0.0005299677    1.271    0.213
       119 -12.8571    113.9663    228.8909   1.0030803043e+02   1.0711974152e+01    0.3600484    0.2771769  45.09  0.002107366    1.136    0.120
       120 -12.1740    101.7780     25.5971   5.4657194333e+01   5.5629059283e+01    0.1889459    0.1203132  66.44 0.0009531224    1.702    0.412
       121 -11.4924     20.4692     23.8986   8.4928582932e+01   6.9513279413e+01    0.1744624   0.09769224 -38.66  0.001024906    1.588    0.370
       122 -12.5884    172.6457     22.5153   4.0630571511e+01   3.9311889321e+01    0.2535536    0.1544375 -39.33  0.001339175    1.688    0.408
       123 -12.0197     84.1973     23.4070   5.8691816342e+01   5.9596531675e+01    0.1736489    0.1174113  60.45 0.0005619259    1.609    0.378
       124 -15.5942    184.8573    212.1096   8.2582928361e+01   2.3811228489e+00    0.8388568    0.5695397  65.37  0.003936303    2.565    0.610
       125 -11.6996    191.7083     21.4177   3.8069729951e+01   3.4950790281e+01    0.1798002    0.1054474  62.57 0.0009470595    1.622    0.384
       126 -12.9755    217.3384     14.3422   3.3974568169e+01   2.9997715711e+01    0.2716275    0.1354471  85.17  0.001395722    1.925    0.481
       127 -12.2693    165.1559    238.6733   9.0861331629e+01   8.9231059859e-01    0.1893275    0.1742323 -60.16 0.0005308411    1.355    0.262
       128 -10.9823    153.4699    239.4397   9.3363923137e+01   2.5617361253e+00    0.1288125    0.1102902  28.12 0.0003054518    1.020    0.020
       129 -11.0002    179.9484    248.4655   8.9350716634e+01  -2.8866306391e+00    0.1691656   0.09300813  51.33 0.0008086578    2.481    0.597
