#   1 NUMBER                 Running object number                                     
#   2 MAG_AUTO               Kron-like elliptical aperture magnitude                    [mag]
#   3 X_IMAGE                Object position along x                                    [pixel]
#   4 Y_IMAGE                Object position along y                                    [pixel]
#   5 X_WORLD                Barycenter position along world x axis                     [deg]
#   6 Y_WORLD                Barycenter position along world y axis                     [deg]
#   7 A_WORLD                Profile RMS along major axis (world units)                 [deg]
#   8 B_WORLD                Profile RMS along minor axis (world units)                 [deg]
#   9 THETA_WORLD            Position angle (CCW/world-x)                               [deg]
#  10 FWHM_WORLD             FWHM assuming a gaussian core                              [deg]
#  11 ELONGATION             A_IMAGE/B_IMAGE                                           
#  12 ELLIPTICITY            1 - B_IMAGE/A_IMAGE                                       
         1 -16.1145     99.3700     73.1463   8.3324177856e+01   4.8800970355e+01     2.098478     1.684474  15.77   0.00742181    1.399    0.285
         2 -13.2001      3.2169     28.0226   1.0609446701e+02   6.9612664390e+01     1.005805    0.2942537 -49.80  0.004927369    2.236    0.553
         3 -14.7939     61.7695     13.5847   7.2805268431e+01   6.5445268373e+01     1.502413    0.9885989 -27.93   0.00879716    1.455    0.313
         4 -14.3723     33.1112     53.7739   1.0089007193e+02   6.2349671022e+01      1.13774    0.5795099 -37.37  0.004652089    1.777    0.437
         5 -15.6286     45.8656     39.7632   9.0758694783e+01   6.3694100945e+01     1.513421     1.192979 -51.57   0.00936959    1.435    0.303
         6 -16.7834     30.9909     19.9794   8.9199211317e+01   6.8785377447e+01      1.99909     1.528079   3.55  0.009863666    1.238    0.192
         7 -15.1216    111.0590     33.5123   6.5645394313e+01   5.3160700457e+01     2.213479     1.469228  30.10   0.01080148    1.584    0.369
         8 -12.8544    212.3275     24.1434   4.4645730860e+01   2.8996307209e+01    0.4977778    0.3970664  41.00  0.001088419    1.502    0.334
         9 -14.2986    197.2603     34.7085   4.9360638013e+01   3.1458567134e+01     1.051773    0.7458958 -40.05  0.003869483    1.383    0.277
        10 -14.2958    202.7821     26.6223   4.6416329927e+01   3.1076999574e+01      1.40278    0.8555462 -71.75  0.005100951    1.863    0.463
        11 -12.8845     90.2840     20.6245   6.6307659628e+01   5.9282865482e+01    0.8938597    0.7517299   0.78  0.004655159    1.105    0.095
        12 -13.9807    106.1171     14.1989   5.9209383740e+01   5.6612511388e+01     1.362051    0.6633145  37.48    0.0043843    2.057    0.514
        13 -13.8428    220.4146     15.4246   4.1583799371e+01   2.8036519072e+01    0.7369748    0.6177511 -67.13  0.002730687    1.058    0.055
        14 -13.5873    181.8896     13.3460   4.5266783351e+01   3.7901420306e+01     1.195714    0.4545701  82.16   0.00393037    3.648    0.726
        15 -13.8267    175.5244      9.1733   4.4842877148e+01   3.9957058008e+01     1.581865    0.5744247  74.84  0.005754764    2.863    0.651
        16 -10.5918     77.5412     10.8228   6.5914480433e+01   6.2939713804e+01    0.2362413    0.1727009  41.67  0.001173444    1.297    0.229
        17 -14.4340     97.9257     46.9287   7.4593804148e+01   5.3933319829e+01    0.9813837    0.7749215 -28.86  0.003328177    1.225    0.183
        18  -9.8852    168.6480    113.3534   7.6873441369e+01   2.5214686573e+01    0.1674369    0.1257795 -80.27 0.0007032161    1.843    0.457
        19 -15.4302     83.5947    246.7010   1.1805459220e+02   1.3831138185e+01     2.600048    0.8823912  36.15  0.006837264    3.108    0.678
        20 -17.6246     70.4444    175.4214   1.1331096468e+02   2.9837608000e+01     6.699732     3.500098  75.79    0.0178714    2.569    0.611
        21 -15.2313     68.4943     70.8510   9.2774673511e+01   5.4532720205e+01     2.331992    0.7551668 -46.24  0.007509374    2.718    0.632
        22 -16.0441     68.1327    242.8029   1.2046419151e+02   1.6602886150e+01     1.223451     1.061332 -16.82  0.008631562    2.140    0.533
        23 -18.0945     37.3550    215.5882   1.2399084086e+02   2.5493307608e+01     4.295748     1.544231 -80.72   0.01963612    2.805    0.644
        24 -15.0680     11.0560    188.8264   1.2717462143e+02   3.3652551668e+01     1.044096     0.496255 -89.82  0.004531726    1.754    0.430
        25 -16.2450     31.3730    139.0315   1.1820533993e+02   4.2924498956e+01     4.920713     1.589139 -77.59   0.01794071    3.411    0.707
        26 -15.9545      8.7602    132.6481   1.2324279630e+02   4.6301060157e+01     3.618618    0.9953256 -83.76   0.01181208    4.743    0.789
        27 -17.5623     53.8058    112.9343   1.0794296588e+02   4.6793030493e+01     3.681897     2.254207 -59.29   0.01897473    1.399    0.285
        28 -13.1465    121.0330    107.4238   8.7085343157e+01   3.7095153017e+01    0.7766792    0.4246896  40.99   0.00313873    1.912    0.477
        29 -11.5862     93.5516    102.9128   9.3721743521e+01   4.3366523350e+01    0.5336576    0.3200915 -67.66  0.002205592    2.116    0.527
        30 -11.4141     95.1816     97.5670   9.1828320454e+01   4.4304130540e+01    0.4343551    0.3922853 -80.95  0.002363762    1.206    0.171
        31 -14.1798    121.0424     90.3777   8.2311684377e+01   4.0813320909e+01     1.516601    0.6651703 -42.61  0.004799059    2.223    0.550
        32 -10.1663     17.0363    233.3786   1.2859142225e+02   2.4327165909e+01    0.1664808    0.1070458 -81.42  0.001129564    1.446    0.308
        33 -10.2723      1.6658     66.3318   1.1636924018e+02   6.1838531758e+01    0.1822399    0.1421396 -74.83  0.001270866    1.214    0.176
        34 -10.3647      1.4140     62.8184   1.1578900036e+02   6.2613115746e+01      0.18962   0.08968781 -64.44  0.001003364    1.591    0.372
        35 -16.4336     13.0537    246.6389   1.2984243780e+02   2.2381618288e+01     1.441958    0.2778411  46.28  0.007294417    2.982    0.665
        36 -10.6614     70.3217    206.2931   1.1682812780e+02   2.3223762043e+01    0.1930799    0.1814861  79.21 0.0009170669    1.282    0.220
        37 -11.4509     11.6151    205.4723   1.2805953235e+02   3.0196854099e+01    0.2305428    0.2037621 -63.62  0.001480738    1.597    0.374
        38 -10.0426    205.5257    110.4414   6.8566306387e+01   1.7188734820e+01    0.1506988    0.1443762 -26.61 0.0002410928    1.006    0.006
        39 -13.1052     97.5023    158.0561   1.0428826007e+02   2.9702075420e+01    0.5667596    0.2642933 -60.04  0.002351305    2.129    0.530
        40 -13.3011     68.5764    144.1009   1.0928922285e+02   3.7394568301e+01    0.7242944     0.440038  72.16  0.003370253    2.033    0.508
        41 -10.2114    142.1707     47.3961   6.3049296167e+01   4.3788479234e+01    0.2019589    0.1428284  70.65 0.0003706137    1.599    0.375
        42 -13.3158     78.2711     43.3002   7.9664488016e+01   5.8250792203e+01    0.7771597      0.58588  37.37  0.002770452    1.377    0.274
        43 -12.7054     77.3679     36.7411   7.7360576314e+01   5.9483842772e+01    0.5248545    0.4159943   7.95  0.001869581    1.233    0.189
        44 -11.5751     99.4111    143.7818   1.0121023284e+02   3.2714926705e+01    0.2541391    0.2348531 -26.08 0.0009723504    1.278    0.218
        45 -10.8980    102.2039    140.2133   9.9783924926e+01   3.3072761302e+01    0.3391774    0.1767597 -35.49  0.001231391    2.927    0.658
        46 -12.3638     87.7213    142.5370   1.0401731998e+02   3.4937036016e+01    0.2847336    0.2381942 -57.48 0.0003255855    1.171    0.146
        47 -12.2319    129.6295     33.0023   6.0835931001e+01   4.8896138534e+01    0.5151224    0.4758472 -50.44  0.001947361    1.194    0.163
        48 -10.5267     82.9267    142.6048   1.0528519794e+02   3.5668755045e+01    0.2462546    0.1805789  83.07 0.0008067836    1.507    0.336
        49 -10.8106    110.2014    132.0045   9.5960178220e+01   3.3560666843e+01     0.235827    0.1916775  -9.74 0.0007292277    1.652    0.395
        50 -10.9327    106.0045    130.8245   9.6817803299e+01   3.4607200257e+01    0.3284005    0.2672853 -80.46  0.001395279    1.319    0.242
        51 -11.5199    175.3048     19.2465   4.7901896551e+01   3.8961565477e+01    0.2792834    0.2328357  82.11  0.001315864    1.136    0.120
        52 -11.0194     97.4449    128.2963   9.8582260896e+01   3.6719825378e+01    0.2694497    0.2313786 -28.54  0.001012974    1.353    0.261
        53 -10.7134    107.1612    120.0811   9.4065604219e+01   3.6914768177e+01     0.222032    0.1988308 -29.95 0.0003339247    1.214    0.176
        54 -11.4453    111.6175    116.9888   9.2098819109e+01   3.6791062127e+01    0.3492219    0.2334248  42.60  0.001402046    1.550    0.355
