#   1 NUMBER                 Running object number                                     
#   2 MAG_AUTO               Kron-like elliptical aperture magnitude                    [mag]
#   3 X_IMAGE                Object position along x                                    [pixel]
#   4 Y_IMAGE                Object position along y                                    [pixel]
#   5 X_WORLD                Barycenter position along world x axis                     [deg]
#   6 Y_WORLD                Barycenter position along world y axis                     [deg]
#   7 A_WORLD                Profile RMS along major axis (world units)                 [deg]
#   8 B_WORLD                Profile RMS along minor axis (world units)                 [deg]
#   9 THETA_WORLD            Position angle (CCW/world-x)                               [deg]
#  10 FWHM_WORLD             FWHM assuming a gaussian core                              [deg]
#  11 ELONGATION             A_IMAGE/B_IMAGE                                           
#  12 ELLIPTICITY            1 - B_IMAGE/A_IMAGE                                       
         1 -14.1148    185.8625     22.6139   2.8981456486e+02   6.3992109438e+00   0.09481627    0.0518182 -51.48  0.006410788    1.777    0.437
         2 -14.0142    192.5398     16.8252   2.8970149386e+02   6.4254520356e+00   0.06517801   0.05543007 -84.15  0.005389378    1.277    0.217
         3 -14.0628    198.9490      8.8220   2.8957777875e+02   6.4787051862e+00   0.07852546   0.04672228   5.21   0.00127135    2.292    0.564
         4 -10.6331     32.8056      3.2257   2.9146636692e+02   7.5408069399e+00   0.01505645  0.005669733 -69.71  0.001033594    3.565    0.719
         5 -10.4492    204.9833    249.3044   2.9099518595e+02   3.6769216837e+00  0.009276897  0.008595723  19.00 0.0001900643    1.089    0.082
         6  -9.6811    209.6697    250.3161   2.9094740834e+02   3.6371466751e+00  0.007001156  0.004983434  62.33 0.0003427234    1.682    0.405
         7 -11.7457    150.1216    247.5761   2.9161712295e+02   4.0259421823e+00    0.0287046   0.01352427  31.46  0.002547718    2.058    0.514
         8 -12.1750    136.2960    227.9264   2.9165573540e+02   4.3350555084e+00   0.02631971   0.01914602 -74.92  0.002824166    1.505    0.336
         9 -10.6994    152.6841    243.1798   2.9156051572e+02   4.0611901373e+00   0.01545714   0.01080246 -84.14  0.001578572    1.731    0.422
        10 -12.4856    134.2623    234.7453   2.9172116151e+02   4.2687304825e+00   0.05766707   0.02335057 -76.01  0.003574569    4.743    0.789
        11 -10.9777    143.8110    249.4488   2.9170143693e+02   4.0422107744e+00   0.02007202   0.01493545  42.68  0.002178783    1.371    0.270
        12 -11.4819    134.2184    249.3101   2.9181124648e+02   4.1012945753e+00   0.03359186   0.01227374  37.62  0.002646402    2.619    0.618
        13 -12.0630    146.4995    240.4200   2.9161488034e+02   4.1300419056e+00   0.02292813   0.01835072   5.46 0.0001189867    1.371    0.270
        14 -12.0685    137.3396    242.0112   2.9173034958e+02   4.1666275739e+00   0.04347055   0.01463914  46.20  0.002586504    3.792    0.736
        15 -13.0538    125.5144    243.2681   2.9187452275e+02   4.2230116579e+00   0.05320134   0.03616658 -41.29  0.005385547    1.535    0.348
        16 -12.5535    118.3949    237.1187   2.9191887185e+02   4.3364711561e+00   0.06207748   0.02393069 -38.83  0.004229972    3.768    0.735
        17 -11.8172    116.2391    224.1492   2.9186399333e+02   4.4987382229e+00   0.03468529   0.01247578  33.65  0.002736093    2.597    0.615
        18 -10.6337    105.3565    222.4839   2.9197938491e+02   4.5830970428e+00    0.0204384   0.01222853   4.61  0.001643887    2.270    0.560
        19 -11.5360     98.5925    222.6847   2.9205871453e+02   4.6212833024e+00   0.02264304   0.01941673  -2.47  0.000163526    1.257    0.204
        20 -11.9855     91.4171    219.2591   2.9212050634e+02   4.7036886920e+00   0.03813265   0.02914328  85.70  0.003045463    1.564    0.361
        21 -12.8498     96.1731    238.9188   2.9218642303e+02   4.4487913209e+00   0.04008241   0.03228078  44.07  0.002990851    1.270    0.213
        22 -11.6880     87.5707    248.8358   2.9234662662e+02   4.3860471275e+00   0.02933244   0.02341933  58.35  0.003315136    1.377    0.274
        23 -11.1988     81.5428    247.0781   2.9240541180e+02   4.4423479939e+00   0.02985367    0.0154169 -73.52  0.001984404    2.403    0.584
        24 -12.6413     85.8608    238.3651   2.9230206330e+02   4.5168758087e+00   0.05833416    0.0349918 -25.14  0.005286471    2.269    0.559
        25 -13.0267    110.5287    229.6996   2.9196404627e+02   4.4690227397e+00   0.04707192   0.03752035 -12.74  0.005285458    1.425    0.298
        26 -11.8361     99.3796    247.3029   2.9220091876e+02   4.3330420978e+00   0.03980856   0.02551244  50.96  0.003983811    1.744    0.426
        27 -12.3931    107.9894    247.9612   2.9210560045e+02   4.2739237065e+00   0.05522181   0.02759974  40.75   0.00499619    2.022    0.505
        28 -11.6900     73.1390    230.1547   2.9239851806e+02   4.6875392930e+00   0.03104749   0.01397383  32.91  0.002704705    2.134    0.531
        29 -11.2735    142.6112    228.3411   2.9158541173e+02   4.2924218734e+00   0.01948019   0.01193845 -83.16  0.001115248    2.166    0.538
        30 -12.2023    142.1806    220.8056   2.9154399490e+02   4.3817651811e+00   0.02588725   0.01929756 -84.69  0.002780966    1.564    0.361
        31 -14.1833     46.0171    246.7791   2.9281369054e+02   4.6581164440e+00   0.07389053   0.03800956  28.19  0.004105073    1.937    0.484
        32 -10.3462    190.9393    227.9704   2.9102564350e+02   4.0067326020e+00  0.009601594  0.009558889 -73.55 0.0002958277    1.017    0.017
        33 -10.5282    245.1654    226.7591   2.9039318802e+02   3.6949098561e+00   0.01183103  0.006516195  63.11 0.0009533504    2.823    0.646
        34 -10.8552    164.3432    226.1785   2.9132135654e+02   4.1869802459e+00   0.01214231   0.00998124 -76.63 0.0002307692    1.297    0.229
        35 -10.8702     79.7706    229.1851   2.9231598804e+02   4.6590452651e+00   0.01186996   0.01071986  82.96 0.0003563704    1.189    0.159
        36  -9.2498    220.1648    223.2143   2.9065939406e+02   3.8859294346e+00  0.008932569  0.007516351  68.01  0.000243336    1.321    0.243
        37 -10.9524    150.0169    222.2676   2.9146256516e+02   4.3179391586e+00   0.01158818  0.009370741 -58.18 0.0001931111    1.221    0.181
        38 -11.5701     98.6781    231.0120   2.9210891702e+02   4.5248623785e+00   0.02372732   0.01749723 -29.93 0.0009673559    1.513    0.339
        39 -10.1291    164.0099    221.2682   2.9129495647e+02   4.2455043842e+00   0.01163359  0.008854493 -45.10 0.0009886327    1.319    0.242
        40 -10.1364    245.8120    218.7811   2.9033651017e+02   3.7827827598e+00   0.01206533  0.006443494 -27.26 0.0009583432    2.851    0.649
        41 -10.4830    177.5898    218.2340   2.9111960333e+02   4.1989327158e+00   0.01447516   0.01095344  86.90 0.0009465325    1.589    0.371
        42  -9.1325    156.2179    218.3723   2.9136702271e+02   4.3255906754e+00   0.00897941  0.005929215  38.28 0.0002544741    1.511    0.338
        43  -9.9555    134.0623    217.8421   2.9161944886e+02   4.4645597318e+00   0.01044331   0.00874476  60.19 0.0005418209    1.299    0.230
        44 -11.8571    101.8646    213.2032   2.9196262450e+02   4.7108934556e+00   0.03302783   0.02357407  73.83  0.003396015    1.780    0.438
        45 -10.3274    233.2793    216.6005   2.9046745307e+02   3.8832036262e+00   0.01246139   0.00909517  60.99 0.0007717774    1.600    0.375
        46 -10.3331    183.3286    213.7958   2.9102605200e+02   4.2155632398e+00   0.01320391  0.009749747  54.79  0.001213918    1.502    0.334
        47 -10.2074    151.6886    212.6565   2.9138408303e+02   4.4185650062e+00   0.01823623  0.009821621 -44.02 0.0008135961    1.948    0.487
        48  -9.9630    141.3631    212.8994   2.9150474871e+02   4.4776980145e+00   0.01448805   0.01098239  68.02  0.001083651    1.565    0.361
        49  -8.8811     33.3038    211.3390   2.9274310858e+02   5.1423261217e+00  0.007065397  0.004888892 -29.47 0.0005926351    1.673    0.402
        50  -9.1426    186.4225    210.4481   2.9096972605e+02   4.2355151883e+00  0.006477719  0.006420527 -80.81 8.846488e-07    1.024    0.023
        51  -9.3334     80.6072    210.2725   2.9219010205e+02   4.8718874299e+00  0.008903761  0.006000057 -51.39 0.0005064952    1.453    0.312
        52 -10.3900    134.8126    208.0906   2.9155074854e+02   4.5723452255e+00   0.01765834   0.00897982 -43.05  0.001561774    2.118    0.528
        53 -10.5543    166.8518    203.0523   2.9114991831e+02   4.4381422110e+00   0.01374446   0.01107658  -8.43 0.0009925488    1.400    0.286
        54  -9.9812    169.7983    200.0922   2.9109766969e+02   4.4545280568e+00   0.01051453  0.009365962  20.78 0.0003291508    1.136    0.120
        55 -10.7445    166.3356    206.6710   2.9117817926e+02   4.3995837518e+00   0.02156861   0.01090516  65.10  0.001503406    3.936    0.746
        56  -9.7938     94.0485    203.0000   2.9199012588e+02   4.8752063114e+00   0.01487568   0.00837883  38.90 0.0008177835    1.768    0.434
        57 -10.9428     92.9989    205.9550   2.9202042679e+02   4.8474547435e+00   0.03564056   0.01157043  37.97  0.002658445    2.924    0.658
        58 -10.1976     89.1039    204.6466   2.9205736653e+02   4.8858403125e+00   0.01262625  0.009660989  62.88 0.0007642189    1.503    0.335
        59 -11.0598    247.8133    204.8468   2.9022743743e+02   3.9310148752e+00   0.01401624   0.00992461 -49.61  0.001321732    1.392    0.282
        60  -9.9416    175.0318    205.3409   2.9106964200e+02   4.3626917943e+00   0.01403184     0.011044 -50.74 0.0003756577    1.252    0.201
        61 -10.1464    171.4232    205.2200   2.9111053165e+02   4.3857482768e+00   0.01741723   0.01100923  80.21  0.001576749    2.339    0.572
        62 -10.6453    107.0074    205.2570   2.9185434705e+02   4.7716076833e+00   0.01545229   0.01033293  77.41  0.001484278    2.049    0.512
        63 -10.1694    108.6826    202.1591   2.9181593570e+02   4.7972513127e+00   0.01257512  0.008924899 -66.91 0.0008841237    1.451    0.311
        64  -8.9802    183.2620    205.9818   2.9097864547e+02   4.3058987638e+00  0.008661785  0.005721832 -62.19 0.0008800757    1.512    0.339
        65 -10.8708    126.0887    205.5334   2.9163571819e+02   4.6540892941e+00   0.01367151   0.01094384  88.45 0.0009516182    1.435    0.303
        66  -9.9949    122.9788    200.9388   2.9164333369e+02   4.7256381451e+00    0.0100672   0.00990485  74.76 0.0005286388    1.040    0.038
        67 -10.8421     41.4364    205.4436   2.9261295134e+02   5.1616823369e+00   0.02241592   0.01378732 -76.19  0.001725331    1.930    0.482
        68 -11.2857     45.3959    202.7110   2.9255041718e+02   5.1695109629e+00   0.02816336   0.01685179 -69.22  0.002729623    1.806    0.446
        69  -9.7659    148.4932    205.1104   2.9137447470e+02   4.5246111826e+00   0.01221563  0.009363957  -1.84 0.0009158449    1.507    0.336
        70  -8.8335    114.4518    206.4951   2.9177600191e+02   4.7127529648e+00  0.006548143  0.006432227 -37.74 5.518473e-05    1.008    0.008
        71 -10.6173    103.1423    203.2396   2.9188656949e+02   4.8179918596e+00    0.0157797   0.01131577 -38.63  0.001036418    1.471    0.320
        72 -10.7260    133.2659    202.5148   2.9153426528e+02   4.6458209187e+00   0.01324399   0.01093868 -44.21 0.0002480744    1.212    0.175
        73 -10.7684     70.5238    202.0821   2.9225622782e+02   5.0265518633e+00   0.02122665   0.01030257  44.79 0.0003718758    2.224    0.550
        74  -9.0495    224.5657    202.4097   2.9048030518e+02   4.0988337414e+00   0.00644339  0.006403863  33.78  0.000147829    1.018    0.018
        75 -11.0973    196.9645    200.4219   2.9078629804e+02   4.2875833990e+00   0.01928378   0.01398306  38.82  0.001335658    1.383    0.277
        76 -11.0799    141.6765    198.1314   2.9141016417e+02   4.6458530346e+00   0.01746663   0.01234534 -20.97 0.0009565071    1.718    0.418
        77  -9.1254    158.8488    199.3611   2.9121952401e+02   4.5286665312e+00  0.009049653  0.006318716  11.97 0.0003991105    1.610    0.379
        78 -10.1397    100.8314    198.2844   2.9188276533e+02   4.8889014851e+00   0.01254646  0.009086611 -49.45  0.000677372    1.363    0.266
        79 -16.2088      1.7642     68.7570   2.9223088455e+02   6.9725823448e+00     1.157638   0.08255289 -62.37   0.03375702   19.302    0.948
        80 -13.0765     27.5761    234.5733   2.9295179246e+02   4.9088260917e+00   0.02645722   0.02103024 -21.61  0.001647858    1.405    0.288
        81  -9.7568    192.0194    197.9418   2.9082803687e+02   4.3458322505e+00  0.009774214  0.009639037 -63.33 0.0004623376    1.020    0.019
        82  -9.7282    250.6117    199.2342   2.9016053783e+02   3.9787355251e+00   0.01004514  0.005724407 -50.47 0.0009560836    1.715    0.417
        83 -10.2196     52.8866    198.0478   2.9243521267e+02   5.1784740709e+00   0.01049314   0.00948427  17.36            0    1.124    0.110
        84  -9.7622     95.5291    196.7543   2.9193459499e+02   4.9382754701e+00   0.01023802  0.009835269 -48.71 0.0005731008    1.030    0.030
        85 -12.0770     74.6117    194.4692   2.9216218774e+02   5.0897907341e+00    0.0231751   0.01536368 -42.60  0.002390724    1.561    0.359
        86 -11.9858     79.0101    187.6358   2.9206933053e+02   5.1421833475e+00   0.01720031   0.01231519 -38.01  0.000732446    1.481    0.325
        87 -10.2771    113.5704    195.8773   2.9172081658e+02   4.8403087986e+00   0.01405595  0.007475426  42.61  0.001289723    1.942    0.485
        88 -15.3831     26.2895    248.2902   2.9305071552e+02   4.7584695542e+00   0.07062532   0.04332029  12.25  0.006781239    1.943    0.485
        89 -10.5067     38.6969    194.8538   2.9257956566e+02   5.3000456473e+00   0.01612416   0.01184873 -86.41  0.001705355    1.615    0.381
        90  -9.0602    217.9405    194.9693   2.9051075825e+02   4.2242641645e+00  0.007593264  0.007475812  -0.87 0.0003160632    1.016    0.016
        91  -9.5795    172.5273    194.5488   2.9103199657e+02   4.5019525688e+00   0.01135121  0.009323644  80.50  0.000508117    1.393    0.282
        92  -9.7979    174.5448    190.9568   2.9098656319e+02   4.5311832026e+00   0.01113296  0.009098487 -17.82  0.001118602    1.357    0.263
        93 -10.9790    159.6235    194.0247   2.9117768596e+02   4.5854503509e+00   0.01886364   0.01068079  39.41 0.0003751697    1.765    0.434
        94  -9.3469    135.5206    195.0453   2.9146222063e+02   4.7183063771e+00  0.009584931  0.006462391 -60.73 0.0004180369    1.469    0.319
        95 -13.3387     52.9200    228.0497   2.9261908201e+02   4.8326473425e+00   0.04220586   0.02788007 -24.97  0.003396732    1.885    0.470
        96 -10.1293     82.6721    193.6647   2.9206411250e+02   5.0508262589e+00   0.01631105   0.01008757  -5.89 0.0007740213    2.333    0.571
        97 -10.7748    191.5093    191.2108   2.9079239350e+02   4.4263605813e+00   0.01379026   0.01228105 -62.98 0.0005828367    1.124    0.110
        98  -9.4941    107.9181    195.8777   2.9178609984e+02   4.8741706705e+00   0.01081451  0.007795679  67.44 0.0008718322    1.701    0.412
        99  -9.1354    101.8585    191.8402   2.9183123594e+02   4.9569675001e+00  0.008842721  0.007626163  63.66 0.0003774469    1.258    0.205
       100 -10.3711     15.1902    191.2380   2.9282905246e+02   5.4820148747e+00   0.01787975  0.008682784 -58.91  0.001600591    1.986    0.497
       101  -9.5795    136.2184    189.5220   2.9142013066e+02   4.7777166489e+00    0.0174766  0.008472146 -31.90  0.001322083    3.134    0.681
       102 -11.2816    250.0437    187.7537   2.9009616961e+02   4.1141886305e+00    0.0201514  0.009668105 -52.10  0.001797306    2.000    0.500
       103  -9.1394    197.8001    189.6355   2.9071010463e+02   4.4066903250e+00  0.008969432  0.005887781  38.55 0.0001418257    1.522    0.343
       104 -15.9117      9.1361    247.1769   2.9324194938e+02   4.8736038923e+00    0.1314493   0.06611553 -57.96  0.009547134    1.911    0.477
       105 -15.4495     15.6923    239.4484   2.9311890793e+02   4.9235544967e+00   0.09650639   0.06316941 -27.75  0.006221992    1.864    0.463
       106 -10.0220     67.5078    186.3809   2.9219452616e+02   5.2254517986e+00   0.01114817  0.009718265  12.59 0.0003484242    1.188    0.158
       107  -9.9793     88.3658    183.7397   2.9193725267e+02   5.1310594249e+00   0.02205879    0.0113723  45.79  0.001972996    2.113    0.527
       108  -9.0395    142.6812    184.7054   2.9131582021e+02   4.7944052089e+00  0.006878633  0.004978504 -25.22 0.0005162334    1.609    0.378
       109 -10.1531     47.5478    179.8903   2.9238530624e+02   5.4195495396e+00   0.01681834    0.0111285   2.78   0.00123663    1.903    0.474
       110 -10.2883    134.9052    180.2529   2.9137816663e+02   4.8923165650e+00   0.01303595  0.008929387  50.86  0.001345225    1.600    0.375
       111  -9.5058     79.4903    182.0615   2.9202948111e+02   5.2035155574e+00   0.01037651    0.0088549  53.74 0.0005523988    1.237    0.191
       112 -10.3826    128.9836    179.1125   2.9143952650e+02   4.9409625216e+00  0.009824579  0.009583434 -42.07 0.0003597938    1.015    0.015
       113 -10.1878    182.2657    176.6752   2.9080934703e+02   4.6491814184e+00   0.01385101  0.008786327 -60.52  0.001220168    1.558    0.358
       114 -12.0497     87.1346    176.0193   2.9190395039e+02   5.2273484794e+00   0.02122653   0.01609409   8.58  0.001045786    1.463    0.317
       115 -12.5121     93.0859    167.2192   2.9178097930e+02   5.2930601837e+00   0.03824347   0.02371527 -37.94  0.002249472    1.785    0.440
       116 -11.3150     96.4723    159.2769   2.9169290761e+02   5.3642374628e+00   0.01661455   0.01014477 -45.48 0.0009735478    1.664    0.399
       117 -10.4170     90.2124    160.3947   2.9177214699e+02   5.3888600255e+00     0.012061  0.009859014 -80.49 0.0003127629    1.330    0.248
       118 -10.1839     88.8912    156.8833   2.9176578427e+02   5.4372091242e+00   0.01133441  0.009436865 -41.03 0.0002715621    1.215    0.177
       119  -9.2373    104.2764    177.5314   2.9171519220e+02   5.1072689104e+00   0.01669433  0.006883605  22.70  0.001303985    2.724    0.633
       120 -11.6455     74.7847    173.3274   2.9203010736e+02   5.3322720093e+00   0.02377059   0.01211435 -46.80  0.001397649    1.987    0.497
       121  -9.3985     95.4451    175.3339   2.9180369753e+02   5.1854773487e+00    0.0130304  0.008202919   7.41 0.0009132632    1.987    0.497
       122  -9.4319     67.6086    174.3329   2.9211923913e+02   5.3636247453e+00   0.01173921  0.006533209 -67.95 0.0006425164    1.935    0.483
       123 -11.9031    249.2326    171.5670   2.9000549219e+02   4.3052268362e+00   0.02244236   0.01575053  43.18  0.002394583    1.461    0.315
       124 -15.3637     60.6205    215.4343   2.9245268101e+02   4.9319565328e+00    0.1864227    0.1324763 -65.27   0.02007624    1.431    0.301
       125 -11.8047     12.6952    161.0654   2.9267257711e+02   5.8445056892e+00    0.0228996   0.01212935  49.22  0.002040515    2.183    0.542
       126 -12.2139     19.2182    172.3095   2.9266623708e+02   5.6760543012e+00   0.02995622   0.01879463  76.51  0.002304129    2.364    0.577
       127 -11.2168     47.8336    169.8071   2.9231999374e+02   5.5339931910e+00   0.01765559   0.01568254 -71.24  0.002120944    1.152    0.132
       128 -13.3505     43.1843    237.1451   2.9278731796e+02   4.7860197873e+00   0.02878557   0.02450213  37.40 0.0005228951    1.180    0.152
       129 -10.9184    100.4833    170.0955   2.9171321278e+02   5.2156257174e+00   0.01455817   0.01223025  19.30  0.001068685    1.218    0.179
       130  -9.2531    122.6686    168.9578   2.9144987507e+02   5.0957546490e+00   0.00898886  0.008027652 -63.14 0.0002113356    1.121    0.108
       131 -11.0645    107.2850    168.3653   2.9162395874e+02   5.1947946613e+00   0.01816192   0.01187886   8.11  0.001183405    1.847    0.459
       132 -10.3006     80.0793    164.2408   2.9191296456e+02   5.4052372348e+00    0.0167322  0.009182182  51.46  0.001497737    2.175    0.540
       133  -9.5440     85.2602    167.9980   2.9187622046e+02   5.3309522563e+00   0.01272552  0.009874897 -20.89  0.000262389    1.464    0.317
       134 -10.1673     84.3943    164.7224   2.9186605474e+02   5.3738605482e+00   0.01423013  0.007610759  50.91 0.0007366248    2.232    0.552
       135  -9.6886     58.9064    167.0915   2.9217527244e+02   5.4990784892e+00   0.01007851  0.009539456 -41.89 0.0006582236    1.049    0.047
       136 -10.0691    250.3871    165.7583   2.8995628081e+02   4.3650768220e+00  0.009861105  0.005765678 -50.55 0.0009501926    1.672    0.402
       137  -9.8687    175.9519    166.0449   2.9081660123e+02   4.8094591363e+00   0.01049685  0.007619682  62.08            0    1.626    0.385
       138 -12.1815    244.9652    162.3165   2.8999749339e+02   4.4372958861e+00   0.02177727   0.01637201 -37.97  0.002392821    1.394    0.283
       139 -11.9760    245.1964    156.0535   2.8995610589e+02   4.5079294732e+00   0.04994237   0.01979585  50.02    0.0035153    3.567    0.720
       140 -11.1716    156.0252    231.8173   2.9145203814e+02   4.1719627238e+00   0.01626708   0.01357872 -25.93  0.001879775    1.284    0.221
       141 -10.3339     24.9637    164.9544   2.9255459498e+02   5.7264931380e+00  0.008088811   0.00774486 -53.95 0.0005472531    1.035    0.034
       142 -14.8880     34.6069    181.9209   2.9254738069e+02   5.4734636061e+00     0.288128    0.1008212 -39.86   0.01288183    4.350    0.770
       143 -11.5433     36.6945    162.2985   2.9240260885e+02   5.6870382741e+00   0.02329717  0.009875305  32.67  0.001622123    2.254    0.556
       144  -9.2949    203.6592    160.6857   2.9046375766e+02   4.7045845657e+00  0.009008239  0.006264654 -71.86 0.0006649143    1.553    0.356
       145  -8.7970    141.7450    160.3534   2.9117645287e+02   5.0803786059e+00  0.006715943  0.005065038  72.54 0.0002227422    1.604    0.377
       146  -9.2864    171.3966    159.2435   2.9082719678e+02   4.9151037222e+00  0.008673829  0.006417143 -76.95 0.0003079996    1.497    0.332
       147  -9.6567    119.8919    159.0433   2.9142082676e+02   5.2265597512e+00   0.01001745  0.008650856  69.91 0.0005247413    1.272    0.214
       148 -10.1051     82.3748    159.1115   2.9185483806e+02   5.4505682337e+00   0.01022954  0.008976416   3.68 0.0003797054    1.201    0.167
       149  -9.2898     59.2945    159.4513   2.9212376276e+02   5.5847579914e+00  0.008864581   0.00609482  39.67 0.0003864253    1.462    0.316
       150 -11.6665     47.0933    158.3626   2.9225814604e+02   5.6702411969e+00    0.0165477   0.01188603 -34.03  0.001582046    1.523    0.343
       151 -13.5398     33.5589    141.5190   2.9231102836e+02   5.9451080227e+00   0.04537918   0.02712019 -67.45  0.004429164    1.767    0.434
       152  -9.7474    115.8574    157.3574   2.9145704996e+02   5.2701616704e+00   0.01038575  0.009012754 -81.87  0.000395664    1.230    0.187
       153 -10.6143    221.6807    245.3005   2.9077809507e+02   3.6227294099e+00  0.009459678  0.006463351  13.43 0.0002329983    1.639    0.390
       154 -11.1728     73.8632    156.4779   2.9193701402e+02   5.5318463849e+00   0.02306726   0.01088215  30.23  0.001869669    2.071    0.517
       155  -9.7655    134.6368    155.7150   2.9122994527e+02   5.1764321431e+00   0.01139272  0.009811307 -27.31 0.0006289197    1.221    0.181
       156 -11.9535     33.3132    153.7251   2.9238897688e+02   5.8059884324e+00   0.02334237   0.01327281 -45.11 0.0003538186    1.805    0.446
       157 -12.8933     24.8782    155.2055   2.9249564286e+02   5.8393035683e+00   0.03869797   0.01727297  35.68  0.003186675    2.157    0.536
       158  -9.3219    124.8544    153.9185   2.9133188219e+02   5.2558002375e+00  0.009253371  0.007563406  56.45 0.0004000059    1.323    0.244
       159 -10.2487     62.3334    153.0724   2.9204935307e+02   5.6400505263e+00   0.01853625   0.01077718 -75.81  0.001701523    2.095    0.523
       160 -10.2966    113.7974    152.2192   2.9144916983e+02   5.3416730822e+00   0.01541326    0.0115617 -86.15 0.0009045552    1.562    0.360
       161 -11.3083    249.5134    150.2606   2.8987052106e+02   4.5485508525e+00   0.01696917   0.01356656  60.73  0.001908408    1.393    0.282
       162  -9.8989    146.9580    152.0619   2.9106507427e+02   5.1445347086e+00   0.02175547  0.007110579  34.69  0.000891907    2.818    0.645
       163 -11.1235    104.1010    150.6824   2.9155175777e+02   5.4174915518e+00   0.01899623   0.01315083 -36.76  0.001313642    1.563    0.360
       164 -10.1200    106.9621    145.9550   2.9148953638e+02   5.4547728392e+00   0.01465578   0.01061378 -28.71  0.001508178    1.569    0.362
       165 -10.0479     92.9143    151.0612   2.9168339949e+02   5.4801566946e+00   0.01416998    0.0105071  44.79   0.00154588    1.392    0.282
       166  -9.4420    119.8767    151.1679   2.9137243258e+02   5.3173228638e+00  0.009467698  0.008601221  67.43 0.0003243485    1.172    0.147
       167 -12.5460     58.5127    134.3796   2.9197840189e+02   5.8781734337e+00   0.03164275   0.02094552 -78.72   0.00220347    1.788    0.441
       168 -13.4384     67.7728    144.0278   2.9193074488e+02   5.7116698316e+00   0.03957724   0.03283276  79.65  0.003925495    1.370    0.270
       169 -12.9122     71.7596    138.9455   2.9185332473e+02   5.7463374757e+00   0.05239167   0.02516443  46.59  0.004484638    2.342    0.573
       170 -12.0049     55.6093    149.2586   2.9210362644e+02   5.7241884163e+00   0.02028942   0.01849957  48.61  0.001798323    1.126    0.112
       171 -10.6747     59.4945    145.4936   2.9203550949e+02   5.7443134367e+00   0.01079749  0.009046347  10.16 0.0007245914    1.261    0.207
       172 -11.7816    133.6641    142.4437   2.9115928824e+02   5.3350439567e+00   0.04025428   0.01745267 -64.96  0.003317055    2.445    0.591
       173  -9.2786     86.1599    147.8136   2.9174146722e+02   5.5580083395e+00  0.009029563  0.007432343 -26.93            0    1.306    0.234
       174  -9.6723    142.3443    147.2952   2.9108894699e+02   5.2270996407e+00   0.01124141  0.007664312 -26.02  0.001123221    1.768    0.434
       175 -11.6882     40.8794    146.7593   2.9225860146e+02   5.8410208327e+00   0.01328311   0.01111237 -40.04  0.001227954    1.212    0.175
       176 -10.2583     21.0296    144.0677   2.9247165825e+02   5.9905659498e+00   0.01006751   0.00994412 -19.06  0.000467919    1.007    0.007
       177 -11.8516    248.1520    140.9866   2.8982884895e+02   4.6633881964e+00   0.04314002   0.02185775  14.84  0.003616119    2.542    0.607
       178 -11.7590    248.2641    135.9967   2.8979668476e+02   4.7200860631e+00   0.03117283   0.02492014  39.98  0.003567009    1.262    0.207
       179 -11.3887    248.8129    131.8016   2.8976439982e+02   4.7650142222e+00   0.01960178   0.01584481 -49.11   0.00182369    1.223    0.182
       180 -10.9502     27.3717    141.0795   2.9237990120e+02   5.9871218702e+00   0.01805776   0.01292429  80.60  0.000918235    1.783    0.439
       181 -10.5477    119.4220    138.3444   2.9129857330e+02   5.4676803583e+00   0.01157301   0.01118825  18.12 0.0004853109    1.039    0.037
       182 -11.1993    113.3536    136.1387   2.9135510372e+02   5.5294668811e+00   0.02837439   0.01492889  27.29  0.002630556    1.912    0.477
       183 -11.9686     46.4941    138.8306   2.9214484251e+02   5.8987793789e+00   0.01848114   0.01396713  -5.70  0.001197944    1.557    0.358
       184 -11.0424     51.5187    137.5528   2.9207885179e+02   5.8834567853e+00   0.01264436  0.009848973 -59.99 0.0008267729    1.271    0.213
       185  -9.3516     82.5174    135.9196   2.9171026615e+02   5.7167766329e+00  0.009599486  0.006431045 -59.69 0.0003628856    1.470    0.320
       186 -11.0019     23.6738    149.4494   2.9247417225e+02   5.9127949407e+00    0.0194918   0.00931842 -70.74  0.001521246    2.506    0.601
       187 -10.0636    136.9578    134.0591   2.9106946910e+02   5.4117868119e+00  0.007817703  0.007654571  21.10 0.0003002161    1.026    0.025
       188  -9.3467     97.8280    134.2417   2.9152288421e+02   5.6443766869e+00  0.009034676  0.007400426 -30.33 0.0003512514    1.297    0.229
       189  -9.3521    129.9589    132.0188   2.9113775144e+02   5.4772779491e+00    0.0101502  0.007494954 -27.50  0.001074914    1.535    0.349
       190 -12.9890     45.0578    130.2631   2.9210869276e+02   6.0060280790e+00   0.03668014   0.02383263 -84.41  0.003451952    1.970    0.492
       191 -12.2353     66.4076    127.1471   2.9184250673e+02   5.9142217757e+00   0.02561972   0.02191019  58.76  0.002454572    1.255    0.203
       192  -9.4831     74.2999    128.6124   2.9176025052e+02   5.8501133392e+00  0.007109403  0.004998105  68.15  0.000701554    1.788    0.441
       193 -10.6862    118.9031    128.2106   2.9124202613e+02   5.5874469585e+00   0.01823841  0.008472554 -32.64  0.001325948    3.385    0.705
       194 -11.4973     32.7295    126.9566   2.9223097156e+02   6.1177695295e+00   0.01824666   0.01111021  78.47  0.001582193    2.570    0.611
       195  -8.7976     93.2658    127.3255   2.9153297203e+02   5.7513401434e+00  0.006832027  0.004865823 -32.00 0.0002406141    1.567    0.362
       196  -9.9691     86.9648    126.0358   2.9159788404e+02   5.8039373875e+00   0.01923851   0.01165427  -3.27 0.0009265483    2.414    0.586
       197 -11.7493     37.5746    125.3457   2.9216498673e+02   6.1073738191e+00   0.01945024   0.01316253  82.14   0.00188832    1.993    0.498
       198 -10.3730    209.8375    125.6750   2.9017604314e+02   5.0701666936e+00   0.01163501   0.01027056 -64.41 0.0004518629    1.138    0.121
       199 -10.1607    159.8356    126.2713   2.9075704622e+02   5.3640149108e+00   0.01096849  0.008012291  49.62 0.0007492636    1.463    0.317
       200 -12.2849     37.1261    157.5388   2.9236834073e+02   5.7392863486e+00   0.02664168   0.01703008  13.90  0.002640853    1.789    0.441
       201 -11.1791    249.0537    123.4762   2.8971009924e+02   4.8592798299e+00    0.0282688   0.02005458  74.23  0.002887402    1.808    0.447
       202 -10.1651    249.5276    117.5110   2.8966770935e+02   4.9249987726e+00   0.01194852   0.01057352 -74.23  0.000639238    1.169    0.145
       203 -11.7971    248.5993    112.6039   2.8964803165e+02   4.9870030911e+00   0.02460502   0.02091908 -22.57  0.001997473    1.261    0.207
       204  -9.1809    238.5050    121.9817   2.8982248256e+02   4.9400159229e+00  0.009594744   0.00484987 -39.29 0.0004699716    2.316    0.568
       205  -9.4308    143.4784    121.4763   2.9091640588e+02   5.5174517282e+00  0.006597591   0.00639745  64.87 7.442355e-05    1.061    0.058
       206 -10.1909     50.3184    122.6443   2.9200088846e+02   6.0623085678e+00    0.0118531  0.008440239 -81.64   0.00122765    1.644    0.392
       207 -10.2084     58.2801    119.2659   2.9188794761e+02   6.0535917616e+00   0.01703994  0.008155053 -27.22   0.00115682    3.994    0.750
       208  -9.9672    130.8098    119.2034   2.9104877861e+02   5.6196710879e+00  0.008987774  0.007451363 -28.64 0.0002439827    1.284    0.221
       209  -9.6994     85.7471    117.8541   2.9156149334e+02   5.9054217238e+00    0.0175476  0.006850173  42.87 0.0009551487    2.725    0.633
       210 -11.7709     32.3347    116.2965   2.9216988184e+02   6.2428786596e+00   0.01962668   0.01209409 -47.80  0.001964893    1.615    0.381
       211 -10.9821     22.5419    117.5566   2.9229098388e+02   6.2868522792e+00   0.01429854  0.008148902 -33.91 0.0009649166    2.152    0.535
       212  -8.9561    111.7286    116.3089   2.9125149240e+02   5.7674735318e+00   0.00662851  0.005054483  67.24 0.0001874215    1.545    0.353
       213 -10.4642    168.5391    113.3987   2.9057694061e+02   5.4598150713e+00    0.0183726   0.01140695  55.30  0.001677335    1.934    0.483
       214  -9.3477    134.3166    114.3155   2.9097805070e+02   5.6548710489e+00  0.006991344  0.004946608 -27.00 0.0006076868    1.649    0.393
       215 -10.1173     82.1303    114.1449   2.9158044387e+02   5.9697862202e+00  0.009595261  0.008729322 -24.17  0.001154576    1.133    0.118
       216 -11.6123     61.1670    113.1892   2.9181707770e+02   6.1062818886e+00   0.02015049   0.01501629  49.07  0.001858055    1.424    0.298
       217 -10.9249     58.2026    109.4161   2.9182811110e+02   6.1674541349e+00    0.0160025  0.007901059  39.38  0.001156508    2.017    0.504
       218  -8.7236    149.6871    111.6878   2.9078417197e+02   5.5927965851e+00  0.006956546  0.004951106 -27.00 0.0002791732    1.633    0.388
       219 -11.5408     69.6640    110.5470   2.9170246719e+02   6.0858483837e+00    0.0210591    0.0120361  39.88 0.0009415451    1.756    0.431
       220  -9.6437     80.0235    108.8791   2.9157232287e+02   6.0430201414e+00  0.009885287  0.008427665  63.92   0.00033089    1.281    0.220
       221 -11.3843     16.9551    108.7553   2.9230144729e+02   6.4215418310e+00   0.01393917  0.009755261 -20.01  0.001310268    1.755    0.430
       222  -8.7157    102.6929    110.7398   2.9132159385e+02   5.8857576910e+00  0.006613962  0.004995873 -22.17 0.0002071335    1.523    0.343
       223 -10.6109    134.5087    104.9962   2.9091824307e+02   5.7609569898e+00   0.01807493  0.006457531 -61.60  0.001373508    2.770    0.639
       224 -10.2016     76.3846     98.9491   2.9155313961e+02   6.1791113322e+00   0.01091614  0.009360018  15.22 0.0006721361    1.204    0.169
       225  -9.6348     63.8890     98.2882   2.9169366121e+02   6.2615254496e+00   0.01167515  0.009177384  74.04 0.0009705319    1.497    0.332
       226 -10.5971    114.5365    107.4229   2.9116414857e+02   5.8529017646e+00    0.0106249  0.009111403 -80.15 0.0005236306    1.244    0.196
       227 -11.3548    248.0888     99.7748   2.8957447223e+02   5.1375414551e+00   0.02823622   0.01766389 -40.13  0.002804102    1.718    0.418
       228  -9.2787    102.0052     87.9748   2.9118893613e+02   6.1518639580e+00  0.009918971  0.007611799  65.27   0.00107005    1.516    0.340
       229  -9.0255     37.6151     67.8556   2.9181002682e+02   6.7688994569e+00  0.008868124  0.006375827 -77.78 0.0004473722    1.569    0.362
       230 -12.7190    248.6266    240.6606   2.9043907503e+02   3.5142241922e+00   0.03023175   0.02798462 -11.95  0.003717763    1.116    0.104
       231 -12.0326    129.4600    233.3379   2.9176792093e+02   4.3137149574e+00    0.0464758   0.01996022 -79.13  0.002829039    5.022    0.801
       232 -10.1312    173.1567    239.5010   2.9130173967e+02   3.9807479695e+00   0.01486021  0.009725642 -76.47  0.001214058    1.772    0.436
