#   1 NUMBER                 Running object number                                     
#   2 MAG_AUTO               Kron-like elliptical aperture magnitude                    [mag]
#   3 X_IMAGE                Object position along x                                    [pixel]
#   4 Y_IMAGE                Object position along y                                    [pixel]
#   5 X_WORLD                Barycenter position along world x axis                     [deg]
#   6 Y_WORLD                Barycenter position along world y axis                     [deg]
#   7 A_WORLD                Profile RMS along major axis (world units)                 [deg]
#   8 B_WORLD                Profile RMS along minor axis (world units)                 [deg]
#   9 THETA_WORLD            Position angle (CCW/world-x)                               [deg]
#  10 FWHM_WORLD             FWHM assuming a gaussian core                              [deg]
#  11 ELONGATION             A_IMAGE/B_IMAGE                                           
#  12 ELLIPTICITY            1 - B_IMAGE/A_IMAGE                                       
         1 -12.5931    209.2117      3.2295   6.0917262426e+01   3.2544910312e+01     1.157199     0.682869  66.02   0.00307172    1.489    0.328
         2 -13.1729    186.8203     27.2290   6.9562202096e+01   3.5339779238e+01     1.577309     1.234389 -19.77   0.00556697    1.563    0.360
         3 -13.0153    194.3002     20.6164   6.6830733435e+01   3.4271568340e+01     1.281042    0.9228008 -48.64   0.00586715    1.429    0.300
         4 -12.1228    201.0243     12.5333   6.4000754596e+01   3.3532282071e+01    0.5809227    0.5386933  89.14  0.001533632    1.135    0.119
         5 -11.5531     33.0000     16.4885   1.0580917769e+02   6.7298156829e+01     0.687499    0.1123413 -38.52  0.002354829    5.382    0.814
         6 -11.8340     32.6103      4.9268   1.0097936128e+02   6.8776720602e+01    0.4690927    0.2909486 -14.87  0.003081182    1.357    0.263
         7 -10.3263    197.7030    246.3056   1.1726352730e+02  -5.6277561422e+00    0.3039548    0.1706559  14.74  0.001269132    2.870    0.652
         8 -10.0537    177.7819    250.0253   1.2155359481e+02  -2.8011217981e+00    0.2402079    0.1397035  32.36  0.001244706    1.615    0.381
         9 -11.3304    139.6804    247.3136   1.2836144766e+02   4.1579206298e+00    0.6497371    0.2648552 -54.74  0.002981605    2.965    0.663
        10 -11.2665    108.3940    246.2910   1.3408198230e+02   9.5330845938e+00    0.3669987    0.2368357  41.33  0.001133851    1.471    0.320
        11 -11.3665     95.7753    249.5122   1.3672223387e+02   1.0944396930e+01     0.698921    0.2728474  39.38  0.003213692    2.505    0.601
        12 -12.2109    100.2785    244.0395   1.3533205245e+02   1.1232374804e+01    0.6376263    0.3157512  44.11   0.00334867    1.738    0.425
        13 -13.9210     51.0179    230.6493   1.4298656202e+02   2.0910283475e+01     2.013916    0.7290285  41.77  0.009872049    2.524    0.604
        14 -12.4041     50.7481    222.7902   1.4235923509e+02   2.2514271390e+01    0.5378667    0.3379397 -70.04  0.001385403    1.532    0.347
        15 -14.7811     58.7742    210.8020   1.3971229574e+02   2.3938021536e+01     8.128231     1.008799  47.24   0.02172804    5.817    0.828
        16  -9.3292    226.2646    201.2725   1.0398781211e+02  -3.7056097960e+00    0.2664676    0.2200978 -63.72 0.0009522027    1.718    0.418
        17 -10.0924    193.0630    194.7643   1.0924634808e+02   3.6330310062e+00    0.8203555    0.3928225 -62.93  0.002175073    6.667    0.850
        18 -10.9380     73.5564    190.7361   1.3439607359e+02   2.6240264893e+01    0.4203657    0.2449974 -46.69  0.001856138    2.213    0.548
        19 -10.9819     77.8141    184.2945   1.3261287967e+02   2.7065215416e+01    0.2965748    0.2307672 -53.22 0.0008462331    1.442    0.306
        20 -10.2531    104.0127    237.0321   1.3385859518e+02   1.1934481741e+01    0.1984909    0.1614314  67.56 0.0009272094    1.029    0.029
        21 -11.6366     58.3290    131.8114   1.2913108909e+02   4.2006635638e+01     1.235036    0.4213662 -71.01  0.003568943    5.000    0.800
        22 -12.5843     67.8712    144.7276   1.2890083385e+02   3.7719280678e+01     1.420788    0.7546026  87.73  0.005240251    3.399    0.706
        23 -10.7339     85.6799    172.9238   1.2916601188e+02   2.8474766531e+01    0.2773059     0.249132 -83.93 0.0003811398    1.063    0.059
        24 -12.5413     73.7997    169.9315   1.3147432426e+02   3.0955728480e+01    0.4593285    0.2721269 -44.75  0.001729168    2.070    0.517
        25 -10.6858    135.3695    171.7213   1.1735778461e+02   1.9902653459e+01    0.4618792    0.1760811  39.90  0.001600033    2.699    0.629
        26 -10.0491     33.4808    158.2829   1.3924174510e+02   3.8632833681e+01    0.5749251    0.2197745 -69.48  0.002614988    2.176    0.541
        27  -9.2419    164.4196    157.2721   1.0771724813e+02   1.7060231235e+01    0.2159492    0.1471118 -57.70 0.0008934034    1.613    0.380
        28 -13.4630     10.5434    206.6928   1.4833594040e+02   3.0348270430e+01     1.033852    0.6706527  25.09  0.003676138    2.393    0.582
        29  -8.1781     47.6691    150.7133   1.3488773605e+02   3.8845407486e+01    0.1244827   0.09240092 -41.01 0.0002150463    1.618    0.382
        30  -9.3845    133.7850    143.7459   1.1195510053e+02   2.6554619756e+01    0.5355106     0.170325 -56.23   0.00144109    4.283    0.767
        31  -9.3575    103.5875    148.2318   1.2045125269e+02   3.1292817340e+01    0.3042004    0.2469049 -47.85 0.0007774335    1.265    0.209
        32  -9.0683    105.6746    144.6956   1.1920877630e+02   3.1753830567e+01    0.3059257    0.2088101 -36.89  0.001404808    1.742    0.426
        33 -11.4742     92.4686    147.8662   1.2319670106e+02   3.3273608670e+01    0.2828262    0.2588663 -36.79  0.000515273    1.249    0.200
        34  -9.0013    169.5132    215.9856   1.1787532714e+02   4.2849597326e+00     0.190132    0.1378663 -48.93 0.0006142129    1.558    0.358
        35  -9.4688    113.3896    134.4640   1.1503509599e+02   3.2726811806e+01    0.3496874    0.2544065 -25.24  0.001039085    1.828    0.453
        36 -10.1131    100.8091    131.7614   1.1773798962e+02   3.5651529631e+01    0.3249604    0.2538411 -28.49 0.0008027562    1.545    0.353
        37  -9.2590    161.3786    128.8166   1.0183356144e+02   2.3887894830e+01    0.2273901    0.1489509 -34.96 0.0007851706    1.671    0.402
        38 -10.3751     44.2639    127.6066   1.3216747672e+02   4.4609991468e+01    0.4341834    0.1406367 -66.59  0.001617908    2.972    0.664
        39 -11.6619     91.2144    165.1890   1.2660895308e+02   2.9396154738e+01     1.016103    0.6028209  47.42  0.001079553    1.688    0.407
        40  -8.8856    109.1072    122.3600   1.1337928204e+02   3.6325353589e+01    0.1983439    0.1823616  51.79 0.0003641887    1.127    0.113
        41 -11.2275    103.1680    172.1501   1.2495492826e+02   2.5778730183e+01     2.406422     0.190691  44.23  0.004705535    9.547    0.895
        42 -10.0419    168.3475    113.0953   9.6290768507e+01   2.5594338356e+01    0.3733297    0.3073259 -75.42 0.0008924723    1.392    0.282
        43  -8.9311    205.7557    110.5400   8.7930235407e+01   1.7242066863e+01    0.2960474    0.1450054  47.93  0.001138789    2.111    0.526
        44  -9.7661    248.8839    247.7998   1.0823155234e+02  -1.3860231804e+01    0.2545685    0.1108489  23.24  0.001163567    2.715    0.632
        45  -7.9696    184.6664     77.6397   8.3472899327e+01   2.8414154276e+01    0.1578748    0.1199111  18.83 0.0007039613    1.808    0.447
        46  -8.3279    154.5297     76.5294   8.9431573417e+01   3.5997707301e+01    0.1504934    0.1465849  65.00 0.0003312067    1.008    0.008
        47 -10.0296    114.8826     45.6083   8.9481308264e+01   5.0036818467e+01    0.2979316     0.244419  86.89 0.0008013478    1.684    0.406
        48  -9.8104    243.4517    248.7294   1.0933709810e+02  -1.3182153010e+01    0.2048003    0.1086429 -37.23  0.001089374    2.156    0.536
        49 -15.4714      7.7278    239.1865   1.5078479946e+02   2.4268778957e+01     10.26982    0.5626895 -72.20   0.02734315    7.624    0.869
        50 -10.3187     32.8901    205.3898   1.4415986751e+02   2.8274798364e+01     0.339619    0.2186422 -82.59  0.001307954    1.275    0.215
        51 -15.4074      1.7563     73.3515   1.3498853321e+02   5.9778843655e+01      13.2718    0.6481082 -63.99   0.02897909   11.545    0.913
        52 -14.1559     33.2938    246.9875   1.4720479118e+02   1.9988349791e+01     3.189679    0.7990746  39.90   0.01428621    3.674    0.728
