#   1 NUMBER                 Running object number                                     
#   2 MAG_AUTO               Kron-like elliptical aperture magnitude                    [mag]
#   3 X_IMAGE                Object position along x                                    [pixel]
#   4 Y_IMAGE                Object position along y                                    [pixel]
#   5 X_WORLD                Barycenter position along world x axis                     [deg]
#   6 Y_WORLD                Barycenter position along world y axis                     [deg]
#   7 A_WORLD                Profile RMS along major axis (world units)                 [deg]
#   8 B_WORLD                Profile RMS along minor axis (world units)                 [deg]
#   9 THETA_WORLD            Position angle (CCW/world-x)                               [deg]
#  10 FWHM_WORLD             FWHM assuming a gaussian core                              [deg]
#  11 ELONGATION             A_IMAGE/B_IMAGE                                           
#  12 ELLIPTICITY            1 - B_IMAGE/A_IMAGE                                       
         1 -11.7176    132.1478     18.2385   1.0282432021e+01   4.9410803896e+01    0.4748404    0.1663639 -38.39  0.001798452    2.831    0.647
         2 -12.4905     66.8313     16.1863   2.6256023432e+01   6.5516356312e+01    0.2671984    0.2181705 -12.11 0.0004429594    1.272    0.214
         3 -11.2602    204.8662     10.8490   3.5978393676e+02   3.2158736559e+01    0.1703634    0.1554366 -84.16 0.0003307986    1.172    0.147
         4 -11.5200     92.0966      8.3429   1.4551723557e+01   6.0552750164e+01    0.1966586    0.1827713   1.02 0.0005823156    1.179    0.152
         5 -11.7428     85.0852     10.4224   1.7373394385e+01   6.2037065326e+01    0.3051502     0.202216 -47.13  0.001467161    1.834    0.455
         6 -11.5421     87.5474      7.0635   1.5124819687e+01   6.1774994970e+01    0.4122853    0.1713794 -17.15  0.001542661    2.966    0.663
         7 -12.6285    215.2997      2.6446   3.5713494583e+02   3.0666799225e+01    0.2269164    0.1855332 -59.04 0.0003847887    1.082    0.076
         8 -10.2894    100.3371      1.3140   9.5829521732e+00   5.9127784711e+01    0.1458663   0.08565762  40.75 0.0007046797    1.693    0.409
         9 -11.2839    125.9841    241.7681   6.4808833454e+01   8.0035566027e+00    0.2381866    0.1349077  43.41  0.001148976    1.570    0.363
        10 -13.9037    246.3248    249.6689   4.3306164108e+01  -8.1552962632e+00    0.2822004    0.1743688  14.90  0.001148749    1.253    0.202
        11 -11.8161    236.9730    250.6100   4.4956019829e+01  -7.2774153025e+00    0.1493819    0.0800795  23.86 0.0003361641    1.529    0.346
        12 -10.1611    179.3220    250.7088   5.5206343871e+01  -4.9323459471e-01    0.1066485   0.08072925  42.30 0.0002765506    1.608    0.378
        13 -12.3977    139.6931    248.4524   6.2749779556e+01   5.0731016271e+00    0.3460439    0.2239167 -57.24  0.002097645    2.131    0.531
        14 -12.1148    124.6804    249.1206   6.5913233369e+01   7.0023755769e+00    0.3572016    0.2539974  77.77  0.001680479    2.248    0.555
        15 -12.2531    120.0922    244.4657   6.6355876085e+01   8.3734225969e+00    0.2977629    0.1511119  25.13  0.001513532    1.857    0.462
        16 -11.4630    106.3828    250.6523   6.9874778012e+01   9.2061436236e+00    0.2110935    0.0873395  35.38  0.001043358    1.825    0.452
        17 -11.9804     84.6466    250.6292   7.4406520837e+01   1.2035365704e+01    0.2288813   0.09135114  32.83 0.0006034113    1.972    0.493
        18 -11.1703     77.3272    250.4485   7.5916477229e+01   1.2988570049e+01    0.2149886    0.1079959  41.90 0.0006005413    1.503    0.335
        19 -14.9254     38.8181    198.9467   8.0569786203e+01   2.7862074443e+01     2.690607    0.8123924  41.20   0.01037901    2.514    0.602
        20 -15.8317     45.3318    223.2549   8.0801120236e+01   2.1961070153e+01     2.116812     1.421792  61.71  0.009668664    1.303    0.233
        21 -15.3069     35.4169    229.5173   8.3374410168e+01   2.1808378161e+01     1.452813    0.8434446  85.37  0.008593747    1.770    0.435
        22 -16.5670     12.8127    187.0779   8.6185275765e+01   3.3120633407e+01     2.632872     1.449735 -74.26   0.01444256    1.739    0.425
        23 -14.8196      2.1918    226.2164   9.0233643366e+01   2.5699789923e+01    0.6121278    0.2528737 -85.80  0.003313758    2.330    0.571
        24 -15.5416      2.3728    216.9856   8.9888905051e+01   2.7540306799e+01     1.292694    0.3246082 -84.10  0.005257603    3.898    0.743
        25 -15.2706      4.4409    249.1891   9.0488553435e+01   2.1157963998e+01     1.011276    0.2415556  28.62   0.00446511    3.552    0.718
        26 -16.9682     12.6228    239.4170   8.8575977112e+01   2.2200613910e+01      1.33605      1.08124  44.91  0.008811531    1.203    0.169
        27 -16.2411      4.9519    236.8962   9.0017433810e+01   2.3386487294e+01     1.508735    0.6013013 -54.55  0.007147842    4.041    0.753
        28 -16.2807     19.1146    212.3076   8.6030177023e+01   2.6991372719e+01     2.289056    0.8116884  60.08   0.01028513    2.606    0.616
        29 -11.0794    246.7247    241.3781   4.2011831851e+01  -7.3038677421e+00    0.1474225   0.07781794  18.32  0.000720262    1.600    0.375
        30 -11.6376    198.6823    241.0180   5.0224094760e+01  -1.6847977805e+00    0.2041126    0.1358946  37.68 0.0008384751    1.637    0.389
        31 -11.0485    187.0344    241.3042   5.2443378169e+01  -2.3256023511e-01    0.1646818    0.1169792  21.40 0.0001544312    1.115    0.103
        32 -12.3246    108.4152    240.0413   6.8357619819e+01   1.0713119608e+01    0.3360362    0.1865801  24.38  0.001124242    1.741    0.426
        33 -11.7301    149.2578    237.9802   5.9479422246e+01   5.3646216533e+00    0.2979218    0.2312281 -72.70   0.00183626    2.056    0.514
        34 -12.0950    103.6051    237.0516   6.9079905005e+01   1.1891784487e+01    0.2269638    0.2150545  49.86 0.0006061375    1.186    0.157
        35 -10.3396     98.6439    237.7084   7.0225785202e+01   1.2450990964e+01    0.1206062   0.09034725   4.18 0.0005972012    1.685    0.407
        36 -11.0938     80.0738    237.0874   7.4209551471e+01   1.5024601411e+01    0.2401686    0.1458329   9.34  0.001183671    2.512    0.602
        37 -11.2955    210.5568    235.7069   4.7278991099e+01  -2.4862485016e+00    0.1346048     0.104094 -30.84 0.0009379315    1.524    0.344
        38 -10.1524     88.2922    236.3267   7.2345951229e+01   1.4087275748e+01    0.1142469   0.09262652  -4.78 0.0002644207    1.620    0.383
        39 -11.4682    223.0035    232.0067   4.4522452391e+01  -3.5390870666e+00    0.1767836    0.1325204   0.80 0.0004846707    1.035    0.034
        40 -11.3828    182.3275    232.0268   5.2005001662e+01   1.6789988414e+00    0.2092628    0.1558605  42.82  0.001320246    1.600    0.375
        41 -10.6442    162.5533    232.2128   5.5969858465e+01   4.3882446932e+00    0.1544651    0.1103446 -22.62 0.0004755115    1.546    0.353
        42 -11.8269    194.6218    229.4075   4.9256084223e+01   3.9476825696e-01    0.2234965    0.1883942 -26.56 0.0005557257    1.387    0.279
        43 -11.9997    178.4515    228.5083   5.2243897632e+01   2.7210470516e+00    0.2346643    0.1648642  -5.46  0.000895739    1.452    0.311
        44 -11.9231    182.3087    225.3928   5.1016168001e+01   2.6434836806e+00    0.2199695    0.1742101  11.57 0.0004924121    1.025    0.024
        45 -12.9155    231.6255    226.6804   4.2218812011e+01  -3.9097912756e+00    0.3947988     0.202768  22.10  0.002339133    1.748    0.428
        46 -10.7575    166.4626    228.4157   5.4632598501e+01   4.4174105183e+00    0.1257923    0.1003863  19.20 6.030822e-05    1.012    0.012
        47 -11.8316     96.9023    228.2427   6.9623925337e+01   1.4411441379e+01    0.2444514    0.1618854  19.20  0.001342839    1.633    0.387
        48 -10.4527     73.7839    212.8562   7.3360993128e+01   2.0586308036e+01     0.407133    0.2908005 -27.34  0.002190162    2.080    0.519
        49 -12.3278     81.5114    225.4784   7.2811813027e+01   1.7028592542e+01     0.230982    0.2034928   0.07  0.000898118    1.405    0.288
        50 -13.2063     81.8637    222.1636   7.2405251357e+01   1.7628575826e+01    0.4459413     0.257757  46.95  0.002394449    1.480    0.324
        51 -12.4730     77.1823    218.9831   7.3170102125e+01   1.8886020923e+01    0.4171538    0.2340824  39.86  0.001404126    1.455    0.313
        52 -11.4216    121.0772    227.1259   6.4112550616e+01   1.1188680781e+01    0.1920941    0.1549831  13.58 0.0004419425    1.262    0.208
        53 -12.5675    116.4978    225.0757   6.4875844546e+01   1.2218023994e+01    0.2225947    0.1908278 -80.07  0.000897904    1.466    0.318
        54 -10.8182    222.4879    225.4991   4.3594088547e+01  -2.6592871532e+00    0.1159009   0.08926418   3.44 -5.223151e-05    1.046    0.044
        55 -11.4628     91.5461    224.9644   7.0483733450e+01   1.5768882500e+01    0.1681819    0.1276057 -68.31  0.000597652    1.560    0.359
        56 -11.7620    212.0555    223.6361   4.5142831197e+01  -1.1033463366e+00    0.2043308    0.1540509 -20.94   0.00032794    1.284    0.221
        57 -12.1221    160.3723    222.6916   5.5050523227e+01   6.1928152638e+00    0.3407462     0.208443  33.84  0.001202388    1.394    0.283
        58 -12.0891    245.6357    221.8049   3.9140443560e+01  -4.9438096472e+00    0.2646544    0.1447211  -6.50  0.001577483    1.826    0.452
        59 -11.9051    193.3655    220.7738   4.8157363691e+01   1.7849848469e+00    0.3527848    0.1092356 -40.28  0.001467439    3.428    0.708
        60 -13.4200    123.8081    221.1415   6.2746551736e+01   1.1861709674e+01    0.4508903    0.3375061  71.24  0.002551463    1.812    0.448
        61 -12.6638    119.0489    213.4950   6.2817120563e+01   1.3987580305e+01    0.4608995    0.1837346  45.27  0.001883963    2.439    0.590
        62 -10.7816     76.2612    223.3420   7.3801531722e+01   1.8140622461e+01    0.1142531   0.09639028 -20.03 0.0002299706    1.592    0.372
        63 -13.5812    174.2950    219.9773   5.1784250344e+01   4.5978862687e+00    0.3523957    0.2576872 -30.81 0.0007866743    1.458    0.314
        64 -11.9512     96.0296    221.7210   6.9111741211e+01   1.5767967638e+01    0.2579984    0.1619535 -39.82  0.001350809    2.118    0.528
        65 -11.4078     94.5967    218.2037   6.9048817498e+01   1.6652477967e+01     0.210714    0.1546307  47.60 0.0006740815    1.200    0.167
        66 -11.7915    238.2441    220.6037   4.0146245836e+01  -3.9438799035e+00    0.1551084   0.08716487  18.60  0.000794721    1.607    0.378
        67 -10.7984     87.4949    220.4353   7.0933271293e+01   1.7203384985e+01    0.1298547    0.1088811  39.96  0.000102341    1.040    0.038
        68 -12.6626    146.1715    216.4350   5.7156759894e+01   9.3478903494e+00    0.3781984    0.3106714  52.26  0.002308323    1.411    0.291
        69 -13.4760    140.5592    211.5750   5.7678427274e+01   1.1060902522e+01    0.6982698    0.3620186 -48.45  0.003388553    2.203    0.546
        70 -12.3414    142.3377    205.1111   5.6307200232e+01   1.1958436932e+01    0.3427491    0.2172352  47.67 0.0004386559    1.661    0.398
        71 -12.5736    145.7606    201.7258   5.5009559882e+01   1.2038223493e+01    0.2982983    0.2676719  89.49   0.00103844    1.480    0.324
        72 -11.8223    115.6077    217.2408   6.4095135013e+01   1.3794223256e+01    0.1653678    0.1224953 -40.80 0.0006045398    1.605    0.377
        73 -13.1139    108.0388    215.0666   6.5560781261e+01   1.5325741181e+01    0.3682708    0.2565068  79.89  0.001935031    2.007    0.502
        74 -11.2678    226.0129    216.3195   4.1505502902e+01  -1.9132364930e+00    0.1597512    0.1204274   9.85 0.0002924146    1.098    0.089
        75 -11.1505    153.9953    215.6320   5.5348924149e+01   8.3040160867e+00    0.2963947    0.1820544 -60.78   0.00147937    2.453    0.592
        76 -11.1377    156.4111    213.2495   5.4470785275e+01   8.3420884655e+00      0.23203    0.2038377 -79.99  0.001247621    1.652    0.395
        77 -13.3124    159.5756    207.1899   5.2846824668e+01   8.8919952348e+00    0.6159948    0.4477433  35.36  0.003053804    1.255    0.203
        78 -12.5402     84.1649    214.6715   7.1097014855e+01   1.8811091354e+01    0.6105903    0.1977486  36.89  0.001811641    2.422    0.587
        79 -11.9344    247.5132    213.0061   3.7407784448e+01  -4.0949132781e+00    0.1951488      0.13875  14.91 0.0003871317    1.247    0.198
        80 -11.6923    187.2163    211.5375   4.7866954841e+01   4.0281852949e+00    0.2032297    0.1615851 -21.59 0.0003310629    1.251    0.201
        81 -13.2372    123.5607    209.9404   6.1294203487e+01   1.3977086322e+01    0.2844436    0.2521577  73.42 0.0005737313    1.341    0.254
        82 -12.4612    180.3616    208.5192   4.8737263051e+01   5.5073420867e+00    0.4773656    0.3045896  -0.38  0.002496743    1.849    0.459
        83 -10.6788     97.0000    210.9741   6.7645615841e+01   1.7745060089e+01    0.1932852   0.07724321 -61.04 0.0007960884    2.899    0.655
        84 -10.9478    170.2133    210.1377   5.1074845255e+01   6.7691926401e+00    0.1623413    0.1431669  41.55 0.0003571779    1.333    0.250
        85 -13.3219    228.8363    206.0720   3.9311289884e+01  -9.1511883391e-01    0.4231064    0.3643235 -21.82  0.001958417    1.366    0.268
        86 -12.0266    104.1325    206.6608   6.5412268158e+01   1.7566073632e+01    0.3369506    0.2434801  71.92  0.001800941    1.710    0.415
        87 -10.7623     72.4897    207.2785   7.3107150032e+01   2.1927138656e+01    0.1760618    0.1183884  83.11 0.0009157354    1.704    0.413
        88 -12.1294    116.6964    205.9837   6.2342786969e+01   1.5796013430e+01     0.185517     0.175937  40.15  0.001166733    1.100    0.091
        89 -11.9073    238.9045    204.6230   3.7386941031e+01  -1.9998365855e+00    0.1937907     0.142602 -23.47 0.0003781347    1.250    0.200
        90 -10.1309    214.6789    205.7247   4.1725395919e+01   1.0123914596e+00    0.1243218   0.07946847   2.06 0.0002006819    1.576    0.365
        91 -12.5076    111.4578    203.8618   6.3291914598e+01   1.7021906214e+01    0.2923413    0.2131652  46.58 0.0006050988    1.272    0.214
        92  99.0000     79.4117    194.7981   7.0014117029e+01   2.3682289033e+01    0.6180145    0.3269855  45.16  0.001844689    1.679    0.404
        93 -10.8139     81.1524    200.1575   7.0208178791e+01   2.2267183356e+01    0.4365572    0.2272315  23.38  0.001254965    2.157    0.536
        94 -11.9742     75.9523    186.6773   6.9918945958e+01   2.5992847903e+01      1.01026    0.3681482 -68.07  0.003743879    3.179    0.685
        95 -12.1090     69.5617    187.0712   7.1634201286e+01   2.6785468257e+01    0.5502449    0.1656387  41.36  0.002006201    2.752    0.637
        96  99.0000     65.2264    183.6961   7.2382604330e+01   2.8147640630e+01    0.5178287    0.3465118 -55.05  0.002693678    1.643    0.391
        97 -13.3005     92.2628    196.9233   6.7051202479e+01   2.1362598486e+01     1.084222    0.7888098 -17.43  0.005498711    1.977    0.494
        98 -11.5214     91.1571    189.1756   6.6310272584e+01   2.3217456894e+01    0.2486216    0.2046075 -55.40 0.0007337516    1.345    0.257
        99 -14.9424     66.3356    246.6905   7.7924301040e+01   1.5004407829e+01     1.754245    0.7118846  34.45  0.008900117    1.898    0.473
       100 -10.9773    166.9848    202.4819   5.0503272190e+01   8.5459923425e+00    0.1983573    0.1166039  33.50 0.0004039799    1.518    0.341
       101 -12.0838    136.0395    199.5794   5.6884530373e+01   1.3996753636e+01    0.4348061    0.2793479  86.35   0.00165448    3.656    0.726
       102 -12.5527    120.9799    201.2660   6.0661371649e+01   1.6062267913e+01    0.2011895    0.1627991  35.61 0.0005996142    1.082    0.076
       103 -11.7753    212.4498    200.0001   4.1141522274e+01   2.1436329304e+00    0.2052413     0.166158  39.45 0.0007098296    1.537    0.349
       104 -12.1922    182.0187    198.8087   4.6769123054e+01   6.8244345660e+00     0.400483    0.2251461   3.16  0.001694426    2.806    0.644
       105 -12.0577    176.6260    198.8382   4.7875673266e+01   7.6560008145e+00    0.2200009    0.1917004 -61.49 0.0009026584    1.607    0.378
       106 -12.9350    172.8698    195.4231   4.8068108987e+01   8.8262344634e+00    0.2974373    0.2341278  43.23  0.000341749    1.391    0.281
       107 -10.4002    219.3069    198.3009   3.9619949785e+01   1.4339674537e+00    0.1258354   0.08060984  -1.16 0.0002526668    1.597    0.374
       108 -12.8789    201.8825    196.2906   4.2444520459e+01   4.2216629501e+00    0.3070916    0.2248194  -5.41 0.0005390082    1.287    0.223
       109 -12.9510    110.4522    196.1367   6.2452518102e+01   1.8755979353e+01    0.2923462    0.2524891  -0.78 0.0003272599    1.316    0.240
       110 -13.1350    191.9711    194.4854   4.4031204547e+01   5.9957387663e+00    0.4396303    0.3211718  29.92  0.002593663    1.283    0.221
       111 -11.4314    153.4551    195.4862   5.2272689483e+01   1.1945643961e+01    0.1366524    0.1209042  21.39 7.918423e-05    1.027    0.026
       112 -11.0816    138.3087    197.2957   5.6001411290e+01   1.4068131321e+01    0.1368546    0.1019163  -0.21 0.0002224375    1.590    0.371
       113 -11.5266    161.7721    192.8797   4.9998697010e+01   1.1063419642e+01    0.3270631    0.1375763  35.80  0.001362448    2.170    0.539
       114 -12.3972    133.1734    190.9792   5.6185324713e+01   1.6142036931e+01     0.314824    0.2225656  10.89   0.00156936    1.658    0.397
       115 -12.5191     50.7418    189.8628   7.6807750416e+01   2.8549228317e+01    0.3248364    0.2240571  23.22 0.0008893696    1.572    0.364
       116 -14.4532     72.4349    230.6807   7.5327812555e+01   1.7209812113e+01     1.818342    0.8123674  89.45   0.00721268    4.133    0.758
       117 -11.0549     43.4729    186.8747   7.8406832134e+01   3.0089414560e+01    0.2042428    0.1426077  72.28 0.0007444921    1.362    0.266
       118 -11.5403     28.9507    173.4926   8.1100355982e+01   3.4810728014e+01    0.2232572    0.1617264  75.19 0.0005714556    1.256    0.204
       119 -10.7464     40.2295    184.9943   7.9082463027e+01   3.0891961447e+01    0.2453141    0.1618521  85.21 0.0004311807    1.495    0.331
       120 -11.9707     30.7882    176.6435   8.0864601057e+01   3.3870277306e+01    0.3722464    0.1613571  38.66  0.001715227    1.995    0.499
       121 -12.0831     36.5171    186.0259   8.0129630381e+01   3.1056930883e+01    0.2431743    0.1821363  14.18 0.0009850014    1.624    0.384
       122 -12.6542     33.5006    184.4565   8.0781379647e+01   3.1743485650e+01    0.2530935    0.2060767 -84.31  0.001039441    1.199    0.166
       123 -12.2729     38.8128    181.4266   7.9142395598e+01   3.1886432702e+01    0.3406118    0.2007702  37.68  0.001253165    1.534    0.348
       124 -12.4115     37.5005    178.0106   7.9189602742e+01   3.2840268385e+01    0.4513959    0.2728513   8.10  0.002144541    2.350    0.575
       125 -10.8112    167.9672    189.4815   4.8065826709e+01   1.0657821267e+01    0.2045447    0.1229863  35.53 0.0005467122    1.535    0.349
       126 -13.2901    109.5481    186.7950   6.1297013616e+01   2.0874065391e+01    0.4624293    0.2887146 -88.81  0.001938448    2.690    0.628
       127 -11.1931     97.1157    188.5634   6.4704401211e+01   2.2446734986e+01     0.200597    0.1785885 -64.87 0.0009917427    1.233    0.189
       128 -12.9196    122.3653    196.5592   5.9633924403e+01   1.6782769639e+01    0.3144392    0.2447872  50.05  0.001304897    1.288    0.224
       129 -12.4483    129.8960    216.6540   6.0783645010e+01   1.1767092697e+01    0.2045086    0.1765835 -20.83 0.0004773984    1.307    0.235
       130 -11.0775    174.4903    188.5293   4.6513220015e+01   9.7583775790e+00     0.136702     0.118047   8.55 8.122949e-05    1.022    0.022
       131 -11.3003    159.5002    188.5099   4.9735638029e+01   1.2233937339e+01    0.1381562    0.1231981  17.83 2.038221e-05    1.023    0.022
       132 -12.5780    157.5162    184.9368   4.9542703334e+01   1.3231087971e+01     0.391982    0.2478641 -15.69  0.001774847    2.173    0.540
       133 -12.7172    127.5041    186.0051   5.6730702132e+01   1.8091188551e+01    0.2765871    0.2406065  39.07   0.00106292    1.072    0.068
       134 -13.3968    123.1608    186.1837   5.7819363603e+01   1.8777487037e+01    0.4213581    0.2749645  22.11  0.002013409    1.643    0.391
       135 -12.1087    247.7950    185.6975   3.2665111801e+01  -6.2138339617e-01    0.2794766    0.1591554   4.77  0.001520334    2.105    0.525
       136 -12.4881    132.0914    185.7011   5.5572470227e+01   1.7384297773e+01    0.2058088    0.1665399  32.85 0.0006007157    1.120    0.107
       137 -11.2387    163.9932    185.0127   4.8126579888e+01   1.2125505547e+01    0.2104138    0.1899548  16.55 0.0003978377    1.043    0.041
       138 -11.4690    167.1693    182.8651   4.7046195459e+01   1.1983767357e+01    0.2626155    0.1853939 -18.90  0.001352804    1.579    0.367
       139 -12.2807     94.3846    182.6199   6.4561221745e+01   2.4189174987e+01    0.5220667    0.2536062 -65.38  0.002170686    2.401    0.583
       140 -11.9449     89.1083    181.2266   6.5745079587e+01   2.5313548697e+01    0.4368724    0.2629239  71.47  0.001870279    2.311    0.567
       141 -12.1735     48.9072    182.6396   7.6589996998e+01   3.0448558069e+01    0.3502504    0.3065273  29.74  0.001783214    1.230    0.187
       142 -11.1393    201.9762    182.5215   3.9931119520e+01   6.3692848834e+00    0.1885192    0.1190715  32.49 0.0004771286    1.534    0.348
       143 -11.3366    151.8482    181.7440   5.0249922635e+01   1.4804844817e+01    0.2401151     0.146904  -4.01 0.0009479414    2.790    0.642
       144 -12.3620    142.0750    181.4288   5.2461240470e+01   1.6546917398e+01    0.2821676    0.1983656 -46.53 0.0009444321    1.536    0.349
       145 -10.7448    233.0293    181.4819   3.4256850208e+01   1.9375980651e+00    0.1604943    0.1115739  29.35 0.0003363135    1.468    0.319
       146 -10.8635    193.0217    181.0084   4.1370242045e+01   8.0349956394e+00    0.1594401    0.1376614  -0.17 0.0003277294    1.006    0.006
       147 -13.8579    117.4349    179.3094   5.8118854341e+01   2.1191986460e+01    0.5654491    0.3758626  52.14  0.001905217    1.585    0.369
       148 -11.1337    198.0520    180.2821   4.0258776318e+01   7.3499312197e+00     0.178104    0.1528381  10.21 0.0002381382    1.064    0.060
       149 -12.1490    247.5811    176.0871   3.0956789452e+01   7.1134103308e-01    0.2539679    0.1701842  -5.80 0.0008706872    1.425    0.298
       150 -12.5771    242.5476    175.4313   3.1613749406e+01   1.4814376265e+00    0.2249822    0.2047844  16.39  0.001104072    1.349    0.259
       151 -12.8990    122.5226    167.8008   5.4823815390e+01   2.2825223790e+01    0.5993821    0.2720704  24.40  0.002002008    3.186    0.686
       152 -14.1433    126.1288    173.0690   5.4856696172e+01   2.1047542562e+01    0.6514696    0.3948492 -61.84  0.001648024    2.015    0.504
       153 -13.1889    131.1003    169.1013   5.2893244732e+01   2.1020460142e+01    0.3751102    0.2935966  21.33  0.001155857    1.312    0.238
       154 -12.4116    224.3481    176.1526   3.4719282399e+01   3.9612264375e+00     0.340013    0.1786687  22.42  0.001655144    2.254    0.556
       155 -12.7963    144.5794    172.7054   5.0285139781e+01   1.7866292066e+01    0.3998906     0.257203  62.14  0.001300413    2.305    0.566
       156 -12.5943    137.4015    177.0645   5.2798523578e+01   1.8240200191e+01    0.2757449     0.195686  42.44 0.0005581122    1.346    0.257
       157 -12.0742     62.2641    177.1058   7.2408433360e+01   3.0091112872e+01     0.361179    0.1965906  25.66  0.001633313    1.942    0.485
       158 -11.2860     53.9758    177.5054   7.4703271052e+01   3.1052250459e+01    0.3093742   0.09974497  36.68  0.001175473    2.571    0.611
       159 -12.7578    106.4076    175.8904   6.0391913722e+01   2.3780636373e+01    0.3226762    0.2190234  37.08 0.0008592278    1.352    0.260
       160 -11.3098    204.7430    174.4019   3.7877426944e+01   7.2422161500e+00    0.2479191    0.1504973 -45.65  0.001263509    1.849    0.459
       161 -11.8969    173.1685    173.4879   4.3996877485e+01   1.2672395816e+01    0.2301689     0.186058 -32.51 0.0002582755    1.242    0.195
       162 -12.7478    100.0315    171.2814   6.1332546960e+01   2.5873481256e+01    0.3173296    0.2553881  19.64 0.0003641351    1.335    0.251
       163 -13.3093     90.4862    171.9652   6.4015894803e+01   2.7240790367e+01     0.458947    0.3002807 -43.76   0.00126058    1.763    0.433
       164 -11.8201     95.2627    171.9983   6.2728626802e+01   2.6478125165e+01    0.2585827    0.2007854  37.82 0.0005814122    1.197    0.164
       165 -12.6924     78.9776    173.0711   6.7319439810e+01   2.8725841015e+01    0.3878323     0.241194  55.83  0.001813492    1.665    0.399
       166 -11.5427    191.2095    171.8277   3.9973369918e+01   9.8860233900e+00    0.1892052    0.1461752   0.07  0.000502969    1.303    0.232
       167 -12.6079     41.8689    169.8892   7.7231324078e+01   3.4320922228e+01     1.164294    0.4448866  66.11  0.003714995    4.245    0.764
       168 -12.8219     40.6080    161.4341   7.6712646501e+01   3.6547576804e+01    0.4361567    0.2275702  55.20  0.001978199    1.923    0.480
       169 -13.5518     31.4212    156.4119   7.8871504503e+01   3.8769196480e+01    0.6664203    0.3803078  69.30   0.00317872    1.824    0.452
       170 -12.2033     25.2886    153.8836   8.0433758890e+01   3.9993108262e+01    0.2602633    0.1999402  53.55 0.0005378525    1.219    0.180
       171 -14.8117     35.9628    248.7359   8.4299698168e+01   1.8114174464e+01     1.123703    0.4847543  48.08  0.006034159    1.701    0.412
       172 -11.9365    164.2513    170.7207   4.5397237738e+01   1.4754384661e+01    0.2610188    0.1674075  39.03  0.001268062    1.501    0.334
       173 -12.6032    156.9781    165.5660   4.6022995475e+01   1.7063893683e+01    0.2693383     0.242857  14.62  0.001519973    1.044    0.042
       174 -13.2991    152.7467    170.2068   4.7899458740e+01   1.6908974946e+01    0.3839594    0.2990635 -40.68 0.0009911453    1.337    0.252
       175 -12.9102    152.4949    165.4873   4.7040985981e+01   1.7897729822e+01     0.296906    0.2584763  22.63  0.001349788    1.089    0.082
       176 -12.0262     57.3632    164.4667   7.2238443129e+01   3.3794775794e+01    0.3787086    0.2072612  72.30  0.001576063    2.325    0.570
       177 -11.6827     61.3568    170.9727   7.1918172914e+01   3.1684155959e+01     0.362337    0.1902798  27.69  0.001605534    1.946    0.486
       178 -13.1448     53.1532    167.6886   7.3826666076e+01   3.3531343772e+01    0.6894899    0.2804644  46.16  0.002777493    2.306    0.566
       179 -11.4978      2.0991    171.0499   8.8051084181e+01   3.7710780933e+01     0.183865    0.1512794  78.10 0.0003885409    1.037    0.035
       180 -13.1707    149.7560    176.0166   4.9686604728e+01   1.6287921460e+01    0.3877781     0.284245  52.96   0.00127757    1.556    0.357
       181 -11.3728    197.7095    170.0807   3.8368166929e+01   9.0991522950e+00    0.1899511    0.1588455 -13.07 0.0004569301    1.083    0.077
       182 -10.8594    110.0341    170.0136   5.8462871214e+01   2.4496336425e+01    0.1693146    0.1641266  48.03 0.0003207578    1.043    0.041
       183 -12.0632    160.0309    169.0022   4.6004792323e+01   1.5838260464e+01    0.2293706    0.1683218  -3.09 0.0009520795    1.638    0.389
       184 -12.6904     84.0090    167.3094   6.5087348076e+01   2.9343864488e+01    0.3039649    0.2030934 -76.91 0.0008827134    1.707    0.414
       185 -12.1675     31.1648    167.5008   7.9983677820e+01   3.6044283849e+01    0.2518587    0.1906508  67.17 0.0002647217    1.194    0.162
       186 -12.6547     72.3129    166.6683   6.8274719594e+01   3.1228405869e+01    0.2817759    0.2539236  -1.49  0.001004423    1.315    0.240
       187 -12.4511    201.0100    165.9239   3.6922279168e+01   9.2484304313e+00     0.327825    0.2149615  51.08  0.001106705    1.934    0.483
       188 -13.1729    111.4691    164.0116   5.7030134455e+01   2.5612370611e+01    0.4653203    0.3142473 -23.80  0.001687234    2.079    0.519
       189 -12.4036    103.2847    165.0862   5.9420940292e+01   2.6765744993e+01    0.2787957    0.1974735  27.00  0.001334922    1.451    0.311
       190 -14.0051     88.9850    163.4524   6.3092404879e+01   2.9491666731e+01    0.5474967     0.410566  10.81  0.002665632    1.646    0.392
       191 -12.4924     91.2328    145.4180   5.9293870571e+01   3.3505777296e+01    0.3391033    0.2067123  41.81  0.001458108    1.574    0.365
       192 -13.4194     83.6943    159.4434   6.3943683706e+01   3.1290483099e+01    0.3874074    0.2275423  45.61  0.001525291    1.633    0.388
       193 -13.3905     84.7012    144.5463   6.1083251681e+01   3.4800625973e+01    0.5349216    0.3181401  21.62  0.001527679    2.042    0.510
       194 -14.1316     77.2448    154.0540   6.4947653847e+01   3.3604194460e+01    0.5395886    0.4158467 -49.25  0.002753104    1.386    0.279
       195 -13.0068      4.3793    160.3347   8.6868497887e+01   4.0109309478e+01    0.3958385    0.2835522  68.42  0.001475019    1.207    0.171
       196 -11.5926    212.0935    163.9741   3.4504240495e+01   7.7480304128e+00    0.1933272    0.1673969 -11.52 0.0003298688    1.025    0.024
       197 -12.3156     64.0445    164.0477   7.0268288032e+01   3.3018486643e+01    0.2596859    0.2046789 -73.65  0.001049771    1.275    0.215
       198 -12.8026     67.3597    159.9959   6.8750330591e+01   3.3564755999e+01    0.4143557    0.2523506   1.55  0.001641474    2.819    0.645
       199 -11.3902    229.6845    161.8960   3.1095139718e+01   5.3111649915e+00    0.1744336    0.1410908 -24.89  0.000524572    1.103    0.094
       200 -11.5180     51.7894    161.6571   7.3499275668e+01   3.5190344218e+01    0.2373336    0.1638966  35.86 0.0007890063    1.397    0.284
       201 -12.2974     47.0905    161.2254   7.4811791154e+01   3.5861589176e+01    0.3009847    0.2042591  57.62  0.001534668    1.422    0.297
       202 -12.7353    170.0143    159.7854   4.1953454798e+01   1.5799012659e+01    0.3218755    0.2939983  70.89  0.001281802    1.367    0.269
       203 -14.0382    120.2391    157.9692   5.3576957004e+01   2.5424949967e+01    0.5856411    0.4383418  38.71  0.002889129    1.266    0.210
       204 -12.4280     95.6748    159.0767   6.0482402045e+01   2.9452668029e+01    0.3159088    0.2515238  -5.52 0.0008994141    1.612    0.380
       205 -13.4061     84.2398    149.9366   6.2186505039e+01   3.3537935136e+01    0.3912725    0.3230884 -22.60 0.0004961786    1.475    0.322
       206 -14.5721      9.9591    215.7967   8.8212617492e+01   2.7117293045e+01    0.7192117    0.3136917  42.32  0.003724026    1.750    0.429
       207 -10.5887    225.0168    158.9411   3.1282150365e+01   6.4845542980e+00    0.1533853    0.1279255 -16.35 0.0003789986    1.016    0.015
       208 -11.7952    105.3990    158.8132   5.7734106384e+01   2.7866565166e+01    0.3142453    0.2133826  60.23 0.0008237346    1.713    0.416
       209 -12.1013    145.9616    157.6226   4.7012410139e+01   2.0720643718e+01    0.2615023    0.2151341 -44.42 0.0002851522    1.264    0.209
       210 -11.8241     24.8885    160.6712   8.1153491504e+01   3.8336104027e+01    0.3950182    0.1777224  52.26  0.001757545    2.131    0.531
       211 -11.9762    190.4957    155.4149   3.6813257457e+01   1.2881130191e+01    0.2497691    0.1834076 -43.12  0.000608526    1.397    0.284
       212 -14.0590     63.4548    153.0907   6.8906722104e+01   3.5829071629e+01    0.7626759    0.3643545 -76.21  0.002955279    2.489    0.598
       213 -13.6183     52.0169    151.6240   7.2156701326e+01   3.7686808558e+01    0.5403572    0.3334803 -35.20  0.001145873    2.184    0.542
       214 -12.9787     57.6351    143.8698   6.9321580178e+01   3.8952068799e+01    0.3052054    0.2551575 -36.44 0.0003496727    1.373    0.272
       215 -11.1036    141.7424    155.6186   4.7628129966e+01   2.1938814631e+01    0.2082574    0.1342418  47.60 0.0005014464    1.591    0.371
       216 -11.8271      1.7717    152.2470   8.7123278051e+01   4.2263979540e+01    0.3482096    0.1634853  63.72  0.001392897    2.022    0.506
       217 -11.8940      5.3484    150.1021   8.5966214836e+01   4.2549528232e+01    0.3116056    0.1900829  77.59  0.001606824    1.481    0.325
       218 -11.3503    212.3306    153.6851   3.2391868910e+01   9.3823914158e+00    0.1237621    0.1062958 -70.48 0.0005919035    1.680    0.405
       219 -11.5499     88.7709    153.5868   6.1496857090e+01   3.1911628072e+01    0.2224383    0.1294987  44.27 0.0006568098    1.650    0.394
       220 -12.3349     12.6802    151.1590   8.3908513465e+01   4.1747352555e+01    0.4232424    0.2877935 -78.72  0.002394395    1.318    0.241
       221 -11.5571    224.7423    151.9826   2.9935998319e+01   7.6128755156e+00    0.1895682    0.1479225 -25.55  0.000441384    1.111    0.100
       222 -12.7025    172.2453    150.9647   3.9627623070e+01   1.7069749551e+01    0.3591235     0.197232 -44.07  0.001576134    1.837    0.456
       223 -12.4493     69.4723    150.4856   6.6698205913e+01   3.5642330449e+01    0.2973686    0.1424748 -64.85  0.001116952    2.114    0.527
       224 -12.9678    133.5815    150.9810   4.8711706941e+01   2.4492013872e+01     0.360609    0.2999336 -82.66  0.001546313    1.502    0.334
       225 -12.4352    108.9387    149.0671   5.4905840285e+01   2.9529447243e+01    0.3422904    0.3372021 -14.08 0.0008864478    1.063    0.059
       226 -12.3962      9.0180    146.7991   8.4662747707e+01   4.3111670228e+01    0.3720827    0.2103424 -17.95  0.001732655    2.735    0.634
       227 -12.9977     27.2596    148.1170   7.9288602087e+01   4.1267661548e+01    0.5230365     0.340912  89.13  0.001809637    1.466    0.318
       228 -12.1009     32.4699    147.8302   7.7667503631e+01   4.0836934302e+01    0.2373215     0.226822 -82.80 0.0006139799    1.113    0.102
       229 -13.3568     20.0608    141.9566   8.0900556389e+01   4.3475442165e+01    0.4799165    0.2513451  35.26  0.001249067    1.863    0.463
       230 -12.9338     12.3704    142.2576   8.3300248548e+01   4.4007970542e+01     0.394207    0.2761647  82.39  0.002225808    1.291    0.225
       231 -11.7176     20.2078    149.6487   8.1559593565e+01   4.1511684595e+01    0.3008091    0.2295082 -28.23  0.001499567    1.675    0.403
       232 -11.5584    146.8947    148.7117   4.4926545655e+01   2.2409690051e+01    0.2433261    0.2007439 -27.88 0.0003105387    1.272    0.214
       233 -12.2418     95.8714    149.1111   5.8630016584e+01   3.1817991409e+01    0.2333695    0.2039597  74.74 0.0007957491    1.208    0.172
       234 -11.9777    124.8661    148.3027   5.0418635903e+01   2.6748840615e+01      0.25385    0.1818252  55.16  0.001165257    1.529    0.346
       235 -13.3745     41.1379    146.6200   7.4853651471e+01   4.0236104187e+01    0.3913919    0.3123945 -63.85  0.002178284    1.235    0.190
       236 -13.0441    120.3123    144.5346   5.0849934285e+01   2.8472599416e+01     0.422718    0.3161066  35.38 0.0008700928    1.309    0.236
       237 -11.3450    228.9763    145.1019   2.7856055388e+01   8.0034220803e+00    0.1902356    0.1627619 -18.70 0.0003386222    1.015    0.015
       238 -12.2304     44.0035    152.0746   7.4643033180e+01   3.8523025366e+01    0.2096661    0.1868674  76.49  0.001224362    1.023    0.023
       239 -12.9982     95.1117    140.1099   5.7110443577e+01   3.4143600420e+01    0.4980093    0.3633491  -6.47  0.002182372    1.973    0.493
       240 -12.0356    103.7961    144.8333   5.5518355632e+01   3.1461453649e+01    0.3894921    0.2357571  39.71  0.001083422    1.584    0.369
       241 -12.3822    101.1984    141.3997   5.5577063243e+01   3.2753176061e+01    0.3628998    0.2906137  57.28  0.001196228    1.300    0.231
       242 -11.2027    194.9920    143.7016   3.3462595224e+01   1.4142814559e+01    0.1895998    0.1719047  23.94 0.0004304375    1.127    0.113
       243 -12.3467    187.3515    143.2085   3.4836407897e+01   1.5658873703e+01    0.2431749    0.2300916   1.11 0.0002281985    1.051    0.049
       244 -12.4407     70.3630    143.2623   6.5247589244e+01   3.7339662506e+01    0.2425541    0.2323077  61.76 0.0002292557    1.031    0.030
       245 -10.8938    223.9926    142.6704   2.8153620040e+01   9.2058720386e+00    0.1731633    0.1549063  -5.87 0.0006690501    1.080    0.074
       246 -12.7146     51.7662    142.4442   7.0960961118e+01   4.0066020472e+01     0.408365    0.2101768  38.46  0.001002133    1.858    0.462
       247 -11.8563    177.9246    142.0835   3.6500047744e+01   1.7672432181e+01    0.2146567    0.2017814  -3.41   0.00043007    1.012    0.012
       248 -10.8045      2.6496    142.3171   8.6247939802e+01   4.4665784799e+01    0.1411495   0.07737776  58.92 0.0007047526    1.734    0.423
       249 -12.7253     40.1650    140.3686   7.4369948206e+01   4.1951329954e+01    0.3628154    0.2307558 -16.77  0.001514649    2.367    0.578
       250 -12.5083     37.1009    134.8792   7.4646094797e+01   4.3700147233e+01    0.2617062    0.1932686 -71.11 0.0006317024    1.261    0.207
       251 -12.8209     35.6230    131.3998   7.4673885389e+01   4.4757497768e+01    0.4857598    0.2576891   7.49  0.002006069    2.679    0.627
       252 -12.7137     35.5324    128.0218   7.4244771476e+01   4.5646774971e+01    0.5864772    0.1969877 -66.03  0.002167128    2.591    0.614
       253 -11.3730     57.6301    139.7100   6.8682549811e+01   4.0021564284e+01    0.1481101    0.1103348 -26.11 0.0007023759    1.715    0.417
       254 -11.1377    212.4792    137.9663   2.9076432082e+01   1.1955277008e+01    0.2002208    0.1208608 -36.22 0.0003886503    1.498    0.333
       255 -11.0974    232.8255    136.8378   2.5562940112e+01   8.6567816287e+00    0.1625512    0.1433958 -48.30 0.0003454919    1.295    0.228
       256 -12.8936    118.6772    136.0477   4.9463056833e+01   3.0745261417e+01    0.3493442    0.3203075  62.39  0.000828338    1.129    0.114
       257 -10.8459    109.4866    137.5163   5.2370880470e+01   3.2161205394e+01     0.153015     0.149277  21.83 9.716264e-05    1.044    0.042
       258 -14.7348     57.7760    134.6003   6.7813119439e+01   4.1320933896e+01     1.057256    0.4107869  29.20  0.003039448    2.623    0.619
       259 -11.7437     84.6928    132.2849   5.8720582254e+01   3.7865816140e+01    0.2008264    0.1887484  -4.91 0.0001968073    1.172    0.147
       260 -11.4809     90.0866    135.9088   5.7782354247e+01   3.6048546005e+01    0.2343681    0.2149318  62.28 0.0003662879    1.085    0.078
       261 -12.7607     85.0073    136.0206   5.9369227766e+01   3.6878002008e+01    0.4480943    0.2864335   3.70  0.001406021    2.604    0.616
       262 -12.7095     44.4718    134.4335   7.2159127317e+01   4.3008558556e+01    0.5777744    0.2487137  56.67  0.002057981    3.049    0.672
       263 -13.1995     12.9689    134.6123   8.2456626432e+01   4.5907637715e+01    0.3877239    0.2709398  57.52   0.00216932    1.391    0.281
       264 -12.7424      9.9776    130.5357   8.3057039796e+01   4.7160914129e+01    0.3926705    0.2219014 -10.67 0.0008471989    2.543    0.607
       265 -10.8736    197.4130    135.1708   3.1144966603e+01   1.5197748865e+01    0.1938293    0.1244166 -46.47 0.0004683289    1.592    0.372
       266 -13.2118    102.6149    134.2035   5.3655972306e+01   3.4234304754e+01    0.6191638    0.2825454  25.74  0.001986093    3.177    0.685
       267 -11.0446    209.9498    134.0421   2.8663404159e+01   1.3066409104e+01    0.1640369    0.1475501 -20.53 0.0005235336    1.012    0.012
       268 -11.2321     74.3092    134.2946   6.2405894325e+01   3.9027246651e+01    0.1490113     0.116514 -23.75 0.0003753843    1.589    0.371
       269 -11.2299    128.4419    133.5221   4.6241508226e+01   2.9386143222e+01    0.1524652    0.1499709  32.34 9.893161e-05    1.007    0.007
       270 -11.9897     19.8247    131.4008   7.9919807689e+01   4.6204046927e+01    0.2619233    0.1841714 -35.98  0.001392422    1.678    0.404
       271 -11.4666    230.1353    130.6461   2.4680604785e+01   1.0067734305e+01    0.2074905    0.1534627 -39.17  0.000407583    1.230    0.187
       272 -10.5802    191.3447    131.6882   3.1504899219e+01   1.6982926918e+01    0.1399079    0.1135997 -77.99 0.0007046161    1.706    0.414
       273 -11.9133     94.0292    128.7608   5.5069857432e+01   3.7123466981e+01    0.3263141     0.197157 -54.96  0.001385422    1.670    0.401
       274 -13.4765     64.0390    121.3371   6.3316378651e+01   4.3882792084e+01    0.5551282    0.2007225 -57.31  0.001951536    2.554    0.608
       275 -13.3904     47.5412    129.9494   7.0462650444e+01   4.3816807922e+01    0.5406911    0.2598054  31.70  0.002279797    2.065    0.516
       276 -13.6461     59.0215    125.5371   6.5827500868e+01   4.3500537013e+01    0.4523298    0.3112177  12.51  0.001283003    1.791    0.442
       277 -13.3801     82.0751    127.6606   5.8602080809e+01   3.9463733209e+01    0.5170883    0.3003137  30.24   0.00163299    1.811    0.448
       278 -12.6847     26.5924    125.0013   7.6903142451e+01   4.7288046435e+01    0.3845148    0.2524301  79.91  0.001928578    1.584    0.369
       279 -11.6719    169.2116    126.0423   3.4668774074e+01   2.2511900146e+01    0.2320591    0.1989188   2.39 0.0006503934    1.284    0.221
       280 -12.8476     75.0357    125.0505   6.0356898725e+01   4.1266727260e+01    0.3509195    0.3436891 -25.97   0.00102729    1.083    0.076
       281 -14.5598     76.4066    119.5777   5.8747517543e+01   4.2435759733e+01    0.9338214    0.4545908  36.30  0.001124159    2.027    0.507
       282 -11.4464    189.4614    121.5048   2.9522183384e+01   1.9196725040e+01    0.2694786    0.1422542  47.73 0.0008059575    2.003    0.501
       283 -13.0636     20.7943    122.9550   7.8652656666e+01   4.8311735251e+01    0.2913788    0.2696142  26.64 0.0006094645    1.208    0.172
       284 -12.0896      4.9853    123.5042   8.4091300697e+01   4.9276615951e+01    0.3018194    0.1329682  80.02  0.001266692    2.444    0.591
       285 -12.3945    194.9319    122.6896   2.8782296934e+01   1.7887141926e+01    0.2532684    0.2100045 -32.30 0.0002162915    1.124    0.110
       286 -10.9929    126.1904    123.6393   4.4516715674e+01   3.2073505510e+01    0.2199816    0.1450747  32.19 0.0004850402    1.632    0.387
       287 -11.5566    130.4813    128.5585   4.4544567841e+01   3.0083945670e+01    0.2505208    0.2469185 -65.11 0.0002150045    1.044    0.042
       288 -13.1619    105.6716    121.3939   4.9839166986e+01   3.6731861309e+01    0.5606052    0.3220269  49.32  0.002095864    1.828    0.453
       289 -11.7446    100.2985    119.6376   5.1054067200e+01   3.8188208675e+01    0.2681141      0.19425 -76.37 0.0007821856    1.730    0.422
       290 -12.7576     14.5096    119.5016   8.0444930409e+01   4.9682916908e+01    0.2816818    0.1798308  63.41  0.001450389    1.627    0.385
       291 -11.4992    224.1040    120.4813   2.3420680364e+01   1.2727485397e+01    0.1735038    0.1326331  48.37 0.0004462875    1.497    0.332
       292 -10.8439     35.8914    118.8850   7.2788953429e+01   4.7995959108e+01    0.1965399    0.1528989  59.63 0.0004672725    1.332    0.249
       293 -11.3315     94.6454    117.4612   5.2301984527e+01   3.9780391652e+01    0.3150814     0.198622 -49.88  0.001353247    1.590    0.371
       294 -13.0079     18.3370    114.4836   7.8499873920e+01   5.0702082906e+01    0.4036442    0.2723399  50.19  0.001496491    1.550    0.355
       295 -12.0445     22.3476    117.7333   7.7467503192e+01   4.9542374320e+01    0.2462974    0.2005786  47.10 0.0004527047    1.274    0.215
       296 -11.7591     24.2636    115.0026   7.6417993468e+01   5.0093745699e+01    0.2530987    0.1850488 -75.78  0.000309408    1.244    0.196
       297 -12.8647      9.1756    117.6100   8.2111337042e+01   5.0529062827e+01    0.2455701    0.2261576 -26.71 0.0008044642    1.248    0.199
       298 -12.0369     57.2481    117.5821   6.4949215868e+01   4.5801696485e+01    0.2037133    0.1453235  11.04 0.0009509492    1.704    0.413
       299 -12.0273    241.5323    115.9806   1.9969060640e+01   1.0386911504e+01    0.1963797    0.1861571  38.65 0.0001438221    1.256    0.204
       300 -10.6674     29.5344    116.4994   7.4718070330e+01   4.9237703333e+01    0.1389692    0.1261738 -75.85  2.86171e-05    1.012    0.012
       301 -11.1118    196.5334    115.5126   2.6825043546e+01   1.8831807695e+01    0.1414477    0.1306107 -30.46 0.0003710243    1.002    0.002
       302 -13.1733     83.2436    111.5316   5.4608484752e+01   4.3298202918e+01    0.5998278    0.2569784 -52.54 0.0007270852    2.278    0.561
       303 -12.1706    104.3708    113.7083   4.8351242511e+01   3.8813048634e+01     0.282533    0.2183236  52.69 0.0006459391    1.338    0.253
       304 -13.0322    108.6094    111.3941   4.6477216512e+01   3.8504985827e+01    0.3679987    0.3183862 -74.07 0.0005268749    1.273    0.215
       305 -12.0352    186.3002    124.2014   3.0754810878e+01   1.9346101944e+01    0.3095966    0.2112176 -36.79  0.001105628    1.394    0.282
       306 -13.2764     62.7451    111.6797   6.1786594269e+01   4.6551648983e+01     0.711418    0.2149851 -62.94  0.002129319    3.591    0.722
       307 -12.2791     63.1551    104.9222   6.0138125054e+01   4.8213138578e+01    0.2750898    0.1986686 -51.87 0.0007466775    1.338    0.253
       308 -11.9301     58.5252    114.1312   6.3810845627e+01   4.6519028844e+01     0.252992    0.2083935  31.36 0.0001305089    1.259    0.205
       309 -12.3974    116.4231    112.9036   4.4566491355e+01   3.6545512416e+01    0.2979841    0.2289109  34.51 0.0005372903    1.336    0.252
       310 -12.9599     12.1871    111.4176   8.0370810905e+01   5.1929956108e+01    0.3984578    0.2165287 -47.87  0.001933303    1.831    0.454
       311 -10.5152    229.6145    112.2913   2.0827217870e+01   1.3027606725e+01    0.1303572   0.09645991 -66.70 0.0007013939    1.758    0.431
       312 -10.3446    135.2751    112.7775   3.9378236960e+01   3.2537077768e+01    0.1440501      0.12016  77.54 0.0006707355    1.419    0.295
       313 -11.8976    218.1697    110.0817   2.2019733280e+01   1.5495702372e+01    0.2682562    0.2010256 -72.78 0.0008690933    1.798    0.444
       314 -11.7987     52.8949    110.3118   6.5084742150e+01   4.8259235215e+01    0.2847781     0.221598  18.21  0.000703214    1.422    0.297
       315 -11.5752    210.2837    108.7694   2.2945192296e+01   1.7235768371e+01     0.226675    0.1924437 -54.19 0.0003063276    1.210    0.174
       316 -11.3180    113.6769    109.0579   4.4364704445e+01   3.7998129282e+01    0.2110887    0.2104211 -35.03 0.0007152171    1.016    0.016
       317 -11.1609    237.1507    108.1715   1.8898109803e+01   1.2318790053e+01    0.1841694    0.1577322 -16.29  0.000469455    1.180    0.152
       318 -12.9037      3.0730    107.0129   8.3244992235e+01   5.3596592227e+01    0.3617778    0.2776272   4.95  0.001038137    1.546    0.353
       319 -13.2693     10.7043    104.8291   8.0149507009e+01   5.3722301365e+01    0.4436243    0.3599609  72.25  0.002011867    1.244    0.196
       320 -10.7104    139.6458    107.3048   3.6828782345e+01   3.2736938588e+01    0.1607686    0.1248373  88.51 0.0007040845    1.713    0.416
       321 -11.6790    159.0025    106.3524   3.2006320333e+01   2.8589007936e+01    0.2194284    0.1914686  50.95 0.0006118885    1.166    0.143
       322 -11.2155     93.0239    105.6834   4.9890702675e+01   4.2933355199e+01    0.2231843    0.1987523  40.63 0.0006641149    1.119    0.107
       323 -12.4612    162.5124     99.5169   2.9451055804e+01   2.9118589311e+01    0.2957198    0.1959933 -65.88   0.00066941    2.028    0.507
       324 -11.6317    154.0767    100.6359   3.1600869756e+01   3.0827944838e+01    0.3658938    0.2090613 -42.77  0.001520986    1.728    0.421
       325 -13.7564     78.2589     92.3262   5.1383571359e+01   4.8856182804e+01    0.6389287    0.3523859  52.32  0.002503956    2.181    0.541
       326 -12.3255     79.0858    101.9352   5.3658016501e+01   4.6388064711e+01    0.3499911    0.2731142  57.42 0.0005964071    1.412    0.292
       327 -12.7126     76.9296     97.0455   5.3148942215e+01   4.7954628576e+01    0.3433879    0.2757959 -35.40 0.0006614641    1.310    0.237
       328 -12.1084     55.4639    101.4882   6.2241987246e+01   5.0180238682e+01    0.2429319    0.2259306 -60.75 0.0004361332    1.031    0.030
       329 -11.4685     57.3819     97.3861   6.0553971515e+01   5.0951719171e+01    0.3893643    0.2370042  42.83 0.0008138198    1.724    0.420
       330 -10.9536    210.7057    101.3354   2.1155470326e+01   1.8375271229e+01    0.1402641   0.09982174 -61.83 0.0007027247    1.644    0.392
       331 -10.8944     84.7375    100.9629   5.1436437186e+01   4.5615912647e+01    0.2131621    0.1982839 -51.93 0.0004018364    1.070    0.065
       332 -11.6834    168.5235     99.0518   2.8076200998e+01   2.7840536911e+01    0.2288023    0.1437548 -40.52 0.0007149531    1.542    0.352
       333 -12.1891     93.4544     98.6945   4.7878679544e+01   4.4507186388e+01    0.3727017    0.2734261  54.32  0.001706081    1.470    0.320
       334 -11.3467     25.6406     98.4928   7.3392640561e+01   5.4260119268e+01    0.2870515      0.18777  69.21  0.001133984    1.807    0.447
       335 -12.2523      9.7387     97.7934   7.9648175210e+01   5.5585930014e+01    0.3029245    0.1906407  53.45  0.001106809    1.757    0.431
       336 -11.1940    105.0456     97.1961   4.3738003030e+01   4.2505230259e+01     0.236182    0.2117178 -12.38 0.0006298927    1.236    0.191
       337 -11.3922     33.0461     98.1738   7.0361306869e+01   5.3663235685e+01    0.2821864    0.2190305 -19.34 0.0007396576    1.468    0.319
       338 -12.1345    157.2593     94.5485   2.9249439239e+01   3.1274149832e+01    0.2997907    0.1514827  56.39    0.0011494    2.130    0.531
       339 -11.4913     66.0706     94.5100   5.6503803871e+01   5.0371249438e+01     0.226927    0.1480484  32.87  0.001026285    1.571    0.363
       340 -10.8707     41.5309     91.7705   6.5595403165e+01   5.4398293201e+01    0.1886951    0.1341397 -80.68 0.0006932755    1.559    0.359
       341 -11.1351    243.7917     90.7887   1.4336557002e+01   1.3716624778e+01     0.180209     0.150651 -28.42 0.0004985555    1.142    0.124
       342 -12.1573    189.2926     90.7739   2.2058071097e+01   2.4658027402e+01    0.3769863    0.1807175  46.25  0.001485002    2.301    0.565
       343 -11.0904      3.4263     88.1661   8.0987840322e+01   5.8367658231e+01    0.2603759    0.1037936 -70.08  0.001137248    2.047    0.511
       344 -12.1518    149.3160     87.6981   2.9110914907e+01   3.4442365217e+01    0.2633148    0.2239315  73.53  0.001319176    1.259    0.206
       345 -12.3413    149.9592     83.4397   2.7749099818e+01   3.5091049348e+01    0.3854999    0.2266577 -37.49 0.0005555574    1.721    0.419
       346 -11.7037    125.9040     86.2572   3.4478988876e+01   4.0236082342e+01    0.4691828    0.2493077 -30.99  0.001557215    2.337    0.572
       347 -12.4686     54.6800     85.7781   5.8712429871e+01   5.4214151979e+01    0.5158003    0.4042101  -0.13  0.002620748    1.478    0.323
       348 -11.2045      7.3855     87.2610   7.9195479778e+01   5.8396786184e+01    0.2219348    0.1386661  43.67 0.0005937364    1.794    0.443
       349 -10.5034    100.5118     86.4564   4.2028089598e+01   4.5853631472e+01     0.154104     0.151317  23.79 8.052936e-05    1.015    0.015
       350 -13.0198     62.2199     84.1154   5.5198229498e+01   5.3499247085e+01    0.5669134    0.3174354 -25.72  0.002099089    2.774    0.639
       351 -12.4657    161.7432     83.9810   2.5391944745e+01   3.2183085330e+01    0.3367238    0.2719159   0.46  0.001001629    1.597    0.374
       352 -10.5758    141.4766     85.5603   3.0321026841e+01   3.6711639121e+01    0.1528386    0.1496989  77.81 0.0002012653    1.007    0.006
       353 -11.0078    133.9464     84.2716   3.1791052100e+01   3.8747756395e+01    0.2269651     0.188599  51.08  0.001112355    1.189    0.159
       354 -11.3682    112.5317     82.8500   3.7212865165e+01   4.3997719214e+01    0.2632264    0.1809137  51.40 0.0007065476    1.459    0.315
       355 -12.5274     78.6619     82.1336   4.8263037510e+01   5.1163484969e+01    0.2695211    0.2549566  27.56 0.0002467672    1.057    0.054
       356 -11.3736    215.9579     80.4218   1.5483464279e+01   2.0614619556e+01    0.2149943    0.1583083 -38.20 0.0002938441    1.214    0.176
       357 -11.4536    224.9096     80.0152   1.4232958009e+01   1.8862170449e+01    0.1918761     0.167594 -47.61 0.0003477274    1.014    0.014
       358 -11.5696    208.2280     78.8706   1.6168353019e+01   2.2474042679e+01    0.3042692    0.2094953   3.75  0.001034343    2.399    0.583
       359 -12.2105      3.0127     71.9686   7.8865650662e+01   6.2421263697e+01    0.2449332    0.1618204 -56.52 0.0006350117    1.269    0.212
       360 -11.0285     10.4259     71.2908   7.5215597724e+01   6.2210006071e+01    0.3394902    0.1846817  -2.75  0.001431691    2.192    0.544
       361 -11.4626     88.3627     78.9088   4.3759561062e+01   5.0014118344e+01    0.2686675    0.2105808  51.91 0.0008142869    1.335    0.251
       362 -11.0714     11.8551     86.8773   7.7229881077e+01   5.8237975884e+01    0.1812705    0.1475067  67.26 0.0004793652    1.341    0.254
       363 -11.9352    161.4994     77.0811   2.3501373417e+01   3.3465474437e+01    0.2314843    0.1463348 -36.75  0.001028391    1.579    0.367
       364 -11.5639     75.2336     75.9393   4.7620023902e+01   5.3192608670e+01    0.2006478    0.1244303 -50.06 0.0008746405    1.619    0.382
       365 -11.9097    115.2802     74.8854   3.3899943988e+01   4.4982059327e+01    0.2862487     0.219689 -19.56  0.001321344    1.564    0.360
       366 -12.7761    106.0322     73.1473   3.6074684109e+01   4.7444863128e+01    0.4664474    0.3266264  71.03  0.001783533    1.881    0.468
       367 -11.2051     85.8046     75.3952   4.3532625410e+01   5.1290033731e+01    0.2602953    0.1936532 -12.03 0.0007682446    1.748    0.428
       368 -11.2257     86.2082     72.1599   4.2319891935e+01   5.1900891547e+01    0.2118444    0.1969658 -40.38 0.0003489829    1.088    0.081
       369 -11.6702     52.6037     73.4332   5.6110739933e+01   5.7464011000e+01    0.4431821    0.2031787  41.91  0.001424373    2.369    0.578
       370 -11.4763     71.6026     69.6809   4.6984721730e+01   5.5233514930e+01    0.2990756    0.2076033  -7.22 0.0007509523    2.034    0.508
       371 -11.5025    132.9738     70.4101   2.7784637944e+01   4.1604048208e+01    0.2151042    0.2039853 -45.80 0.0001848365    1.077    0.071
       372 -11.1099    189.0585     70.4953   1.6870083814e+01   2.8037552930e+01    0.2002603    0.1393359  64.03 0.0003909814    1.499    0.333
       373 -10.8410    178.6814     69.3064   1.8211800427e+01   3.0652467736e+01    0.1510954    0.1063173 -69.08 0.0003484415    1.633    0.388
       374 -12.2387     54.6046     68.5590   5.3724624421e+01   5.8295287209e+01    0.2551299    0.2196465   3.39 0.0005007108    1.201    0.167
       375 -10.9069    154.2704     68.0378   2.2321945013e+01   3.6780566358e+01     0.203102    0.1894398 -62.30 0.0002934514    1.053    0.050
       376 -14.2402      6.7911     77.6818   7.8022430466e+01   6.0829215263e+01    0.4787863    0.3901636 -23.64  0.001994279    1.294    0.227
       377 -11.6655     59.9375     66.8619   5.0852697245e+01   5.7847957830e+01    0.2211316     0.187197 -17.85 0.0005129821    1.216    0.178
       378 -10.5316     67.5997     65.4964   4.7172668672e+01   5.6853183428e+01    0.1451636    0.1374992 -18.31 0.0001010884    1.021    0.020
       379 -10.8734    188.5851     63.8418   1.5191418014e+01   2.9175771600e+01    0.2026521    0.1179965 -46.76  0.000414868    1.622    0.383
       380 -11.0440    164.8655     64.1429   1.9156846004e+01   3.4815334233e+01    0.1897503    0.1741492  17.56 0.0002479326    1.275    0.216
       381 -13.0405    100.5874     58.3418   3.2652286741e+01   5.1520175558e+01     0.510466    0.2547097 -37.08  0.001420582    2.107    0.525
       382 -11.7503     10.0822     63.1071   7.3752201003e+01   6.4216108427e+01    0.2726836    0.2081706 -10.19 0.0003812739    1.391    0.281
       383 -11.3822     12.3346     59.7676   7.1844247037e+01   6.4876062131e+01      0.28951    0.2071176  68.76  0.001462649    1.812    0.448
       384 -12.1320    109.5046     59.5048   3.0385464861e+01   4.9234059876e+01    0.3512954    0.2202196  49.30  0.001551999    1.530    0.346
       385 -12.1445    109.5207     55.9952   2.9135816706e+01   4.9849437475e+01    0.3038103    0.2177219 -42.73  0.000803655    1.456    0.313
       386 -12.5440    112.8008     52.6000   2.7001902907e+01   4.9638420445e+01    0.4562224    0.2864117   0.02   0.00168785    2.954    0.662
       387 -12.1852     41.7282     58.8173   5.6509623815e+01   6.2280035346e+01    0.3634914    0.2322484 -42.20  0.001702171    1.470    0.320
       388 -11.9930    199.1817     57.3979   1.2046999952e+01   2.7686785033e+01    0.2898993    0.1995987  53.77  0.001044924    1.589    0.371
       389 -11.4825     18.9905     49.0020   6.5325415993e+01   6.6881501196e+01    0.2364051    0.1687013 -53.32 0.0007184843    1.261    0.207
       390 -12.5682     23.9991     55.7447   6.4605324711e+01   6.4920158787e+01    0.3561466    0.2682958 -53.32    0.0012099    1.210    0.174
       391 -12.2638     19.8996     53.0282   6.6021973877e+01   6.5895853519e+01    0.2566444    0.2080057 -67.29 0.0003560425    1.291    0.226
       392 -10.9909     18.4923     57.9697   6.8150305558e+01   6.4866859457e+01    0.2111629    0.1177412 -61.55  0.001044294    1.624    0.384
       393 -11.8095    193.1907     56.9584   1.2729447456e+01   2.9126600512e+01    0.2704138    0.1726614  37.01  0.001254836    2.155    0.536
       394 -11.7575    159.7912     57.3819   1.8093009862e+01   3.7137207422e+01    0.2087607     0.129911  52.01 0.0009416095    1.617    0.382
       395 -12.5635     36.5188     54.9904   5.7828859826e+01   6.3775776120e+01    0.4817562    0.2495753 -45.09  0.001581493    1.772    0.436
       396 -10.4249     53.5968     57.0000   5.0241926222e+01   6.0991292102e+01     0.307827   0.07928599  34.80 0.0009339032    3.928    0.745
       397 -11.3861    205.0712     54.5355   1.0586281028e+01   2.6764236816e+01    0.1979792     0.163488 -45.40 0.0003132241    1.112    0.101
       398 -12.0145    177.1298     54.5003   1.4378562533e+01   3.3300877903e+01    0.3443981    0.2209518  31.71  0.001295791    2.280    0.561
       399 -12.6698    120.6713     52.7049   2.4968789521e+01   4.7692265382e+01    0.3666839    0.2701247 -45.94  0.000778973    1.426    0.299
       400 -12.4057    162.0118     50.5099   1.5657538937e+01   3.7618642519e+01    0.3403831    0.2193466 -22.54  0.001214441    1.848    0.459
       401 -11.5905    130.9563     51.1675   2.1971132513e+01   4.5368615239e+01     0.261943     0.159081  36.31  0.001091147    1.998    0.499
       402 -10.7984    106.4807     51.4579   2.8362597641e+01   5.1349474178e+01    0.1490832    0.1421713  52.36 2.882056e-05    1.018    0.018
       403 -13.0312     30.5082     50.1748   5.9343901360e+01   6.5521171748e+01     0.290761    0.2812392 -20.00  0.000864636    1.135    0.119
       404 -11.9690    174.0858     49.2761   1.3371422592e+01   3.4800152058e+01     0.299404    0.1940889 -43.28  0.001463868    1.476    0.323
       405 -11.2502    152.4092     49.5822   1.7067934686e+01   4.0174593319e+01    0.2944485    0.1935447  27.23  0.001263329    2.208    0.547
       406 -11.9551     92.0544     63.8264   3.7405719413e+01   5.2379493570e+01    0.2370321    0.2149629 -42.15 0.0003206687    1.136    0.119
       407 -11.6145     41.7836     46.9772   5.2227375961e+01   6.4815162377e+01    0.2364667    0.1932521  23.71 0.0006739667    1.228    0.186
       408 -11.4455     95.5331     44.9064   2.9169337893e+01   5.5004994355e+01    0.2875353    0.1931872  35.64  0.001227208    1.552    0.356
       409 -11.5808    197.0085     44.2214   8.9371106872e+00   3.0012837745e+01    0.1869595    0.1642361 -78.53 0.0003113459    1.058    0.055
       410 -10.7254    189.9795     43.0412   9.4813045249e+00   3.1818797657e+01    0.1638748    0.1454482 -69.86 0.0003619386    1.004    0.004
       411 -12.3962    158.3407     41.4664   1.3539518484e+01   3.9825031656e+01    0.2656822    0.2434634 -75.04 0.0002005387    1.037    0.035
       412 -13.1824     23.3804     40.6992   5.9992253863e+01   6.8295883465e+01    0.4494697    0.1979209 -50.48  0.002065017    1.986    0.496
       413 -13.5355     28.1757     36.9862   5.5727429418e+01   6.8556525257e+01    0.4805261    0.2281435 -43.30  0.001713384    1.912    0.477
       414 -13.2539     30.8694     31.8863   5.1958662285e+01   6.9238374927e+01    0.3446097    0.3098266  14.03  0.001904576    1.167    0.143
       415 -11.6952    206.1141     38.1953   6.4023519223e+00   2.8712765394e+01    0.2359548    0.1841103  37.91 0.0003467024    1.701    0.412
       416 -12.2984     34.2619     40.7002   5.3761334052e+01   6.7082038648e+01    0.2788261    0.1751441  31.44 0.0009713437    1.630    0.387
       417 -12.2142    124.0528     39.6700   1.9539363864e+01   4.8832803231e+01    0.2766483    0.2379969  58.46 0.0003694296    1.088    0.081
       418 -11.9605    119.3938     39.3847   2.0515573923e+01   5.0051011438e+01    0.3227187    0.2433523 -55.88   0.00142076    1.479    0.324
       419 -11.5994     80.5670     36.1490   3.0570603258e+01   5.9765761063e+01    0.3123289     0.233164 -59.84  0.001271262    1.769    0.435
       420 -12.3192      8.4881     35.9966   6.7530629865e+01   7.0507372690e+01    0.3571145    0.2339833 -76.12  0.001766912    1.855    0.461
       421 -12.0898    158.2186     34.7619   1.1505648394e+01   4.0743895914e+01    0.3237353    0.2414335   3.07  0.000544299    1.870    0.465
       422 -11.8274     53.1710     34.3420   4.1152701189e+01   6.5457382195e+01    0.2441028    0.1946473 -42.71  0.001309891    1.354    0.261
       423 -11.5697    106.8257     32.3152   2.0943277448e+01   5.4170841722e+01     0.244648    0.1929272 -45.64  0.000771296    1.383    0.277
       424 -11.4589     96.3560     31.7768   2.3601988976e+01   5.6789783104e+01    0.3582442    0.2254802  -4.23 0.0009797619    2.297    0.565
       425 -12.6200     46.7230     31.0217   4.2794564821e+01   6.7114804507e+01    0.4183456    0.2000805 -40.91  0.001095252    2.089    0.521
       426 -12.3075     45.4812     25.9577   4.0960487576e+01   6.8173547915e+01    0.2972232    0.2439041  47.03  0.001092239    1.429    0.300
       427 -11.3099    142.1276     30.8394   1.2883253760e+01   4.5368681515e+01    0.1950654    0.1607155  41.59            0    1.320    0.242
       428 -11.3111      2.1566     30.8573   7.0051055843e+01   7.1970850888e+01    0.1806573    0.1141688 -37.09 0.0004353487    1.326    0.246
       429 -11.4354     67.5222     29.0891   3.2340598275e+01   6.3600567130e+01    0.1952969    0.1344665 -33.38 0.0005935939    1.515    0.340
       430 -10.9809     19.5122     29.0040   5.7733058752e+01   7.1063687163e+01    0.1633089    0.1145677 -84.11 0.0008104488    2.577    0.612
       431 -10.8170     96.5209     27.5320   2.1777782131e+01   5.7320146738e+01    0.1417621    0.1314002  54.35 4.949382e-05    1.043    0.041
       432 -12.8235     84.4281     24.4193   2.4056635700e+01   6.0574604586e+01     0.268317    0.2388156 -78.97 0.0008093678    1.365    0.267
       433 -13.4302     69.2644     24.5262   2.9469900598e+01   6.3903511130e+01    0.6913361    0.2261282  50.05   0.00251826    2.832    0.647
       434 -11.0639    198.2002    249.1838   5.1476769157e+01  -2.6624090932e+00    0.1386622    0.1117389  22.78 0.0002237053    1.291    0.225
       435 -10.6210    128.5747     24.5078   1.3154906207e+01   4.9633265231e+01    0.1421206    0.1290776  87.30 6.665828e-05    1.065    0.061
       436 -11.6682     62.2401     21.4151   3.0769143079e+01   6.5781031420e+01    0.1845531    0.1251562  54.85 0.0005860257    1.588    0.370
       437 -11.9024     80.8381     18.1026   2.2286732943e+01   6.2185184780e+01    0.1979434    0.1895503  88.98 0.0004822865    1.206    0.171
       438 -12.0779    114.8462    247.2063   6.7754314561e+01   8.6382672189e+00    0.3139325    0.1744162 -50.99  0.001779735    2.243    0.554
       439 -11.1284    103.1155     15.3033   1.4928144840e+01   5.7137495309e+01    0.2438352     0.119329  32.32 0.0008304542    2.743    0.635
       440 -12.4684    100.5439    247.4873   7.0788685378e+01   1.0504923924e+01    0.5518344    0.2258211  24.95  0.002409959    2.659    0.624
       441 -11.3535    214.9480    247.0940   4.8181741039e+01  -4.4152093280e+00    0.1669122    0.1236155   6.78 0.0003932336    1.032    0.031
       442 -10.8743    162.2938    246.3501   5.7936854684e+01   2.3345772915e+00    0.1678807   0.08887555  35.80 0.0006965226    1.568    0.362
       443 -11.5149     77.9189    243.3362   7.5212315086e+01   1.4166390195e+01    0.2020369    0.1548777  34.65 0.0006990718    1.135    0.119
       444 -11.7265    143.0182    242.3610   6.1326104793e+01   5.5520937733e+00    0.2959784   0.09419996  33.68  0.001248736    2.492    0.599
