#   1 NUMBER                 Running object number                                     
#   2 MAG_AUTO               Kron-like elliptical aperture magnitude                    [mag]
#   3 X_IMAGE                Object position along x                                    [pixel]
#   4 Y_IMAGE                Object position along y                                    [pixel]
#   5 X_WORLD                Barycenter position along world x axis                     [deg]
#   6 Y_WORLD                Barycenter position along world y axis                     [deg]
#   7 A_WORLD                Profile RMS along major axis (world units)                 [deg]
#   8 B_WORLD                Profile RMS along minor axis (world units)                 [deg]
#   9 THETA_WORLD            Position angle (CCW/world-x)                               [deg]
#  10 FWHM_WORLD             FWHM assuming a gaussian core                              [deg]
#  11 ELONGATION             A_IMAGE/B_IMAGE                                           
#  12 ELLIPTICITY            1 - B_IMAGE/A_IMAGE                                       
         1 -14.2236    210.3382      5.5529   4.6084868757e+01   3.0855389341e+01     1.788649    0.9185256  52.72  0.007800302    1.988    0.497
         2 -14.8928    189.2868     33.3366   5.6954601324e+01   3.3318103559e+01      2.08321     1.240472  16.81  0.008228946    2.498    0.600
         3 -12.1823    190.1042     14.6446   5.1016144880e+01   3.5237853059e+01    0.5013272    0.3679705  22.58  0.001728748    1.613    0.380
         4  99.0000     67.5921    225.4812   1.2236141340e+02   2.2324637405e+01     0.213429   0.08604422  39.86  0.001192907    2.121    0.528
         5 -17.0659     61.1805    248.4112   1.2491952361e+02   1.9557383100e+01     8.334968     2.721853  31.96    0.0286977    6.543    0.847
         6 -10.5777     44.2775    210.3531   1.2540126631e+02   2.7640954822e+01    0.2227625   0.09029482  55.67 0.0006795638    1.967    0.492
         7 -10.4852     40.3589    207.7678   1.2593297010e+02   2.8528537845e+01    0.1835517   0.07892445  48.32 0.0007960032    1.793    0.442
         8 -19.3765     18.7640    130.1603   1.2450926198e+02   4.6071076211e+01     17.02937     2.841991 -75.23   0.05278429    5.680    0.824
         9 -11.7503     72.1093    211.4045   1.2046611514e+02   2.4100110923e+01      0.20012    0.1409367  64.47 0.0003894159    1.130    0.115
        10 -10.6590     76.3638    206.9031   1.1929478236e+02   2.4322387991e+01    0.3102296    0.1878261 -53.99   0.00162738    2.144    0.534
        11 -11.3582     55.6375    211.4297   1.2344846753e+02   2.6139944422e+01    0.3043602    0.1445889  54.08  0.001524188    1.654    0.395
        12 -12.1633     63.8662    206.7814   1.2159986528e+02   2.5948486474e+01    0.3038825    0.2762497 -89.17  0.001417528    1.348    0.258
        13 -12.4343     61.3057    202.2533   1.2171043485e+02   2.7069353686e+01     0.356372    0.2281357 -61.60  0.001300601    1.821    0.451
        14  -9.7220     87.8062    202.4406   1.1671639631e+02   2.3545430652e+01    0.2597431    0.1582846 -67.91  0.001613046    1.790    0.441
        15 -10.6166     45.3483    202.2626   1.2466727207e+02   2.8952142452e+01    0.2659111    0.1381599  67.06  0.001219534    1.678    0.404
        16 -11.6268    157.0743    200.3259   1.0321074160e+02   1.2992107799e+01    0.4561981    0.2934756  87.19  0.002102928    3.338    0.700
        17 -11.6250    153.1324    193.7924   1.0300220871e+02   1.4676373655e+01      0.35862    0.2146545  61.01   0.00140959    2.013    0.503
        18 -10.5643     95.0875    200.1754   1.1508537343e+02   2.2906151529e+01    0.2816237    0.1774355  79.78 0.0006643995    1.798    0.444
        19  -8.2603     43.0312    221.1536   1.2628383184e+02   2.5937884506e+01    0.1644012    0.1307949  29.12  0.001273171    1.792    0.442
        20 -11.9193    192.8978    194.3575   9.5658115159e+01   7.6434672351e+00    0.7965232      0.43977 -62.29  0.002969934    5.320    0.812
        21 -10.9189    208.5309    196.8701   9.3299976506e+01   4.6151275212e+00    0.1878998    0.1569405  43.84 0.0005782417    1.278    0.218
        22  -9.0057     99.0000    213.9491   1.1576852440e+02   2.0003258258e+01     0.156273   0.06364748 -62.43 0.0007906731    2.862    0.651
        23 -10.2274     82.0010    195.4083   1.1713040757e+02   2.5606162833e+01    0.2139114    0.1860583 -70.18  0.001551262    1.355    0.262
        24 -12.9291     70.9121    188.8333   1.1866449930e+02   2.8310938730e+01    0.6083348    0.5257332  82.87  0.004473912    1.154    0.134
        25 -12.3259    110.4873    188.5378   1.1068736086e+02   2.2648096417e+01    0.4570466    0.3186642  -4.26  0.002155478    3.389    0.705
        26 -12.2057    115.7553    182.7361   1.0885187907e+02   2.2854403016e+01    0.3019543    0.2373176  -7.20  0.001719897    2.097    0.523
        27 -11.4038     96.5196    188.1186   1.1345123417e+02   2.4860264393e+01    0.3860658     0.268783  55.01  0.001259442    1.218    0.179
        28 -11.0397    150.9659    182.5356   1.0169815207e+02   1.6877399597e+01    0.2115889    0.1772986 -86.94  0.000458661    1.467    0.318
        29 -11.1158     99.4253    180.7015   1.1195195906e+02   2.5801561551e+01    0.2256658    0.1896599  58.42 0.0005607991    1.045    0.043
        30  -9.1679     53.2487    181.1881   1.2149624028e+02   3.1976313975e+01   0.08719745      0.08132  55.34  0.000643172    1.353    0.261
        31 -11.6641    143.9989    179.0138   1.0253777269e+02   1.8709232597e+01    0.2956577    0.1774906 -34.03  0.001465232    2.293    0.564
        32  -9.9986     70.9102    179.1617   1.1768866143e+02   3.0159118767e+01    0.1850649    0.1279032  67.50 0.0004998092    1.277    0.217
        33 -12.4953     39.9656    213.2113   1.2633783666e+02   2.7623811620e+01    0.2604492    0.1252602  54.39  0.001685104    1.579    0.367
        34  -9.1374    168.2922    176.6680   9.7302674303e+01   1.4692415439e+01    0.1260986    0.1010288  76.56 0.0004113365    1.632    0.387
        35 -10.0946    165.4021    172.2259   9.7098979052e+01   1.5950264544e+01    0.2190994    0.1837506  86.69 0.0005411418    1.540    0.351
        36 -10.6609    201.7892    169.4660   8.9613613489e+01   9.5220303535e+00    0.4234277    0.2493217 -44.91  0.002129067    2.072    0.517
        37 -10.6666    204.0720    165.0355   8.8341021604e+01   9.7313142158e+00     0.499328    0.2435117 -45.26  0.001804145    2.570    0.611
        38 -13.4804     48.9507    217.2457   1.2502527839e+02   2.5925919769e+01     0.444106    0.1597841  55.42   0.00242998    2.240    0.554
        39 -11.4548    194.0741    167.0699   9.0590680763e+01   1.1333566198e+01    0.3017443    0.2803086  34.58 0.0008194746    1.126    0.112
        40 -10.2054    139.8247    168.1086   1.0162219293e+02   2.1379678853e+01    0.2008302    0.1685761  66.28 0.0004905667    1.210    0.173
        41 -10.8300    230.3799    166.2048   8.3933801966e+01   4.6920018533e+00    0.1712463    0.1145775 -37.07 0.0006563367    1.693    0.409
        42 -10.6938    159.9831    164.5720   9.6821891657e+01   1.8258668828e+01    0.2378395    0.1905656 -71.44  0.000766448    1.593    0.372
        43 -10.6669    190.2957    161.0540   9.0143039440e+01   1.2979523610e+01    0.2920063    0.2532834 -71.87  0.001130359    1.559    0.359
        44 -11.0932    189.0582    154.8935   8.9153724658e+01   1.4190672436e+01    0.4012074    0.3653953  80.74  0.002241512    1.379    0.275
        45 -12.5961     97.3525    154.2773   1.0872474741e+02   3.1329480783e+01    0.5682561    0.4326896 -28.36  0.001902538    1.948    0.487
        46 -11.4424    133.8000    145.0575   9.8794036903e+01   2.6842672907e+01     1.048222     0.261499 -54.71  0.002682565    6.399    0.844
        47 -10.4853    174.5354    148.8707   9.0804756232e+01   1.8096657500e+01    0.2623537    0.2167971  71.63 0.0006926655    1.473    0.321
        48 -11.1852    144.1556    147.2215   9.6906091073e+01   2.4440970339e+01    0.4006873    0.2606444 -75.62  0.001759893    2.429    0.588
        49 -10.3333     78.4917    145.5272   1.1182565235e+02   3.6001942325e+01    0.1297043    0.1116431  79.24 0.0001464872    1.029    0.028
        50 -11.9030    108.3233    139.7835   1.0373152105e+02   3.2527979420e+01    0.5563476    0.3281802 -34.30  0.002432547    2.547    0.607
        51 -12.5465     96.7434    139.6581   1.0649719826e+02   3.4484517502e+01    0.2844451      0.24306 -78.28 0.0007284349    1.132    0.117
        52 -11.4239    105.9674    130.3090   1.0252777995e+02   3.4935072439e+01    0.4250043    0.2889297 -59.25  0.002184821    1.479    0.324
        53 -11.3520    103.2475    126.1309   1.0238969151e+02   3.6299064258e+01    0.2928842    0.2485643 -29.95  0.001641295    1.433    0.302
        54 -10.9521    135.9065    128.4561   9.4912867513e+01   2.9726519254e+01    0.6097414    0.0836289 -48.24  0.001281271    8.176    0.878
        55 -10.1847    160.7738    127.8717   8.9157856895e+01   2.4704903893e+01    0.2776674    0.2096032 -62.88   0.00136143    1.618    0.382
        56 -10.7628    120.0345    124.4738   9.7862560269e+01   3.3623187979e+01    0.2664905    0.1991775 -33.95  0.001012904    1.574    0.365
        57  -9.8063    135.0000    119.9155   9.3218996440e+01   3.1627976710e+01     0.236206   0.08299317 -46.17 0.0007982324    2.913    0.657
        58 -10.2491    110.5924    119.1143   9.9074040757e+01   3.6506143802e+01    0.2203015    0.1834149  59.67 0.0003401887    1.206    0.171
        59 -10.1488    167.8277    112.6668   8.4000800064e+01   2.5971761534e+01    0.2840394    0.2242521 -84.66   0.00104536    1.721    0.419
        60 -10.8025    115.3543    130.2515   1.0020795776e+02   3.3280677439e+01    0.2831289    0.2508557 -34.48 0.0007491513    1.288    0.223
        61 -11.3638    119.1794    110.6256   9.4960668980e+01   3.6693691556e+01    0.5539263    0.3155605  67.15  0.002087565    2.837    0.647
        62  -9.7082    134.6123    105.2294   8.9764140655e+01   3.4680046474e+01    0.2146128    0.1402344 -34.53 0.0009560577    1.681    0.405
        63 -10.2350    205.6115    110.1288   7.5883292041e+01   1.7865160416e+01    0.2744092    0.2025476  39.66 0.0006132833    1.338    0.252
        64 -10.2193     41.6670     91.8577   1.1305301475e+02   5.2556993430e+01    0.1796428     0.169169 -32.08 0.0004532708    1.250    0.200
        65  -9.5366     81.0223    220.5329   1.1962319533e+02   2.1403725595e+01    0.1638803   0.08696301  44.02 0.0004469922    1.532    0.347
        66  -9.0623    153.4748     80.4627   7.8432659846e+01   3.5212211839e+01    0.1512882    0.1498026  10.80 0.0001139819    1.010    0.010
        67 -11.9925    166.5116     66.6600   7.1429156744e+01   3.4408635961e+01    0.5639147    0.3696896 -73.68 0.0004973361    2.426    0.588
        68  -9.8163     62.6688    234.2548   1.2379968625e+02   2.1530663960e+01    0.1428656   0.09013601  55.69 0.0007051079    1.150    0.130
        69 -13.5453    174.7029     47.9766   6.3969691830e+01   3.5189577272e+01     0.765166    0.6378918 -11.10 0.0008172675    1.276    0.216
        70 -10.2107     72.0557    230.0147   1.2192648027e+02   2.1037921207e+01    0.1522912    0.1056416  59.64  0.000332117    1.063    0.059
        71  -9.5230     85.2934    218.3253   1.1867056182e+02   2.1193666400e+01   0.09289501   0.08687566  11.15 0.0007019011    1.620    0.383
        72 -10.9384    220.4191     17.2133   4.8364206215e+01   2.7114888234e+01    0.2050545    0.1143205 -38.44 0.0008570015    1.665    0.399
        73  -9.1411     74.2409    218.2770   1.2064452463e+02   2.2663858387e+01   0.08542118   0.08194989  59.81            0    1.443    0.307
