#   1 NUMBER                 Running object number                                     
#   2 MAG_AUTO               Kron-like elliptical aperture magnitude                    [mag]
#   3 X_IMAGE                Object position along x                                    [pixel]
#   4 Y_IMAGE                Object position along y                                    [pixel]
#   5 X_WORLD                Barycenter position along world x axis                     [deg]
#   6 Y_WORLD                Barycenter position along world y axis                     [deg]
#   7 A_WORLD                Profile RMS along major axis (world units)                 [deg]
#   8 B_WORLD                Profile RMS along minor axis (world units)                 [deg]
#   9 THETA_WORLD            Position angle (CCW/world-x)                               [deg]
#  10 FWHM_WORLD             FWHM assuming a gaussian core                              [deg]
#  11 ELONGATION             A_IMAGE/B_IMAGE                                           
#  12 ELLIPTICITY            1 - B_IMAGE/A_IMAGE                                       
         1 -15.0412    197.9529     54.4300   4.2601773380e+01   2.9227219247e+01     4.521942     3.214844 -28.64   0.02450257    1.597    0.374
         2 -14.5595    228.0473     90.9166   4.6861981112e+01   1.7153155687e+01      3.52961     1.058813 -53.73  0.008390402    7.613    0.869
         3 -16.7898    245.2940     62.5445   3.8772693029e+01   1.8147978729e+01     8.176253     4.702007 -33.25    0.0443128    1.786    0.440
         4 -15.1118    236.6379     54.6665   3.8048302824e+01   2.0951434369e+01     1.260386    0.5328868 -42.38  0.006079382    1.998    0.499
         5 -14.4313    238.2993     32.5412   3.3370085476e+01   2.3536326853e+01    0.8849571    0.8539231  20.16  0.005997856    1.505    0.336
         6 -13.2247    121.3727    101.7355   7.1365131266e+01   3.8466203269e+01     2.037911     1.726937  34.97   0.01023395    1.183    0.155
         7 -14.7344    246.6863     20.5826   3.0380846441e+01   2.3329134582e+01     1.709083    0.5291382 -51.59  0.007900646    2.685    0.628
         8 -15.3897    220.3986     27.0138   3.3816776168e+01   2.7885340835e+01     6.014932      2.76096 -19.10   0.02304657    4.629    0.784
         9 -13.0332    207.0604     44.0166   3.8985399255e+01   2.8629041339e+01     2.136516     0.817032 -55.48   0.00779537    3.128    0.680
        10 -14.2777    172.5951     84.8194   5.4505592042e+01   3.0204639018e+01     2.596119     1.796233  35.20   0.01211244    1.731    0.422
        11 -10.9222    178.2450     24.3486   3.7730819058e+01   3.7627944084e+01    0.4952252    0.4056278  61.64  0.002529954    1.214    0.176
        12 -11.3802    133.1324     24.1781   4.4623640726e+01   4.8383327025e+01    0.5308006    0.2525099 -42.20  0.002403107    2.366    0.577
        13 -11.4536    135.6331     12.7878   4.0625653885e+01   4.8923595703e+01    0.6923916    0.2480798 -22.73  0.002804742    3.426    0.708
        14  -8.8850    165.6820     15.0774   3.6910710556e+01   4.1566160623e+01    0.3184515    0.1954394  10.75  0.001493563    2.923    0.658
        15  -9.5103    154.9980     14.4270   3.8161463761e+01   4.4162888669e+01    0.2796973    0.1953413  20.34  0.001268973    2.003    0.501
        16  -9.1264    145.9525     12.8041   3.9006084925e+01   4.6470019489e+01    0.1909064    0.1817768 -40.42 0.0003866544    1.216    0.178
        17  -9.6522    116.2522     12.4594   4.4053835277e+01   5.3501917882e+01    0.3455429     0.191155  56.46  0.001281774    1.494    0.330
        18 -11.2260    120.3496      8.8479   4.2042054994e+01   5.2867968420e+01    0.4033346    0.3296627  65.99  0.001299512    1.087    0.080
        19  -9.4308    204.5573      7.0784   3.0917742745e+01   3.3490887317e+01      0.23951    0.1907015  10.46  0.001404252    1.997    0.499
        20 -10.2060    181.3311      5.0925   3.2601220216e+01   3.8886550034e+01    0.3338308    0.2502108  50.66  0.001179998    1.500    0.333
        21  -9.7335    211.5595      1.8589   2.9239108221e+01   3.2496329905e+01    0.3416348    0.1492976 -88.28   0.00166382    2.351    0.575
        22  -9.6585    248.8272      1.8165   2.6767908974e+01   2.4984018247e+01    0.2742009    0.1318867  85.50  0.001140913    1.912    0.477
        23  -8.1715    198.0119      2.0037   3.0351389457e+01   3.5423621742e+01    0.1395513    0.1113522 -85.14  0.000943822    1.013    0.012
        24  -8.4640    171.6661      2.3242   3.2911711336e+01   4.1363957341e+01    0.1955509    0.1155267 -68.20 0.0007497955    1.765    0.433
        25  -9.3447    180.5938    182.4097   7.5691162446e+01   9.0410045085e+00    0.2735013    0.1320433 -57.11 0.0009530768    3.252    0.692
        26  -8.6072     35.0562    181.4813   1.1218834213e+02   3.2131133484e+01    0.1746594    0.1290061  31.87 0.0003930364    1.462    0.316
        27 -11.0020    201.4033    173.7459   6.9560073454e+01   7.0758703061e+00    0.4473044    0.3406194  -9.85  0.001879608    1.369    0.270
        28 -10.2734    214.9081    169.2776   6.6006475308e+01   5.5989600435e+00    0.4398081     0.297111  50.32  0.001603739    1.861    0.463
        29 -10.3432    200.5222    163.8856   6.7682192924e+01   9.1166865260e+00    0.6471133    0.4185385 -86.70  0.001818689    6.646    0.850
        30 -11.4960    191.5995    153.8041   6.7326865587e+01   1.2743456953e+01     0.750922    0.5607983 -62.38  0.003636457    1.700    0.412
        31  -9.1664    179.5879    230.1038   8.4591645391e+01   3.4372474788e-01    0.2091435    0.1613642  32.72 0.0004180514    1.251    0.201
        32 -12.3408      7.5354    159.2205   1.1713468097e+02   4.0034126883e+01     0.752448      0.46174  20.02  0.004193129    1.967    0.492
        33 -12.7791      6.3014    153.8421   1.1697404007e+02   4.1445250433e+01    0.9031856    0.6294866   4.80  0.005280023    1.885    0.470
        34 -10.9401    204.8315    153.0243   6.4509331552e+01   1.0421157354e+01    0.5365545    0.4431957 -78.93  0.002714975    1.704    0.413
        35  -8.4684    218.2904    154.4614   6.2290631530e+01   7.7371028618e+00    0.1750733     0.137524  54.76 0.0009433912    1.593    0.372
        36  -9.0589    159.6793    159.0254   7.5564300930e+01   1.7828114573e+01      0.21956    0.1986181 -35.02  0.000530018    1.084    0.078
        37  -9.8752    173.9286    150.0963   7.0298923379e+01   1.6938786164e+01    0.3922013      0.20926 -45.87   0.00159916    1.841    0.457
        38 -10.6043    133.8571    145.2507   7.8943503450e+01   2.6034960626e+01     1.223036    0.3444941 -55.03  0.002869456    5.496    0.818
        39 -10.4140    144.8213    147.0015   7.6517127136e+01   2.3449329292e+01    0.6547874    0.3570326 -65.57  0.002182282    3.111    0.679
        40  -7.8914    222.6602    149.3311   6.0423931023e+01   7.9102859841e+00    0.1359318    0.1077819 -70.26 0.0004494933    1.743    0.426
        41  -8.9392    180.9255    225.7938   8.3595266731e+01   8.8024515033e-01    0.2074704    0.1641258 -15.78 0.0004951286    1.230    0.187
        42  -8.5521    217.4717    148.2538   6.1118658770e+01   9.0250074146e+00    0.1842058    0.1235814 -47.71 0.0004130652    1.478    0.323
        43 -12.0677     67.7054    142.4415   9.7442850511e+01   3.8127666002e+01     2.208602     1.331538 -78.38  0.007558177    2.046    0.511
        44 -11.7562     39.5352    145.2791   1.0647761958e+02   4.0785104252e+01     0.426838    0.3450084 -13.71  0.001126053    1.498    0.332
        45 -12.8086     47.5481    142.2830   1.0359150974e+02   4.0691107547e+01     1.103952    0.7668442 -57.79  0.003542383    1.300    0.231
        46 -10.2842    192.8623    143.8129   6.4849456384e+01   1.4489235964e+01    0.3950629    0.2454598  28.05 0.0008821785    1.966    0.491
        47  -7.7927    121.9858    144.5366   8.1971434339e+01   2.8515152896e+01    0.2087172    0.1547113  35.70 6.258015e-05    1.364    0.267
        48 -10.7109    201.0420    139.4219   6.2246061693e+01   1.3757988671e+01    0.5068664    0.1965802 -40.20  0.001866677    2.394    0.582
        49 -11.5803    190.0685    136.3120   6.3710721642e+01   1.6535330095e+01    0.6152261    0.4238575 -35.44  0.002233065    1.391    0.281
        50 -10.6833    144.6738    139.5593   7.4828742959e+01   2.5166173677e+01    0.3977431    0.2654849 -61.22  0.001304316    1.803    0.445
        51 -10.0703    142.2403    136.0145   7.4606439888e+01   2.6467047442e+01    0.4349632    0.2310438 -38.83  0.001666134    1.966    0.491
        52 -12.1815     55.0265    140.4651   1.0098800973e+02   4.0281560257e+01    0.7868462     0.480315 -68.66  0.001830589    1.595    0.373
        53  -9.5693    137.1284    137.6525   7.6318384731e+01   2.7138155532e+01    0.5721098    0.1655472 -53.24  0.001438276    4.633    0.784
        54 -10.2369    211.1760    136.6332   5.9728790433e+01   1.2347377340e+01    0.3808894    0.2732769   3.33  0.001823277    1.914    0.478
        55  -9.9238    205.6818    122.2330   5.7480895343e+01   1.6118792290e+01    0.5968717    0.2417271 -48.17  0.001272332    2.532    0.605
        56 -10.1971    203.7026    134.0188   6.0524618583e+01   1.4279601329e+01    0.3347279    0.2202298  45.00  0.001143386    1.652    0.395
        57 -10.8444    202.1946    130.3955   5.9986702312e+01   1.5269004584e+01    0.6821889     0.396924  71.06  0.002488742    3.431    0.709
        58  -8.8924    166.9223    134.4916   6.8268476536e+01   2.1665149882e+01    0.2258732    0.1529662  42.94 0.0005523864    1.521    0.342
        59 -10.1961    160.3873    143.7263   7.1956810221e+01   2.1028069981e+01    0.4926394    0.3192715  73.63  0.001796807    2.899    0.655
        60 -11.2052    160.1745    128.9593   6.8495669759e+01   2.4264588790e+01    0.5394848    0.4419578 -16.60  0.002215482    1.363    0.266
        61 -10.7266    136.3987    128.3865   7.4266879297e+01   2.9402741421e+01    0.6509364    0.3596716 -51.25   0.00255885    1.880    0.468
        62 -10.9899    201.9887    125.9434   5.9007232724e+01   1.6159116451e+01    0.5197827    0.3667774 -88.45 0.0005123594    2.344    0.573
        63  -9.6026    143.9830    124.3211   7.1296095700e+01   2.8718013778e+01    0.3695958     0.262282 -61.82  0.001267744    1.673    0.402
        64  -8.3308     94.1876    125.3812   8.5626391015e+01   3.8283460035e+01    0.2085057    0.1425442  46.11  0.000493061    1.564    0.360
        65  -9.6349    167.6917    123.2903   6.5382953604e+01   2.3852852810e+01    0.2787636    0.1889411 -45.70 0.0007821954    1.443    0.307
        66 -12.5101    126.6051     86.1334   6.5450092569e+01   4.0524517887e+01     1.140844    0.6063639 -33.35  0.004508984    2.089    0.521
        67  -9.7814    135.1649    119.7355   7.2413942869e+01   3.1604173766e+01    0.4149976    0.2227345 -55.66 0.0008858677    2.192    0.544
        68 -12.2211    141.8910     96.4652   6.4459588026e+01   3.5062255541e+01    0.9678686    0.7793664  12.97 0.0007054537    1.502    0.334
        69 -12.7645    134.0804    103.9590   6.8520249975e+01   3.5258414713e+01      1.98441    0.5008907 -46.91   0.00524684    4.264    0.765
        70  -9.3757    181.9101    221.3010   8.2626317020e+01   1.5111803620e+00    0.2061751    0.1784052 -38.80 0.0005401244    1.320    0.242
        71  -8.6316    230.2104    221.8426   7.3164854421e+01  -5.5295701510e+00    0.1762717    0.1512001  -4.57 0.0006223602    1.186    0.157
        72 -10.0814    147.9689    105.6217   6.5456985021e+01   3.1842785498e+01     0.346075    0.2813535  32.52 0.0008658195    1.302    0.232
        73  -9.9529    148.6528    214.7918   8.8833135836e+01   8.0324797309e+00    0.2378338     0.216143  21.09 0.0004631902    1.022    0.022
        74 -10.5797    244.9137    193.7522   6.5419991445e+01  -3.1502956435e+00    0.2653364    0.1945825  28.56  0.001641256    1.477    0.323
        75 -10.6440    158.3378    101.7661   6.1996975578e+01   3.0291953746e+01     0.509066    0.3944652  33.47  0.002452295    1.411    0.292
        76  -9.2807    203.6894     97.6975   5.2110341817e+01   2.1003702773e+01    0.2633213    0.1792128 -38.42 0.0006374896    1.386    0.279
        77 -10.2558     88.9691     94.9606   7.9377560661e+01   4.6330137377e+01    0.2262971    0.2066866 -31.21  0.001213872    1.056    0.053
        78 -10.4353    149.0357     83.3110   5.9071670438e+01   3.5945903155e+01    0.6388914    0.2874374  31.40  0.001733133    4.955    0.798
        79  -9.8590    152.6461     80.4864   5.7465923361e+01   3.5615914293e+01     0.417374     0.266746 -18.92  0.001744628    2.155    0.536
        80 -11.1296    133.4864     81.0259   6.2152530093e+01   3.9947821905e+01    0.3759627    0.2396575 -53.67  0.001613283    1.819    0.450
        81 -10.4885    166.3958    116.9451   6.4096426034e+01   2.5441214215e+01    0.5060998    0.2832487  40.09  0.002062338    1.920    0.479
        82 -10.2629    164.1788     73.4084   5.3095404852e+01   3.4133641094e+01    0.4268516     0.227016 -43.98   0.00152603    1.889    0.470
        83 -10.9462    141.0290     78.8553   5.9664233340e+01   3.8612251657e+01    0.4274274    0.3854297 -78.02  0.002280977    1.222    0.182
        84 -10.5249    136.8108     73.6078   5.9132348738e+01   4.0522129966e+01    0.2718734    0.2261879 -44.53  0.001067348    1.246    0.197
        85 -10.1032    136.0000     69.9456   5.8231929832e+01   4.1343198608e+01    0.3178236    0.1927678 -40.34  0.001419905    1.701    0.412
        86  -9.9291    134.6902     65.3056   5.7140599478e+01   4.2425802202e+01    0.2869299     0.218164  83.04 0.0007421392    1.663    0.399
        87 -10.9785    135.2193     61.6498   5.5899703479e+01   4.2894628147e+01    0.3847155    0.2997016 -47.53  0.001145521    1.375    0.273
        88  -9.7490    157.4389    115.0689   6.5666630580e+01   2.7790495836e+01    0.4491034    0.3179537 -78.15  0.001087466    2.147    0.534
        89  -9.8436    168.9025     68.9497   5.0979166903e+01   3.3754629851e+01    0.3404865    0.2228642 -52.22  0.001408885    1.602    0.376
        90  -9.2423    173.9877    114.6768   6.1877026338e+01   2.4242528913e+01    0.2681708    0.2335713 -37.22  0.001392872    1.114    0.103
        91  -9.2451    154.0000     62.9727   5.2208987508e+01   3.8240571649e+01    0.2303993   0.08246762 -35.34 0.0007054167    2.907    0.656
        92  -8.6013    238.5843    211.7979   6.9854831754e+01  -5.1086816975e+00    0.1586564    0.1064238 -38.35 0.0005102011    1.519    0.341
        93 -11.6488    144.3799     58.8083   5.2995063258e+01   4.1176887496e+01    0.5646313    0.3381517 -28.86  0.002553488    1.880    0.468
        94  -8.5232     70.9674    113.0362   9.0185854536e+01   4.5056661492e+01    0.1743981    0.1646055 -33.72  0.000339845    1.014    0.014
        95  -8.3814    200.6806    192.3027   7.3411195811e+01   3.7400081271e+00    0.1250571    0.1138452  84.63 0.0007026465    1.627    0.385
        96  -8.7765    247.4804    211.4491   6.8233886142e+01  -6.2059528256e+00    0.1247266   0.09555673 -10.82  0.000177133    1.019    0.019
        97 -11.6473    121.2367     38.8039   5.1877556696e+01   4.9461577386e+01    0.5399793    0.3561689  34.24  0.001410057    1.614    0.380
        98  -9.4906    164.7149     40.0010   4.3802280761e+01   3.8955009912e+01    0.1843496    0.1729929 -73.72 0.0005277963    1.080    0.074
        99 -10.5789    159.8600     37.0215   4.3761169703e+01   4.0494093881e+01    0.3199762    0.2900914 -22.74  0.001064826    1.273    0.214
       100  -9.1086     92.0131     36.9919   5.9031220140e+01   5.6177758547e+01    0.2020277    0.1787215  22.30 0.0003670725    1.031    0.030
       101 -11.0214    125.9833     33.0189   4.8905171649e+01   4.9071800001e+01    0.4218188      0.28205 -87.73  0.001704119    2.113    0.527
       102 -11.0497    144.8299     30.2799   4.4364829453e+01   4.4910873787e+01    0.4194053    0.2478675 -18.76  0.002011595    2.158    0.537
       103 -11.1453    141.5745     25.1738   4.3400745244e+01   4.6263435542e+01    0.4189629    0.2179414  63.29  0.001381028    1.692    0.409
       104  -9.7909    167.6374     30.2201   4.0696616495e+01   3.9458808561e+01    0.2209392    0.1793662 -16.51  0.001206897    1.525    0.344
       105 -10.3798    126.8666     27.1676   4.6810698117e+01   4.9539731152e+01    0.3377286    0.1924255 -35.36   0.00116846    1.927    0.481
       106  -8.3154    100.5110    209.6432   9.9380179257e+01   1.6834410684e+01    0.1393766    0.1228458  45.09 -8.763919e-05    1.048    0.045
       107  -9.2277    226.9980    206.4632   7.0984776235e+01  -2.6916649287e+00    0.2199641    0.2033383  42.12 0.0009883136    1.541    0.351
       108  -8.3558    171.4895    204.4515   8.1904929809e+01   6.2796604758e+00    0.2023539    0.1742564  68.00  0.000816898    1.595    0.373
       109  -8.7243    115.2361     23.9873   4.8231600863e+01   5.2599274244e+01    0.1565426    0.1130974 -24.50 0.0003659553    1.562    0.360
       110  -9.0067     36.6664     21.6976   7.3983427039e+01   6.7929100337e+01    0.1286785   0.07971412   1.22 0.0003684386    1.658    0.397
       111  -8.8656    194.3534     19.2838   3.4646947755e+01   3.4480230785e+01    0.1931184     0.174899  61.09 0.0006103793    1.276    0.216
       112  -9.5800    182.5108     23.5240   3.6999879529e+01   3.6726079177e+01     0.257875     0.179946 -72.24  0.001468805    1.420    0.296
       113  -9.0336    171.1545    200.6044   8.1275178332e+01   7.0809098220e+00    0.2001384    0.1631472  21.84 0.0006805946    1.147    0.128
       114 -10.6250    194.4793    197.9649   7.5770332526e+01   3.7128736625e+00    0.4722328    0.2864511 -56.15  0.002096914    2.342    0.573
       115 -10.6094    191.7704    192.6510   7.5316571161e+01   5.1430242760e+00    0.6444933    0.3731844 -63.90  0.002361606    3.749    0.733
       116  -8.9297    242.2898    198.3554   6.6733684224e+01  -3.5193946140e+00    0.1333937   0.08274636 -11.11 0.0004944308    1.680    0.405
       117  -9.1199     32.9116    197.0118   1.1421920177e+02   2.8622451845e+01    0.1855487    0.1622619  84.52  0.000279279    1.045    0.043
       118  -8.7276    191.8718    236.3683   8.3084722057e+01  -2.4923089062e+00    0.1968854    0.1762845 -40.77  0.001280775    1.445    0.308
       119  -8.2413    219.6262    231.6902   7.6850490686e+01  -5.6085779042e+00    0.1346897   0.08122726  -1.08 0.0001629475    1.777    0.437
       120 -10.2884    211.8909    230.2526   7.8088693726e+01  -4.3441711241e+00    0.2148987     0.177302   5.23 0.0003122781    1.074    0.069
       121  -9.3234    234.7807    187.0151   6.5901091498e+01  -6.2514498430e-01    0.2243151    0.1512176  15.07 0.0006286601    1.596    0.373
       122  -8.4414    170.7044    186.0722   7.8610384804e+01   1.0054457118e+01    0.2379914    0.1689498  84.18 0.0009515924    2.936    0.659
