#   1 NUMBER                 Running object number                                     
#   2 MAG_AUTO               Kron-like elliptical aperture magnitude                    [mag]
#   3 X_IMAGE                Object position along x                                    [pixel]
#   4 Y_IMAGE                Object position along y                                    [pixel]
#   5 X_WORLD                Barycenter position along world x axis                     [deg]
#   6 Y_WORLD                Barycenter position along world y axis                     [deg]
#   7 A_WORLD                Profile RMS along major axis (world units)                 [deg]
#   8 B_WORLD                Profile RMS along minor axis (world units)                 [deg]
#   9 THETA_WORLD            Position angle (CCW/world-x)                               [deg]
#  10 FWHM_WORLD             FWHM assuming a gaussian core                              [deg]
#  11 ELONGATION             A_IMAGE/B_IMAGE                                           
#  12 ELLIPTICITY            1 - B_IMAGE/A_IMAGE                                       
         1 -14.0482    166.6993     34.1357   8.0002650645e+01   3.9021796788e+01      1.42552      1.00742  -2.11  0.004707024    1.671    0.402
         2 -12.3686    170.4859     26.5852   7.6847889887e+01   3.8955981837e+01    0.5506486    0.4149505   8.17   0.00142537    1.542    0.351
         3 -12.5081    181.2735      3.2526   6.7697015729e+01   3.8509706734e+01    0.8730852    0.4388888  70.42  0.003804216    1.904    0.475
         4 -11.3245    181.7547    233.9294   1.2150530450e+02   6.1271416049e+00    0.2033645    0.1406154 -12.26  0.001435826    1.789    0.441
         5 -19.7569     64.2549    164.7090   1.3685241138e+02   3.3868495822e+01     17.06558     4.161295 -69.14   0.06054813    4.595    0.782
         6 -10.7427    179.0793    175.3398   1.1341729236e+02   1.4009191040e+01    0.2836336    0.1657898 -27.09  0.001483886    2.044    0.511
         7  -9.2477    184.7070    174.3095   1.1216910824e+02   1.3196753820e+01    0.1137262   0.09905598  67.31 0.0001815706    1.586    0.370
         8 -11.5815    146.3629    170.4436   1.1916228511e+02   2.0375856766e+01    0.5386023    0.3794661 -86.35  0.002712355    2.479    0.597
         9 -10.3697    200.7982    222.4132   1.1677677704e+02   4.7022110105e+00    0.1686608   0.07961513  30.36 0.0009569087    1.731    0.422
        10 -11.3454    112.7164    169.8486   1.2636510951e+02   2.6014025558e+01    0.3611646    0.2907381 -34.97 0.0007140199    1.557    0.358
        11 -11.0852    151.1890    220.7102   1.2526662142e+02   1.2096725535e+01    0.2820463     0.112059  36.36  0.001439967    2.000    0.500
        12 -11.7869     13.4952    248.8286   1.5160500045e+02   2.4566709342e+01    0.2071615    0.1042182  77.45  0.001392548    1.765    0.434
        13 -10.9295    165.2972    208.1382   1.2106026405e+02   1.1667408716e+01    0.2243968    0.2147644  19.74 0.0006589893    1.258    0.205
        14 -11.0436    105.6538    161.3274   1.2674042413e+02   2.8728346176e+01    0.2312665    0.2050643  51.84 0.0003058258    1.013    0.013
        15 -10.0104    145.7671    178.5522   1.2057233995e+02   1.9142492251e+01     0.177291    0.1051105  47.32 0.0006147315    1.547    0.354
        16 -11.1636    130.4304    206.0022   1.2740714357e+02   1.7233640594e+01    0.2435394    0.1931271  46.40 0.0008732116    1.088    0.081
        17 -11.1431    133.7628    143.7303   1.1725262714e+02   2.7350803582e+01    0.6237545    0.2107814 -56.53  0.001932314    4.747    0.789
        18  -9.6563    174.6057    148.8231   1.0940049855e+02   1.8849608633e+01    0.1759412     0.127732 -49.51 0.0004713805    1.669    0.401
        19 -13.1349    196.1864    195.5016   1.1358697176e+02   8.5078476746e+00    0.5782973    0.4435379  32.49  0.001704522    1.130    0.115
        20  -9.0669    211.2501    202.6579   1.1210519085e+02   5.3564738808e+00   0.09421951   0.08968372  44.20 0.0002471737    1.574    0.364
        21 -10.8959    141.2930    197.8258   1.2424196939e+02   1.6830664327e+01    0.2306496    0.2064947  85.05 0.0007676267    1.395    0.283
        22 -11.5548    116.0466    139.2726   1.2063947359e+02   3.1371184934e+01    0.4165189    0.2572573 -40.26  0.002018228    1.905    0.475
        23 -11.9953    106.1223    139.5886   1.2315048019e+02   3.2991942719e+01     0.297159    0.2475843  45.83   0.00051267    1.121    0.108
        24 -11.7028    188.9033    186.6855   1.1347988193e+02   1.0801402345e+01    0.4271814    0.3501808 -34.73  0.002158645    1.464    0.317
        25 -12.3072      4.7773    139.5456   1.4926052543e+02   4.4967404662e+01    0.4257481    0.2960994  64.19  0.002710887    1.196    0.164
        26 -11.7034    180.5401    194.2825   1.1622692141e+02   1.1138451157e+01    0.3586845      0.28737 -89.40  0.002042971    2.310    0.567
        27 -11.4079    106.1357    130.8244   1.2155895799e+02   3.4808612058e+01    0.3848137    0.3140207 -67.28  0.001271892    1.291    0.225
        28 -10.8726    109.0594    126.1827   1.1990846705e+02   3.5277335786e+01    0.3058016    0.2649142 -40.66 0.0006983694    1.261    0.207
        29 -12.0425      2.3749    123.2442   1.4897206083e+02   4.8663916559e+01    0.4882436    0.1449124 -89.15  0.002026284    3.211    0.689
        30 -11.0365    120.2383    130.2029   1.1786863382e+02   3.2455996704e+01    0.2735562    0.2368275  -4.15 0.0008940299    1.394    0.282
        31 -12.2211     20.6543    127.5145   1.4431874552e+02   4.6396972702e+01    0.3860812    0.2067635 -80.02  0.001828956    1.626    0.385
        32 -10.2704    134.7071    195.2746   1.2520961198e+02   1.8241316135e+01    0.2821798    0.1919135  74.84  0.001565453    2.229    0.551
        33 -10.7492    125.3522    126.9777   1.1594265225e+02   3.2163434878e+01    0.4565258    0.2970275  79.33  0.001884523    2.689    0.628
        34  -9.8269    159.4970    195.4963   1.2037463644e+02   1.4321418692e+01     0.122638   0.09971557  34.39 0.0001178299    1.020    0.020
        35 -10.3472    126.0941    121.6922   1.1463416510e+02   3.3084726129e+01    0.2377406    0.1702838  58.06  0.001172248    1.510    0.338
        36 -10.4102    114.0350    119.0106   1.1713647802e+02   3.5889372758e+01    0.2099546     0.202896  50.80 0.0003326204    1.023    0.023
        37 -10.9581    125.9711    186.8604   1.2586794075e+02   2.0954796978e+01    0.3694565    0.2068289  62.15 0.0009341619    2.458    0.593
        38 -11.5695    207.6109    185.4052   1.0992338868e+02   7.9467620675e+00    0.3554715    0.2287007  11.76  0.001241669    1.605    0.377
        39 -11.5712      3.5288    112.1642   1.4794424818e+02   5.1063784828e+01    0.2795351    0.1971638  12.42  0.001837073    1.839    0.456
        40 -11.4664    212.1365    181.5275   1.0847438477e+02   7.6971498863e+00    0.3083204    0.2099205 -13.17  0.001148419    1.512    0.339
        41 -10.8409     98.1949    110.9325   1.1969276003e+02   4.0434304466e+01    0.2811019    0.1837081 -58.87   0.00090137    1.567    0.362
        42  -9.9882    205.5117    110.1854   9.4966382519e+01   1.8682855266e+01     0.248768    0.1903701  41.60 0.0006506254    1.295    0.228
        43  -9.2742    155.1689    104.8270   1.0368291680e+02   3.0388560188e+01    0.1928853     0.165904   9.37 0.0002429256    1.253    0.202
        44 -10.1211    158.1604    185.9431   1.1921239137e+02   1.5944170772e+01    0.1834013    0.1440901  83.86 0.0009949652    1.980    0.495
        45  -9.8752    223.9924    184.0105   1.0689981740e+02   5.5336701354e+00    0.1434354     0.112322  14.02 0.0009740048    1.014    0.014
        46  -9.4778     13.4977     59.8740   1.3859848038e+02   6.2629491399e+01    0.1834293     0.102877 -71.75 0.0004400312    1.487    0.327
        47 -13.1207    155.9770     50.4850   8.7494268592e+01   3.9504695098e+01    0.8546093    0.6151214 -86.93  0.001811194    1.879    0.468
        48 -11.3409      5.3737    222.4546   1.5224736043e+02   2.9325431597e+01    0.1535089   0.09971184 -61.14 0.0009000146    2.164    0.538
        49 -10.8654     19.7194    239.1485   1.5030923029e+02   2.5436534610e+01    0.1147279   0.08693928  63.20 0.0002886171    1.154    0.133
        50 -11.1274    198.9985    178.6572   1.1029088300e+02   1.0201621507e+01    0.2632629    0.2496696 -25.56 0.0008638017    1.372    0.271
        51  -9.7478    189.6539     14.6940   7.0428526319e+01   3.5229588150e+01     0.150797    0.1012374  36.12 0.0007042364    1.696    0.410
