#   1 NUMBER                 Running object number                                     
#   2 MAG_AUTO               Kron-like elliptical aperture magnitude                    [mag]
#   3 X_IMAGE                Object position along x                                    [pixel]
#   4 Y_IMAGE                Object position along y                                    [pixel]
#   5 X_WORLD                Barycenter position along world x axis                     [deg]
#   6 Y_WORLD                Barycenter position along world y axis                     [deg]
#   7 A_WORLD                Profile RMS along major axis (world units)                 [deg]
#   8 B_WORLD                Profile RMS along minor axis (world units)                 [deg]
#   9 THETA_WORLD            Position angle (CCW/world-x)                               [deg]
#  10 FWHM_WORLD             FWHM assuming a gaussian core                              [deg]
#  11 ELONGATION             A_IMAGE/B_IMAGE                                           
#  12 ELLIPTICITY            1 - B_IMAGE/A_IMAGE                                       
         1 -13.2033    203.6323     34.3767   5.6226882781e+01   2.9744839213e+01     1.237982     1.191299   1.48  0.006131742    1.088    0.081
         2 -13.8093    220.7228     15.9939   4.8850634992e+01   2.7436651030e+01     1.293435      0.96219  25.50  0.006670275    1.641    0.390
         3 -13.1185      2.7707     17.5857   1.1275371010e+02   7.1599051450e+01    0.8895056     0.373896 -67.82  0.004612039    2.254    0.556
         4 -12.6829      3.5848      5.4821   1.0793263892e+02   7.3888134253e+01    0.6840033    0.3950066 -55.63  0.004437933    1.404    0.288
         5  -9.3342     73.6208    237.2421   1.2283132723e+02   1.9983662255e+01    0.1519397   0.08849953 -77.80 0.0007835382    1.905    0.475
         6 -10.8770    184.7544    248.4722   1.0544107286e+02   2.6821959685e+00    0.3150156    0.1874215 -17.50  0.001937979    2.802    0.643
         7 -10.9282    177.0073    249.4502   1.0680847742e+02   3.7268495500e+00    0.3876259    0.1430722  32.59  0.001819554    2.946    0.661
         8 -10.4733    162.4000    250.3944   1.0928721142e+02   5.7843058029e+00    0.2791156   0.07312416  45.34  0.001052127    2.837    0.648
         9 -11.2357    142.9832    248.5125   1.1227268536e+02   8.8648852112e+00    0.3554661    0.1944174  63.09  0.002106103    2.298    0.565
        10 -12.5128    124.2544    245.3851   1.1506915123e+02   1.1977057024e+01    0.5729544    0.4857962 -54.55  0.004706132    1.640    0.390
        11 -11.3792    116.1417    249.1311   1.1673722535e+02   1.2622324868e+01    0.4188248    0.3499312 -83.10  0.003517574    1.479    0.324
        12 -11.0904    109.8784    247.8873   1.1765792587e+02   1.3657829575e+01    0.2849458    0.1954463  54.10  0.001788086    1.073    0.068
        13 -11.4042     99.9580    247.9349   1.1928252192e+02   1.5000653535e+01    0.3558808    0.2338285  51.94     0.002692    1.077    0.071
        14 -10.3077     81.4265    248.0082   1.2228659800e+02   1.7411726343e+01    0.2241499    0.1400731 -81.01  0.001066352    1.824    0.452
        15 -10.6010     84.3503    230.0353   1.2050179189e+02   1.9709334612e+01    0.2811257    0.1744408 -64.74  0.001972917    1.943    0.485
        16 -11.4594     83.6300    240.5194   1.2140623922e+02   1.8217984755e+01    0.7072194    0.1785498  51.95  0.003230517    3.193    0.687
        17  -9.8857     90.7643    250.4304   1.2095517660e+02   1.5868861191e+01    0.1834984    0.1197956  37.10  0.001108587    1.565    0.361
        18 -11.3592     86.8262    247.9384   1.2141250786e+02   1.6730286425e+01    0.3170227    0.2230465  43.01 0.0007981879    1.327    0.247
        19 -10.6783     91.2165    241.7688   1.2024515335e+02   1.7042242764e+01    0.2028402    0.1763689  49.79   0.00125095    1.346    0.257
        20 -11.5879     88.3215    237.4882   1.2040195968e+02   1.8054165905e+01    0.4710224     0.198397  54.81  0.001742619    1.911    0.477
        21  -9.3780     56.6384    250.4947   1.2635005128e+02   2.0060617332e+01    0.1681191   0.08888783  47.99 0.0007885833    1.360    0.265
        22 -11.3551     60.0449    245.9145   1.2556566964e+02   2.0334034901e+01    0.3989511    0.1965451  49.57  0.002510875    1.419    0.295
        23 -10.9138     68.2324    245.4689   1.2423767234e+02   1.9420026140e+01      0.26926    0.1485021  61.41  0.001019799    1.393    0.282
        24 -12.0292     49.1507    216.9745   1.2565910964e+02   2.6172025390e+01     1.280749    0.5264153  71.20  0.006934019    2.587    0.613
        25 -13.6773      7.6247    212.2610   1.3244837490e+02   3.1209726725e+01     1.199397    0.8486649 -74.38  0.007050474    1.633    0.387
        26 -11.6782     21.8295    219.6742   1.3041083172e+02   2.8627086159e+01    0.2039324     0.148391  80.85 0.0005238348    1.201    0.167
        27 -13.1019     23.3878    225.1003   1.3038998670e+02   2.7581237573e+01    0.3088284    0.2961328  83.19 0.0007925891    1.675    0.403
        28 -14.4292     29.2342    218.6228   1.2913702453e+02   2.8056521938e+01     1.190718    0.9376272 -62.46  0.009813472    1.828    0.453
        29 -11.0241    198.1318    245.4987   1.0292294385e+02   1.0051361242e+00    0.2117371    0.1374361  21.93  0.001466573    1.489    0.328
        30 -12.1575    135.6147    241.2322   1.1277328958e+02   1.0879236318e+01    0.4530104    0.2791799  88.69  0.002687988    2.794    0.642
        31 -12.0149    135.3454    236.3203   1.1232093674e+02   1.1575488874e+01    0.3256647    0.2554396 -27.27  0.002348918    1.995    0.499
        32 -11.2959    133.7726    232.7325   1.1221936006e+02   1.2301584745e+01    0.2254011    0.1637524 -50.11  0.001133107    1.844    0.458
        33 -11.8773    179.9035    243.4359   1.0563521938e+02   3.9610701660e+00    0.5137835    0.1305804  38.93  0.002167178    3.172    0.685
        34 -11.6182    165.3896    242.6866   1.0794605704e+02   6.2414859268e+00     0.360127    0.1691776  53.71  0.001973841    2.210    0.548
        35 -10.5627     97.1302    239.3304   1.1907140881e+02   1.6605087358e+01     0.262659    0.1409949  62.02  0.001202347    1.695    0.410
        36 -12.3437    102.6002    238.4808   1.1808358561e+02   1.5981282552e+01    0.4441541     0.373549 -88.48  0.001428775    1.376    0.273
        37 -11.8858    102.8016    230.4173   1.1735571237e+02   1.7141571703e+01    0.6062587    0.3225249  29.46  0.003285666    2.586    0.613
        38 -12.8976     26.3072    247.4996   1.3083862848e+02   2.3799973183e+01    0.6633822    0.4486124  39.18  0.005548859    1.665    0.399
        39 -11.9854    118.8258    236.9154   1.1519685826e+02   1.3916803957e+01    0.4974206    0.3400789  14.94  0.002430526    2.721    0.633
        40 -13.1601      2.9200    189.9499   1.3240336440e+02   3.5531579625e+01     1.684662    0.2654307 -81.77  0.006304653    5.807    0.828
        41  -9.0730     60.9768    239.0000   1.2501457014e+02   2.1260987706e+01    0.1605857   0.04415407  39.81 0.0007928153    2.876    0.652
        42 -14.2238      6.8574    244.2987   1.3360993169e+02   2.6166334880e+01     1.233791    0.8996534  81.36   0.01162569    1.314    0.239
        43 -11.5161    132.1989    248.7865   1.1407263001e+02   1.0393229991e+01    0.6197487    0.1463166  48.08  0.002625789    3.372    0.703
        44  -9.6134     54.9101    235.4840   1.2579446873e+02   2.2515330126e+01    0.1993214      0.09266  61.46  0.001011452    1.708    0.414
        45 -11.6970    112.2404    231.4983   1.1582084287e+02   1.5642559938e+01    0.4398888    0.2993512  30.87  0.002492272    1.700    0.412
        46  -8.6825     45.6464    231.2947   1.2707282117e+02   2.4229404851e+01    0.1104455   0.05040263  60.95 0.0007032275    1.687    0.407
        47  -9.5166     56.6654    228.9473   1.2511644257e+02   2.3338334421e+01    0.2318748    0.0978035  86.39  0.001259806    2.937    0.660
        48  -9.5497     77.1632    220.8120   1.2103234202e+02   2.2113644487e+01    0.1654815     0.109099  61.71 0.0003785918    1.182    0.154
        49 -10.1485     80.6963    226.6797   1.2087100821e+02   2.0713336243e+01    0.2320461    0.1892034  14.54  0.001252868    2.073    0.518
        50 -10.1764     78.9577    224.5495   1.2100820330e+02   2.1278165118e+01     0.256893    0.2033307 -26.15  0.001743177    2.565    0.610
        51 -10.7974    136.1999    224.6029   1.1091966555e+02   1.3075856680e+01    0.2766644    0.1737508 -46.13 0.0009910085    2.140    0.533
        52  -9.3644     92.5866    226.2509   1.1877064838e+02   1.9192077843e+01    0.1214224    0.1003157 -70.80  0.000529981    1.498    0.333
        53  -9.4613    117.0730    224.4687   1.1429457737e+02   1.5981951001e+01    0.1588559    0.1341433  63.09 0.0005584289    1.142    0.124
        54  -9.4452     65.0547    224.4490   1.2340353292e+02   2.3052210358e+01    0.1713452    0.1323157 -49.26  0.001252287    2.074    0.518
        55  -8.9834     45.6474    225.2737   1.2674245435e+02   2.5196264620e+01    0.1171567   0.08188295 -81.58 0.0004140948    1.487    0.328
        56 -10.8466     98.6146    222.7855   1.1740707876e+02   1.8899274498e+01     0.224426    0.1785331  62.14 0.0007383947    1.079    0.073
        57  -9.7418     87.6272    223.6655   1.1942225132e+02   2.0271023659e+01    0.2337207     0.123313  55.09  0.001175157    1.495    0.331
        58 -10.3856    141.7900    219.3237   1.0931871733e+02   1.2963460652e+01    0.2469075    0.1852857 -47.34  0.001427157    1.730    0.422
        59 -10.5387     70.7615    219.2095   1.2203680824e+02   2.3196350404e+01    0.3331347    0.1997113  67.78  0.002262129    1.435    0.303
        60  -9.8601     91.0338    219.6381   1.1847577993e+02   2.0451028014e+01    0.3129129    0.1386877  46.80  0.001348393    1.718    0.418
        61  -9.6609    116.6865    215.8092   1.1347054476e+02   1.7365883641e+01    0.2558004     0.164987  20.53  0.001396175    2.570    0.611
        62  -9.1759    111.5415    215.4493   1.1437163940e+02   1.8190689466e+01    0.1158442   0.08963228  54.38 5.069107e-05    1.009    0.009
        63  -9.5710     87.1740    212.3054   1.1852438737e+02   2.2181513004e+01    0.2829359    0.1254469  64.49  0.001228265    2.638    0.621
        64 -10.1034     62.7058    209.1055   1.2272150765e+02   2.5906578119e+01    0.3077005    0.2287631  30.24   0.00169744    1.765    0.433
        65  -9.0271     63.7791    205.0593   1.2221729377e+02   2.6478586395e+01    0.1493912   0.09994933 -84.96 0.0003335281    1.452    0.311
        66  -9.6338     58.5129    212.5152   1.2372158129e+02   2.5830477713e+01    0.2023663   0.07679464  44.55  0.000746938    2.018    0.504
        67 -10.5237     55.9075    209.0339   1.2394458182e+02   2.6740197520e+01    0.3518865    0.1482271 -74.12    0.0020193    2.427    0.588
        68  -8.6931     74.2860    208.3160   1.2054403246e+02   2.4578188926e+01   0.08995073   0.08834767 -10.25 0.0004085269    1.586    0.369
        69  -9.3784     90.6781    204.9697   1.1719173696e+02   2.2937240676e+01    0.2525067    0.1156341  33.20  0.001243264    2.567    0.610
        70 -10.4048    106.8375    203.4690   1.1397891206e+02   2.0848425481e+01    0.2056802    0.1665794  75.64  0.000249882    1.186    0.157
        71  -8.4329     83.5025    201.5200   1.1821966088e+02   2.4530016921e+01    0.1191932   0.08736239  63.49 -8.541989e-05    1.097    0.088
        72 -10.4758     74.7078    200.1435   1.1976410348e+02   2.5952432354e+01    0.1856604    0.1517745  63.86 0.0004102259    1.095    0.086
        73  -8.7067     96.5615    199.4106   1.1551170106e+02   2.3058768927e+01    0.1173725   0.09314288  59.14 8.658752e-05    1.016    0.015
        74 -11.9543     53.5299    193.5864   1.2325459539e+02   2.9781037279e+01    0.3734446     0.290363 -74.19 0.0006777371    1.409    0.290
        75 -13.6422     39.5798    244.1431   1.2867702549e+02   2.2910528310e+01     1.273762    0.6697044  61.78  0.009627488    1.349    0.259
        76 -10.2166    249.8083    194.1807   8.6849413319e+01  -1.6234681438e+00    0.2244672    0.1530542  14.54  0.001452837    1.259    0.206
        77 -10.0041     25.9654    192.7193   1.2836646027e+02   3.2924080824e+01    0.2016819    0.1510191  71.57 0.0008999479    1.055    0.052
        78  -9.6557     21.7198    192.8146   1.2914903939e+02   3.3320532084e+01    0.2489614    0.1200258  68.25   0.00122106    1.684    0.406
        79  -9.6034     30.5499    193.4193   1.2756174017e+02   3.2335267696e+01    0.1707886     0.106773  67.24 0.0005367532    1.218    0.179
        80  -9.8734     33.7852    192.4295   1.2690135826e+02   3.2183733098e+01     0.261157    0.1422764  71.34  0.000999397    1.525    0.344
        81  -9.4330    191.7690    191.6067   9.6289977381e+01   8.4806257856e+00    0.1854451    0.1578051   1.65 0.0005658038    1.254    0.203
        82  -9.3877     39.8923    190.1306   1.2560242914e+02   3.1961287624e+01     0.286838    0.1759834 -46.94  0.001726976    2.724    0.633
        83 -10.3547    250.2613    187.4967   8.5597131801e+01  -9.8604453082e-01     0.249779     0.130616 -11.51  0.001304072    2.211    0.548
        84 -10.7955     71.8398    187.0038   1.1911454083e+02   2.8729195007e+01    0.4351726    0.1726669  39.35  0.001740366    2.279    0.561
        85 -10.7335      9.6035    186.7962   1.3106470910e+02   3.5537517310e+01    0.2871686    0.1158039  76.22  0.001661989    2.151    0.535
        86 -11.7755     60.1271    185.5910   1.2131729296e+02   3.0481143112e+01    0.2181181    0.1905369  85.84 0.0004779822    1.223    0.182
        87  -9.2127    107.0488    185.6488   1.1186971058e+02   2.3932250243e+01    0.1720057     0.127953  49.27 0.0003236772    1.156    0.135
        88 -10.7732     37.2523    180.1206   1.2541800736e+02   3.4137999894e+01    0.2300803    0.1641423 -72.72 0.0004102917    1.438    0.305
        89  -9.6498     27.0384    179.7282   1.2739426319e+02   3.5253182450e+01    0.1830287    0.1258492 -85.95 0.0003138673    1.265    0.210
        90  -9.0258     30.0168    183.5262   1.2705749549e+02   3.4233565367e+01    0.1501505   0.08972933  44.29 0.0004708453    1.536    0.349
        91  -8.6196     12.3250    178.3360   1.3014802415e+02   3.6883761847e+01   0.09383391   0.07239453 -59.74   0.00070513    1.717    0.418
        92  -9.5863    105.3580    176.0030   1.1098811608e+02   2.5979633334e+01    0.2603188      0.13828  43.00  0.001265161    1.672    0.402
        93 -11.5597    248.4515    172.6327   8.3142690041e+01   9.6672404698e-01    0.4154905    0.2807695  11.24  0.002488477    1.396    0.284
        94 -10.5946     71.6034    173.4971   1.1780528478e+02   3.1356094315e+01    0.2080972     0.181147  69.13  0.000238951    1.124    0.110
        95 -10.3366     56.5695    173.2506   1.2093334398e+02   3.3301408105e+01    0.2912309    0.1507828  55.28  0.001660648    1.684    0.406
        96 -10.1569     12.4010    173.0018   1.2985437942e+02   3.7898572291e+01    0.2340745    0.1325473 -71.09  0.001586174    1.688    0.407
        97  -9.9756     18.0071    172.2392   1.2871075894e+02   3.7550555855e+01    0.1886047    0.1245884  85.03  0.001178395    1.186    0.157
        98 -11.9104     10.6549    157.9300   1.2935836859e+02   4.1014348758e+01    0.4336664    0.1622901  77.13  0.002152846    2.666    0.625
        99 -10.9971      2.3846    172.1383   1.3174733303e+02   3.8895578151e+01     0.338316    0.1596132  74.19  0.001856308    1.688    0.408
       100 -11.1809      4.8894    166.9031   1.3101259412e+02   3.9706215680e+01    0.2648349     0.199156  18.37  0.002000133    1.997    0.499
       101 -11.6785     12.0863    167.3116   1.2960553865e+02   3.9032739860e+01    0.3823282    0.2107555  29.16  0.002046904    2.204    0.546
       102 -10.0992     27.2714    171.7518   1.2682985347e+02   3.6777491156e+01    0.2150592    0.1538856 -58.64 0.0004194802    1.731    0.422
       103  -9.5978     51.9137    171.0791   1.2170748144e+02   3.4282748423e+01    0.1751943     0.138948  69.29 0.0006727417    1.045    0.043
       104  -8.8205     42.6298    169.7090   1.2352824014e+02   3.5601201765e+01    0.1000351   0.08628474 -42.51 0.0007024556    1.718    0.418
       105 -10.2904     38.9094    167.7550   1.2414528827e+02   3.6390697749e+01    0.1765492    0.1310769  86.31 0.0004263626    1.112    0.101
       106 -11.7787     79.6362    165.5386   1.1518131098e+02   3.1848802785e+01    0.4690441    0.3544619  33.29  0.002911074    1.537    0.349
       107 -10.3055     68.1542    166.1876   1.1775687078e+02   3.3265231043e+01    0.2043574       0.1499  89.32 0.0004300601    1.242    0.195
       108 -12.0289    245.2069    162.2390   8.1648609188e+01   2.7537616821e+00     0.423503    0.2579897 -32.59  0.002351555    1.727    0.421
       109 -12.2127    247.6398    158.5062   8.0514177251e+01   2.7774989079e+00    0.8041276    0.5347435 -53.46  0.004076397    2.638    0.621
       110 -10.5185     44.2643    165.5519   1.2283179518e+02   3.6256810072e+01    0.2604969    0.1954592 -22.90  0.001583043    2.517    0.603
       111  -9.6334     29.7125    165.0537   1.2585826232e+02   3.7869054665e+01    0.1528963    0.1180756  84.35  0.000452791    1.072    0.067
       112  -9.9420     24.0179    161.9917   1.2682943737e+02   3.9028783739e+01    0.1653161    0.1264736  77.58 0.0003676456    1.019    0.019
       113  -9.2153     67.0665    161.3062   1.1745390784e+02   3.4399091132e+01    0.1656124    0.1475552  31.07 0.0003737237    1.439    0.305
       114  -9.4783     28.6815    160.9630   1.2577131468e+02   3.8794717407e+01    0.1560927    0.1109282  86.24 0.0003840033    1.127    0.113
       115  -8.8238     66.8975    157.0345   1.1700204377e+02   3.5302022167e+01    0.1442786    0.1168588  63.09  0.000382067    1.099    0.090
       116  -9.6928     81.4870    156.4842   1.1363033813e+02   3.3433305601e+01      0.12643    0.1080283  74.50 0.0002509296    1.006    0.006
       117 -10.7909     26.7356    155.2385   1.2575397840e+02   4.0149413756e+01    0.2750985    0.1218917  55.62  0.001105661    2.021    0.505
       118 -10.7914     12.3828    153.2092   1.2870490516e+02   4.1827320382e+01    0.2640744    0.1309701  84.38  0.001293317    1.702    0.412
       119 -10.9762    249.6440    150.8465   7.8638304665e+01   3.3571468331e+00    0.4461625     0.248996 -26.42  0.002338035    1.731    0.422
       120 -13.1014    247.9588    101.7965   6.7957016194e+01   1.0068585504e+01     1.200128    0.6876261 -18.29  0.005639805    1.785    0.440
       121 -13.1962    248.2668    134.2761   7.5340929471e+01   5.7040127111e+00     1.385297    0.7125518 -24.16  0.006629478    1.895    0.472
       122  -9.7361     54.1728    151.7730   1.1930066004e+02   3.7975050969e+01    0.2170262    0.1659625 -53.52            0    1.567    0.362
       123 -10.5487     93.7848    150.0686   1.0989915574e+02   3.2936128020e+01    0.2855811     0.236187  62.75 0.0008524381    1.092    0.084
       124 -11.2676     21.8717    149.2480   1.2636361621e+02   4.1832479670e+01    0.4513161    0.1112247  42.01  0.002084528    3.188    0.686
       125  -9.4927     81.5924    148.6573   1.1254294503e+02   3.5051791148e+01    0.2860227    0.1425436  48.68  0.001399766    1.882    0.469
       126 -11.8550     68.1464    144.1096   1.1510880609e+02   3.7868740503e+01    0.6477126    0.3836924  78.10  0.002714029    1.908    0.476
       127 -12.9499      7.8658    143.4447   1.2906408899e+02   4.4189719548e+01    0.5938816    0.4656908  35.24  0.004545218    1.555    0.357
       128  -9.5846    235.8787    145.9057   7.9837338223e+01   6.5337305107e+00    0.2067043    0.1577927  13.58 0.0004832299    1.237    0.192
       129  -8.8342     52.6789    146.3008   1.1904159838e+02   3.9310239889e+01    0.1275717   0.07678349  68.87 0.0003098066    1.627    0.385
       130 -10.1386    133.2508    141.0421   9.9187786648e+01   2.7948598092e+01    0.2944069    0.2298501 -72.84 0.0009384527    1.459    0.315
       131 -11.4332     16.7071    139.9328   1.2681859192e+02   4.4225328739e+01    0.3013606    0.1639251  60.73  0.001532648    1.663    0.399
       132  -9.8975     37.0035    140.2604   1.2209843943e+02   4.2303529971e+01    0.1616625    0.1318116  78.23 0.0004039872    1.052    0.049
       133  -9.6434    107.2656    135.7373   1.0431587079e+02   3.3744898428e+01    0.3397414    0.2376716 -15.06  0.001239366    2.725    0.633
       134  -9.3655     93.9798    133.1510   1.0712001612e+02   3.6491916942e+01    0.1828328     0.176201 -19.28 0.0003851016    1.288    0.224
       135 -13.5637      3.9779    124.9108   1.2870425782e+02   4.8366657412e+01     1.039726    0.3664073 -78.47  0.005318427    2.217    0.549
       136 -10.4086     44.5148    130.1947   1.1915180917e+02   4.3716830092e+01    0.3009312      0.15515  65.86  0.001457808    2.151    0.535
       137 -10.2211     32.6218    126.7677   1.2176279477e+02   4.5665168966e+01    0.1735458   0.09431943 -85.57 0.0008554438    1.670    0.401
       138  -9.4365     62.5781    125.8398   1.1393689121e+02   4.2583899988e+01    0.1760669    0.1099977 -81.27  0.000933341    1.586    0.370
       139  -8.6580    209.6951    125.7015   7.9925572735e+01   1.4734889677e+01    0.1459175       0.1047  15.29 0.0002472289    1.588    0.370
       140 -12.7517     16.7787    120.8156   1.2518586705e+02   4.8327949105e+01    0.5265624    0.2661094  66.77  0.002932033    1.992    0.498
       141 -10.2776     59.0022    146.8295   1.1761795832e+02   3.8444219171e+01    0.3130316    0.2357659 -20.41   0.00178758    2.317    0.568
       142 -10.5312    238.8312    121.2808   7.3924057200e+01   9.2876968566e+00     0.343156    0.1751802 -12.11  0.001366247    2.673    0.626
       143 -10.8617    232.0035    116.7596   7.3977603895e+01   1.1326577231e+01    0.2456702    0.1949422 -22.87 0.0006635351    1.203    0.168
       144 -12.7840     14.2307    100.8545   1.2384345203e+02   5.2922075552e+01    0.4337349    0.3450819 -15.18  0.002300683    1.774    0.436
       145 -12.6519      9.0878    112.9377   1.2645454701e+02   5.0608321319e+01    0.4250017    0.2064177 -71.94  0.001926748    1.616    0.381
       146  -9.1578     58.8576    127.8491   1.1519077906e+02   4.2598122038e+01    0.1722253    0.1279877  79.66 0.0003959698    1.277    0.217
       147 -10.2129    249.6126    117.7448   7.1439644581e+01   7.6056630683e+00    0.2715097    0.2173637  -8.30 0.0005822182    1.144    0.126
       148  -8.7558     59.6979    107.7124   1.1180239890e+02   4.7023233851e+01    0.1229169   0.09474287 -38.34  0.000224955    1.561    0.359
       149 -11.0880     19.3556    105.8994   1.2296666888e+02   5.1424715441e+01    0.1881529    0.1773949  27.50 0.0007717922    1.377    0.274
       150  -8.6378     71.7174    100.3031   1.0693123672e+02   4.7129321836e+01    0.1329063   0.09762146  81.43 0.0002159271    1.554    0.357
       151  -9.8246    167.9047    113.0395   8.5196354228e+01   2.6120841492e+01    0.3349925    0.2461651 -81.69  0.001487628    2.034    0.508
       152 -12.4407    248.0485    112.8779   7.0553624420e+01   8.5641466342e+00    0.9758625    0.5938484   1.64  0.004507297    2.093    0.522
       153 -12.0161    247.9166    142.4086   7.7146255402e+01   4.7277278342e+00    0.5510828    0.4055546   8.93  0.003203999    1.300    0.231
       154 -11.2089      2.3808     75.5698   1.2449318468e+02   5.9249923925e+01    0.3434365   0.08362938 -73.66  0.001406208    3.079    0.675
       155 -10.8416    169.1827    248.8420   1.0801229872e+02   4.9573273503e+00     0.198219    0.1394346  28.21 0.0006883169    1.354    0.261
       156 -11.4796    150.1763    246.8585   1.1091929951e+02   8.0123468709e+00    0.2769648    0.2099702  30.85  0.001568865    1.323    0.244
       157 -10.7750     73.9900    244.2864   1.2323799716e+02   1.8885846783e+01    0.2942561    0.2090039 -70.77  0.002344385    1.730    0.422
