#   1 NUMBER                 Running object number                                     
#   2 MAG_AUTO               Kron-like elliptical aperture magnitude                    [mag]
#   3 X_IMAGE                Object position along x                                    [pixel]
#   4 Y_IMAGE                Object position along y                                    [pixel]
#   5 X_WORLD                Barycenter position along world x axis                     [deg]
#   6 Y_WORLD                Barycenter position along world y axis                     [deg]
#   7 A_WORLD                Profile RMS along major axis (world units)                 [deg]
#   8 B_WORLD                Profile RMS along minor axis (world units)                 [deg]
#   9 THETA_WORLD            Position angle (CCW/world-x)                               [deg]
#  10 FWHM_WORLD             FWHM assuming a gaussian core                              [deg]
#  11 ELONGATION             A_IMAGE/B_IMAGE                                           
#  12 ELLIPTICITY            1 - B_IMAGE/A_IMAGE                                       
         1 -11.6502     12.4679     72.0807   1.0148002761e+02   6.1139534127e+01     0.607793    0.5001261 -63.61  0.003904089    1.242    0.195
         2 -10.9200     50.8237     37.5020   7.2897851178e+01   6.3666776912e+01    0.8518528     0.649207  85.53  0.004058843    3.305    0.697
         3 -11.4421     39.6474     29.5254   7.4465048863e+01   6.6501761036e+01    0.4790305    0.3166347 -31.92  0.002210764    1.451    0.311
         4 -12.4920     44.7149     22.6946   6.9139239246e+01   6.6721404069e+01     1.000183    0.7980213 -47.11  0.006312125    1.785    0.440
         5 -11.6595     84.1100      3.8343   4.7217848144e+01   6.1359733100e+01    0.7870247    0.3484757  57.28  0.003102782    1.890    0.471
         6 -11.4480    143.5761      4.0235   3.6236530655e+01   4.7884590649e+01     1.017946    0.4042216  76.55  0.004368761    2.499    0.600
         7 -13.1272    175.3761     21.2568   3.6873615550e+01   3.8756041576e+01     1.786919     1.186504 -46.47   0.01025334    1.499    0.333
         8 -11.8707    165.5126     13.2687   3.5995119024e+01   4.1895024349e+01    0.9610296    0.3885772 -35.91  0.004478545    2.483    0.597
         9 -12.7491    165.8429      2.8421   3.3239290819e+01   4.2800559752e+01     2.259158    0.4643872  74.01  0.006936391    4.996    0.800
        10 -10.1447    116.1696     16.7279   4.4769325207e+01   5.3136597700e+01    0.5906354    0.2715326 -41.77  0.002708478    2.527    0.604
        11 -11.4084     78.3446     13.7014   5.2864049376e+01   6.1684722460e+01    0.5546737    0.3406708  -1.53  0.002752289    1.963    0.491
        12 -12.3328    155.9504     11.4244   3.6695389664e+01   4.4316098058e+01    0.9290381    0.6554228 -15.28  0.005409025    1.836    0.455
        13  -9.9072    128.1820     18.1660   4.2956951304e+01   5.0203999252e+01    0.3269604    0.2870119  59.35  0.001351233    1.033    0.032
        14  -9.5411    129.1908     12.9869   4.1131125830e+01   5.0465512214e+01     0.294983    0.2037776  32.90  0.001655644    1.653    0.395
        15  -9.4105    227.6891     15.8696   3.0633877770e+01   2.7871732166e+01    0.4660743    0.1938181 -80.13  0.002069396    2.982    0.665
        16  -9.5233     20.5112     14.0277   7.6879976525e+01   7.1135542329e+01    0.4618626    0.2310463 -15.40  0.002355776    2.352    0.575
        17 -11.0208    249.7957      7.1705   2.7487365734e+01   2.4508281541e+01    0.5721264    0.1669233 -37.70   0.00276708    2.866    0.651
        18  -9.3355    104.3969     11.2435   4.5299604898e+01   5.6320773347e+01    0.1613702    0.1158815 -37.57 0.0005363808    1.616    0.381
        19 -10.1570     38.3991      8.7358   6.5281264136e+01   6.9376861005e+01    0.5573202    0.2799979  11.05  0.002593153    2.820    0.645
        20 -10.3806     71.6122      5.8229   5.1514888056e+01   6.3758094229e+01     0.426955    0.2468771  56.74  0.002377196    1.630    0.386
        21 -10.7334     61.1026      2.6292   5.3404666143e+01   6.6065471122e+01    0.5083715    0.2976819  32.43  0.002967028    1.490    0.329
        22 -10.6856    131.0897      3.9254   3.7987232262e+01   5.0809885879e+01    0.6941027    0.2234137  57.83  0.002973909    2.387    0.581
        23 -10.9641    121.0126      4.2193   3.9692635223e+01   5.3124002681e+01    0.6252815    0.3432587  70.41  0.002675828    1.626    0.385
        24 -10.3837    111.8638      5.4877   4.1752137629e+01   5.5120406724e+01    0.4004622    0.2124995  66.26  0.002070064    1.653    0.395
        25 -10.3989    106.6923      4.9898   4.2578330163e+01   5.6331818850e+01    0.4039279    0.2619455 -85.89  0.002142202    2.044    0.511
        26  -9.8253    217.5989      1.9170   2.8541704491e+01   3.1451713852e+01    0.2478022    0.1192717 -81.35   0.00132028    1.996    0.499
        27 -10.9828     76.7230     23.6317   5.7471341734e+01   6.0955718675e+01    0.6479319    0.3460819  -6.71  0.002887244    2.736    0.635
        28  -9.0199     40.2315      1.8103   6.0933222132e+01   6.9801043764e+01    0.1677659    0.1098603  17.68  0.001061464    1.334    0.250
        29  -8.5961     17.4748      1.9484   7.2275467687e+01   7.3023768368e+01    0.1564022   0.09442614 -24.91 0.0005106619    1.528    0.346
        30 -10.5459    204.0397      4.0167   2.9990614671e+01   3.4116601522e+01    0.3358684    0.2035369 -86.78  0.001490058    1.441    0.306
        31  -8.5892    132.5124     26.9808   4.4959697315e+01   4.8252798574e+01    0.1737165    0.1109745  15.95 0.0008073967    2.354    0.575
        32 -11.1634     18.1756     74.3744   9.9595967494e+01   6.0225599796e+01    0.5842836    0.2610651 -41.27  0.002689606    1.928    0.481
        33  -9.2435      2.5249    230.4955   1.2232377264e+02   2.3814692480e+01    0.1178648   0.08825323  72.39 0.0008101252    1.011    0.011
        34  -9.3205    100.7355     83.6040   7.1261247322e+01   4.6481990378e+01    0.2885616    0.1815106 -32.31  0.001261514    1.714    0.417
        35  -9.6872    144.5872     80.6347   5.8665182101e+01   3.7415598725e+01     0.311821    0.2937089   5.49  0.001703437    1.169    0.144
        36 -10.2780      2.4854     87.1342   1.0867881096e+02   5.8266412836e+01    0.7457719    0.1797075 -67.39  0.002688762    3.315    0.698
        37  -9.4765    219.9945     77.4978   4.4652250995e+01   2.0985941855e+01     0.187573    0.1088661 -85.40 0.0008104297    2.539    0.606
        38  -9.0424    169.6562     76.1223   5.2232478633e+01   3.2370481095e+01    0.2599578    0.1985017  74.07  0.001315548    1.384    0.278
        39  -9.2846    215.3823     79.2642   4.5671796843e+01   2.1657017243e+01     0.263752    0.1521859 -48.46  0.001026859    1.539    0.350
        40 -10.4594     74.9422     69.4858   7.5308178140e+01   5.4146466818e+01    0.3893666    0.3298093  40.04    0.0021707    1.255    0.203
        41  -9.6019     83.5840     69.1091   7.2168457137e+01   5.2663104231e+01    0.2871128     0.207889  28.26  0.001310136    1.403    0.287
        42  -9.5980     45.5059     61.9847   8.4270950304e+01   6.0081298361e+01    0.3199454    0.2175161 -38.72  0.001743536    1.330    0.248
        43  -8.5210    200.0000     63.9509   4.4226261362e+01   2.7418654251e+01     0.224861   0.07266428 -36.85 0.0008048165    2.959    0.662
        44  -9.4605    218.4021     61.7976   4.1340385214e+01   2.3763633955e+01    0.1810861    0.1202626 -30.49 0.0009546836    1.696    0.410
        45  -9.3707    190.5215     86.4879   5.1185543407e+01   2.5806097635e+01    0.2137585     0.139636  72.27 0.0009924965    1.782    0.439
        46  -9.4756    138.5700     57.1383   5.3076909143e+01   4.2803561497e+01    0.3369271     0.232774 -56.88  0.001631802    1.655    0.396
        47  -9.6053    198.3165     55.1574   4.2346970917e+01   2.9116322853e+01     0.247004    0.1976681 -23.88  0.001385986    1.532    0.347
        48  -9.6134     66.2737     53.8034   7.3028688169e+01   5.8514362333e+01    0.3616404     0.180956 -46.09  0.001605764    2.177    0.541
        49  -9.2276    164.8625     53.6793   4.7017085985e+01   3.7081035307e+01    0.2401854    0.2006395 -20.04  0.001330137    1.427    0.299
        50  -9.1331     35.1360     52.7061   8.5634319681e+01   6.3137529215e+01    0.1912804    0.1609295  35.51   0.00118921    1.453    0.312
        51  -9.1817    215.2460     50.4315   3.9168779236e+01   2.6088106883e+01    0.2346137    0.1135253  61.44  0.001129085    2.106    0.525
        52 -10.2925     85.1964     48.2106   6.4293521026e+01   5.5959327566e+01    0.5918947    0.3758468  53.38  0.002917873    1.713    0.416
        53 -10.2827     82.6532     41.4474   6.2595113640e+01   5.7472667284e+01     0.715814    0.3620419 -15.14  0.002745297    3.252    0.693
        54  -9.8913     80.8599     36.9860   6.1467207500e+01   5.8453883075e+01    0.3907457    0.2771213 -16.11  0.002141303    1.514    0.340
        55  -8.2856     96.3437     47.3076   6.0509368713e+01   5.3818927171e+01     0.146112    0.1012497  19.49 0.0007043467    1.694    0.410
        56 -10.7758      3.2787     40.7496   9.7189269198e+01   6.8201622067e+01    0.4164216    0.3798553 -54.36  0.002584337    1.371    0.271
        57  -9.6756      6.1144     35.2031   9.3810236099e+01   6.9053943001e+01    0.2594267    0.1659003  29.71   0.00136558    1.883    0.469
        58  -9.4119    248.5176    223.4943   6.9835236485e+01  -8.4989237142e+00     0.120349   0.09263641 -11.94 -2.35401e-05    1.026    0.026
        59 -11.5994    201.4226    222.1940   7.8274114292e+01  -2.0705049137e+00    0.3298417    0.2277811  -0.73  0.001831874    1.491    0.329
        60 -10.6589    196.7548     34.6322   3.7644572555e+01   3.2269922044e+01    0.3701178    0.1897113  52.39  0.001786236    2.196    0.545
        61  -9.4300     97.1617     36.5668   5.6382363112e+01   5.5146765381e+01    0.2155237    0.1642903 -17.61 0.0009736125    1.426    0.299
        62  -9.5880     12.0143     34.1482   9.0256678401e+01   6.8799767026e+01    0.3615418    0.1468578 -46.94  0.001486009    2.077    0.519
        63 -10.7882    189.4964    219.6822   8.0235624991e+01   1.2342297696e-01    0.3204993    0.1164359  39.65   0.00126717    2.765    0.638
        64 -10.3919     86.1500     31.6970   5.7751928671e+01   5.8084386925e+01    0.2647721    0.2459829  83.94  0.001619476    1.356    0.262
        65 -10.8760     89.9356     28.2076   5.5290365168e+01   5.7724192577e+01    0.3863594    0.3138376  40.12  0.002337207    1.085    0.078
        66  -9.9045     66.5792     29.6812   6.3443665534e+01   6.2140137833e+01    0.2458735    0.1205121 -24.70  0.001139121    2.274    0.560
        67  -9.0784    227.5135     28.5198   3.3230119011e+01   2.6408839496e+01    0.1231933   0.09608038 -69.55 0.0002162242    1.023    0.022
        68 -10.5008    147.8462     27.8936   4.2560090834e+01   4.4511215091e+01    0.4407005    0.2355677  70.93  0.002088501    1.800    0.444
        69 -10.9823    208.6396    216.8841   7.5924257299e+01  -2.2227044908e+00    0.2837639    0.2302524 -74.72   0.00156181    2.260    0.558
        70 -11.1037    182.3084    217.0482   8.1262716972e+01   1.6932515149e+00     0.384007    0.2256589  -7.08  0.001635317    2.591    0.614
        71  -9.8639    243.3270    200.3388   6.6566827914e+01  -4.3288611226e+00      0.22226    0.1884556 -70.12   0.00135431    2.063    0.515
        72  -9.6913    203.1344    196.8296   7.3307051396e+01   2.1125793928e+00    0.1984102    0.1491824  -7.99  0.001083526    1.339    0.253
        73  -9.7856    196.2066    186.3814   7.2669494477e+01   5.1883742512e+00    0.1930534    0.1302665  45.57 0.0007364674    1.702    0.413
        74  -8.6630     97.7730     26.8203   5.2616191260e+01   5.6208216299e+01    0.2323652    0.1210657  24.66 0.0009503441    2.816    0.645
        75  -8.8419    102.9822     26.2370   5.1072791368e+01   5.5129632862e+01        0.196    0.1572885  49.91 0.0008733205    1.104    0.094
        76 -10.5849    220.1072    155.8739   6.1859750747e+01   6.9166381863e+00    0.3482892    0.2789551  48.31  0.001969419    1.483    0.326
        77  -9.1912    111.5169     16.5039   4.5648939332e+01   5.4223688481e+01    0.2409662    0.1684025  52.70 0.0008640361    1.229    0.186
        78  -9.2746     20.7909    155.5990   1.1233043362e+02   3.9927014161e+01     0.179888    0.1151595  42.88 0.0007642509    1.658    0.397
        79 -11.5400     10.7879    141.6976   1.1360427243e+02   4.4270616707e+01    0.4428172    0.2969123 -60.26  0.002494204    1.292    0.226
        80  -9.3889     53.7242    143.3221   1.0093921579e+02   3.9672144514e+01    0.2556594    0.2181273  79.62 0.0009338723    1.222    0.181
        81  -9.4006     40.2405    140.6116   1.0462048353e+02   4.1932251568e+01    0.2796273    0.1667749 -79.58  0.001280461    1.730    0.422
        82  -9.6991     94.4899     17.3246   4.9887628481e+01   5.7935766288e+01    0.3523425    0.2262346  78.04  0.001777628    2.104    0.525
        83 -13.0369    241.9319    126.3781   5.2159391263e+01   8.4954150502e+00     1.215833     1.160837 -71.97  0.008082886    1.204    0.170
        84  -9.8958     70.2209     12.6054   5.4900282805e+01   6.3408110971e+01    0.1927699    0.1428324  38.22  0.001156658    1.133    0.118
        85 -10.2640     64.8139     16.1521   5.8264918536e+01   6.4075539679e+01      0.25143    0.1673159  57.93  0.001413709    1.760    0.432
        86 -10.3046     17.8077    127.2811   1.0964198392e+02   4.7425266224e+01     0.288243     0.174048  65.97  0.001396659    2.032    0.508
        87 -10.8731     11.3171    124.1917   1.1128453704e+02   4.8676833687e+01    0.3369332    0.2057206 -57.35  0.001806997    1.366    0.268
        88 -10.5918    189.2988    116.5698   5.8737634957e+01   2.0440515015e+01    0.5241317    0.2870519 -26.39  0.002003516    2.484    0.597
        89  -8.6330     73.5022    118.5027   8.9627829986e+01   4.3323278360e+01     0.151792    0.1409141 -43.54 0.0008106194    1.018    0.018
        90  -9.2475    148.6013    111.8477   6.6276152719e+01   3.0270946838e+01    0.2258503    0.1429786 -54.33 0.0007652031    1.681    0.405
        91 -11.6809    242.8160    109.2146   4.8464510980e+01   1.1294964788e+01    0.5059385     0.347705 -58.43  0.002830325    1.445    0.308
        92  -9.3463    108.7843    108.3902   7.5978946422e+01   3.9491137606e+01     0.225338    0.1487436  29.13 0.0009539268    1.719    0.418
        93 -10.0223     17.1167    104.6159   1.0630817426e+02   5.3168807403e+01    0.2973105    0.2747144 -72.52  0.001879711    1.133    0.117
        94  -9.6757     68.5192    105.7041   8.8186346489e+01   4.7221659912e+01    0.2973297    0.2249902  62.59  0.001047508    1.704    0.413
        95  -9.4510     30.6988    101.8300   1.0083973494e+02   5.2742683351e+01    0.2855313    0.1713133 -40.49  0.001287433    1.568    0.362
        96  -8.6599    208.6473     94.2271   5.0101662473e+01   2.0526723969e+01    0.2041996     0.124023 -33.26 0.0009515907    1.695    0.410
        97  -9.0434    178.8268     93.1712   5.4952258344e+01   2.7216844553e+01    0.2016662    0.1829619   6.85  0.001085424    1.327    0.246
        98 -12.5145     42.8406     81.7357   9.1358006722e+01   5.6225811576e+01      1.17606     0.849359 -31.38  0.005318218    1.301    0.231
        99 -10.6241     25.3425     65.5843   9.4139933455e+01   6.1547310658e+01    0.6659195    0.2386962 -46.31  0.002855982    2.252    0.556
       100 -11.7597      4.3542     76.1763   1.0582952957e+02   6.0700408755e+01    0.7338498    0.5256473  48.56  0.004213803    1.857    0.462
