#   1 NUMBER                 Running object number                                     
#   2 MAG_AUTO               Kron-like elliptical aperture magnitude                    [mag]
#   3 X_IMAGE                Object position along x                                    [pixel]
#   4 Y_IMAGE                Object position along y                                    [pixel]
#   5 X_WORLD                Barycenter position along world x axis                     [deg]
#   6 Y_WORLD                Barycenter position along world y axis                     [deg]
#   7 A_WORLD                Profile RMS along major axis (world units)                 [deg]
#   8 B_WORLD                Profile RMS along minor axis (world units)                 [deg]
#   9 THETA_WORLD            Position angle (CCW/world-x)                               [deg]
#  10 FWHM_WORLD             FWHM assuming a gaussian core                              [deg]
#  11 ELONGATION             A_IMAGE/B_IMAGE                                           
#  12 ELLIPTICITY            1 - B_IMAGE/A_IMAGE                                       
         1 -10.2574     16.9791     59.9742   1.2669894635e+02   6.1511489856e+01    0.7834495    0.5468407 -37.85  0.005351256    1.148    0.129
         2 -11.3936     24.0032     32.1093   1.1554895001e+02   6.5891431153e+01     2.164562    0.4454012 -38.35  0.007811379    4.462    0.776
         3 -10.1980     10.0055     18.9728   1.1679133514e+02   6.9042953008e+01     1.015326    0.3873721 -16.90  0.003787022    5.560    0.820
         4 -10.6055     18.5229      6.1197   1.0768482989e+02   7.0114285877e+01    0.6952795    0.5759612 -54.36  0.003824729    2.300    0.565
         5 -10.6689      6.7042     29.9567   1.2208644619e+02   6.7540231201e+01    0.6029602     0.295308 -47.06  0.002956116    1.599    0.375
         6 -10.5056      5.1631      4.6761   1.1332213717e+02   7.1423846211e+01     0.483173    0.3241293   0.69  0.001538149    1.305    0.234
         7 -10.2707     69.3666     40.5572   1.0143646207e+02   5.9130034038e+01     1.165627    0.3387515 -37.29  0.002294275    3.301    0.697
         8 -10.1773     60.7881     31.8483   1.0119677927e+02   6.1676672671e+01    0.9383826     0.433488 -22.29  0.003607603    2.618    0.618
         9  -9.9655     63.8353      3.2175   8.8473729834e+01   6.4592956829e+01    0.5769764    0.3304479 -35.35   0.00338884    2.097    0.523
        10 -10.0047     76.1407     31.7632   9.5916557175e+01   5.9307728968e+01    0.3866952    0.3365588 -87.02  0.001304814    1.946    0.486
        11  -9.9875     64.4547     13.4073   9.2564157836e+01   6.3451242042e+01     0.386341     0.292174   0.80 0.0003805472    1.140    0.123
        12 -10.3017     79.3620     23.9200   9.1888049590e+01   5.9764139849e+01    0.8895485    0.2775477  36.55  0.002485968    3.533    0.717
        13  -9.6160    100.9502     32.5133   8.8706776037e+01   5.4676370014e+01     0.618374    0.3131349 -24.04  0.002879285    2.160    0.537
        14  -9.7296     63.0488     21.4151   9.6316177606e+01   6.2729498058e+01    0.4217687    0.2691738 -44.48  0.002092011    2.099    0.523
        15  -9.4487      2.3308     14.5997   1.1864903427e+02   7.0218678122e+01    0.3808212    0.1906563 -56.50  0.001988433    2.774    0.640
        16 -10.8543     37.5617      9.9156   1.0113548758e+02   6.7603992866e+01    0.8428146    0.4900668 -45.88  0.003297021    2.631    0.620
        17 -10.2651     50.6638     15.4376   9.8359167589e+01   6.5251486039e+01     1.134616    0.5656924   2.22  0.005002896    3.340    0.701
        18 -10.0820     46.2246     29.5003   1.0569820009e+02   6.3954596753e+01    0.4163186     0.216545 -45.53  0.001035233    2.194    0.544
        19  -9.4176    118.7213     21.8349   8.0419668218e+01   5.2217784985e+01    0.3640255      0.23674 -20.60  0.001198595    1.688    0.408
        20  -8.7784    120.4449     15.7307   7.7936383310e+01   5.2473956375e+01    0.3851494    0.2157498  17.52  0.001763285    2.442    0.590
        21  -9.1497    123.8376      5.5064   7.3756102914e+01   5.2664328522e+01    0.5943434    0.2074573  52.77  0.002567232    2.226    0.551
        22  -8.7119    124.9175     13.1072   7.6086864706e+01   5.1734618020e+01     0.239823    0.1846043 -30.92 0.0007721949    1.470    0.320
        23  -8.3944    126.9816      9.0077   7.4296753015e+01   5.1651061354e+01    0.2605967    0.1596723  35.38 0.0004845238    1.617    0.382
        24  -9.2294    110.5226      6.0048   7.6751165842e+01   5.5527867296e+01     0.470644    0.2364041  -4.56  0.002191342    2.682    0.627
        25  -8.9263    115.1067      4.2485   7.5128087653e+01   5.4692292774e+01    0.2657765     0.198918 -39.22 0.0007778133    1.616    0.381
        26  -8.7733    112.2469     15.5813   7.9753376489e+01   5.4269357377e+01    0.2851001    0.1963641 -31.47 0.0005799668    1.619    0.382
        27  -9.3119    113.8303     10.2540   7.7511005220e+01   5.4441120810e+01    0.4489209    0.1857686  38.94 0.0003529766    2.388    0.581
        28  -9.3195    102.9561     20.6675   8.3883981088e+01   5.5676227415e+01    0.4188404    0.2029245 -28.06  0.001287579    2.175    0.540
        29  -7.8407    105.0063     14.4887   8.1112970638e+01   5.5899359214e+01    0.2235158    0.1519394  21.03 0.0008545638    1.504    0.335
        30  -8.6478     71.9551      8.6057   8.8111790919e+01   6.2724623070e+01    0.3017328    0.1727148 -10.36   0.00132347    1.832    0.454
        31  -8.6209     78.5082      3.0372   8.3832744033e+01   6.2097902336e+01    0.2428074    0.1870973 -39.27 0.0009149855    1.721    0.419
        32  -9.7630     73.4221     18.2522   9.1557245777e+01   6.1445894701e+01    0.5843288    0.1973817 -34.39  0.002427782    3.017    0.669
        33  -9.0737     76.1416      8.2080   8.6647483386e+01   6.2040429603e+01    0.5054868    0.2433926  -6.72  0.002367624    2.749    0.636
        34  -9.4880    133.3315     12.1391   7.4073790266e+01   4.9913838643e+01    0.3475185    0.2089231 -40.04  0.001809314    1.932    0.482
        35  -9.2346     96.2030     15.1327   8.3621401978e+01   5.7612376696e+01    0.6738369    0.2262668 -20.85  0.002576296    3.737    0.732
        36  -8.3045     97.6907      5.6899   7.9682510053e+01   5.8209309189e+01    0.2487828    0.1537148  30.07 0.0005302928    1.508    0.337
        37  -8.7249     95.8665      2.8470   7.9064240722e+01   5.8816499426e+01    0.2744284    0.1773124  26.80 0.0009458972    1.448    0.309
        38  -9.6070     85.1915     13.0817   8.5902036272e+01   5.9925322397e+01    0.3622518    0.2515402 -53.92  0.001805125    2.375    0.579
        39  -9.6535    233.2829     11.0105   6.0334047267e+01   2.6081805784e+01    0.3779776    0.2279447 -41.45  0.001417306    1.642    0.391
        40  -8.2638    141.1305     12.3881   7.2687220074e+01   4.8076444291e+01    0.2166409    0.1815938  12.30  0.001319504    1.339    0.253
        41  -7.9707     80.4536     12.5321   8.7082618639e+01   6.0844257665e+01    0.2291576    0.1105837 -27.58  0.001178764    2.121    0.529
        42  -8.6123    137.6701      9.3491   7.2362786314e+01   4.9169391987e+01    0.1985687    0.1484591 -73.14  0.001107927    1.694    0.410
        43  -8.4656    102.1933      8.5330   7.9625461717e+01   5.7043737507e+01    0.2274071    0.1903739 -65.96 0.0007247864    1.694    0.410
        44  -8.2283     85.3695      6.2226   8.3152177454e+01   6.0552737890e+01    0.3650197    0.1523351  31.23  0.001619691    2.634    0.620
        45  -8.9328     88.9938      2.9641   8.0881857844e+01   6.0151707096e+01    0.4056992     0.261615  60.52  0.001861763    1.714    0.417
        46  -7.4432    205.4092      5.8344   6.1914788117e+01   3.3184364226e+01    0.1458617    0.1271828  -3.62 0.0004287226    1.569    0.363
        47  -8.6412    131.7378      5.7609   7.2312105081e+01   5.0856187827e+01     0.369265    0.1400056  45.23  0.001572275    2.370    0.578
        48  -7.9457    135.8181      1.5235   7.0217172883e+01   5.0273299704e+01    0.2885664    0.1101176  52.51 0.0008536897    2.073    0.518
        49  -8.0367    143.0681      5.0288   7.0063034993e+01   4.8292026725e+01    0.1930433    0.1445465 -69.78 0.0004893299    1.627    0.385
        50  -8.4752    104.3332      2.4493   7.6878934215e+01   5.7126692326e+01    0.3062092      0.16181  37.65  0.001227278    1.698    0.411
        51  -7.6657    178.2148    119.0284   9.5624738131e+01   2.2051841267e+01    0.2058996    0.2001624 -45.11  0.001076711    1.038    0.037
        52  -9.3405    215.7786    249.7680   1.1446838269e+02  -9.0655973285e+00    0.2298263    0.1261234  35.79  0.001011377    1.514    0.339
        53 -10.1273     91.9491    113.3232   1.1594549446e+02   4.1426355071e+01    0.6109843    0.4411625 -83.84  0.001641701    1.862    0.463
        54  -8.7375     92.5876    103.7088   1.1338713684e+02   4.3470161314e+01    0.6595063    0.4151743  16.65  0.002823579    2.352    0.575
        55  -8.4449    235.1856    116.0747   8.4052515330e+01   9.5712695390e+00    0.3090833    0.1852325 -47.94  0.001114569    1.610    0.379
        56  -9.0467    249.2552    115.7316   8.1727336505e+01   6.6712993403e+00     0.231035    0.2137548 -28.97 0.0002387804    1.096    0.088
        57  -8.2858    152.6669    115.9654   1.0066326153e+02   2.8628461849e+01    0.2783235    0.2255996  17.65 0.0008737844    1.520    0.342
        58  -9.0110     21.5594    115.0311   1.3628663128e+02   4.9585778532e+01    0.3721583    0.1455359 -75.28  0.001559693    2.813    0.644
        59  -7.6177      1.1824    116.0161   1.4187446596e+02   5.0770728535e+01    0.1651878   0.06737199 -69.67 0.0008502171    1.835    0.455
        60 -10.0764     78.0739    112.5034   1.1970544667e+02   4.3804253604e+01    0.7276728    0.3546624 -63.62  0.002763519    2.349    0.574
        61  -7.6309    167.3896    114.1911   9.6787894256e+01   2.5593077004e+01    0.2223974    0.1453086 -53.45 0.0004292473    1.629    0.386
        62 -10.4227     62.8022     95.6893   1.2028204584e+02   4.9675351603e+01    0.6944659    0.3763077 -71.64  0.001552843    2.841    0.648
        63  -8.7868     64.5131     86.3519   1.1738529805e+02   5.1447580532e+01    0.6061593    0.3473887  -7.34   0.00238421    3.432    0.709
        64  -8.4345     68.5017    102.5114   1.2018714571e+02   4.7418696036e+01     0.378577    0.2319563 -48.20  0.001903978    1.450    0.310
        65 -10.2038     65.8067    110.3517   1.2277327330e+02   4.6018515117e+01    0.8388758     0.516652 -82.81  0.002097989    2.463    0.594
        66  -9.2396     59.7858    110.0030   1.2445464818e+02   4.6870842648e+01    0.5245833    0.3585563  81.43  0.002418817    2.114    0.527
        67  -9.4609     14.2318    111.4464   1.3774888370e+02   5.0931957963e+01    0.3883152    0.2201547  78.08  0.002015912    2.424    0.587
        68  -8.6283     14.1581    105.0967   1.3678229274e+02   5.2336459294e+01    0.2276236    0.1174745 -49.11 0.0008942033    1.645    0.392
        69  -8.6782    158.8269    111.9444   9.8170009806e+01   2.8060536240e+01    0.2783749    0.2521949 -34.42  0.000654044    1.139    0.122
        70  -8.7473    150.0593    110.7150   9.9927654916e+01   3.0336718681e+01    0.4158266    0.2202619 -53.80  0.001559203    2.136    0.532
        71  -9.1226    141.8116    111.5071   1.0215445916e+02   3.2023536229e+01    0.5956765    0.3084457  31.41  0.002058581    2.765    0.638
        72  -8.7936     36.1718    111.7689   1.3164181290e+02   4.9052540892e+01    0.2677914    0.1789959   0.69  0.001438748    2.140    0.533
        73  -7.2062    203.3030    111.3474   8.8594108043e+01   1.7662698986e+01    0.1550698      0.12311   5.75 0.0003573257    1.692    0.409
        74 -10.8998     20.7765    100.9635   1.3417215331e+02   5.2765300801e+01     1.121194    0.6201205  79.89  0.003625798    3.112    0.679
        75 -10.0411     19.3920     86.2881   1.3183550894e+02   5.6026143311e+01    0.9150412    0.1566655 -54.98  0.003450419    3.328    0.699
        76 -10.8980     44.6067    102.4168   1.2735005808e+02   5.0311118430e+01    0.7819715     0.442593  74.41  0.003075601    3.913    0.744
        77  -8.4380     39.9591    107.0938   1.2966949129e+02   4.9738332329e+01    0.1876711    0.1546116 -78.86 0.0004682149    1.236    0.191
        78  -9.8584    139.6887    103.6700   1.0060503110e+02   3.4154944719e+01    0.7186939    0.3510576 -40.63  0.001287024    2.080    0.519
        79  -9.5682      6.3232    103.9038   1.3881204790e+02   5.3104565599e+01    0.3831916    0.2254224  79.39  0.002012491    2.219    0.549
        80  -8.5397    165.9929    104.1009   9.4470462714e+01   2.7985089385e+01     0.311146    0.2164533 -48.20 0.0004411806    1.453    0.312
        81  -9.5555    149.5645    103.3479   9.8091065298e+01   3.1986690969e+01    0.4706047      0.29618 -56.85  0.001041505    1.826    0.452
        82  -8.7573    149.4640     97.5250   9.6533180318e+01   3.3195527218e+01    0.4720651    0.3392088  21.93  0.002045876    1.839    0.456
        83  -8.9439     35.8830    104.6276   1.3039216065e+02   5.0681674285e+01    0.2187835    0.1268451 -64.99  0.000753818    1.510    0.338
        84  -8.1237     73.8020    102.3065   1.1855451406e+02   4.6721827718e+01    0.3311677    0.1687608 -53.15  0.001484025    1.778    0.438
        85  -9.2851    158.9368    100.4790   9.5108138431e+01   3.0385770863e+01    0.5657113    0.1973174 -43.98 0.0008704519    2.871    0.652
        86  -9.4032     81.4387    100.0430   1.1572035214e+02   4.6081675406e+01    0.4434632    0.2715624 -67.38 0.0008086208    2.078    0.519
        87  -7.8495     83.3338     93.4376   1.1343908258e+02   4.7213262788e+01    0.3503858    0.1850685  13.38  0.001135552    4.413    0.773
        88  -9.3222     94.2865     97.2901   1.1121985858e+02   4.4575949475e+01    0.3330075    0.2826705 -69.60 0.0007535623    1.319    0.242
        89  -8.6230     95.6785     91.3883   1.0920821419e+02   4.5583397853e+01    0.4978466    0.2974854  -9.22  0.001731992    3.655    0.726
        90  -7.7613    239.3034     96.6537   7.8918742360e+01   1.2112221360e+01    0.1514665    0.1031341 -66.47 0.0003113501    1.690    0.408
        91 -10.4548     31.7417     64.5809   1.2259562511e+02   5.9456551048e+01     1.112279    0.4520728 -28.80  0.004040343    3.572    0.720
        92 -10.3966     25.9130     78.2596   1.2799911315e+02   5.7208152998e+01    0.6637377    0.4072826 -87.97   0.00183949    2.826    0.646
        93 -10.4156      4.4826     86.9868   1.3662345335e+02   5.6825608521e+01      1.27018    0.3316087 -64.11  0.004163477    2.776    0.640
        94  -9.9191     15.7922     70.6905   1.2969796208e+02   5.9489481191e+01    0.6478419    0.2418805 -44.04  0.002006367    2.130    0.531
        95  -9.7277    175.8996    249.1084   1.2177443555e+02  -2.3423034206e+00    0.2852241    0.1828049  26.14  0.001569993    1.673    0.402
        96  -9.7476    161.6914    247.3883   1.2421128907e+02   3.6573892799e-01    0.3458123    0.2132245 -26.65  0.001733729    2.650    0.623
        97 -11.0381    199.5862    249.3779   1.1738730949e+02  -6.3763205624e+00    0.7222061    0.3435174  43.29   0.00365659    1.797    0.443
        98  -7.5737     75.3582    250.2953   1.4040634129e+02   1.3847053115e+01   0.09896518   0.09310743  23.52  0.000703247    1.699    0.412
        99 -10.1062     34.4644     90.8128   1.2801143761e+02   5.3837352719e+01    0.5293565     0.266581 -75.02  0.001611414    2.817    0.645
       100 -10.0615     36.9254     80.9616   1.2497957092e+02   5.5692457898e+01    0.9383202    0.4407641 -16.39  0.003302357    5.072    0.803
       101 -10.8600     21.8418     53.5040   1.2316258576e+02   6.2373749233e+01    0.7326658    0.4556587 -82.40  0.002978061    3.800    0.737
       102  -7.6221    118.0094    242.2629   1.3182456220e+02   8.6852465664e+00    0.1570327   0.09288903  46.02  0.000218229    1.422    0.297
       103  -8.2727    171.3161    241.6961   1.2156090473e+02  -4.0118038908e-01    0.1257799    0.0926063  65.55 0.0003119942    1.622    0.384
       104 -10.0687     13.2116     45.3351   1.2414534669e+02   6.4480156588e+01    0.6217853     0.301581 -17.33  0.002548879    2.507    0.601
       105 -10.2738      4.6156     42.6532   1.2678024004e+02   6.5488907098e+01    0.5752546    0.2886029 -56.13  0.002242847    1.708    0.415
       106  -9.0375    164.5319     93.8819   9.2051664268e+01   3.0354694608e+01    0.4650639    0.2775808 -35.63  0.001035497    1.762    0.432
       107  -7.6166    202.9821     93.7166   8.4245914492e+01   2.1048590628e+01    0.2038579    0.1889794  73.66  0.000170202    1.075    0.070
       108  -9.7912    138.9444     92.0046   9.7575970026e+01   3.6703829609e+01    0.6818718    0.3954134 -41.90  0.002035157    1.726    0.421
       109  -9.3440    157.2646     91.4001   9.3011915218e+01   3.2573152973e+01    0.2965754    0.2457578 -63.98 0.0007826012    1.318    0.241
       110  -9.3821    111.4368     89.4909   1.0415344994e+02   4.3036326979e+01    0.7229775    0.3841083  22.93   0.00246539    3.397    0.706
       111  -7.6446     78.2200     89.9866   1.1407161270e+02   4.8737100154e+01    0.1923624    0.1048104 -49.16 0.0008757643    1.687    0.407
       112 -10.4499     48.1306     83.5208   1.2193078882e+02   5.4019635064e+01      1.04115    0.3928759 -51.29  0.003597244    2.177    0.541
       113 -10.5505     55.2383     71.0181   1.1622146679e+02   5.5734619987e+01    0.5797896    0.3904828  52.76  0.001282113    2.149    0.535
       114  -9.1624     54.5105     63.3072   1.1420241279e+02   5.7300802426e+01    0.5501235    0.2975998  30.09  0.002864623    2.019    0.505
       115 -10.2602     62.8750     60.6953   1.1051103326e+02   5.6704041439e+01    0.8085305    0.2789998  32.27  0.003211287    3.260    0.693
       116  -8.1763    174.5185     89.0359   8.8579854557e+01   2.8855032763e+01    0.2334401    0.1516898 -40.82 0.0005995411    1.546    0.353
       117  -8.7989    150.6161     88.9103   9.3864878126e+01   3.4624786475e+01    0.2900795    0.2330837 -53.46 0.0007217655    1.302    0.232
       118 -10.1004     85.2210     86.6236   1.1100874184e+02   4.8340156089e+01    0.4415155    0.3422117 -70.73 0.0008502082    1.636    0.389
       119  -9.4146     87.4071     78.6225   1.0804216616e+02   4.9593824936e+01    0.5985733    0.3328839  21.65  0.001877911    2.535    0.605
       120  -9.1885     83.1919     64.9381   1.0516549662e+02   5.2881739677e+01    0.5955898    0.3472892 -12.57  0.002465471    2.745    0.636
       121  -8.2079    163.5254     86.8499   9.0341683255e+01   3.1938585016e+01    0.3544328    0.1480242 -41.62 0.0008675306    2.396    0.583
       122 -10.2664    103.8459     82.4753   1.0428020094e+02   4.5906033026e+01      0.51669    0.2960801 -52.68 0.0009118943    1.937    0.484
       123  -9.8366     81.5786     72.4919   1.0802245090e+02   5.1737515788e+01    0.3846626    0.3093567 -82.37   0.00102828    1.871    0.466
       124  -9.1352    157.5232     83.0339   9.0611953679e+01   3.4095923763e+01    0.4394822    0.2410529 -41.44  0.001446003    1.842    0.457
       125  -8.6432    157.0777     76.6198   8.8886208773e+01   3.5369026961e+01    0.3871875    0.2582268 -66.15  0.001116115    2.025    0.506
       126  -9.1056    140.3585     82.2015   9.4419443034e+01   3.8281233953e+01    0.6199002    0.3023408 -36.80  0.001267978    2.133    0.531
       127  -8.9503    139.9662     75.5791   9.2572532390e+01   3.9592490262e+01    0.4746855    0.2666602 -33.40  0.001186201    1.901    0.474
       128  -8.8433    119.0388     80.5450   9.9448935066e+01   4.3263541217e+01    0.3730997    0.2650458 -64.42 0.0007480945    1.860    0.462
       129  -8.0400    119.9838     75.9950   9.7828917543e+01   4.3923695922e+01    0.2329632    0.1975879   4.99 0.0006873584    1.296    0.228
       130  -7.4693     63.4181     82.1563   1.1661671047e+02   5.2463313844e+01    0.1803204    0.1189254 -60.95 0.0008071698    1.669    0.401
       131  -8.4936    149.8775     80.7806   9.1725136020e+01   3.6332647330e+01     0.280537    0.2173079 -52.19 0.0005148892    1.368    0.269
       132  -9.0191     74.1364     80.3352   1.1268302240e+02   5.1340034139e+01    0.3327567    0.2187013 -62.78 0.0007001166    1.891    0.471
       133  -7.8573     75.0580     74.7078   1.1076034230e+02   5.2320993406e+01    0.3185148     0.200288 -11.39  0.001448503    2.287    0.563
       134  -8.3710    242.5114     80.5163   7.4752853213e+01   1.4133268351e+01    0.1423907    0.1245673 -63.54 3.035862e-05    1.028    0.028
       135  -7.8411     68.5954     79.7347   1.1428331076e+02   5.2256335461e+01    0.2661145    0.1126909 -45.16  0.001130322    2.103    0.525
       136  -8.4801    166.1537     78.6315   8.7480251397e+01   3.2805134597e+01    0.2549929    0.2039468 -51.44  0.000618038    1.292    0.226
       137  -7.9316    184.2094     78.1485   8.3697022302e+01   2.8438487579e+01    0.2202135    0.2051642  24.37 0.0005068073    1.208    0.172
       138  -7.0868    174.2869     78.6747   8.5799959533e+01   3.0799369951e+01    0.1561411    0.1170675 -73.10 0.0003076881    1.607    0.378
       139  -9.4283    127.3638     75.2733   9.5655960955e+01   4.2474933288e+01    0.3924777    0.2770747 -64.88 0.0007599199    1.915    0.478
       140  -8.9218    128.7215     69.3887   9.3516439532e+01   4.3230742540e+01     0.557335    0.3133696  20.98   0.00193153    3.312    0.698
       141  -8.0611    130.3657     64.2322   9.1508670629e+01   4.3750276376e+01     0.348635    0.1709086 -37.78  0.001118155    2.082    0.520
       142  -8.0958    149.9954     74.9379   9.0004952320e+01   3.7363031028e+01    0.3785525    0.1935539 -44.45  0.001239676    2.034    0.508
       143  -9.3420    146.9324     69.2287   8.9032039098e+01   3.9085688403e+01    0.4539445     0.268536 -54.21 0.0009394165    2.074    0.518
       144  -8.1971    147.6201     63.6935   8.7222822981e+01   3.9852392150e+01    0.3513689    0.1659356  43.69  0.001354265    2.171    0.539
       145  -8.6112    162.6321     73.1453   8.6681085938e+01   3.4632095304e+01    0.3255181    0.2297382 -63.35 0.0009605638    1.718    0.418
       146  -9.3374    105.3738     70.8062   1.0030901257e+02   4.7833048464e+01    0.6885478     0.363388 -30.37  0.002481844    2.127    0.530
       147  -9.0121    115.1443     71.9535   9.7913519120e+01   4.5672246707e+01    0.4895362    0.2248801 -33.70  0.001379739    2.368    0.578
       148  -8.7951    187.0211     71.7727   8.1457163259e+01   2.8835032236e+01    0.2251274    0.2104474 -47.67 0.0002920449    1.100    0.091
       149  -8.6231    169.3763     71.0346   8.4675318901e+01   3.3338398333e+01    0.3117425    0.1443628 -36.96 0.0005947605    2.216    0.549
       150  -8.1844    156.6941     70.1721   8.7110945958e+01   3.6588047151e+01    0.2296275    0.1833603 -57.36 0.0005605938    1.366    0.268
       151  -9.7047     94.7005     67.8763   1.0253760963e+02   5.0363422387e+01    0.5132977    0.2488397 -45.75  0.001249712    2.110    0.526
       152  -8.1448     95.3074     61.3215   1.0025520815e+02   5.1414610929e+01     0.275609    0.1973615   7.12 0.0008943241    1.673    0.402
       153  -9.0178     97.7943     57.8027   9.8357920861e+01   5.1551609986e+01    0.4530641     0.274907   6.32  0.001864401    2.718    0.632
       154  -7.8755     23.0300     69.2245   1.2685289254e+02   5.9263136417e+01    0.1565097    0.1294417 -37.20 0.0003528893    1.072    0.067
       155  -9.1492    121.1930     66.1034   9.4460396413e+01   4.5439405882e+01    0.4094293    0.2507968 -52.80 0.0009975064    1.999    0.500
       156  -8.1446    122.3445     61.2693   9.2634148204e+01   4.6009265468e+01    0.2825882    0.1952593  30.03 0.0006306794    1.570    0.363
       157  -8.9093    137.9596     66.4051   9.0304918461e+01   4.1660364661e+01    0.3269662    0.2935095 -45.63  0.001017315    1.168    0.143
       158  -8.6634    138.3462     62.3147   8.8962102656e+01   4.2253449776e+01    0.3709124    0.2038219  36.02  0.001466106    2.103    0.525
       159  -8.0140     75.5619     66.5858   1.0813274876e+02   5.3791774858e+01     0.225965    0.1214781 -53.30 0.0008553766    2.173    0.540
       160  -7.6347    170.3592     65.2849   8.2858199219e+01   3.4054359893e+01     0.154495    0.1132156  29.31 0.0007020587    1.677    0.404
       161  -9.2426    109.7168     63.7220   9.6838967763e+01   4.8232178765e+01    0.3233944    0.2659089 -70.93 0.0007529175    1.630    0.387
       162  -8.9595    110.5624     58.2418   9.4834374746e+01   4.8982298042e+01    0.4145743    0.2971475   9.40  0.001160748    1.711    0.416
       163  -8.3259    157.6160     63.0846   8.4845821173e+01   3.7545697094e+01    0.2768717    0.2127172 -55.67  0.001312626    1.433    0.302
       164 -10.0268    242.5427     59.6499   7.0025987571e+01   1.7440796986e+01    0.2917192    0.2560619 -61.45  0.000246745    1.060    0.057
       165  -9.3825    246.8245     55.6530   6.8622326078e+01   1.7084407290e+01    0.2663794    0.2497752 -35.09  0.000802186    1.285    0.222
       166  -7.5996    152.5118     60.9035   8.5302048474e+01   3.9134124214e+01    0.2142079    0.1464963 -36.31 0.0005248038    1.524    0.344
       167  -8.4298     89.1381     52.5220   9.9212294194e+01   5.3996858573e+01    0.3717683    0.2390337   7.56  0.001764729    2.070    0.517
       168 -10.3876     89.6422     38.1841   9.4033863234e+01   5.6072084297e+01    0.9502532    0.3177513  34.79  0.003212671    3.948    0.747
       169 -10.0005     73.9588     56.3610   1.0537132639e+02   5.5867630467e+01     1.255496    0.5177279 -29.86  0.004787064    3.077    0.675
       170 -10.2638     85.0597     48.0279   9.8941643210e+01   5.5425808988e+01    0.4173352    0.3635071 -79.86 0.0008902459    1.736    0.424
       171  -7.8239    164.5053     60.1052   8.2552899953e+01   3.6334488894e+01    0.2146448    0.1467045 -36.80  0.001010081    1.526    0.345
       172  -9.7081    146.9275     56.3417   8.5160010148e+01   4.1191420983e+01    0.7774895    0.3107845 -25.02   0.00250147    3.729    0.732
       173  -9.3516    129.0503     58.3309   8.9990951323e+01   4.5013324878e+01    0.3619448    0.3279402 -21.67  0.002044299    1.132    0.117
       174  -8.4383     87.3894     58.4417   1.0173881465e+02   5.3317385164e+01    0.2458365    0.2163897 -62.62 0.0006372515    1.463    0.316
       175  -9.2361    138.8543     56.8260   8.7149574027e+01   4.3015882215e+01    0.5426323    0.2375358 -37.43  0.001778595    2.348    0.574
       176  -8.4140    142.0907     48.6334   8.3867093844e+01   4.3494206861e+01    0.3156892    0.2478969  -8.75   0.00121785    1.485    0.326
       177  -8.2581    122.3493     41.2529   8.6121602788e+01   4.9038879644e+01    0.4166988    0.2272823  20.41  0.001588164    3.057    0.673
       178  -9.1893    118.0882     55.4783   9.1894554168e+01   4.7860828028e+01    0.3480496     0.286412 -83.48 0.0007479934    1.676    0.403
       179  -8.1146    118.7597     51.2327   9.0331858335e+01   4.8376617484e+01    0.3707629    0.1660467  36.69  0.001413269    2.579    0.612
       180  -9.0679    121.0845     46.7718   8.8265675420e+01   4.8537391579e+01    0.3280682    0.1945228 -36.70 0.0004659144    1.763    0.433
       181 -10.1597    163.3313     54.1519   8.1066100173e+01   3.7543578245e+01    0.5225104    0.2997317 -53.09  0.001744939    2.079    0.519
       182  -9.3559     44.4394     53.1576   1.1464577547e+02   6.0325102435e+01     0.378254    0.1811091 -33.05  0.001180647    2.007    0.502
       183  -9.3283     53.2885     38.7972   1.0650201231e+02   6.1667522643e+01    0.6044809    0.2038535 -31.61  0.002329458    3.467    0.712
       184 -10.0666     49.9896     54.0994   1.1293130909e+02   5.9523900048e+01    0.5640247    0.3017812 -55.68  0.002647012    2.312    0.567
       185  -9.7538     55.8109     43.6066   1.0729742014e+02   6.0577719391e+01    0.7510766    0.3867903  -6.37   0.00287999    3.989    0.749
       186  -8.1353    157.4968     55.5652   8.2660917795e+01   3.8760529939e+01    0.1463784     0.136963  56.78 4.133445e-05    1.014    0.013
       187  -8.6344    105.2790     53.1622   9.4641863294e+01   5.0862200453e+01    0.2634543     0.219361 -56.43 0.0007625014    1.487    0.328
       188  -8.3872    105.4934     49.4755   9.3342620225e+01   5.1392328470e+01    0.3143594    0.2274092  14.98  0.001091191    1.549    0.354
       189  -9.0977    244.0075     49.3968   6.7571174844e+01   1.8636102272e+01    0.2791843    0.1698773  71.32  0.001433977    1.635    0.388
       190  -9.3217    157.2781     47.9696   8.0457261746e+01   3.9939339876e+01     0.292789    0.2111159 -41.34   0.00147524    1.469    0.319
       191  -9.6429    130.4185     46.2687   8.5806021079e+01   4.6534887401e+01    0.6943831    0.2844977 -25.99  0.001639813    3.056    0.673
       192  -8.7744     40.0749     35.0000   1.1013282398e+02   6.3843538789e+01    0.3393438    0.1566445  27.80  0.001799794    2.287    0.563
       193 -10.0565     37.4997     41.9805   1.1358398077e+02   6.2992924084e+01    0.4870557    0.3176322 -65.78  0.001338577    2.854    0.650
       194 -10.2890     35.8595     38.0067   1.1285233816e+02   6.3815187175e+01    0.4093662     0.217098 -28.05 0.0004016077    1.744    0.426
       195  -9.5626    149.7940     47.0435   8.1713462992e+01   4.1887296427e+01    0.4177882    0.1887923 -37.15  0.001381225    2.299    0.565
       196  -8.6588    111.9897     47.0323   9.0729717304e+01   5.0435286809e+01    0.2743659    0.1930285 -40.63 0.0004532248    1.534    0.348
       197  -8.4988    112.6469     42.6701   8.9079390114e+01   5.0926534934e+01    0.3086273    0.1761251  16.90  0.001244298    2.756    0.637
       198  -8.4512    162.3768     46.2615   7.8954586488e+01   3.8930653050e+01     0.195974     0.130245 -44.68 0.0004362984    1.606    0.377
       199  -7.4059    184.4335     45.0425   7.4694323205e+01   3.3613100422e+01    0.1885519    0.1418498 -33.15 0.0001149229    1.444    0.308
       200  -7.8624    142.1313     44.3441   8.2522047506e+01   4.4094205559e+01    0.2921865    0.1076939  49.19  0.001076205    2.457    0.593
       201  -7.4442    123.3391    236.6988   1.3012543855e+02   8.7990999671e+00    0.1348839   0.08576209  67.29 0.0003597534    1.668    0.400
       202  -9.5268    188.1623    233.8833   1.1711434863e+02  -2.1239416024e+00    0.2766104    0.2193455 -55.18  0.001160687    1.591    0.371
       203  -8.6399     28.2136    230.5372   1.4693240382e+02   2.3704250527e+01    0.1854546    0.1436158 -80.83 0.0008177795    1.323    0.244
       204  -7.3107     25.7528    217.0258   1.4638750451e+02   2.6666314240e+01    0.1394181   0.07770913 -81.09 0.0003994112    1.482    0.325
       205  -7.1801    139.3100    214.6745   1.2386307707e+02   1.0141748765e+01    0.1408907   0.09935451  73.14 0.0007039028    1.656    0.396
       206  -7.6065     48.0320    208.4344   1.4155616254e+02   2.5828572877e+01    0.1616625    0.1085424  45.88 0.0003173207    1.511    0.338
       207  -9.0956     84.7333     21.9332   8.9469725372e+01   5.9045770091e+01    0.2649886    0.1930365 -25.13  0.001020779    1.404    0.288
       208  -9.5158    153.3069     41.0001   7.9165109745e+01   4.1874015874e+01    0.3256459    0.2425437 -42.16   0.00136023    1.446    0.308
       209  -8.9875    104.8046     40.9121   9.0600095969e+01   5.2782649757e+01    0.3697632    0.2271412 -37.98 0.0009870653    1.729    0.422
       210  -8.3402    106.0306     36.4762   8.8716323240e+01   5.3139449302e+01    0.2837731    0.1944314  29.81 0.0008372972    1.439    0.305
       211  -8.4677    139.5942     40.7802   8.1957933649e+01   4.5178520294e+01    0.2929512    0.2239682 -57.32 0.0007742554    1.571    0.364
       212  -8.8891    138.9147     36.2486   8.0671167516e+01   4.5932409153e+01    0.2979259    0.2544219 -21.46 0.0006500524    1.271    0.213
       213  -9.2072    110.2144     33.1687   8.6447119935e+01   5.2706323707e+01    0.3463949    0.2439426 -44.15 0.0008555758    1.683    0.406
       214  -8.5620    144.0195     36.4212   7.9647503444e+01   4.4705915725e+01    0.2390303    0.1968752 -44.06 0.0005073504    1.336    0.252
       215  -7.9153    136.2190     26.9752   7.8280401218e+01   4.7689454709e+01    0.2112566    0.1874345  52.66 0.0005247266    1.034    0.033
       216  -8.7990    132.7160     35.9971   8.1952358643e+01   4.7402546840e+01     0.272392    0.2103141 -25.28 0.0003995244    1.397    0.284
       217 -10.3941    133.9048     31.0619   8.0091232433e+01   4.7743259261e+01    0.2477886    0.2196417  38.09            0    1.051    0.048
       218  -8.7998    118.8779     34.7032   8.4779386361e+01   5.0664248778e+01    0.2870104    0.1791324 -31.50 0.0006568547    1.696    0.410
       219  -9.0023     15.5348    206.0025   1.4739821328e+02   2.9997614629e+01    0.2718483    0.1833215 -73.64  0.001880552    1.353    0.261
       220  -8.2471     96.9842     33.0015   8.9998886422e+01   5.5390500593e+01    0.3118696    0.1735517 -22.03  0.001523983    1.947    0.486
       221  -9.6059      8.0092    208.0000   1.4886922196e+02   3.0325591454e+01     0.255921    0.1434921  44.77  0.001273431    1.800    0.444
       222  -8.6896    153.4293     34.7119   7.7245023782e+01   4.2662579397e+01    0.2378186    0.1322892 -35.54 0.0005792933    1.920    0.479
       223  -9.5376     11.5207    206.5320   1.4815189556e+02   3.0286086362e+01    0.2705717     0.171991  79.75  0.001087417    1.207    0.171
       224  -8.6028     41.0158     20.6672   1.0425786563e+02   6.5821049099e+01    0.2089128    0.1382409 -24.94 0.0003083613    1.290    0.225
       225 -10.0324    173.4626    204.5515   1.1509290443e+02   5.6314834948e+00    0.2478466    0.2430818  64.48 0.0005929185    1.094    0.086
       226  -9.2771    192.0643    194.3864   1.0937738575e+02   3.8973372959e+00    0.7697346    0.3834966 -62.60  0.002412273    4.716    0.788
       227  -7.6980    174.1002    189.7234   1.1222335827e+02   8.3441475211e+00    0.2089713     0.169665  45.90 0.0006279984    1.159    0.137
       228  -8.7098     42.1141     28.0878   1.0675221802e+02   6.4652794807e+01    0.2107921     0.138684 -22.63 0.0002688593    1.295    0.228
       229  -9.6232    154.4609     26.9625   7.4722667557e+01   4.3349569173e+01    0.3723479    0.1749516  55.93  0.001639204    1.836    0.455
       230  -8.4551     92.0271     20.9785   8.6973882724e+01   5.7796842552e+01    0.2941839    0.1684343  28.14 0.0008242842    1.784    0.439
       231  -8.6865    143.9770     26.1750   7.6459361968e+01   4.5957644727e+01    0.2878174    0.1920476 -21.94   0.00149139    1.711    0.415
       232  -8.6094    128.4315     25.7998   7.9564719438e+01   4.9613011286e+01     0.251426    0.2110339 -59.04 0.0006566533    1.455    0.313
       233  -8.5929    129.9640     21.5405   7.7827803848e+01   4.9735549004e+01    0.2406112    0.1364624  34.81  0.001142973    1.875    0.467
       234  -9.1215     91.4132     26.5170   8.9226259226e+01   5.7267180407e+01     0.372519     0.229725 -47.81  0.001263243    2.268    0.559
       235  -8.0565    230.0000    167.9482   9.6532352970e+01   1.2461623589e+00    0.2345998   0.07701962 -39.30 0.0008030895    2.947    0.661
       236  -7.4977     49.0152    166.9478   1.3677211187e+02   3.4917154270e+01     0.155457     0.124718 -82.47 0.0003570234    1.034    0.033
       237  -7.9898     23.4572    157.5055   1.4142838330e+02   3.9787621246e+01    0.1230847   0.09538227 -83.91 9.865087e-05    1.024    0.024
       238  -7.7499      2.5282    155.5455   1.4583230388e+02   4.1970023728e+01    0.1154904   0.08615811 -77.23 0.0003482785    1.076    0.070
       239  -7.5591    188.7704    154.0355   1.0167076548e+02   1.2442324624e+01    0.2034126    0.1260828 -43.50  0.000664242    1.623    0.384
       240  -7.6571    139.8325     22.7849   7.6209161754e+01   4.7315413501e+01    0.1787177    0.1535131 -81.91 0.0004324137    1.345    0.256
       241  -9.0042    111.3808     20.8089   8.1808759549e+01   5.3910547660e+01    0.3391325    0.1891186 -13.29   0.00164433    2.156    0.536
       242  -8.8108    119.9044    149.5748   1.1663917046e+02   2.7970796164e+01    0.2448523    0.1961186 -41.72  0.001220354    1.341    0.254
       243  -8.0406    133.5923    144.8074   1.1223753144e+02   2.6351858786e+01    0.2417009    0.1518482 -50.93  0.001042995    1.583    0.368
       244  -9.4055     66.9817    144.2442   1.2904518736e+02   3.7954466849e+01    0.5061245    0.3379858  82.55   0.00251527    1.792    0.442
       245  -7.9010    185.0507    141.2812   9.9544884735e+01   1.5881945419e+01    0.2069281    0.1971062  52.78 0.0003016313    1.052    0.049
       246 -10.3466    231.2966    134.4644   8.8928025734e+01   7.0482475789e+00    0.2736565    0.2567672  53.80 0.0002643908    1.143    0.125
       247  -8.4026    112.2911    134.1682   1.1525419353e+02   3.3002556537e+01    0.3199803    0.2061476  75.05  0.001275043    2.373    0.579
       248  -8.2041    135.7081    131.8707   1.0875368885e+02   2.8851901250e+01     0.506916    0.1655801 -44.26  0.001551869    3.144    0.682
       249  -8.0315    132.6559    132.3005   1.0961823498e+02   2.9393397341e+01    0.2556244    0.1935965  65.70  0.001180225    1.493    0.330
       250  -9.6307     98.6542    128.8553   1.1767392621e+02   3.6705966521e+01    0.6340157    0.3879647  74.73  0.002428653    2.817    0.645
       251  -9.9936     71.0140    125.7624   1.2454093215e+02   4.1755436988e+01    0.5613019    0.4076862 -87.25  0.001658283    1.614    0.380
       252  -9.3440    132.5108     17.2591   7.5898477133e+01   4.9600066670e+01    0.2327125    0.1909847  61.26 0.0006923362    1.141    0.124
       253  -9.0785     67.6927    128.3594   1.2596222920e+02   4.1603182803e+01    0.3135417    0.2307877  66.38 0.0008159398    1.589    0.371
       254  -8.9005    159.8138    125.0677   1.0127381472e+02   2.5050103978e+01    0.6689032    0.2562184 -52.62  0.001752727    3.204    0.688
       255  -9.9091    117.2295    125.5593   1.1198339507e+02   3.4042342540e+01     0.777571    0.5041543 -58.82  0.002438098    1.602    0.376
       256 -10.2672    108.3079     99.6950   1.0785961143e+02   4.1512223272e+01     0.823946    0.5429706  69.09   0.00305961    2.326    0.570
       257 -10.2609    131.2541    119.5412   1.0687657915e+02   3.2553333722e+01    0.8180977    0.5172184  81.00   0.00223741    3.020    0.669
       258 -10.9943    133.3974    109.7095   1.0380697406e+02   3.4249719565e+01     1.658149    0.6065779 -50.05  0.005323403    2.935    0.659
       259  -9.6312    127.7185    102.5425   1.0336928901e+02   3.6993909917e+01    0.6838665    0.3739089 -35.73  0.001862616    2.013    0.503
       260 -10.2944    124.0583     89.9162   1.0082834210e+02   4.0373308279e+01     1.158728    0.5756143 -31.33  0.003241138    2.512    0.602
       261 -10.0973    108.5756    114.5275   1.1162314268e+02   3.8202787022e+01    0.6209879     0.380839 -71.99  0.001363559    2.431    0.589
       262  -9.0031    110.2737    106.8947   1.0921938216e+02   3.9576923347e+01    0.7128447    0.3773402  28.02  0.002669318    2.658    0.624
       263 -10.5436    121.1927    112.0857   1.0760848056e+02   3.6283438076e+01    0.8692261    0.5227253 -46.26  0.002078651    1.622    0.383
       264 -10.0196     58.2574    124.6406   1.2783288069e+02   4.3691084456e+01    0.6055651    0.3515115  84.12  0.002521483    2.886    0.653
       265 -10.0284    120.1064    104.6597   1.0595684186e+02   3.8122195607e+01    0.7543387    0.5898131 -16.51  0.003613131    1.569    0.363
       266  -9.6219     27.3357    122.9890   1.3595584860e+02   4.7309493799e+01    0.4913354    0.2651374  70.92  0.001859452    2.763    0.638
       267  -9.2577     41.1151    121.6210   1.3200122187e+02   4.6320467517e+01    0.4651552    0.1996632 -73.47  0.001820708    2.695    0.629
       268  -9.8632    140.5452    118.4325   1.0425161786e+02   3.0802987277e+01    0.4876546    0.3237207 -66.55  0.001109519    1.922    0.480
