#   1 NUMBER                 Running object number                                     
#   2 MAG_AUTO               Kron-like elliptical aperture magnitude                    [mag]
#   3 X_IMAGE                Object position along x                                    [pixel]
#   4 Y_IMAGE                Object position along y                                    [pixel]
#   5 X_WORLD                Barycenter position along world x axis                     [deg]
#   6 Y_WORLD                Barycenter position along world y axis                     [deg]
#   7 A_WORLD                Profile RMS along major axis (world units)                 [deg]
#   8 B_WORLD                Profile RMS along minor axis (world units)                 [deg]
#   9 THETA_WORLD            Position angle (CCW/world-x)                               [deg]
#  10 FWHM_WORLD             FWHM assuming a gaussian core                              [deg]
#  11 ELONGATION             A_IMAGE/B_IMAGE                                           
#  12 ELLIPTICITY            1 - B_IMAGE/A_IMAGE                                       
         1 -13.2371    179.6382     37.4501   6.6681804225e+01   3.5125014986e+01     1.164297    0.8996002  26.74  0.004473302    1.663    0.399
         2 -12.5298    199.6767      5.6679   5.7004636219e+01   3.4044684180e+01    0.8090091    0.5704539  77.00  0.005207415    1.190    0.159
         3  -8.3643    168.3994    233.7615   1.1321774895e+02   1.4778425083e+00    0.1328885   0.09699248  56.23 0.0006918552    1.671    0.402
         4 -10.5817    248.7742    248.1466   1.0014995989e+02  -1.2827264495e+01    0.2963155    0.2119779 -46.89  0.001822491    2.079    0.519
         5 -19.4717     39.6380    147.0407   1.2925053640e+02   4.0441847294e+01     20.84509     3.798346 -64.09   0.05579719    5.577    0.821
         6 -10.4792     15.3008    206.3980   1.4196504243e+02   2.9256139413e+01    0.1819316    0.1620606  -9.98  0.001067995    1.650    0.394
         7  99.0000     11.4831    205.4936   1.4264193392e+02   2.9811869343e+01    0.3069507    0.1807222  44.39  0.001890073    1.720    0.419
         8 -11.3457     94.7828    204.2727   1.2458249591e+02   1.9705780831e+01    0.6978548    0.2863843 -51.95  0.002835162    2.447    0.591
         9 -10.1979     59.4931    201.9951   1.3220709785e+02   2.5267946930e+01    0.2069326    0.1740969  52.45 0.0003381217    1.188    0.158
        10 -11.3030     72.4333    198.8191   1.2888470161e+02   2.4243708355e+01    0.4583515    0.4016206  -4.83  0.001437853    1.490    0.329
        11  -9.6772    193.2024    195.0128   1.0095780885e+02   4.3169513167e+00     0.603772    0.3034277 -62.41  0.001711297    5.775    0.827
        12  -9.5505     89.2359    203.7252   1.2576197668e+02   2.0682021318e+01    0.4964731    0.2168603  53.64  0.001596695    2.808    0.644
        13  -8.4556     76.3172    232.9812   1.3234586916e+02   1.6293019771e+01    0.1754735    0.1495682 -78.51  0.001001496    1.168    0.144
        14 -10.7767    115.9663    184.5206   1.1632766966e+02   2.0656305673e+01    0.2826512    0.2106848 -75.55 0.0008721305    1.593    0.372
        15 -10.6724     99.5709    180.6551   1.1960529704e+02   2.4312686103e+01     0.352064    0.2503241 -47.08 0.0009383778    1.422    0.297
        16  -9.0043    167.6151    175.7070   1.0251332236e+02   1.2956127765e+01    0.3659655    0.2452673 -71.34  0.001502091    2.395    0.582
        17  -9.4487    129.4835    175.4761   1.1134458810e+02   2.0277387704e+01    0.1466901    0.1448867  -5.64 0.0008099446    1.012    0.012
        18 -11.3605    103.4737    171.9345   1.1705308720e+02   2.5693024506e+01    0.4666041    0.3781458  78.07  0.002397718    1.442    0.307
        19  -9.5216    124.8058    172.3651   1.1186043014e+02   2.1839854432e+01    0.2082026     0.141032  28.43 0.0004320343    1.627    0.385
        20  -9.2470    142.4958    170.4970   1.0721209346e+02   1.8938478647e+01    0.2703213    0.1455673 -59.67  0.001024227    2.344    0.573
        21 -10.0288    203.6865    166.3349   9.2891162631e+01   7.8772668315e+00    0.5542651    0.3921971 -33.47  0.002554934    1.351    0.260
        22 -10.0545    194.2099    167.1279   9.4975491502e+01   9.5373759613e+00    0.3292494    0.3117853 -29.89 0.0008280734    1.069    0.065
        23  -9.1193     66.8986    225.3017   1.3339805143e+02   1.9191492048e+01    0.2276172    0.1644419 -59.20  0.001351668    1.443    0.307
        24  -9.4678    190.1380    160.8886   9.4461512514e+01   1.1572107426e+01    0.2708653    0.1951306 -32.73 0.0007335477    1.368    0.269
        25  -9.7150    189.3224    155.2728   9.3390885455e+01   1.2858860534e+01    0.3854849    0.3081275 -35.76  0.001476133    1.201    0.167
        26  -8.1230    113.3029    160.3216   1.1228210031e+02   2.6688431573e+01    0.1520568     0.116828 -16.78 0.0004487695    1.632    0.387
        27 -10.2955     97.6005    159.4542   1.1613979339e+02   2.9598570460e+01    0.2782948    0.2454199 -31.02 0.0002213772    1.193    0.162
        28  -9.5157    175.9811    217.5083   1.0882620095e+02   3.1358287248e+00    0.2182829    0.1279844  36.21  0.001037178    1.605    0.377
        29 -11.1769    102.0371    152.5829   1.1358525894e+02   3.0462856975e+01    0.6617914    0.4011635 -34.62  0.002828727    1.928    0.481
        30  -8.9376    164.6484    152.3671   9.8090628847e+01   1.8469995760e+01    0.2321856    0.1892108  89.82  0.001099749    1.648    0.393
        31  -9.9736    134.1583    146.6521   1.0403536177e+02   2.5875566450e+01    0.8988289    0.1998982 -52.18  0.001930259    6.697    0.851
        32 -10.1530    111.4706    138.2927   1.0795161121e+02   3.2091277407e+01    0.4929066    0.2564657 -35.34  0.001882425    2.263    0.558
        33 -10.6459    100.5471    138.2847   1.1088289215e+02   3.4038896818e+01    0.2913491    0.2682382   1.42  0.000433428    1.144    0.126
        34  -9.8702    106.1084    130.8839   1.0766260994e+02   3.4743056096e+01    0.4877941     0.302712 -56.06   0.00190064    1.702    0.413
        35  -9.3761    105.7036    125.3508   1.0644529751e+02   3.6053956861e+01    0.2835277    0.2210287 -28.38 0.0008574859    1.339    0.253
        36  -8.9135    117.2017    129.6619   1.0439199096e+02   3.2957916914e+01    0.2924134    0.1882396 -23.05 0.0009442024    2.060    0.515
        37  -8.5642    112.0663    118.6654   1.0304804379e+02   3.6339222902e+01    0.2076679    0.1909741  23.69 0.0004633102    1.100    0.091
        38  -9.3145    167.3514    112.3392   8.7902679238e+01   2.6084608225e+01    0.3495884    0.2616924  87.21  0.001579085    1.889    0.470
        39  -8.9642    205.5551    110.4525   7.9986994478e+01   1.8101591732e+01    0.2483143    0.1297493  41.31  0.000883454    2.225    0.551
        40  -9.4530    164.2065    215.7705   1.1101599510e+02   5.5108820094e+00    0.1998285    0.1607405   2.01  0.001079058    1.365    0.267
        41 -10.5266     19.0002    213.9416   1.4188400734e+02   2.7271958312e+01    0.1263965    0.1069694  81.89 0.0008984764    1.089    0.081
        42 -11.9839    135.3985    199.8529   1.1455252412e+02   1.3848365812e+01    0.5860283    0.3788056  47.13  0.002788646    1.551    0.355
        43  -9.4953    176.1212     74.5101   7.6543462797e+01   3.0784599664e+01    0.2554976    0.2029963 -70.63  0.000546941    1.420    0.296
        44 -10.6489    140.9834    197.9736   1.1293925602e+02   1.3247762446e+01    0.3823097    0.2221986 -58.95  0.001121489    2.019    0.505
        45 -12.2535    165.5905     53.2512   7.2944031309e+01   3.6329509238e+01    0.6639224     0.530864 -43.39  0.002084036    1.321    0.243
        46 -10.2223    158.3484    235.6021   1.1560343755e+02   2.8225712921e+00      0.26324    0.2201903  17.38  0.001169786    1.166    0.143
        47 -11.8058    184.0499     30.7344   6.4445398179e+01   3.4907615786e+01    0.5260562    0.4190463  53.82  0.001567073    1.255    0.203
        48 -10.3868    189.5141     15.0265   6.0126774728e+01   3.5361035653e+01    0.2370602    0.1446168  56.20 0.0009047539    1.548    0.354
