#   1 NUMBER                 Running object number                                     
#   2 MAG_AUTO               Kron-like elliptical aperture magnitude                    [mag]
#   3 X_IMAGE                Object position along x                                    [pixel]
#   4 Y_IMAGE                Object position along y                                    [pixel]
#   5 X_WORLD                Barycenter position along world x axis                     [deg]
#   6 Y_WORLD                Barycenter position along world y axis                     [deg]
#   7 A_WORLD                Profile RMS along major axis (world units)                 [deg]
#   8 B_WORLD                Profile RMS along minor axis (world units)                 [deg]
#   9 THETA_WORLD            Position angle (CCW/world-x)                               [deg]
#  10 FWHM_WORLD             FWHM assuming a gaussian core                              [deg]
#  11 ELONGATION             A_IMAGE/B_IMAGE                                           
#  12 ELLIPTICITY            1 - B_IMAGE/A_IMAGE                                       
         1  -9.5192    189.9294     14.6561   6.2504816966e+01   3.6164755710e+01    0.2735297    0.1993623 -80.91   0.00161095    1.300    0.231
         2  -9.7514      6.8385     14.6130   1.1198128863e+02   7.0202199466e+01    0.1984798    0.1639341 -79.73  0.001296453    3.128    0.680
         3  -8.4784     55.7931     10.1554   8.9536494501e+01   6.5056706350e+01    0.1598005     0.144028   0.76  0.000758601    1.308    0.235
         4  -7.8686     47.5425     10.0494   9.2497851314e+01   6.6286776342e+01    0.1370464    0.0921986 -46.28 0.0008078016    2.439    0.590
         5 -10.5239    246.3383      5.2907   5.5147811927e+01   2.4543604510e+01    0.4273936    0.3712844  57.02  0.002075001    1.581    0.367
         6  -8.3160     91.1260      9.2151   7.8420624830e+01   5.8947763175e+01    0.1504059    0.1415701  75.51 0.0005025417    1.364    0.267
         7  -9.7640      6.1871      8.5322   1.0976996233e+02   7.1078087498e+01    0.2020101    0.1597285  35.94  0.001538646    2.069    0.517
         8  -7.7331     13.2872      8.6773   1.0644125443e+02   7.0453188780e+01   0.08774886   0.07868633 -19.75 0.0002572793    1.602    0.376
         9  -8.7975     33.5011      5.4852   9.6038216850e+01   6.8646911854e+01    0.2457515      0.17618 -52.27  0.001474912    3.025    0.669
        10  -8.3633     78.9107      3.7805   7.9621392690e+01   6.1732424181e+01    0.2012618    0.1415654 -47.63  0.001214363    2.124    0.529
        11  -7.7731     44.6444      3.3193   9.0640785322e+01   6.7384340891e+01   0.09178796   0.09097088 -38.23 0.0007045878    1.754    0.430
        12  -8.2941     16.1730      3.4036   1.0273280624e+02   7.0820637463e+01    0.1296932   0.08729655  29.74  0.000916424    1.698    0.411
        13  -9.2565    235.3206      1.6656   5.5287401419e+01   2.7277482830e+01    0.2542879    0.1200146  68.77  0.001376002    1.888    0.470
        14  -7.7484    115.3301      2.6603   7.0597957315e+01   5.4499294762e+01     0.118831   0.09119195 -73.21 0.0007051725    1.740    0.425
        15  -8.3418     62.3882      1.5941   8.3683273955e+01   6.4808143646e+01    0.1348758    0.1324132 -19.16 0.0005512164    1.506    0.336
        16  -7.7508     39.2969      1.6536   9.1955610037e+01   6.8287717140e+01   0.09226287   0.08487374 -25.21 0.0007034147    1.675    0.403
        17  -9.7877     52.6905    249.2599   1.4136096757e+02   1.6141142574e+01    0.3906933    0.2088525  76.41  0.001732453    1.814    0.449
        18  -9.0150    132.6486    248.7155   1.2624997806e+02   4.1100155914e+00    0.3717179    0.2051278  67.61  0.001238785    2.687    0.628
        19  -9.1496    104.1427    247.6612   1.3166707434e+02   8.9491453517e+00    0.4179127    0.2080028 -79.30  0.001836885    3.023    0.669
        20  -8.2769     93.9310    249.7583   1.3384688220e+02   1.0146125879e+01    0.2369588    0.1358822  75.99   0.00120652    2.073    0.518
        21  -9.1441     65.4903    249.4194   1.3908383491e+02   1.4378457607e+01    0.2845328    0.1575228  64.58  0.001066404    1.612    0.380
        22  -8.5951     26.7799    250.4541   1.4589066158e+02   1.9119867349e+01    0.2073218   0.08088971  46.03  0.001136563    2.117    0.528
        23  -7.9325     67.6704    245.5167   1.3833277907e+02   1.4833842275e+01    0.1968573    0.1024616 -71.18  0.001027456    1.924    0.480
        24  -8.7641     45.9114    244.8119   1.4220541512e+02   1.7888965744e+01    0.1655872    0.1379594  72.64 0.0006215098    1.187    0.158
        25  -9.1828    246.6200    229.4062   1.0115542694e+02  -1.1387686972e+01    0.3559053    0.1907901 -40.26 0.0009627067    1.976    0.494
        26  -9.3852    248.6222    242.3212   1.0306995649e+02  -1.3447452692e+01    0.2581957    0.1974328 -41.32 0.0009962347    1.677    0.404
        27 -10.8568    248.2439    236.2285   1.0207658885e+02  -1.2572169445e+01    0.2724243     0.250195   2.00 0.0003293648    1.308    0.235
        28  -8.7582    233.0380    247.3702   1.0672509050e+02  -1.1923203208e+01    0.2047857    0.1737412  46.22 0.0007811607    1.569    0.363
        29  -8.4037    201.8810    243.5124   1.1191270558e+02  -6.5946471853e+00    0.2189564    0.1668457 -60.63 0.0009356455    1.927    0.481
        30  -8.6080    169.3050    243.6009   1.1828758193e+02  -1.1988314023e+00    0.2489506    0.1922501  69.66 0.0006603501    1.665    0.399
        31  -9.5955    160.2484    241.3349   1.1974711402e+02   7.3319419993e-01     0.453342    0.2788076 -58.51  0.001576157    2.042    0.510
        32  -8.9954    194.2428    239.9624   1.1280936759e+02  -4.7954596672e+00    0.2982696    0.1861019 -50.37  0.001119477    1.992    0.498
        33  -9.7018    182.9214    240.6055   1.1513191906e+02  -3.0073074067e+00    0.4563391    0.3100632  48.64   0.00195821    1.475    0.322
        34  -8.1159    153.1687    242.0766   1.2127086511e+02   1.8173426206e+00     0.177481    0.1441237  65.73 0.0006438014    1.332    0.249
        35  -8.4448    146.0437    239.5287   1.2233155709e+02   3.4956302245e+00     0.288121    0.1532294  67.33  0.001077192    3.617    0.724
        36  -7.7689    135.3102    242.6484   1.2491866251e+02   4.7597419500e+00    0.1348731   0.09259342  70.22 0.0007044493    1.720    0.418
        37  -8.2241     88.3423    242.1720   1.3410245981e+02   1.2463585964e+01      0.17257    0.1061158 -83.49 0.0005429763    1.773    0.436
        38  -9.0184     30.0838    242.0663   1.4476699661e+02   2.0369039881e+01    0.1779653    0.1281478  74.48 0.0005179119    1.022    0.021
        39  -9.4442      3.3563    240.7330   1.4914974211e+02   2.3541715963e+01    0.2213185     0.138434  80.27 0.0006983771    1.153    0.132
        40  -8.6214     37.7732    241.3836   1.4337797361e+02   1.9584061783e+01    0.1405149    0.1017034  43.48 0.0005001381    1.522    0.343
        41  -9.0380    240.7601    239.5650   1.0399581328e+02  -1.1968103146e+01    0.2530271    0.1281563 -23.69  0.001280601    2.170    0.539
        42  -8.7942    135.7511    238.9638   1.2432512873e+02   5.3639642755e+00    0.2094298    0.1417338  79.82  0.001058539    2.001    0.500
        43  -8.5440    129.4797    239.0076   1.2559387538e+02   6.4224294828e+00    0.2666309     0.148702  59.23  0.001264897    1.964    0.491
        44  -8.0034    125.9828    239.7649   1.2639740256e+02   6.8699661581e+00    0.1989152    0.1215804  43.24 0.0003895318    1.428    0.300
        45  -8.2448    107.3218    238.8327   1.3000531769e+02   1.0133825824e+01    0.2039918     0.146089  80.98 0.0007065544    1.483    0.325
        46  -7.9187     84.0279    238.9529   1.3459018453e+02   1.3754567414e+01    0.1540292     0.119424  59.45 0.0003388256    1.087    0.080
        47  -8.3077     72.1428    238.8300   1.3685701383e+02   1.5527302354e+01    0.1519086    0.1430838  68.47   0.00041961    1.332    0.249
        48  -8.5100     52.9178    239.1338   1.4047568319e+02   1.8113365764e+01    0.1940724    0.1235071  70.66 0.0005109626    1.329    0.248
        49  -9.1866     19.2741    238.4249   1.4637221296e+02   2.2320865255e+01    0.2306364    0.1481654  85.54 0.0007743094    1.202    0.168
        50  -9.0856    230.9908    237.1965   1.0536346469e+02  -1.0200271499e+01    0.2329683    0.1976205 -69.90  0.001097684    2.028    0.507
        51  -8.3361    209.1447    238.2524   1.0964689774e+02  -6.9600830498e+00    0.1574908    0.1485845  50.31 0.0005534894    1.344    0.256
        52  -8.0056    189.5171    237.5126   1.1333368118e+02  -3.6132056759e+00    0.1300319    0.1138209  28.28 1.893247e-05    1.030    0.029
        53  -9.9521    214.5271    232.6256   1.0765528992e+02  -6.9595609241e+00    0.5800498    0.3866472 -70.61  0.002510335    3.756    0.734
        54  -9.0476    203.0746    234.7342   1.1022076614e+02  -5.4253035870e+00    0.2560607    0.1842515 -58.44  0.001024927    1.985    0.496
        55  -9.6502    175.9113    233.4771   1.1538267585e+02  -6.1047036793e-01    0.4683103    0.2582523 -60.86  0.002079268    2.778    0.640
        56  -8.5774    170.3120    235.8581   1.1688875762e+02  -5.1877754391e-02    0.2279574    0.1222607 -56.39 0.0007633439    2.433    0.589
        57  -8.0354    152.9818    235.4633   1.2033112532e+02   3.0322861603e+00    0.1899894    0.1007138  58.37  0.000807316    2.405    0.584
        58  -9.1336    108.6827    234.5242   1.2919967883e+02   1.0760373873e+01    0.3517545     0.204918  62.03  0.001168741    1.781    0.439
        59  -8.3548     95.2673    235.2042   1.3196772609e+02   1.2777340829e+01    0.1846337     0.128638  68.52  0.000666208    1.347    0.258
        60  -8.3071    122.8325    234.0306   1.2626753023e+02   8.5007063231e+00    0.2136463    0.1406807  82.20 0.0008110513    1.984    0.496
        61  -8.1488     99.6035    234.3467   1.3100168447e+02   1.2263185891e+01    0.2061288     0.131046  70.98 0.0008697845    1.668    0.400
        62  -9.1309     68.0879    232.1099   1.3696457284e+02   1.7476188082e+01    0.4583505     0.206306  70.78  0.001892164    3.047    0.672
        63  -8.2706     53.7170    234.3645   1.3990982509e+02   1.8977712903e+01    0.1308165   0.07346334  72.59 0.0007017407    1.686    0.407
        64  -8.3022    194.4386    232.7275   1.1156949376e+02  -3.6604708302e+00    0.2122021    0.1283534 -48.00  0.000795349    1.935    0.483
        65  -8.9120    140.1855    230.1139   1.2215375572e+02   6.2673567673e+00    0.4149241     0.188934  56.63   0.00161031    2.810    0.644
        66  -9.3862    186.4083    230.8228   1.1284196356e+02  -1.9719379999e+00    0.2946308    0.2262001 -85.01  0.001153383    2.130    0.530
        67  -8.2609    157.7124    232.1892   1.1886798773e+02   2.8003658502e+00    0.1970543    0.1682885  86.55 0.0009967819    1.400    0.286
        68  -8.7787     79.0653    234.6397   1.3509463003e+02   1.5366315858e+01    0.2727503     0.159622  76.10  0.001197717    1.842    0.457
        69  -8.8328    236.1308    230.9174   1.0331835674e+02  -1.0062077710e+01    0.1699108    0.1601868  -2.77 0.0004693658    1.290    0.225
        70  -8.3236      1.5817    230.8159   1.4888747526e+02   2.5675398971e+01    0.1601181   0.07535944  85.17 0.0006991965    1.741    0.426
        71  -9.0286    151.3388    229.0011   1.1968316173e+02   4.5143959140e+00    0.3007938    0.1964153  84.89  0.001127024    2.656    0.624
        72  -9.4667    148.6933    224.6762   1.1955978736e+02   5.8069720904e+00    0.4523968    0.4123464 -83.85  0.001755461    1.201    0.167
        73  -8.5614     32.7563    230.3279   1.4343091429e+02   2.2427933259e+01    0.1661466    0.1393243  53.19 0.0002864181    1.370    0.270
        74  -8.1110    229.6466    228.8563   1.0414557970e+02  -8.7698948268e+00    0.1639451    0.1128959 -42.75 0.0006243766    1.660    0.398
        75  -8.8472    162.0941    228.1491   1.1733356846e+02   2.7654512489e+00     0.259436    0.2131056  81.39 0.0009403277    1.519    0.342
        76  -9.8783     61.9093    228.3643   1.3778830936e+02   1.9118105681e+01    0.3892517    0.1705989  50.82  0.001419536    2.004    0.501
        77  -8.8836    128.1540    227.5397   1.2427119690e+02   8.8653613159e+00    0.2973998    0.1938539  68.70  0.001380821    1.818    0.450
        78  -9.2859     49.4152    227.8098   1.4013197209e+02   2.0898743048e+01    0.3189828    0.2209029  61.31  0.002016695    1.220    0.180
        79  -8.1453    223.4669    226.5193   1.0488371219e+02  -7.4447311788e+00    0.2294469    0.1111044 -27.63  0.001031274    2.408    0.585
        80  -8.7658    206.1209    226.0594   1.0812821919e+02  -4.5353360407e+00     0.243706    0.1721333 -57.37 0.0009123388    1.969    0.492
        81  -9.2054    180.1267    225.0457   1.1313328040e+02   1.2667423833e-01    0.3624389    0.2817284 -16.40  0.001217238    1.508    0.337
        82  -8.8039     94.4806    224.8358   1.3088191860e+02   1.5030153322e+01    0.4698342    0.2415139  76.99   0.00176451    3.158    0.683
        83  -8.5800      6.3964    226.3141   1.4780560763e+02   2.6111389270e+01    0.2168764    0.1254182  66.57 0.0007226032    1.387    0.279
        84  -8.2917     74.8448    225.1743   1.3490715803e+02   1.7954858080e+01    0.1574767    0.1449205 -76.07 0.0003154881    1.295    0.228
        85  -8.0119    200.0141    226.2370   1.0935654420e+02  -3.5329774603e+00    0.1738923    0.1445557 -64.25 0.0006220373    1.636    0.389
        86  -8.8835    216.4777    223.5818   1.0568479268e+02  -5.8531292930e+00    0.2336051    0.2121704 -45.64 0.0008354626    1.356    0.263
        87  -8.7018    173.0381    223.4067   1.1430460217e+02   1.6817643890e+00    0.2338621    0.1911182 -73.60 0.0006291165    1.578    0.366
        88  -7.9829    113.8430    224.3390   1.2680436072e+02   1.1960432599e+01    0.1854731    0.1535897  79.94 0.0004993902    1.178    0.151
        89  -8.6767    104.6207    223.5864   1.2862571895e+02   1.3653030122e+01    0.3157181    0.1894885 -87.38  0.001476464    2.171    0.539
        90  -7.5879     38.3025    224.6687   1.4195339595e+02   2.2946882710e+01    0.1290797   0.07124979  71.24 0.0007035002    1.653    0.395
        91  -8.1198    140.4672    222.9495   1.2101539405e+02   7.6108836045e+00    0.1807495    0.1181776 -87.42 0.0007814381    2.356    0.576
        92  -8.9641    238.9663    221.4931   1.0110164183e+02  -9.0920134611e+00    0.2122834    0.1690599 -42.54 0.0006377448    1.490    0.329
        93  -9.3679    225.5881    221.8038   1.0363389986e+02  -7.0482622924e+00    0.2375277    0.2074475  81.08  0.001271306    1.827    0.453
        94  -9.2588    192.3265    221.4023   1.1003776945e+02  -1.3824360544e+00    0.2640714    0.2279393 -70.24 0.0008563341    1.523    0.344
        95  -9.1071    159.9375    220.9711   1.1661430690e+02   4.4940005302e+00    0.4984367    0.2449597  58.11  0.001826764    2.959    0.662
        96  -8.8593     54.8242    221.7852   1.3852477116e+02   2.1469141276e+01    0.1912779    0.1578781  45.69 0.0006674976    1.373    0.272
        97  -8.5819     19.0477    221.5023   1.4525288627e+02   2.5803261190e+01    0.2163074    0.1217839  81.69 0.0006539043    1.487    0.327
        98  -9.5106    133.1485    217.0294   1.2165494042e+02   1.0107015310e+01    0.6034786    0.3533905 -77.39  0.002544006    2.631    0.620
        99  -8.6789     82.9483    220.7557   1.3275850586e+02   1.7687422835e+01    0.2909156    0.1563185  71.47  0.001132538    2.271    0.560
       100  -8.2783    202.5380    220.0072   1.0775511666e+02  -2.9180900840e+00    0.1907444    0.1298903 -41.27 0.0007661759    1.563    0.360
       101  -9.1201    120.2985    219.2520   1.2472803885e+02   1.1908236669e+01    0.4375849    0.2259992  64.39  0.001733243    2.739    0.635
       102  -8.3478    210.1537    218.9468   1.0606909677e+02  -4.0412108678e+00    0.2197051     0.150957 -46.25 0.0007588341    1.645    0.392
       103  -8.3222    154.1074    219.1839   1.1754455092e+02   5.8947106382e+00    0.1922124    0.1543634  63.93 0.0004823934    1.333    0.250
       104  -8.0805     98.9634    219.4682   1.2926832410e+02   1.5445032999e+01     0.190403   0.09466991  60.09 0.0004566182    2.267    0.559
       105  -8.0851      1.4864    219.5027   1.4823480837e+02   2.7984677977e+01    0.1131778   0.08128727  83.68 -2.283801e-05    1.027    0.027
       106  -8.5926    248.7194    218.0166   9.8709159308e+01  -1.0035915670e+01    0.2300731    0.1622978  62.95  0.001167354    2.810    0.644
       107  -8.7383    142.8484    216.6960   1.1952996455e+02   8.4301148811e+00    0.2900867    0.1837945 -69.01 0.0009400522    2.017    0.504
       108  -8.7818    108.3899    217.6442   1.2703094521e+02   1.4276966846e+01     0.268126     0.151461  62.73 0.0008358462    1.994    0.499
       109  -8.6112     51.5607    217.3275   1.3873215870e+02   2.2857994397e+01    0.2296452    0.1447244  80.40 0.0007295669    1.459    0.314
       110  -7.7765    179.3247    217.6672   1.1202595554e+02   1.6005350721e+00    0.1364044    0.1081888  75.13  0.000705089    1.709    0.415
       111  -8.8782    169.3449    216.2497   1.1385030642e+02   3.6792703513e+00    0.2907592    0.2310369 -84.32  0.001017341    1.700    0.412
       112  -8.2352     61.8236    217.0676   1.3665299676e+02   2.1544579632e+01    0.2161855    0.1192358  78.07 0.0009461964    1.988    0.497
       113 -10.1281     34.8799    214.4682   1.4173145238e+02   2.5534797544e+01    0.5431438     0.329389  63.18  0.003133518    1.451    0.311
       114  -9.9547    161.3426    214.1049   1.1516549021e+02   5.5605627721e+00    0.3473252    0.2448501 -47.46 0.0009077537    1.534    0.348
       115  -8.3407     87.1101    215.8274   1.3129250319e+02   1.8112064244e+01    0.2144704    0.1562306  70.18 0.0007526457    1.280    0.219
       116  -8.4349     12.9047    216.0328   1.4597648389e+02   2.7593065177e+01    0.1745604    0.1265476  83.24 0.0004077604    1.012    0.012
       117  -8.5120    232.3165    214.7948   1.0108598575e+02  -7.0182283291e+00    0.2250918    0.1958179 -57.34  0.001005866    1.579    0.367
       118  -8.3228    185.6494    214.5279   1.1017050598e+02   1.0315215783e+00    0.2122835    0.1700718 -72.13 0.0007217901    1.693    0.409
       119  -8.2880    154.4223    215.2695   1.1683072401e+02   6.6041745612e+00     0.234001    0.1609704  61.54 0.0009806409    1.664    0.399
       120  -8.6400     93.1946    214.3503   1.2981734094e+02   1.7475660589e+01    0.2731384    0.1681835  65.56  0.001066105    1.692    0.409
       121  -9.9173     72.1885    211.2467   1.3386922881e+02   2.1361603189e+01     0.660472    0.2846845  65.46  0.002438821    3.430    0.708
       122  -8.2803     68.7352    212.3465   1.3471767669e+02   2.1614253965e+01    0.1872619    0.1499821  57.10 0.0004037529    1.177    0.151
       123  -8.0392    224.7862    212.9188   1.0214556576e+02  -5.4943935068e+00    0.1932547    0.1532029 -64.82  0.001062106    1.915    0.478
       124  -9.2895    213.8728    212.2691   1.0411588494e+02  -3.5524790248e+00    0.3218143    0.2613167  67.45  0.001543866    1.776    0.437
       125  -8.1030    106.4602    212.9552   1.2678772223e+02   1.5605692938e+01    0.1967371    0.1313616 -67.01 0.0006540551    1.547    0.354
       126  -8.8866    204.3116    210.8584   1.0573084560e+02  -1.6485706278e+00    0.2699206    0.2056975 -62.92 0.0008042487    1.810    0.448
       127  -8.8912    147.5863    210.9589   1.1757373215e+02   8.7263092879e+00    0.3180496    0.2917645  38.18  0.001274186    1.078    0.072
       128  -8.3158      3.8856    212.1444   1.4734239687e+02   2.9294233876e+01    0.1716385    0.1135591  75.35 0.0003720939    1.176    0.150
       129  -8.4183    192.4324    210.7603   1.0810104260e+02   4.9081633944e-01    0.2425991    0.1344649 -48.67 0.0008145984    2.010    0.503
       130  -9.3745    175.3464    210.0339   1.1149905124e+02   3.7575404715e+00     0.396914    0.2758744  73.54  0.001429232    2.250    0.556
       131  -8.7408    116.2912    210.4616   1.2429420403e+02   1.4464068635e+01    0.3050357    0.1915005  70.21 0.0008638033    1.951    0.487
       132  -8.4281     98.9323    210.7346   1.2810203310e+02   1.7338569507e+01    0.2652105    0.1560634  74.44  0.001176618    2.180    0.541
       133  -9.2812     99.3960    206.2957   1.2737987842e+02   1.8243390819e+01    0.4240654    0.2593583  84.18  0.001655542    2.124    0.529
       134  -8.3912     85.6956    209.7156   1.3081536247e+02   1.9675021758e+01    0.2815051    0.1516232  89.14  0.001173194    2.594    0.615
       135  -8.8577    236.5273    208.4775   9.9120441476e+01  -6.6835984492e+00    0.2481371    0.2021601 -58.48 0.0009014817    1.724    0.420
       136  -8.9846    138.5009    208.4455   1.1912755153e+02   1.0917425845e+01    0.3899784     0.252592  34.48  0.001507792    1.592    0.372
       137  -9.3663     25.8842    208.2628   1.4294038070e+02   2.7901250306e+01     0.297727    0.1589679 -83.27  0.001223055    1.591    0.371
       138  -9.1851    246.3759    207.2978   9.7115996661e+01  -8.0449980752e+00    0.2458881    0.1874301 -28.09 0.0004676263    1.208    0.172
       139  -9.4322    250.0563    202.2571   9.5501099869e+01  -7.8204417010e+00    0.3884694    0.1852409 -36.82  0.001182458    1.932    0.483
       140 -10.3768    123.9398    205.9505   1.2192052490e+02   1.4089889413e+01    0.3483935    0.2265264  72.42            0    1.951    0.487
       141  -8.7799     79.8181    206.3377   1.3164528457e+02   2.1329164660e+01     0.231857    0.1739716  70.81 0.0005879207    1.226    0.184
       142  -8.1571    109.1538    205.4294   1.2510596258e+02   1.6794959282e+01    0.2278779    0.1572329 -70.38 0.0007543002    1.509    0.337
       143  -8.9706     56.1752    205.2825   1.3654422056e+02   2.4917159751e+01    0.2491886    0.1367162  81.60   0.00082216    2.022    0.505
       144  -8.4922     50.9921    205.9928   1.3769735152e+02   2.5432402364e+01    0.2521842     0.137244  80.14 0.0008241337    1.983    0.496
       145  -9.2625     12.5313    204.1146   1.4517228537e+02   3.0185417958e+01     0.310373    0.1733639 -75.17  0.001110433    1.457    0.314
       146  -9.5088    195.0707    203.5416   1.0621533498e+02   1.3340027650e+00    0.4054765    0.3070965 -50.51  0.001088458    1.469    0.319
       147  -9.4225    192.4532    197.2933   1.0555413037e+02   2.9946068899e+00    0.4080041    0.2878511 -60.73  0.001073054    1.813    0.448
       148  -9.0671    183.8163    204.0331   1.0862824092e+02   3.3277490735e+00    0.3306962    0.2560839  77.10 0.0009926603    1.836    0.455
       149  -8.7208    131.2952    204.0836   1.1999235982e+02   1.3163164081e+01    0.3045311    0.2254643  77.64 0.0009116424    1.588    0.370
       150  -7.9239     92.4935    205.4919   1.2877945967e+02   1.9545700197e+01    0.1408082     0.118714  75.45 0.0001142676    1.056    0.053
       151  -7.7052     89.3042    205.3025   1.2945073761e+02   2.0095971420e+01    0.1245106    0.1088995 -27.99 0.0003145125    1.595    0.373
       152  -7.7559    237.6555    204.2822   9.8112606183e+01  -6.1872445451e+00    0.1172642    0.1068292  85.01 0.0002548597    1.638    0.390
       153  -8.6162    179.2471    203.9946   1.0957725930e+02   4.1908052539e+00     0.191108    0.1856709  -3.24 0.0003940867    1.055    0.052
       154  -9.6240    163.7569    203.0917   1.1270985266e+02   7.2952910463e+00    0.4150138    0.2751202  64.75 0.0009924861    1.978    0.495
       155  -8.5012    211.0827    202.1774   1.0274720220e+02  -1.3154142538e+00    0.2373556    0.1792485 -68.02 0.0006385879    1.989    0.497
       156  -9.0882    243.0596    200.9810   9.6497559323e+01  -6.5189743086e+00    0.2856902    0.1934624 -47.45 0.0009589541    1.700    0.412
       157  -8.9002    140.3658    201.2535   1.1750476396e+02   1.2094007950e+01    0.3484532     0.222085  81.77  0.001174373    2.590    0.614
       158  -8.6490     80.0576    201.5491   1.3097293944e+02   2.2376863694e+01    0.3168641    0.1747466  73.21  0.001375223    2.311    0.567
       159  -7.7248     73.3123    202.6457   1.3258439215e+02   2.3130156957e+01    0.1451249   0.08966561  74.03 0.0007044696    1.732    0.423
       160  -8.0090    221.9770    201.4853   1.0050206299e+02  -3.1017775270e+00    0.1702942    0.1197799  64.94 0.0006092867    2.308    0.567
       161  -9.3256    149.5516    198.8332   1.1504470226e+02   1.0876194451e+01    0.4119856     0.274717  87.44  0.001167778    2.438    0.590
       162  -8.7688    123.9838    199.2259   1.2082280124e+02   1.5553567150e+01    0.3204837    0.2132183  86.84  0.001310618    2.049    0.512
       163  -9.2761    112.9212    198.6358   1.2321915611e+02   1.7656890483e+01    0.4768261     0.278005  75.58  0.001744064    2.627    0.619
       164  -8.9691     88.8814    198.7131   1.2863339842e+02   2.1657709691e+01    0.3720566    0.2202232  88.26  0.001652201    2.156    0.536
       165  -8.0861     29.5147    200.5427   1.4154568885e+02   2.9210969343e+01    0.1250937   0.09567593  84.19 0.0001139166    1.029    0.028
       166  -8.9206    237.0130    198.3698   9.7085236284e+01  -5.1101045133e+00     0.291383    0.1710503 -45.63  0.001447664    1.831    0.454
       167  -8.5175    176.9461    199.1215   1.0915097901e+02   5.5789429279e+00    0.2165179    0.1925504  78.81 0.0005585543    1.321    0.243
       168  -8.9398    105.6235    199.0042   1.2492078058e+02   1.8835322706e+01    0.2492464     0.187723  54.92 0.0004343441    1.249    0.199
       169  -7.8562     22.3129    199.3159   1.4287870569e+02   3.0254526278e+01    0.1124922   0.08300015 -54.53 0.0004163467    1.641    0.391
       170  -7.9820    202.3702    198.0916   1.0368878367e+02   1.0001102148e+00    0.1929046     0.129362 -52.93  0.000676628    1.743    0.426
       171  -9.6589     61.4917    197.1985   1.3448134717e+02   2.6044842153e+01    0.4076335    0.2253588  77.42  0.001473451    2.128    0.530
       172 -10.1445     53.3903    197.6008   1.3627722857e+02   2.7026578100e+01    0.2955953    0.2443737 -89.85  0.001870582    1.040    0.038
       173  -8.4584    133.2540    196.4058   1.1825830377e+02   1.4472020208e+01    0.2494802    0.1763451 -82.60  0.000811383    1.788    0.441
       174  -8.0650     36.2984    196.9782   1.3981778201e+02   2.9251973259e+01    0.2062161   0.08147805  87.20 0.0007021591    4.090    0.756
       175  -8.5240    215.8256    195.5973   1.0053669138e+02  -9.8797992228e-01    0.2544023    0.1758825 -56.21 0.0007640829    1.848    0.459
       176  -8.6357    224.4009    194.0382   9.8581490474e+01  -2.2283412636e+00    0.2735551    0.1951178 -54.55 0.0008372257    1.744    0.427
       177  -8.8716    185.2552    194.8237   1.0657243786e+02   4.8375532672e+00    0.2558213    0.2176362 -80.53 0.0008116587    1.495    0.331
       178  -8.8643    160.9282    194.3617   1.1171553066e+02   9.6307918442e+00     0.351134    0.2549042  78.46 0.0009373177    1.930    0.482
       179  -9.3386     43.9731    193.4460   1.3783292416e+02   2.9156576980e+01    0.4359043    0.2019892  68.28  0.001870322    2.691    0.628
       180  -9.4482    245.6923    193.5206   9.4572881558e+01  -5.7228531661e+00      0.24141    0.1860178 -56.43 0.0007884679    1.728    0.421
       181  -8.8929     77.0672    193.9351   1.3061818285e+02   2.4579216991e+01    0.2558287    0.1922839  81.26 0.0007130565    1.270    0.213
       182  -8.4016      6.1308    194.1472   1.4564278572e+02   3.2967572426e+01     0.168936    0.1311332 -76.13 0.0005049311    1.226    0.184
       183  -7.6854    154.6329    193.2970   1.1290738197e+02   1.1074811088e+01    0.1532008    0.1129925  73.48 0.0007030993    1.726    0.420
       184  -8.1491    230.8251    194.3789   9.7442276078e+01  -3.3974488094e+00    0.1847009    0.1617257 -31.48 0.0008121761    1.147    0.128
       185  -8.1848    198.5523    191.9105   1.0324750280e+02   2.8712371795e+00    0.2105389    0.1376634 -42.47  0.000529409    1.544    0.353
       186  -8.3208    179.1494    191.8529   1.0728595680e+02   6.6045587087e+00    0.2160764    0.1972249  83.37 0.0005645632    1.263    0.208
       187  -8.5304    172.3392    191.8773   1.0875350300e+02   7.9250084367e+00    0.2682841    0.2201083 -81.42  0.001010567    1.534    0.348
       188  -8.9881    139.3992    190.7085   1.1585629484e+02   1.4568224767e+01    0.3443011    0.2385339  83.75 0.0009490681    2.027    0.507
       189  -8.0946    117.9545    192.2996   1.2104067222e+02   1.8195245086e+01    0.2031312    0.1762637  51.19  0.000458756    1.118    0.105
       190 -10.4820     92.3732    189.0048   1.2641474184e+02   2.3346330346e+01    0.9647597    0.3420466  52.70  0.003209704    3.476    0.712
       191  -8.7531     17.4556    191.5105   1.4317626790e+02   3.2489727467e+01    0.2047203    0.1135128  35.98  0.001062164    2.045    0.511
       192  -8.7368    216.7511    188.2406   9.8890201605e+01   1.7506720518e-01    0.2425958    0.2128881  78.22 0.0007688503    1.528    0.345
       193  -9.1910    155.9257    187.6446   1.1155089054e+02   1.2031747082e+01     0.357402    0.2158796 -60.61  0.000871264    1.946    0.486
       194  -8.2880    148.3881    189.2325   1.1354694653e+02   1.3160720844e+01    0.2053392    0.1405576 -64.22 0.0005728714    1.668    0.401
       195  -8.9533    129.0816    188.5539   1.1783147719e+02   1.7000778002e+01    0.3062868    0.2186581 -89.94 0.0009026468    1.783    0.439
       196  -9.8150    120.9472    186.9251   1.1942829001e+02   1.8878730397e+01    0.5991618    0.3140747 -74.56  0.002126709    3.073    0.675
       197  -8.3490     70.9305    189.0904   1.3134751433e+02   2.6611005990e+01    0.2070978    0.1579619  75.98 0.0003576265    1.235    0.190
       198  -8.7985     34.1917    188.2632   1.3937598123e+02   3.1482208271e+01    0.3044315    0.1572333  83.05  0.000990851    2.091    0.522
       199  -8.1795    237.0616    188.3205   9.5090449101e+01  -3.4186179263e+00    0.1804696    0.1655799  -6.84 0.0005491154    1.065    0.061
       200  -8.8998    191.4132    187.5513   1.0384806044e+02   5.0807936893e+00    0.2972066    0.2462533 -80.85  0.001165245    1.596    0.374
       201  -8.7952    165.0024    186.7384   1.0935659962e+02   1.0435017467e+01    0.3082172    0.2117349 -67.48 0.0008094749    1.862    0.463
       202  -9.2671     54.9482    187.3134   1.3472195734e+02   2.9211456282e+01    0.4113351    0.2073575  67.85  0.001732159    2.454    0.592
       203  -8.9158     49.9902    188.3724   1.3595121036e+02   2.9593875992e+01    0.1785517    0.1487652  68.51 0.0004997913    1.140    0.123
       204  -7.7280    230.4600    187.5124   9.6141093116e+01  -2.1415285396e+00    0.1354768    0.1240081 -16.56   0.00019274    1.054    0.051
       205  -9.1255    109.5931    186.1648   1.2194833122e+02   2.1095068853e+01    0.3973885    0.2488555  79.66  0.001067389    2.246    0.555
       206  -8.9782     28.4931    187.0968   1.4047224703e+02   3.2368078308e+01    0.2166508    0.1698455  56.03 0.0005774773    1.307    0.235
       207  -8.5654    249.2974    185.7799   9.2407402059e+01  -5.0231385754e+00    0.2373128    0.1825134 -51.66 0.0008464612    1.546    0.353
       208  -8.7242    210.0442    184.4420   9.9433705123e+01   2.1204799886e+00    0.2464919    0.1929767 -54.15 0.0004843388    1.448    0.309
       209  -8.3455    202.8125    184.7017   1.0093274642e+02   3.4412399537e+00    0.2532786    0.1855588 -69.08 0.0007793008    1.958    0.489
       210  -8.6229    183.0148    184.8907   1.0508073353e+02   7.2541824073e+00    0.2591064     0.209758 -49.00 0.0006847933    1.280    0.219
       211  -9.0299     66.4602    184.4395   1.3173905609e+02   2.8341966510e+01    0.3367339     0.214205  79.79  0.001018671    1.715    0.417
       212  -8.4812    224.1145    183.6590   9.6550409301e+01  -3.2805289772e-01    0.2326154    0.1797225 -46.05 0.0005922173    1.349    0.259
       213  -8.1827    196.9956    183.8254   1.0193941030e+02   4.7304876258e+00    0.2305159    0.1701982  70.62 0.0008153571    1.930    0.482
       214  -9.1293    174.3207    183.4815   1.0666791444e+02   9.2676759314e+00    0.3204784    0.2439229 -64.70 0.0008230393    1.552    0.355
       215  -8.0564    143.7433    184.5819   1.1372732318e+02   1.5087752454e+01    0.2063747    0.1360074  52.89 0.0004759077    1.546    0.353
       216  -8.6294    241.1269    181.6315   9.3012015472e+01  -2.9571573479e+00    0.3756042    0.2283274 -60.58  0.001619075    2.762    0.638
       217  -8.9013     44.4341    182.6279   1.3651032080e+02   3.1616516259e+01     0.318118    0.1759268  67.64  0.001156725    1.980    0.495
       218  -8.1318     38.8068    182.7831   1.3777974125e+02   3.2234990253e+01    0.1814168    0.1254104  75.50 0.0005051235    1.352    0.260
       219  -7.8035      1.7638    183.6089   1.4568763896e+02   3.5678227015e+01    0.1509335   0.09091739  52.40 0.0009444451    1.657    0.397
       220  -7.7597     83.2942    182.6284   1.2756115613e+02   2.6292672943e+01    0.1507643   0.09957309  78.73 0.0007026489    1.730    0.422
       221  -8.5391     59.6009    181.8438   1.3296933708e+02   2.9892362651e+01    0.3184372    0.1407692  53.29  0.000924124    2.453    0.592
       222  -9.0554    147.4667    180.5901   1.1210526055e+02   1.5244716895e+01    0.3399086    0.2508357  78.21  0.001052796    1.748    0.428
       223  -9.6203     25.6728    179.0320   1.4026126931e+02   3.4519918791e+01     0.601329    0.2436534  82.65  0.002163221    3.994    0.750
       224  -8.5365    137.7037    179.6025   1.1417510516e+02   1.7382812144e+01    0.3038046    0.2073131  78.40 0.0009554985    2.056    0.514
       225  -8.0397    114.7968    180.5859   1.1975710927e+02   2.1468259932e+01    0.2074111    0.1305973  53.39 0.0005614199    1.616    0.381
       226  -9.4704    191.4148    178.3147   1.0196241075e+02   6.9199478998e+00    0.3207985    0.2723978  71.13 0.0006659002    1.419    0.295
       227  -7.9782    169.3829    179.1298   1.0687022485e+02   1.1173497835e+01    0.2101991    0.1411309 -59.19  0.000933581    1.700    0.412
       228  -8.9325     36.0048    176.9109   1.3773920315e+02   3.3924779783e+01    0.4968928    0.2091701  82.09  0.001664499    4.416    0.774
       229  -9.4797    248.2886    176.6624   9.0747831827e+01  -3.3132902469e+00    0.4484585    0.2550893 -51.17  0.001779309    2.077    0.518
       230  -8.4667    250.5305    172.9131   8.9600813149e+01  -3.0463364279e+00    0.1938089    0.1505881 -32.58 0.0004740787    1.136    0.120
       231  -8.6405    205.1678    177.7097   9.9018052850e+01   4.3379144315e+00    0.2546761    0.1907792 -50.53 0.0006511895    1.415    0.293
       232  -8.3346    129.0230    177.3616   1.1578910006e+02   1.9570425380e+01    0.2740391     0.203637 -89.05 0.0008493061    1.644    0.392
       233  -8.1042    101.2075    178.1501   1.2257824279e+02   2.4437603129e+01    0.2032497    0.1609744  85.93 0.0005310929    1.305    0.234
       234  -8.3597    231.2220    177.2220   9.3904337015e+01  -4.4548460398e-01    0.1818991     0.160313 -59.37 0.0005016779    1.352    0.260
       235  -8.2209    217.6036    177.3472   9.6495430576e+01   2.0331021552e+00    0.2029189    0.1699259 -75.67 0.0006589305    1.603    0.376
       236  -9.4363    183.1562    176.3125   1.0329330664e+02   8.9828301975e+00    0.2728194    0.2395396 -76.39 0.0006143523    1.325    0.245
       237  -8.8269     88.9707    176.8506   1.2530322746e+02   2.6777674255e+01    0.3036936    0.2083221  87.38 0.0008784058    1.660    0.398
       238  -9.8957     57.2411    173.2018   1.3235407758e+02   3.2266405343e+01    0.8453438    0.3898139  83.21  0.002646208    4.701    0.787
       239  -8.5986     13.0520    177.0046   1.4278524785e+02   3.6191476777e+01    0.1996054    0.1143031  72.72 0.0007108743    1.700    0.412
       240  -7.8892    211.4931    176.4685   9.7502329090e+01   3.3580456071e+00    0.1424857    0.1351539 -15.81 0.0007551489    1.023    0.023
       241  -9.2347    158.8498    175.2014   1.0842815370e+02   1.4155066181e+01    0.4234475    0.2857747  76.61  0.001229472    2.274    0.560
       242  -9.2105    104.3134    174.8367   1.2125458959e+02   2.4690768047e+01    0.5277356    0.2891398  69.25  0.001915227    2.935    0.659
       243 -10.6993     75.8880    170.5211   1.2746151158e+02   3.0324741336e+01     1.178469    0.4513428 -74.53  0.003409686    4.675    0.786
       244  -8.1558    224.3858    174.2737   9.4564077266e+01   1.3397866690e+00    0.1939903    0.1264133 -47.47 0.0005606221    1.573    0.364
       245  -9.3376    175.8781    172.3777   1.0404464302e+02   1.1287334732e+01    0.3897032    0.2530769 -52.45 0.0008189232    1.619    0.382
       246  -8.2516    143.0005    172.9819   1.1163732874e+02   1.7844415964e+01    0.2415944    0.1837459  84.42 0.0005809102    1.652    0.395
       247  -8.6813    198.3470    170.4975   9.8882419472e+01   7.1069610670e+00     0.251702    0.2162886  73.76 0.0007195756    1.410    0.291
       248  -8.4881    134.6543    172.2011   1.1345348519e+02   1.9673694289e+01    0.2624694    0.2257684  43.31 0.0009083538    1.170    0.145
       249  -9.4757    121.3720    170.6084   1.1633446094e+02   2.2599738537e+01    0.4009738    0.2807931 -81.17  0.001037621    1.757    0.431
       250  -8.9969     44.9137    170.9225   1.3496196470e+02   3.4333142835e+01    0.3720415    0.1978613 -89.38  0.001300594    2.144    0.533
       251  -8.7022    230.3758    170.2345   9.2607682237e+01   9.7780733948e-01    0.2462347    0.1658195 -45.47 0.0008759454    1.461    0.316
       252  -8.4826     39.4052    170.6028   1.3621037368e+02   3.5039294430e+01    0.1952842    0.1305125  74.37 0.0008710174    1.505    0.336
       253  -9.0214     19.8552    170.5846   1.4066910918e+02   3.7047229957e+01    0.2136709    0.1641855  62.48 0.0006604278    1.309    0.236
       254  -9.2213     20.0398    165.7742   1.4011672155e+02   3.8150671013e+01    0.4350653    0.1942495  71.44  0.001832391    3.087    0.676
       255  -8.2085    237.0978    169.8231   9.1305873525e+01  -1.6807095802e-01    0.2011658    0.1809737 -55.55   0.00053553    1.264    0.209
       256  -8.2253    205.7385    170.1776   9.7317559209e+01   5.6978071408e+00    0.2293977    0.1744066 -57.41 0.0006250184    1.492    0.330
       257  -9.1019    167.3065    168.7973   1.0518684618e+02   1.3822485507e+01    0.3781793    0.2670422  75.45  0.001173802    2.019    0.505
       258  -8.4749    149.8032    169.5983   1.0935803432e+02   1.7241211238e+01      0.29133     0.199308 -69.33 0.0007450494    1.802    0.445
       259  -7.8945    244.4245    169.2073   8.9889014228e+01  -1.3550243805e+00    0.1924897    0.1179898 -47.88 0.0005661035    1.672    0.402
       260  -8.1070     88.6232    168.8213   1.2405053697e+02   2.8769757875e+01    0.2110776    0.1286752 -74.32 0.0008097941    1.778    0.437
       261  -8.0799    218.9202    168.5097   9.4386295520e+01   3.4512962582e+00    0.1987842     0.142169  45.26 0.0005767118    1.487    0.327
       262  -8.7006    111.6199    167.6296   1.1815049486e+02   2.5112792029e+01     0.302595    0.2026664  78.77 0.0008299121    2.003    0.501
       263  -8.9633    192.0572    166.8099   9.9393892212e+01   9.1305785324e+00    0.2861566     0.236015 -65.44 0.0006956666    1.394    0.282
       264  -9.1182    185.3175    167.0006   1.0085880191e+02   1.0477029285e+01    0.2654491    0.2139887  81.82   0.00124106    1.604    0.377
       265  -9.7936    136.8406    164.7552   1.1142663546e+02   2.0966106392e+01    0.6649862    0.3572045  62.94  0.002322743    2.829    0.646
       266 -10.1265     94.9137    162.9458   1.2144233125e+02   2.9163610835e+01    0.8128141    0.4439947  80.56  0.002582378    4.020    0.751
       267  -8.2444    233.9498    164.9629   9.0850989098e+01   1.2862546181e+00    0.2106453    0.1663688 -64.78 0.0005845601    1.604    0.377
       268  -8.6512    159.6486    164.6093   1.0603153251e+02   1.6333676899e+01    0.2965465    0.2165939  88.61 0.0009822337    1.945    0.486
       269  -9.3457     63.1312    164.6666   1.2968758519e+02   3.3550498681e+01    0.3702154    0.2007204  48.75  0.001475312    1.940    0.485
       270  -9.1309     60.6302    160.3033   1.2963923698e+02   3.4944358695e+01    0.4245572    0.2997424 -73.84   0.00180602    1.279    0.218
       271  -9.6536     33.5911    163.5338   1.3670281806e+02   3.7348300991e+01    0.5405234    0.2345311  59.45  0.002251233    3.024    0.669
       272  -8.3094    240.0127    164.2862   8.9633412463e+01   3.0466373634e-01    0.1845629    0.1753798 -26.40 0.0005029272    1.092    0.084
       273  -8.6375    213.0157    163.7909   9.4513237858e+01   5.5087346787e+00      0.25672    0.1986687 -44.36 0.0006627571    1.255    0.203
       274  -8.9533    246.0280    163.0133   8.8327713005e+01  -5.4057264922e-01    0.2093778    0.1815249 -33.54 0.0004594831    1.049    0.046
       275  -9.3560      3.4314    162.4612   1.4351407917e+02   4.0318215839e+01     0.375038    0.1749784  57.31  0.001919112    2.355    0.575
       276  -8.8101    151.7314    161.1054   1.0711601584e+02   1.8767091006e+01    0.3135616    0.2083714 -62.87 0.0009492697    1.721    0.419
       277  -8.8758    177.4009    160.5605   1.0116864936e+02   1.3493138749e+01     0.309922    0.2483166 -77.27 0.0008132334    1.538    0.350
       278  -8.2577    204.8097    163.0917   9.5979488085e+01   7.2867186104e+00    0.2220394    0.1972888 -66.43 0.0005737946    1.263    0.208
       279  -8.5405    227.3879    159.3267   9.0840364464e+01   3.5649643956e+00    0.2671154    0.1962142 -72.10 0.0009075273    1.975    0.494
       280  -8.8419     84.4984    159.8704   1.2352546631e+02   3.1603803694e+01    0.2738186    0.2202169 -68.83 0.0005820004    1.148    0.129
       281  -9.7275     81.5853    154.7610   1.2335609648e+02   3.3306178271e+01    0.4849495    0.2931244  74.83  0.001508863    2.403    0.584
       282  -8.0513    236.9982    158.9647   8.9039469073e+01   1.8222362822e+00    0.2130243    0.1681417 -68.49 0.0005915416    1.642    0.391
       283  -8.3444    127.9982    159.0299   1.1239291173e+02   2.4060082868e+01    0.2485746    0.1852057  84.45  0.000553875    1.690    0.408
       284  -9.7689    105.7370    158.0004   1.1776501677e+02   2.8490554148e+01    0.4898618    0.3345885  86.26   0.00141738    1.952    0.488
       285  -8.4758    196.5105    158.0021   9.6546096039e+01   1.0018037693e+01    0.2631674    0.2146683  71.77 0.0007295157    1.487    0.328
       286  -8.2666    188.2781    157.7821   9.8213160016e+01   1.1787772060e+01    0.2714799    0.1809741 -47.72 0.0007256918    1.489    0.328
       287  -9.0090    167.5421    157.2707   1.0263420992e+02   1.6297012738e+01    0.3411062     0.237734 -72.39  0.001189022    1.935    0.483
       288  -9.5429    250.2300    157.8518   8.6544513831e+01  -3.6668758804e-01    0.3347203    0.1686207 -38.03 0.0007990191    1.758    0.431
       289  -9.2662     42.3710    157.1940   1.3373714071e+02   3.7918037645e+01    0.2823106    0.1928829 -72.72 0.0009614346    1.243    0.196
       290  -8.1880    218.0590    156.6134   9.1987985098e+01   5.9031535987e+00    0.2593583    0.1827817 -49.64  0.000854251    1.429    0.300
       291  -8.6717    157.4525    156.3828   1.0474909404e+02   1.8634755027e+01    0.2751689     0.242029 -80.96 0.0008311158    1.237    0.192
       292  -9.2932    119.4457    155.4061   1.1376972861e+02   2.6579073973e+01    0.4267585    0.2858413 -82.50  0.001459471    2.048    0.512
       293  -8.8511    100.2201    156.3513   1.1885022457e+02   2.9861642145e+01    0.3062126    0.2007862 -70.43  0.001090128    1.637    0.389
       294  -9.2157     49.5150    155.3173   1.3167831459e+02   3.7547740859e+01    0.3360026    0.2104123  77.09  0.001651376    1.889    0.471
       295  -8.9263    241.7959    154.5447   8.7268896654e+01   1.7435092874e+00    0.3712732     0.246041  75.41  0.001432299    2.731    0.634
       296  -7.9983    204.4821    155.2499   9.4323576443e+01   8.9241730792e+00    0.2091412    0.1375716 -53.95 0.0009308066    1.643    0.391
       297  -8.2992    144.6298    155.0706   1.0749105199e+02   2.1621300507e+01    0.2473508    0.1915754 -72.84 0.0007707126    1.476    0.323
       298 -10.0850     67.8673    153.9404   1.2676352899e+02   3.5517999840e+01    0.4479918    0.3254093  77.62  0.002159569    1.528    0.346
       299  -9.5025    132.8239    153.1048   1.0993996070e+02   2.4495245739e+01    0.4450121    0.3339334  83.55   0.00127123    1.697    0.411
       300  -8.6929    133.3338    148.3610   1.0877075580e+02   2.5505048163e+01    0.3207071    0.2298882 -28.23    0.0013177    1.758    0.431
       301  -8.2326    151.6228    152.8239   1.0532571244e+02   2.0671774186e+01    0.2253559     0.145143 -59.48 0.0009374254    1.708    0.415
       302  -9.0277     20.5978    153.1016   1.3854041330e+02   4.1072792879e+01    0.1752649    0.1357991  83.20 0.0007779506    1.207    0.172
       303  -8.2225    175.3205    152.0174   9.9719141789e+01   1.5778766894e+01    0.2152764    0.1912442 -50.98 0.0002121278    1.114    0.102
       304  -9.8886     28.9997    150.4928   1.3614962955e+02   4.0912985611e+01     0.495037     0.238813  73.15  0.002018908    3.191    0.687
       305  -9.4517    248.7391    149.3900   8.5014045584e+01   1.4060347715e+00    0.3275493    0.1937014 -40.58 0.0008120133    1.488    0.328
       306  -8.5359    243.1765    150.2287   8.6116450559e+01   2.2733811772e+00    0.2530926    0.1615249 -58.32 0.0007993381    1.923    0.480
       307  -8.8705    189.4637    150.0791   9.6233661958e+01   1.3149421313e+01    0.2994235    0.2352971 -69.52 0.0006992095    1.512    0.339
       308  -8.0558    182.3948    151.2392   9.8000232777e+01   1.4422738415e+01     0.221877    0.1417381 -55.60  0.000630995    1.708    0.415
       309  -8.2632    162.5743    150.7700   1.0230753822e+02   1.8798644187e+01    0.2238192    0.1471184 -58.61 0.0009406752    1.677    0.404
       310  -9.0100     98.3373    151.0247   1.1828671833e+02   3.1482162703e+01       0.2717    0.1978658  71.69  0.001044719    1.626    0.385
       311  -7.8467    237.2513    150.6362   8.7214987693e+01   3.3074207693e+00    0.1410224    0.1037256 -61.32 0.0006955793    1.619    0.382
       312  -8.0045    212.8782    149.8208   9.1476073434e+01   8.2776774613e+00    0.1954741    0.1688956 -65.41 0.0003090909    1.277    0.217
       313  -8.7221     54.0314    150.0106   1.2970093242e+02   3.8289367767e+01    0.2564678    0.1775931  63.12 0.0009546102    1.607    0.378
       314 -10.3944     54.9286    144.8290   1.2861640968e+02   3.9438017240e+01    0.8185177    0.4322561  79.60  0.002836484    3.482    0.713
       315  -9.9937     40.2599    148.2501   1.3298739827e+02   4.0302774775e+01    0.5448377    0.2641957  63.80  0.002219684    3.081    0.675
       316  -8.8220      2.8088    150.6075   1.4248973145e+02   4.3079359677e+01    0.1508549   0.09946177  49.11 0.0009492073    1.696    0.411
       317  -8.4880    198.8410    149.1011   9.4078836766e+01   1.1352336455e+01    0.2298197    0.2013889 -72.73 0.0005088564    1.275    0.216
       318  -9.3367    233.4324    147.5790   8.7218005662e+01   4.6063249324e+00    0.2651691    0.1990575 -42.98 0.0007410413    1.221    0.181
       319 -10.2146    221.7797    146.5058   8.9069931685e+01   7.1134357202e+00    0.3195558    0.2621278  68.13 0.0006149472    1.455    0.313
       320 -10.0912    148.9896    145.0401   1.0418831437e+02   2.3005186964e+01    0.5616583    0.3789308 -88.63  0.002104763    2.413    0.586
       321  -9.5223    139.1097    145.3473   1.0666195485e+02   2.5018568636e+01    0.4460114    0.2982286 -70.51  0.001034753    1.904    0.475
       322 -10.1064    106.8477    144.7297   1.1475821894e+02   3.1498523114e+01    0.6887215    0.4125223  77.07  0.002393529    3.118    0.679
       323  -9.1626     13.5124    146.5025   1.3947649490e+02   4.3217482425e+01    0.3182453    0.1795288  65.94  0.001140645    2.057    0.514
       324  -7.8384    206.5444    146.5125   9.1959947738e+01   1.0251501335e+01    0.1501568     0.141145 -53.15 0.0003035059    1.060    0.057
       325  -7.9317    175.4585    146.2563   9.8371027785e+01   1.6996397669e+01    0.2145669    0.1466043 -57.14 0.0005354327    1.583    0.368
       326  -8.8916     33.1862    145.6701   1.3442999416e+02   4.1653412522e+01    0.3074638    0.1728464  64.42  0.001359865    2.224    0.550
       327  -8.9535    242.7050    143.3235   8.4716848464e+01   3.6208007205e+00    0.1941815    0.1586044 -15.12 0.0006453655    1.336    0.252
       328 -11.1513     68.6256    141.1771   1.2429111620e+02   3.8529040148e+01    0.8729239    0.4581483 -59.35  0.003135329    1.695    0.410
       329 -10.1388     73.6883    134.0783   1.2152207606e+02   3.9532025156e+01    0.4548924    0.2201751  50.33  0.001805291    2.519    0.603
       330 -10.0225     73.0141    129.5309   1.2078128375e+02   4.0725544864e+01    0.4835705    0.3026631 -81.66   0.00137302    2.155    0.536
       331  -8.9091    247.1632    143.8930   8.4105167108e+01   2.6838350768e+00    0.2718016    0.1789891 -35.19 0.0006156209    1.378    0.274
       332  -8.4434    250.3100    141.0368   8.2990047948e+01   2.6171614389e+00    0.2096616    0.1777106 -19.49 0.0006113081    1.217    0.179
       333 -10.3787     88.9522    146.4746   1.1985034567e+02   3.4164056511e+01    0.6896168    0.4508718 -86.13  0.002782377    2.029    0.507
       334  -8.7689    165.5552    144.0301   1.0007536576e+02   1.9647557654e+01    0.2838175    0.2179526  66.56 0.0006684348    1.495    0.331
       335  -9.4910      2.6699    141.8073   1.4158572354e+02   4.5109103360e+01    0.3617301    0.1758097  82.45  0.001682473    2.411    0.585
       336  -9.3716     78.2158    147.2843   1.2286009138e+02   3.5648554289e+01    0.3072595    0.2007422  68.53 0.0009957394    1.940    0.485
       337  -8.1015    181.9282    141.9190   9.5955215833e+01   1.6510666889e+01    0.2408127    0.1886938 -82.90 0.0005260298    1.626    0.385
       338  -9.0489     45.7433    140.6417   1.3037193697e+02   4.1533626871e+01    0.2940787    0.1648676  45.46   0.00145679    1.995    0.499
       339 -10.0418     23.0764    138.5556   1.3604358263e+02   4.4284714204e+01    0.5032539    0.3281141  56.96    0.0023334    1.758    0.431
       340  -9.6847    125.0709    142.8637   1.0962220596e+02   2.8464122002e+01    0.5280584    0.3368513 -82.83  0.001589307    2.579    0.612
       341  -7.5720    218.5203    138.5327   8.7884620866e+01   9.3273652782e+00     0.147862    0.1370854 -47.98 6.521938e-05    1.031    0.030
       342  -8.2921    207.6475    138.2939   8.9873791104e+01   1.1665975429e+01    0.2346021    0.1740312 -75.07 0.0008229131    1.777    0.437
       343  -8.5489    197.7101    137.6384   9.1675699045e+01   1.3944818855e+01    0.2815003     0.185508 -65.01 0.0009253756    1.963    0.490
       344  -8.3891    172.0518    138.2781   9.7258659736e+01   1.9476164531e+01    0.2188328    0.2069357  78.10 0.0005210228    1.088    0.081
       345  -8.9155    114.2975    138.1512   1.1135175543e+02   3.1685002924e+01     0.306439    0.1951271  66.58    0.0010095    2.164    0.538
       346  -8.5863     93.4478    137.7436   1.1684562908e+02   3.5539131594e+01    0.3439502    0.1865477  57.07  0.001245636    2.422    0.587
       347  -8.3273     80.6806    137.6971   1.2032246895e+02   3.7609809728e+01    0.2089874    0.1793666 -45.48  0.001140577    1.172    0.147
       348 -10.3352     83.4207    132.9919   1.1859002912e+02   3.8321580496e+01    0.6074752    0.3414629 -66.56  0.001286204    1.942    0.485
       349 -10.3313     62.1161    135.8262   1.2507252888e+02   4.0708099209e+01    0.4739559    0.2942391  45.52  0.001542667    1.782    0.439
       350  -8.6879    250.7428    130.0909   8.0588496353e+01   4.5004588042e+00    0.4344706    0.1183863 -39.32  0.001427651    3.270    0.694
       351  -9.0229    248.3852    135.5085   8.2116786671e+01   3.9701492753e+00    0.3232701    0.1859254 -43.56 0.0007467543    1.531    0.347
       352  -8.5233    246.9770    130.5226   8.1267518894e+01   5.1385933925e+00     0.262081     0.169424 -52.20 0.0006243173    1.512    0.339
       353  -9.0419     39.1114    136.2479   1.3144464547e+02   4.3305329873e+01    0.2305217    0.1651613  61.01 0.0008576149    1.594    0.373
       354  -7.6084    231.6207    134.2598   8.4605523300e+01   7.4657395714e+00    0.1421867    0.1104342 -81.51 0.0006975708    1.669    0.401
       355  -8.6113    179.3581    133.8591   9.4603759297e+01   1.8797174263e+01    0.2998789    0.2254433 -68.01 0.0008512023    1.564    0.361
       356 -10.0290    132.3822    131.6305   1.0513526659e+02   2.9597315255e+01    0.5441765    0.3766954 -81.34  0.001201305    2.094    0.523
       357  -9.0544    112.7933    133.4070   1.1066492605e+02   3.3097634390e+01    0.3461096     0.249816  80.68  0.001005085    1.891    0.471
       358  -8.4667     10.1341    134.1752   1.3881231132e+02   4.6341585558e+01    0.1668537    0.1247899  82.83 0.0007093216    1.335    0.251
       359  -8.0006    237.4176    133.2917   8.3414939855e+01   6.4908963585e+00    0.2034983    0.1212586 -49.53 0.0008769358    1.613    0.380
       360 -10.3576     98.1363    130.1844   1.1389766496e+02   3.6546577766e+01    0.6849197    0.2484069 -54.96  0.001839256    2.715    0.632
       361  -8.9359    143.1156    131.6850   1.0245941618e+02   2.7308116977e+01    0.3177313    0.2361838 -77.29 0.0008010001    1.709    0.415
       362  -8.7777     30.9946    130.6584   1.3276260564e+02   4.5435796677e+01     0.168964    0.1539138 -78.47 0.0004981617    1.119    0.107
       363 -10.1595     12.9976    129.4931   1.3744792154e+02   4.7215126331e+01     0.431906    0.2380134  75.84    0.0017107    2.370    0.578
       364  -7.9829    220.7711    129.9750   8.5536889453e+01   1.0516024373e+01     0.200923    0.1149532 -40.77 0.0008699659    1.621    0.383
       365  -7.9888    204.4059    130.2173   8.8625574774e+01   1.3985285903e+01    0.2188447    0.1349582 -52.06 0.0007054674    1.654    0.395
       366  -7.9959    192.8048    130.5629   9.1000979708e+01   1.6480128354e+01    0.2043298    0.1492423  64.87 0.0004514529    1.568    0.362
       367  -8.8907    168.4066    129.5464   9.5973097922e+01   2.2183639051e+01    0.3183355    0.2507456 -73.61 0.0009972253    1.492    0.330
       368  -9.3589    152.9092    128.8580   9.9393649114e+01   2.5801839579e+01    0.5195388    0.2396739 -54.15  0.001033879    2.470    0.595
       369  -8.0271      1.9405    130.4443   1.4045710363e+02   4.7759201854e+01    0.1568913   0.07831874  54.19 0.0008075382    2.503    0.600
       370  -7.9313    211.6624    129.3236   8.7044908149e+01   1.2584830860e+01    0.1553193    0.1158941 -76.37 0.0007051016    1.718    0.418
       371 -10.5272     60.0791    125.4141   1.2362981616e+02   4.3474073978e+01     0.694056    0.4120992  86.18  0.002424879    2.880    0.653
       372 -10.8214     44.9627    124.2577   1.2775023362e+02   4.5539210172e+01     1.028865    0.5792588  85.50  0.004195973    3.001    0.667
       373  -9.8599    117.9153    125.4770   1.0741478222e+02   3.3960844058e+01    0.5469183    0.3779466 -81.23  0.001490326    2.092    0.522
       374  -8.1041    228.4019    125.2541   8.3139837945e+01   9.8215905794e+00    0.2105178    0.1246009 -49.54 0.0007833149    1.618    0.382
       375  -8.8171    179.2289    124.8425   9.2448042620e+01   2.0732127079e+01    0.2879815    0.2266029 -75.35 0.0006446651    1.505    0.336
       376 -10.4303     28.4346    122.3740   1.3213597628e+02   4.7616167918e+01    0.7378286     0.374689  80.76  0.002818906    3.844    0.740
       377  -7.9526    162.5325    136.5017   9.8991837423e+01   2.1976038736e+01    0.1583182    0.1514674 -76.32 0.0002451953    1.045    0.043
       378  -7.5735    188.6312    124.2848   9.0344368806e+01   1.8710512260e+01    0.1597534     0.121356 -86.37 0.0007018562    1.700    0.412
       379  -8.4043    172.0685    121.6575   9.3213511404e+01   2.3038027477e+01    0.2694018    0.2056798 -56.72 0.0006066864    1.348    0.258
       380  -8.8473    158.6136    121.6063   9.6244372336e+01   2.6114619944e+01    0.3129698    0.2318723 -67.01 0.0007323859    1.574    0.365
       381  -8.1323     92.6312    122.2806   1.1361040041e+02   3.9366701358e+01    0.1504294    0.1144274  76.06 0.0005630801    1.690    0.408
       382  -9.4344     71.1277    119.9840   1.1928275609e+02   4.3268438587e+01    0.3801198    0.2408755 -80.48  0.001079492    2.194    0.544
       383  -7.5257    244.6964    120.3152   7.9409283163e+01   7.4297205140e+00    0.1420973    0.1016834 -67.13 0.0003732226    1.620    0.383
       384  -9.5578    141.5713    118.6061   9.9582892570e+01   3.0572055882e+01    0.4460826    0.2938776 -70.38  0.001119141    2.109    0.526
       385  -9.7750    130.6441    118.3341   1.0228374217e+02   3.2984422591e+01    0.4703123    0.2960831 -59.58  0.001366238    1.799    0.444
       386  -9.2345     20.4453    118.9041   1.3383876953e+02   4.9093543624e+01    0.2650689    0.1748388  36.43  0.001094552    1.815    0.449
       387  -9.8753      2.8139    117.2404   1.3852809593e+02   5.0703451796e+01    0.4129309    0.2033995  82.94  0.001908981    2.895    0.655
       388  -8.2290    125.0295    118.2263   1.0372109305e+02   3.4180554145e+01    0.2052236    0.1289988  43.23 0.0008460642    1.636    0.389
       389  -9.7188    109.3887    114.4552   1.0698689228e+02   3.8145792279e+01     0.461356    0.3254373 -83.67  0.001440468    2.114    0.527
       390  -9.4489     36.6501    115.2160   1.2849128984e+02   4.8516936021e+01    0.2583314    0.1815901  63.03  0.001043654    1.816    0.449
       391  -8.4933    250.1405    115.1623   7.7474020818e+01   7.2825171252e+00    0.2006392    0.1864401 -13.88 0.0009269711    1.243    0.195
       392  -8.3224    192.9308    115.1853   8.7261686853e+01   1.9575570813e+01    0.2386061    0.1972457 -69.30 0.0005441884    1.290    0.225
       393  -9.9834     78.9435    112.6814   1.1530322727e+02   4.3815261323e+01    0.5202072    0.3540774 -87.93  0.001949606    2.278    0.561
       394  -9.1785     65.7136    115.4824   1.1988429150e+02   4.5075931562e+01    0.2498954    0.1337299  38.41 0.0008405027    2.057    0.514
       395  -7.7425    167.4459    114.4899   9.2429963458e+01   2.5607618290e+01     0.156897    0.1502802 -70.51 0.0001394457    1.023    0.022
       396 -10.0424     92.6819    112.4120   1.1120797923e+02   4.1644344690e+01    0.5281253    0.3292336 -66.84  0.001642493    1.987    0.497
       397  -9.3871     51.3812    113.4175   1.2373175575e+02   4.7360120279e+01    0.2547885    0.2117765 -83.98 0.0004935512    1.319    0.242
       398 -10.0930    133.7643    109.3165   9.9133816174e+01   3.4300072410e+01    0.7104495    0.3122197 -52.42  0.002453618    2.544    0.607
       399  -9.6064    121.8658    112.6897   1.0313488785e+02   3.6068770778e+01    0.3097489    0.2644915 -87.38 0.0006155941    1.365    0.267
       400  -8.2276    174.8109    112.0225   9.0195197919e+01   2.4409923506e+01    0.2567894    0.1711906 -67.77 0.0006273402    1.947    0.486
       401  -8.3983    159.2084    111.8038   9.3602957566e+01   2.8069269101e+01    0.2738878    0.2010537 -56.01 0.0007038385    1.421    0.296
       402  -9.9798     66.3427    110.4603   1.1855801271e+02   4.6153396770e+01    0.4717792    0.3029226 -74.48  0.001550078    1.980    0.495
       403  -9.4092     14.2072    111.2120   1.3439868336e+02   5.1319948438e+01    0.3280045     0.195647  75.45  0.001277435    2.358    0.576
       404  -9.4764      8.3277    109.9451   1.3590800909e+02   5.2002680330e+01     0.349549    0.1721371  52.91  0.001720598    2.915    0.657
       405  -7.9706    149.5373    110.5229   9.5541371814e+01   3.0546383468e+01    0.1546655    0.1527227 -49.90 0.0008088865    1.029    0.028
       406  -9.9419    248.2367    108.2626   7.6261540774e+01   8.8802531432e+00    0.3224367    0.2657845  89.02  0.001675627    1.354    0.261
       407 -10.6722    248.8812    103.0601   7.5044346798e+01   9.6645210369e+00    0.4210241    0.2852103 -48.94  0.001684714    1.290    0.225
       408  -9.4693    139.7287    104.4100   9.6315052971e+01   3.4036852963e+01    0.4353967    0.2855572 -57.88 0.0007080116    1.725    0.420
       409 -10.5101     45.7913    102.6450   1.2313399851e+02   5.0451774654e+01     0.701458    0.4261005  72.90  0.002986458    3.190    0.686
       410 -10.7306     22.9482    102.8486   1.3031165832e+02   5.2548843569e+01    0.6629956    0.3941063  77.48  0.002861307    2.783    0.641
       411  -8.4465     78.3019    105.3444   1.1370005370e+02   4.5583479254e+01    0.1485396    0.1047167 -24.27 0.0007038832    1.682    0.405
       412  -8.1239    166.4567    104.2737   9.0010113747e+01   2.7937476504e+01    0.2113262    0.1451102 -54.05 0.0006281231    1.518    0.341
       413  -8.9957      6.9697    103.4107   1.3527272312e+02   5.3546037181e+01    0.2433801     0.171438  73.16  0.001127623    1.788    0.441
       414  -9.6838    128.3400    102.0395   9.8579526187e+01   3.7019219180e+01    0.3408735     0.265656 -74.49 0.0008741414    1.601    0.375
       415 -10.5023    109.0909     99.0528   1.0298797594e+02   4.1589254435e+01     0.792856    0.4905774  72.64  0.002864618    3.190    0.687
       416  -8.3675    107.4790     93.0106   1.0175734616e+02   4.3168830441e+01    0.2527867    0.1826675 -11.09   0.00114755    1.837    0.456
       417  -9.3793     82.1693    100.5451   1.1129761715e+02   4.6045125223e+01    0.4563304    0.2321152 -58.47  0.001291306    2.198    0.545
       418  -7.5706    175.6835    102.3419   8.7529884559e+01   2.6153866704e+01    0.1628722    0.1197361 -76.89 0.0004901463    1.711    0.416
       419  -8.3896    159.8960    101.1160   9.0638678946e+01   3.0108091397e+01    0.2444579    0.2022387 -76.60 0.0005671812    1.368    0.269
       420  -8.0578    123.3100     98.3136   9.8882606189e+01   3.8865652364e+01    0.1533474    0.1207691  -0.99 0.0003528645    1.630    0.387
       421  -9.1051     94.9734     97.0466   1.0651491973e+02   4.4645408228e+01    0.3145291    0.2051328 -54.79 0.0005888368    1.595    0.373
       422 -10.0743     63.9459     96.0057   1.1579781834e+02   4.9720847968e+01    0.5228484    0.3517204 -89.28  0.001694266    2.675    0.626
       423  -9.4225     56.8618     95.2076   1.1786327389e+02   5.0812713884e+01    0.3115745    0.2270207  49.48  0.001168735    1.701    0.412
       424  -9.4223    150.6239    103.2472   9.3353589287e+01   3.1819253721e+01     0.430745     0.283521 -70.56  0.001340225    2.182    0.542
       425  -7.3629    188.6628     94.2910   8.2871726532e+01   2.4632436010e+01    0.1567687    0.1156735 -79.53 0.0003967292    1.641    0.391
       426  -8.3045    164.8551     94.1533   8.7680754731e+01   3.0316410986e+01    0.2411181    0.2022382 -75.88 0.0006186708    1.311    0.237
       427  -7.9742    189.2042    108.0165   8.6224831337e+01   2.1861056566e+01    0.2081512    0.1192957 -41.33 0.0004415499    1.698    0.411
       428  -8.1941    176.2276     93.1992   8.5037949527e+01   2.7796467161e+01    0.2160575     0.174492 -75.19 0.0005393757    1.372    0.271
       429  -9.3101    139.0461     92.3854   9.3180645112e+01   3.6643647732e+01    0.3624589    0.2682799 -84.35 0.0009635399    1.903    0.475
       430 -10.0411    124.0307     91.4235   9.6755011374e+01   4.0122511678e+01    0.5471987    0.4190196  37.57  0.001281708    1.343    0.255
       431  -9.5156      4.3417     92.0736   1.3416385192e+02   5.6178770577e+01    0.2900687    0.2340467  34.95  0.002058659    1.586    0.370
       432  -9.5455     34.9152     89.9179   1.2377238028e+02   5.4359462219e+01    0.4232923    0.2479868 -78.99  0.001703269    2.600    0.615
       433  -8.7321     29.9925     91.9977   1.2586270089e+02   5.4356985116e+01    0.1895581    0.1458442  87.34  0.001125125    1.705    0.413
       434  -8.7817     23.0444     89.9056   1.2769521473e+02   5.5387239288e+01    0.2056444    0.1636861 -14.98  0.001338891    1.378    0.275
       435  -8.4314    150.9485     89.1561   8.9432670765e+01   3.4547135247e+01     0.236789    0.2036037 -80.43 0.0004506303    1.300    0.231
       436  -9.8878     86.4047     86.3846   1.0611130073e+02   4.8354948443e+01     0.518505    0.3455706 -63.94  0.001142756    1.978    0.495
       437 -10.0694     48.3585     84.2466   1.1787648444e+02   5.4169317315e+01    0.4786684    0.3266081  85.80  0.001950286    2.834    0.647
       438  -8.8148     15.2693     86.1852   1.2949101066e+02   5.6756703525e+01    0.1974182    0.1410767  57.61 0.0009710137    1.972    0.493
       439  -9.7661    104.8720     83.3449   9.9706403083e+01   4.5618074401e+01    0.4125751    0.2972399 -67.07  0.001040719    1.898    0.473
       440  -8.2478    157.8987     84.1154   8.6467974241e+01   3.3863535982e+01    0.2261423    0.1983748 -73.03 0.0003958369    1.212    0.175
       441  -9.0415    140.8964     82.9381   9.0051320500e+01   3.8042812100e+01    0.3839541    0.2004803 -47.03 0.0009551874    2.009    0.502
       442  -9.2323     10.0109     81.3272   1.3025346953e+02   5.8125270261e+01    0.3059711    0.2001211  69.27  0.001508012    2.493    0.599
       443  -9.7192     24.6241     80.5553   1.2507937645e+02   5.7243742699e+01    0.3876967    0.2407888 -81.38  0.001435859    2.438    0.590
       444  -8.8845    150.0562     80.8041   8.7296515918e+01   3.6318460603e+01    0.2657788    0.2193985 -44.82 0.0007082089    1.228    0.186
       445  -8.7680    119.4782     80.4748   9.4786307627e+01   4.3216497292e+01    0.3083245    0.2205202 -80.23 0.0007959984    2.258    0.557
       446  -8.9504     74.5043     80.4427   1.0814730528e+02   5.1465460979e+01    0.3096887    0.2116089 -62.04  0.001168314    1.840    0.457
       447  -8.3171    166.5612     79.9241   8.3470438156e+01   3.2558944218e+01    0.2204023    0.1471887 -38.74 0.0004570956    1.527    0.345
       448  -9.0801     65.0000     77.9831   1.1055204530e+02   5.3344754844e+01      0.31146    0.1741401 -48.75   0.00144889    1.677    0.404
       449  -9.7385     63.3950     73.6390   1.0981445330e+02   5.4421542514e+01    0.3812734    0.2414318 -57.53  0.001565415    1.849    0.459
       450  -7.7028    174.6935     78.3349   8.1407573598e+01   3.0883335985e+01    0.1565786    0.1133406 -74.06 0.0004720849    1.670    0.401
       451  -9.2575    128.0332     75.5853   9.1089393576e+01   4.2276556363e+01    0.3473141     0.225261 -56.08 0.0008312101    1.873    0.466
       452  -7.9703    157.2745     76.6524   8.4525748897e+01   3.5359487443e+01    0.1530332    0.1145432 -71.69 0.0003952799    1.629    0.386
       453  -8.9499    140.4924     75.1202   8.7886508513e+01   3.9558710021e+01    0.3114182    0.1372291 -44.53 0.0009070376    2.368    0.578
       454  -8.5378    163.3152     73.5882   8.2398219604e+01   3.4449014142e+01    0.2771478    0.1663825 -48.54   0.00105227    1.745    0.427
       455  -9.5852     82.2988     72.6337   1.0329770243e+02   5.1735294796e+01    0.3617209    0.2657633 -64.06 0.0008773644    1.861    0.463
       456  -8.6457    115.7474     72.8588   9.3497293316e+01   4.5398209047e+01    0.2620797     0.196297 -58.02 0.0008125342    1.602    0.376
       457  -9.0578    105.8988     72.0468   9.5988747622e+01   4.7543168606e+01    0.2776007    0.1974289 -60.03 0.0007181817    1.825    0.452
       458  -8.1678     42.7895     73.0007   1.1677358417e+02   5.7077342489e+01    0.1884895    0.1429004 -79.25 0.0006295804    1.968    0.492
       459  -8.9420    236.2654     72.4274   7.0057999230e+01   1.7500906773e+01    0.2507961    0.1234431  56.51  0.001128454    2.150    0.535
       460  -7.4190    175.2981     72.6896   7.9779552925e+01   3.1711609231e+01    0.1515906    0.1115289 -74.71 0.0003272019    1.598    0.374
       461  -9.3528     95.1346     71.1757   9.8872108412e+01   4.9755456911e+01    0.3610815     0.225156 -54.60  0.001042587    1.987    0.497
       462  -9.5720     51.4176     69.7069   1.1278167711e+02   5.6734989844e+01    0.3714914    0.2193693 -61.35  0.001501209    2.213    0.548
       463  -8.1946     28.5209     70.9608   1.2132405234e+02   5.8871428798e+01    0.1815185     0.071702 -38.07 0.0008074486    2.376    0.579
       464  -8.9289     16.6494     70.1498   1.2541277543e+02   5.9971823310e+01    0.2386374    0.1793657 -81.28  0.001160478    1.781    0.439
       465  -8.6820    147.0474     68.4292   8.4424462392e+01   3.9191693355e+01    0.2677547    0.1960708 -54.35   0.00055614    1.508    0.337
       466  -8.6985    138.7824     66.6423   8.5789572744e+01   4.1408843384e+01    0.2641668    0.1805191 -63.59 0.0008636196    1.936    0.483
       467  -9.0885    121.4948     66.1543   8.9906194226e+01   4.5346044890e+01    0.2964504    0.2245691 -51.70   0.00076658    1.484    0.326
       468  -8.6530     37.4327     64.4242   1.1626243554e+02   5.9303069714e+01    0.2322591    0.1817848  80.63 0.0009939193    2.272    0.560
       469  -8.9567    110.1290     63.7946   9.2209626413e+01   4.8130477583e+01    0.2608641    0.2208417 -56.71 0.0006719542    1.386    0.279
       470  -8.1418    184.3543     78.2055   7.9539953768e+01   2.8576249847e+01      0.20949     0.130513 -48.47 0.0004891995    1.604    0.376
       471  -9.3203     97.7952     61.1590   9.4881283612e+01   5.1006289340e+01    0.3539443    0.2682582 -60.21  0.001247293    1.763    0.433
       472  -8.3870    158.1918     62.1559   8.0240957262e+01   3.7570179305e+01    0.2004654    0.1664805 -79.55 0.0003954151    1.334    0.251
       473  -9.5780     73.3190     59.6868   1.0208532069e+02   5.5517786295e+01    0.3434901    0.2192781 -50.63  0.001129875    1.826    0.452
       474  -8.1413     88.8816     59.8015   9.7126380054e+01   5.2879792646e+01    0.1720123     0.163087 -60.93 0.0005903103    1.304    0.233
       475  -8.1921    147.1495     59.1934   8.1699588551e+01   4.0661353256e+01    0.1946693    0.1653495 -67.70 0.0004848926    1.311    0.237
       476  -9.9024     23.5204     56.6002   1.1922218206e+02   6.2054196179e+01    0.4015591    0.2721919 -82.32  0.002084705    3.010    0.668
       477  -8.2983    130.6940     58.0850   8.5112539036e+01   4.4627555015e+01    0.2205013    0.1696332 -55.21 0.0005659345    1.506    0.336
       478  -9.4977      7.6004     57.1907   1.2553642073e+02   6.3086987395e+01    0.2576528    0.1935015  84.43  0.001026345    2.226    0.551
       479  -9.2112    119.3552     56.0260   8.7278384676e+01   4.7445047471e+01    0.3079285    0.2422038 -66.81 0.0008620095    1.676    0.403
       480  -9.4590     54.3244     55.6200   1.0733549577e+02   5.8950608220e+01    0.3151764    0.1987199 -53.05  0.001166251    1.895    0.472
       481  -8.3171    139.9777     56.2275   8.2394210235e+01   4.2793240853e+01    0.2019913    0.1486089 -57.12  0.000440066    1.593    0.372
       482  -8.9495     44.0570     55.3251   1.1101070492e+02   6.0257906044e+01    0.2646856    0.1568972 -51.69  0.001438618    1.808    0.447
       483  -7.9986    152.6149     54.2022   7.9093624055e+01   4.0126477266e+01    0.1912464     0.139522 -19.14 0.0009440253    1.650    0.394
       484  -8.7189    105.8743     53.2886   8.9985350731e+01   5.0681422365e+01    0.2258306    0.1841875 -43.98 0.0005567852    1.359    0.264
       485  -9.4432     92.3962     50.5888   9.2965872064e+01   5.3712817556e+01    0.3896875    0.2134633 -46.03  0.001429876    2.145    0.534
       486  -8.3991    129.9476     49.4775   8.2614890973e+01   4.6085009793e+01    0.2032897    0.1877661 -28.57 0.0005469489    1.149    0.129
       487  -7.7476    149.7799     48.9828   7.8146407876e+01   4.1559268311e+01    0.1757588    0.1167933 -32.87 0.0004669214    1.622    0.383
       488  -8.0320    144.7595     48.9934   7.9185511893e+01   4.2742415119e+01    0.1755622    0.1200964 -32.75 0.0004796962    1.571    0.363
       489  -8.1597    163.5034     48.5213   7.5365168045e+01   3.8337524377e+01    0.1411801    0.1297216  58.94 0.0008095095    1.063    0.059
       490  -8.7123    120.8181     47.5041   8.4179217546e+01   4.8391447623e+01    0.2286219    0.1881135 -28.96  0.000499223    1.281    0.219
       491  -8.5342    112.1701     46.9347   8.6189657847e+01   5.0323610519e+01    0.1958458    0.1807747 -60.91 0.0005211365    1.292    0.226
       492  -8.9204     82.0103     46.3197   9.4690302069e+01   5.6229486459e+01    0.2547317    0.1703961 -42.04 0.0006469048    1.641    0.390
       493  -9.1178    133.1563     44.2230   8.0242333524e+01   4.6092393542e+01    0.2956518    0.2079933 -46.85 0.0007881624    1.600    0.375
       494  -8.3810     45.0957     44.7069   1.0704844749e+02   6.1934024941e+01    0.1981798    0.1485023 -41.53 0.0006061186    1.385    0.278
       495  -9.0240     16.5239     44.8307   1.1845101263e+02   6.4722251275e+01    0.1843712    0.1730856 -61.66 0.0007851159    1.510    0.338
       496  -9.0131     58.3406     42.9373   1.0150163203e+02   6.0479515816e+01    0.2782979     0.201739 -58.82   0.00120938    2.214    0.548
       497  -9.7955      5.2647     42.2150   1.2231012668e+02   6.5952987204e+01      0.33529    0.1915784 -67.37   0.00170219    2.547    0.607
       498  -9.1031     69.5031     41.7709   9.7171461115e+01   5.8981765738e+01    0.2758785    0.2102775 -52.57  0.001152065    1.813    0.449
       499  -8.4691    105.8700     41.3277   8.5978110245e+01   5.2406915642e+01    0.2146108     0.178048 -40.52 0.0005184842    1.357    0.263
       500  -8.1185    206.2491     41.5789   6.6916271530e+01   2.9009718488e+01    0.1802642     0.116085  58.44  0.000296342    1.534    0.348
       501  -8.4409     36.9730     40.9964   1.0889824389e+02   6.3464052611e+01    0.1560758    0.1486424 -74.47 0.0005335371    1.665    0.400
       502  -8.4068     95.2457     38.2170   8.7841924388e+01   5.4936938604e+01    0.1654171    0.1549303 -57.13 0.0006020949    1.360    0.264
       503  -8.1163     80.5230     37.0031   9.1826964898e+01   5.7814984522e+01    0.1823452    0.1189109 -31.22 0.0003843122    1.545    0.353
       504  -9.8012     26.1752     35.4159   1.1129589302e+02   6.5455218840e+01    0.2990226    0.1921199 -49.07 0.0009233301    1.738    0.425
       505  -8.6552    200.7906     35.9463   6.6283627490e+01   3.1055396986e+01    0.2267368    0.1749946  72.56  0.000513521    1.181    0.153
       506  -7.6405    133.2786     36.5980   7.7837222139e+01   4.7060434847e+01    0.1375429    0.1015174 -66.52 0.0006986625    1.768    0.434
       507  -7.7582    125.6220     35.5274   7.9184010748e+01   4.8922625220e+01    0.1303849    0.1218517  40.64 0.0001227148    1.037    0.036
       508  -8.6944    111.8169     35.0471   8.2310236505e+01   5.1984740187e+01    0.1875096    0.1809128 -68.19 0.0004877175    1.237    0.191
       509  -8.6208    119.0194     32.8777   7.9841683073e+01   5.0703162832e+01    0.2990059    0.1595237 -46.85 0.0009321656    2.390    0.582
       510  -8.9605     48.5322     33.4675   1.0163283352e+02   6.3219019066e+01    0.2078171     0.190894 -22.87 0.0007201789    1.369    0.269
       511  -8.6597     60.7273     32.8711   9.6916070800e+01   6.1592840580e+01      0.19976    0.1577891 -40.95 0.0006149609    1.544    0.352
       512  -8.9238     72.0839     31.4669   9.2492741055e+01   5.9987854930e+01    0.2121918    0.1638253 -40.80 0.0007239312    1.570    0.363
       513  -7.4561    139.3330     31.7058   7.5073489861e+01   4.6263154561e+01      0.13371    0.1017173 -79.48 0.0007025788    1.638    0.390
       514  -9.5022     12.9235     30.4068   1.1517409115e+02   6.7387234274e+01    0.2532978    0.1422573 -50.40  0.001134262    1.849    0.459
       515  -8.0933     42.2798     30.6099   1.0296110452e+02   6.4420216214e+01    0.1030175   0.09229485 -53.54  0.000700019    1.741    0.425
       516  -8.1405    101.4382     29.2293   8.2974040290e+01   5.4835168129e+01    0.1665019    0.1188327 -39.20 0.0006479067    1.613    0.380
       517  -8.8591     81.4436     27.6421   8.8080105212e+01   5.8846470025e+01    0.2256231    0.1997923 -72.12 0.0007335385    1.723    0.420
       518  -9.2374      3.6243     27.8076   1.1839957469e+02   6.8457194278e+01    0.1734802    0.1535086 -56.63 0.0009290063    1.639    0.390
       519  -8.5657    209.0047     27.2392   6.3227873982e+01   3.0232363672e+01    0.1917938    0.1588196  63.97 0.0006671844    1.259    0.206
       520  -8.6494     91.8391     26.5745   8.4638135819e+01   5.7037678704e+01    0.2215902     0.156083 -45.03 0.0006074505    1.811    0.448
       521  -9.7645    229.2622     23.5834   6.0268740149e+01   2.6070604733e+01    0.3667488    0.2874098   5.38  0.002109268    2.246    0.555
       522  -8.8803    183.8197     24.0138   6.5594887584e+01   3.6573799011e+01    0.3291023     0.167146  87.45  0.001394921    2.469    0.595
       523  -8.4227     34.8282     23.6943   1.0324523306e+02   6.6267743098e+01    0.1846492    0.1493473 -54.80  0.001224845    2.086    0.521
       524  -8.0006    167.3341     23.6625   6.7864673897e+01   4.0560308013e+01     0.139968   0.09345963 -72.43 0.0007051872    1.745    0.427
       525  -8.0746    104.4036     23.1760   8.0086190562e+01   5.4911093012e+01    0.1635377    0.1161563 -37.78 0.0003700653    1.626    0.385
       526  -8.9204     63.5381     21.0568   9.1322892656e+01   6.2655395273e+01    0.2198456    0.1757874 -38.75  0.001087116    1.602    0.376
       527  -8.7545     48.2535     21.6362   9.7084806213e+01   6.4845176153e+01    0.1918671    0.1639097 -30.00 0.0006382429    1.449    0.310
       528  -8.2085    120.7813     21.0290   7.5542900547e+01   5.1643588131e+01    0.1595422    0.1057326 -24.76   0.00077161    1.683    0.406
       529  -8.9392     74.2062     19.8112   8.7328944816e+01   6.1024358841e+01    0.2350774    0.1753316 -44.26  0.000732488    1.813    0.448
       530  -8.7562     19.2568     21.2646   1.0894296251e+02   6.8218675496e+01    0.1349953     0.118416 -17.86  0.001055397    1.380    0.275
       531  -8.3551     38.8735     18.6237   9.9524170269e+01   6.6446352550e+01    0.1418744   0.09759064  36.16 0.0005568173    1.650    0.394
       532  -7.7453     87.5953     17.5251   8.2481327391e+01   5.8833502488e+01    0.1214364    0.1045788  23.88 8.649339e-05    1.042    0.040
       533  -7.3350    112.7031     16.7099   7.5882255380e+01   5.3830221338e+01    0.1301665   0.08377352  31.71 0.0003171955    1.556    0.357
       534  -8.2599     29.9789     16.0278   1.0212491812e+02   6.7825849473e+01    0.1432484    0.1370124 -24.36 0.0009347378    1.708    0.414
       535  -8.9881    175.7719    247.7923   1.1765135983e+02  -2.9752029982e+00    0.2894337     0.217977  78.07  0.001432086    2.038    0.509
       536  -9.2350    155.8908    248.7892   1.2169545883e+02   1.9664701360e-01    0.3264524    0.2106431  36.58  0.001156184    1.373    0.272
       537  -8.6702     16.8941     14.1135   1.0709337983e+02   6.9416847380e+01    0.1528005     0.126408 -11.08 0.0005887512    1.267    0.211
       538  -8.5741     40.5852    248.3068   1.4340330070e+02   1.7875159032e+01    0.2039439   0.09533142 -80.65 0.0008427557    2.020    0.505
       539  -9.2452     21.4531    248.3191   1.4663686553e+02   2.0140019617e+01    0.2165078    0.1316698  56.80 0.0007340077    1.336    0.252
       540  -8.2911     28.0360     10.4853   1.0057783421e+02   6.8727202544e+01     0.148826   0.09255893  25.26 0.0004726324    1.503    0.335
       541  -8.3482    242.9494    247.6865   1.0499339422e+02  -1.3371422374e+01    0.1661801     0.126774  20.41 0.0004654158    1.139    0.122
       542  -9.0061    218.7707    246.9839   1.0928819092e+02  -9.7518459817e+00    0.3882836     0.178232 -24.91  0.001717982    2.996    0.666
       543 -10.0836    224.0401    244.0579   1.0782034277e+02  -1.0134513605e+01    0.4330156    0.2517715 -45.50  0.002290125    2.140    0.533
       544  -8.3912    144.2427    248.3863   1.2392955724e+02   2.2270438258e+00    0.1914027    0.1014516  49.15 0.0009427835    1.694    0.410
       545  -7.9228    113.1891    248.3146   1.2999499808e+02   7.3795036763e+00    0.1734581   0.09521427 -72.61 0.0006928016    2.308    0.567
       546  -9.3058     34.5805    247.7373   1.4439376117e+02   1.8721223163e+01    0.2496822    0.1520423  83.12  0.001221281    1.358    0.264
       547  -9.0105    210.9752    246.5164   1.1067350522e+02  -8.4839022369e+00    0.2019664    0.1727486 -53.90 0.0006661231    1.607    0.378
       548  -9.1570    147.3099    246.2223   1.2302619049e+02   2.0875335293e+00    0.2928836    0.1675864  65.42   0.00131729    2.564    0.610
       549  -9.0317    119.9909    245.4614   1.2831965116e+02   6.8000708803e+00    0.3247642    0.1997798  84.60  0.001473354    2.334    0.572
       550  -7.3258     86.3068    250.6805   1.3537446208e+02   1.1127956172e+01    0.1297958    0.0774561  68.30 0.0007031294    1.636    0.389
       551  -8.0461     76.7865    247.6233   1.3684483036e+02   1.3119786572e+01    0.1743171   0.09045484  51.86 0.0003120385    1.605    0.377
