#   1 NUMBER                 Running object number                                     
#   2 MAG_AUTO               Kron-like elliptical aperture magnitude                    [mag]
#   3 X_IMAGE                Object position along x                                    [pixel]
#   4 Y_IMAGE                Object position along y                                    [pixel]
#   5 X_WORLD                Barycenter position along world x axis                     [deg]
#   6 Y_WORLD                Barycenter position along world y axis                     [deg]
#   7 A_WORLD                Profile RMS along major axis (world units)                 [deg]
#   8 B_WORLD                Profile RMS along minor axis (world units)                 [deg]
#   9 THETA_WORLD            Position angle (CCW/world-x)                               [deg]
#  10 FWHM_WORLD             FWHM assuming a gaussian core                              [deg]
#  11 ELONGATION             A_IMAGE/B_IMAGE                                           
#  12 ELLIPTICITY            1 - B_IMAGE/A_IMAGE                                       
         1 -12.2429    236.9657     75.8765   6.6743687832e+01   1.7436594076e+01     2.889813    0.6253834 -47.82  0.009018992    4.188    0.761
         2 -12.4538    222.9302     38.9203   6.0679076164e+01   2.5974180686e+01     2.612996     1.107878 -62.89   0.00626386    2.864    0.651
         3  -8.7007    190.9688     17.8696   5.9672806943e+01   3.5749073380e+01    0.4017284    0.1170105 -45.51  0.001466485    3.349    0.701
         4  -9.4645    247.8970     11.5643   5.3134299286e+01   2.4172519916e+01    0.3138707    0.2232099  52.03 0.0009597054    2.043    0.511
         5 -10.5137    148.9884      9.9899   6.3249851295e+01   4.6226399006e+01    0.3918225    0.3011744  72.05  0.002487819    1.099    0.090
         6  -7.4320    236.5352      8.5058   5.3433432386e+01   2.6831567516e+01    0.1176216   0.08872698 -79.68  8.60499e-06    1.017    0.016
         7 -10.5481    172.2713      2.6696   5.8295894571e+01   4.1552839993e+01     1.093376     0.324472  76.57  0.003895109    3.801    0.737
         8  -8.4063    249.8978      2.3172   5.1365017661e+01   2.4825627359e+01    0.2387784    0.1413232 -37.43  0.001263481    1.938    0.484
         9  -9.8074    184.0246      2.8948   5.7039561300e+01   3.8860239440e+01    0.4721465     0.246532  88.01  0.002308099    1.850    0.460
        10  -8.8787    146.2278      3.2984   6.1847265333e+01   4.7441126486e+01    0.1846702     0.170477 -73.09 0.0006086219    1.210    0.174
        11  -8.1552    195.8869      1.9744   5.5634325042e+01   3.6281727391e+01    0.2160641    0.1410929  81.81 0.0006844458    1.240    0.194
        12  -8.6353     25.2184    175.7944   1.3690354198e+02   3.5407573235e+01    0.1715109    0.1316123 -57.34 0.0002373175    1.330    0.248
        13 -11.7584    235.7946    248.1635   1.0129974196e+02  -1.2541314524e+01     0.264085    0.2157588   9.52 0.0003881219    1.082    0.076
        14  -6.9625    167.2797    175.3884   1.0167237608e+02   1.2447125322e+01    0.1586172    0.1193648 -14.40 0.0007001531    1.736    0.424
        15  -9.1427    241.4584    170.8256   8.5850076505e+01  -5.8381897698e-01    0.2595682    0.2249435  54.86     0.000253    1.407    0.289
        16  -7.9873     14.3274    171.3172   1.3900334448e+02   3.7501998918e+01    0.1257084   0.08244681 -48.85  0.000704563    1.677    0.404
        17  -7.5077     23.3671    167.2904   1.3639325977e+02   3.7647764027e+01    0.1281296   0.08783794 -43.13 0.0007025253    1.709    0.415
        18  -8.9525    242.1760    165.9202   8.4738411518e+01   1.9399320055e-01    0.2533791    0.1890697 -31.43  0.000243555    1.221    0.181
        19  -8.8489    242.3631    160.9780   8.3704983519e+01   1.0719908309e+00    0.2147532     0.200074  66.28 0.0003471183    1.291    0.225
        20  -9.0103     97.3573    165.4159   1.1695813060e+02   2.8260735066e+01    0.2416843    0.2239947 -64.18 0.0003439932    1.062    0.058
        21  -8.4853    163.6671    162.9796   9.9866467871e+01   1.5962499834e+01    0.2410925    0.2191676  43.45 0.0005381608    1.115    0.103
        22 -10.2936    210.4475    158.9514   8.9048004685e+01   7.3256607329e+00    0.2581646     0.247941 -73.32 0.0003182169    1.124    0.110
        23  -8.5492     96.0968    150.1069   1.1428926069e+02   3.2293370990e+01    0.2171942    0.2052445 -78.59 0.0003107858    1.017    0.016
        24  -8.9762     67.5995    143.5059   1.2096594171e+02   3.8411790498e+01    0.4386189    0.3151677  66.17  0.002039477    1.653    0.395
        25  -8.8622    229.7527    141.2866   8.1749176240e+01   7.0776677073e+00    0.2372556     0.214625 -26.24 0.0003214767    1.141    0.124
        26  -7.6490    215.2053    140.2429   8.4094239993e+01   1.0137589143e+01    0.1981788    0.1644613 -73.79 0.0004676098    1.355    0.262
        27  -7.2318    157.9769    140.0338   9.6013953289e+01   2.2371838983e+01    0.1878695    0.1719879 -52.46 0.0003112796    1.070    0.065
        28  -8.4029    238.4913    137.5197   7.9501713558e+01   6.1435116297e+00    0.1398961     0.122831 -43.60  6.53885e-05    1.025    0.024
        29  -8.2038    182.5262    128.5115   8.7815769984e+01   1.9488986199e+01    0.3405372    0.1384911  63.02 0.0008105616    5.863    0.829
        30 -10.4322    244.2415    124.5663   7.5901576509e+01   7.4700223844e+00    0.3575038    0.2594898 -61.72  0.001261512    1.394    0.283
        31  -7.3495     22.9970    125.0473   1.3072985088e+02   4.7906177633e+01    0.1555284    0.1227155 -63.21 0.0003329351    1.047    0.045
        32  -7.6322    250.2856    119.6701   7.4005895824e+01   7.2318910971e+00    0.1376315   0.09337186 -65.55 0.0005116985    1.614    0.380
        33  -8.9434    185.7568    117.1259   8.4441190975e+01   2.1128193885e+01    0.2624947    0.2403929 -63.92 0.0006499944    1.043    0.041
        34  -7.5976      1.7847    117.6104   1.3587649130e+02   5.1136723249e+01    0.1403661    0.1101061  41.24 0.0003828184    1.565    0.361
        35 -11.2203    244.6812    101.8675   7.1129132496e+01   1.1464205525e+01    0.7643477    0.4113195 -32.45  0.003456876    2.170    0.539
        36  -9.8176    246.9965    115.6913   7.3660209669e+01   8.5613525582e+00    0.2723122    0.2237038  64.68 0.0008011833    1.377    0.274
        37 -11.1317    242.6053    110.7296   7.3262150193e+01   1.0294908268e+01    0.7355305    0.5206291  53.33  0.004032146    1.614    0.380
        38  -8.6899    168.3466    114.1290   8.7361118950e+01   2.5696775912e+01    0.3903503    0.2778189 -75.18  0.001058325    1.815    0.449
        39  -8.6854    187.2206    107.3678   8.1800762632e+01   2.2750508670e+01    0.4070879    0.2277017 -72.32  0.001344977    3.404    0.706
        40  -8.6433    150.8089     95.7154   8.6563968841e+01   3.3456404281e+01    0.3491755    0.2724042   2.51  0.001033094    1.805    0.446
        41  -9.6779    187.0274     95.1442   7.8861464971e+01   2.5142783403e+01    0.4420176    0.2253343 -50.31  0.001792648    1.982    0.496
        42  -9.3030    190.9510     90.7994   7.7083058996e+01   2.5038745523e+01    0.3819701    0.2642324  42.91  0.001364952    1.666    0.400
        43  -7.0239    112.6938    232.2912   1.2399348191e+02   1.0019725206e+01    0.1398942    0.0958463  66.77 0.0004143388    1.576    0.366
        44 -10.0377    147.7620    224.6981   1.1519407774e+02   5.5585677932e+00    0.2400633    0.2320872 -23.46 0.0004333346    1.126    0.112
        45  -8.3247    160.3016     87.9831   8.2392850496e+01   3.2728235026e+01    0.3748509    0.2286889  31.76  0.001505949    2.303    0.566
        46  -9.1725    163.7986     85.5673   8.1016905345e+01   3.2352489531e+01    0.3399742    0.2617641  78.48  0.001033032    1.430    0.301
        47 -10.1149    185.1976     84.3213   7.6534616972e+01   2.7544542214e+01    0.6681523    0.2926514 -51.29  0.002503911    2.473    0.596
        48  -8.9766    144.8479     84.3845   8.4875696234e+01   3.6986318012e+01    0.3198294    0.2464909 -42.98 0.0007450072    1.329    0.248
        49 -10.1957    160.6198     75.6913   7.9055095391e+01   3.4852691992e+01    0.4809451     0.292643 -36.85  0.002180866    1.748    0.428
        50 -10.9519    179.6717     74.0709   7.4971654110e+01   3.0618333407e+01     0.735042    0.5640785 -71.24  0.002785886    1.373    0.272
        51  -8.3752    114.2623     75.9549   9.0190272630e+01   4.5273959311e+01    0.2080718    0.1985154  44.19 0.0002119417    1.056    0.053
        52  -7.6975    111.3062     74.2985   9.0509733046e+01   4.6184159827e+01    0.1781952    0.1378294 -47.72 0.0004550358    1.388    0.279
        53 -10.8145    234.7641     29.5986   5.7603357667e+01   2.4661724572e+01    0.4074697    0.2909153  47.90   0.00154462    1.993    0.498
        54  -8.8481    171.2818     93.9762   8.1650241172e+01   2.9030520382e+01    0.2455034    0.2082468  53.00 0.0002768998    1.190    0.160
        55  -9.2080    187.3177     66.6322   7.1801843506e+01   3.0034728358e+01    0.2534305    0.2256561 -81.97 0.0003220676    1.028    0.027
        56  -8.9995    169.8007     59.1926   7.2925628560e+01   3.5344843627e+01     0.210017    0.1768986  71.11  0.001175403    1.097    0.088
        57  -9.6087    171.0560     67.1405   7.4766391721e+01   3.3802044940e+01    0.2584185    0.2022289  84.75    0.0013508    1.323    0.244
        58  -9.8803    173.1454     62.4534   7.3175010652e+01   3.4048187612e+01    0.3616843    0.2116548 -50.27  0.001674646    1.781    0.438
        59  -8.3003    134.9027     93.4199   8.9779072608e+01   3.7511990474e+01    0.3519535    0.2210756  58.89  0.001145391    1.754    0.430
        60  -9.6828    198.1082     58.0136   6.8054852342e+01   2.8852757849e+01    0.3022088    0.2418298  43.36 0.0006651226    1.534    0.348
        61  -9.7154    204.3435     53.3885   6.6104508247e+01   2.8104221310e+01    0.3800618    0.2441307  45.00  0.001906139    1.973    0.493
        62 -11.2451    180.2373     55.1996   7.0124735523e+01   3.3465579558e+01     0.488102    0.3597263  -0.68  0.001579189    2.231    0.552
        63  -8.2041    145.4407     57.0170   7.7059955336e+01   4.1427393871e+01    0.3313963    0.2326787  12.10  0.001537159    2.173    0.540
        64  -8.9896    248.8232     53.6655   6.0922760752e+01   1.8441855063e+01    0.4134613    0.1894553 -74.35  0.001681815    3.210    0.688
        65 -10.6593    160.7500     50.7395   7.2321179834e+01   3.8735878397e+01     0.615329    0.4379311  84.32  0.003165091    1.538    0.350
        66  -7.4420    138.5205     50.9670   7.6789351553e+01   4.3912271959e+01    0.1812849    0.1218854   4.70 0.0008075627    2.374    0.579
        67 -10.2764    127.2909     53.7106   8.0136354846e+01   4.6068135075e+01    0.2410497    0.2197386  46.14 0.0002471462    1.015    0.015
        68  -9.0809    249.9395     47.3362   5.9591849025e+01   1.9130758624e+01    0.3522086    0.1511694 -44.03  0.001741805    2.027    0.507
        69 -10.4802    145.3478     41.8407   7.2759434192e+01   4.3567079594e+01    0.4467991    0.2694104  66.11  0.002199619    1.598    0.374
        70  -8.4198    124.5903     37.7934   7.5890993865e+01   4.8818029678e+01    0.1789432    0.1224836 -44.39 0.0009518617    1.672    0.402
        71  -9.7520    227.4786     86.3893   7.0242256668e+01   1.7674068391e+01    0.2744574    0.2264769 -58.26 0.0002049043    1.071    0.067
        72  -7.4344    169.0141     21.0809   6.3236712815e+01   4.0480392190e+01    0.1471176    0.1258617  79.95  0.000299051    1.022    0.021
        73  -7.3891    179.5129    223.5129   1.0815566566e+02   2.2301428189e-01    0.1373317    0.1263222  21.25 4.462332e-05    1.016    0.016
        74  -9.7171    139.8916     17.6398   6.6848996011e+01   4.7584123303e+01     0.428689    0.1290332  46.37  0.001565634    3.433    0.709
        75 -10.4535      2.1501    217.5960   1.4536490245e+02   2.7977024188e+01    0.6490286    0.1883284 -76.61  0.002854485    2.817    0.645
        76  -7.9385    240.1712     13.8047   5.4130932405e+01   2.5475309106e+01    0.1410205    0.1223594 -86.77 0.0004407252    1.272    0.214
        77  -7.3902    149.4518    210.1813   1.1238605200e+02   8.2676459821e+00    0.1832109    0.1407741 -70.63 0.0003866978    1.542    0.352
        78 -10.9425     14.2717    204.6359   1.4204246448e+02   2.9701459442e+01     0.551401    0.2501644  57.59  0.002791255    2.126    0.530
        79  -9.7325      9.7555    207.4297   1.4317539184e+02   2.9507627095e+01    0.1941216    0.1563493 -70.81 0.0008931374    1.309    0.236
        80 -12.3253     25.0377    195.7520   1.3898488326e+02   3.0664231961e+01    0.9328126    0.6769221 -88.92  0.003067652    1.131    0.116
        81 -10.6441     34.3904    188.6543   1.3616762920e+02   3.1341980795e+01    0.4621585    0.3606146 -42.37  0.001112083    1.629    0.386
        82 -12.1827     42.3056    181.7205   1.3351130308e+02   3.2119871201e+01     1.042845     0.966869 -47.72     0.004713    1.312    0.238
