#   1 NUMBER                 Running object number                                     
#   2 MAG_AUTO               Kron-like elliptical aperture magnitude                    [mag]
#   3 X_IMAGE                Object position along x                                    [pixel]
#   4 Y_IMAGE                Object position along y                                    [pixel]
#   5 X_WORLD                Barycenter position along world x axis                     [deg]
#   6 Y_WORLD                Barycenter position along world y axis                     [deg]
#   7 A_WORLD                Profile RMS along major axis (world units)                 [deg]
#   8 B_WORLD                Profile RMS along minor axis (world units)                 [deg]
#   9 THETA_WORLD            Position angle (CCW/world-x)                               [deg]
#  10 FWHM_WORLD             FWHM assuming a gaussian core                              [deg]
#  11 ELONGATION             A_IMAGE/B_IMAGE                                           
#  12 ELLIPTICITY            1 - B_IMAGE/A_IMAGE                                       
         1 -10.4459      2.1287     47.9440   1.0486022659e+02   6.6554194167e+01     0.510222    0.1327572 -64.76  0.001847062    4.131    0.758
         2 -12.3550    211.6044     36.9925   4.0444826950e+01   2.8173242856e+01     1.002634    0.8589774 -51.33  0.005501597    1.149    0.130
         3 -11.8016    228.3831     20.3675   3.5032756666e+01   2.6499288645e+01    0.7034531    0.5550978 -68.19  0.002748251    1.037    0.036
         4  -9.9981      2.0000      8.5007   9.0605697965e+01   7.3660067730e+01    0.4575106   0.08147994 -45.45  0.001816742    4.029    0.752
         5  -9.7471    248.7157      2.4010   2.9905388864e+01   2.4282029643e+01    0.3796164    0.2010131 -84.05  0.002230988    1.719    0.418
         6 -12.0180    123.7461    230.4533   1.0099732373e+02   9.0167523515e+00     1.061076    0.4620938  44.78  0.004704352    2.047    0.511
         7 -12.3150      4.7263    183.8964   1.2262947416e+02   3.4611353099e+01     1.709528    0.6487833  89.01   0.00640044    2.572    0.611
         8 -12.1238     32.1407    204.8089   1.1819901850e+02   2.7212534478e+01    0.9940732     0.392632  35.67   0.00330979    2.392    0.582
         9 -14.1167     38.8653    192.7083   1.1563818822e+02   2.9236362153e+01     9.341904     3.462136  76.94   0.02505001    6.845    0.854
        10 -10.9656     85.8387    222.7549   1.0825402414e+02   1.6368160211e+01    0.4721426    0.3468291  76.31   0.00130312    1.389    0.280
        11 -11.5896     76.0703    220.4258   1.1012296524e+02   1.8257777019e+01     1.006495    0.2638108  49.38  0.003347431    3.934    0.746
        12  -9.1690     31.7610    222.4482   1.1961595950e+02   2.3410413496e+01     0.364286    0.2059179 -50.70  0.001965582    2.419    0.587
        13  -7.9059     77.4328    226.4785   1.1046911385e+02   1.6797230519e+01    0.1285799    0.1080618  63.04 8.488724e-05    1.009    0.009
        14 -11.2457     86.4291    234.5437   1.0941402322e+02   1.3884023184e+01     0.595658    0.2741792  31.84  0.002746749    2.239    0.553
        15  -9.9667     43.9963    219.2328   1.1686071320e+02   2.2687231277e+01     0.207868    0.1945487  39.40  0.001023841    1.353    0.261
        16 -14.1303      7.4411    240.3053   1.2526251188e+02   2.2318049290e+01     6.426428     1.765856 -81.15   0.02890115    3.405    0.706
        17  -8.7646     29.5043    218.0452   1.1975899831e+02   2.4596125335e+01    0.1821119    0.1030076 -79.32  0.001038575    1.607    0.378
        18 -11.4420     16.1256    215.7406   1.2230113360e+02   2.6482784626e+01    0.4126638    0.3712896  70.82  0.001991623    1.259    0.206
        19 -12.7945     10.2570    207.0775   1.2294810219e+02   2.8920448622e+01    0.8144009    0.6288223  39.80  0.002930587    1.440    0.305
        20  -8.0006    109.7166    201.3587   1.0004230513e+02   1.7261436906e+01    0.1454625    0.1033826  72.85 0.0005523514    1.673    0.402
        21  -9.4366     59.0280    230.7336   1.1472780638e+02   1.8399589538e+01    0.2648355    0.1678703 -70.73 0.0007397537    1.615    0.381
        22 -10.3402     20.6651    194.8959   1.1991575215e+02   3.0648134489e+01    0.3476133    0.1502456  59.43  0.001183737    2.256    0.557
        23  -8.7496     33.0000    236.4330   1.2032694033e+02   2.0390054080e+01    0.3593144   0.05908242 -73.44  0.001156701    5.938    0.832
        24  -8.2175     99.3173    181.3103   9.9454509035e+01   2.3556732789e+01    0.1423623    0.1149458 -19.54 0.0007033154    1.639    0.390
        25 -10.2994     59.1196    177.8512   1.0910657623e+02   3.0335925171e+01    0.4408897    0.2846262 -42.29  0.001356741    1.939    0.484
        26 -10.1634     64.6119    172.3027   1.0696386200e+02   3.0969583223e+01    0.3326356     0.267131 -33.65 0.0008580626    1.570    0.363
        27 -10.0560     74.7574    162.7684   1.0285417002e+02   3.1914166497e+01     0.305613    0.2943326  54.88  0.000500389    1.117    0.104
        28 -11.3494     81.0905    156.4897   1.0007413400e+02   3.2539993312e+01      1.07407    0.8102729  40.53  0.003394855    1.358    0.264
        29 -11.7427     61.7246    158.7900   1.0576933151e+02   3.4725878868e+01    0.5360745    0.3212876 -44.34  0.001256256    1.891    0.471
        30 -10.2581    144.2970    228.7711   9.6365256884e+01   6.0303546099e+00    0.3766634     0.255778 -10.39  0.001849683    2.227    0.551
        31 -11.6433     68.1928    144.4959   1.0160215382e+02   3.7466483219e+01     0.834114     0.570693  76.05  0.002932351    1.788    0.441
        32  -8.6264     30.4435    142.8810   1.1222894118e+02   4.2299718882e+01    0.2477951    0.1783342 -13.43  0.001144097    1.941    0.485
        33  -9.1273     97.9795    141.4149   9.2422967791e+01   3.3546047454e+01    0.5257371    0.3278787 -24.37  0.002010368    2.546    0.607
        34 -10.5414     84.9233    140.8110   9.6048205071e+01   3.5885892169e+01    0.3155041    0.2783435 -46.81 0.0004307193    1.140    0.123
        35  -9.3753     75.5105    136.5768   9.7969060915e+01   3.8415408628e+01    0.3984542    0.2285774  61.99  0.001124014    2.444    0.591
        36 -12.6145     48.9938    249.9945   1.1821426608e+02   1.5855164850e+01     2.776486    0.7520375  29.78  0.009103796    5.859    0.829
        37 -10.4720     57.8804    130.6844   1.0216646539e+02   4.2357252891e+01    0.5746815    0.2161435 -52.21  0.002168842    2.361    0.576
        38  -9.8967    162.3863    225.3076   9.2003888523e+01   3.7072718505e+00    0.3611995    0.2347641 -18.20  0.001781326    2.088    0.521
        39  -9.3175     95.3371    127.4321   9.0102697471e+01   3.7471748380e+01    0.2959776    0.2642905 -30.77 0.0008903818    1.177    0.151
        40  -9.1605     17.9662    130.2588   1.1420030835e+02   4.6529632912e+01     0.254736    0.1680012  52.39  0.001412239    1.684    0.406
        41  -9.1830    107.0998    131.3266   8.7583899136e+01   3.4378401121e+01    0.4103342    0.2938004  38.29   0.00131388    1.441    0.306
        42  -7.7259    105.9718    119.7074   8.5108516615e+01   3.7396806295e+01    0.1772543    0.1414128  37.27 0.0003667436    1.299    0.230
        43  -8.2951    134.5050    112.4801   7.5281622024e+01   3.3200159242e+01    0.1571203    0.1546917 -42.15 5.582536e-05    1.001    0.001
        44  -8.0356    205.1877    110.5925   5.9332872805e+01   1.7751825580e+01    0.1970785    0.1388727  39.48 0.0006735162    1.620    0.383
        45 -11.4354     58.3090    242.6466   1.1587082846e+02   1.6105285935e+01    0.7083666    0.3029003  51.01 0.0005890699    1.946    0.486
        46 -10.1501      6.7937     97.0016   1.1306915379e+02   5.5392721064e+01    0.2801341    0.1995531 -65.14  0.001717386    1.126    0.112
        47  -7.8632     41.4889     92.0592   9.9593094653e+01   5.3793607701e+01    0.2093184    0.1199334 -57.16  0.000574905    1.526    0.344
        48  -9.0994      2.2190     68.9802   1.0977993870e+02   6.2076939545e+01    0.1705253   0.08129655 -64.35 0.0008792628    1.706    0.414
        49  -9.9903     13.4510     60.3826   1.0298490365e+02   6.3312140788e+01    0.2286728    0.2026116 -72.61 0.0007327998    1.336    0.252
        50  -8.0602     40.0345     58.4790   9.0808969358e+01   6.1332088213e+01    0.1788935    0.1243075  24.50 0.0006617723    1.529    0.346
        51  -8.4288     21.3422     56.6656   9.8440894504e+01   6.3513226417e+01    0.1154136   0.09706867  71.84 0.0007050716    1.758    0.431
        52  -9.7015     11.5074     53.5360   1.0200846549e+02   6.4871981079e+01    0.2623369   0.09928127 -57.82   0.00121836    2.193    0.544
        53 -10.1903     91.1455    240.1953   1.0902887419e+02   1.2101353710e+01    0.3405534    0.1676078  34.91  0.001685102    1.877    0.467
        54 -11.7469    202.4833     42.3348   4.2819763630e+01   2.9572949933e+01    0.6211241    0.4765139 -65.15  0.002090705    1.217    0.178
        55 -10.3428     97.4333    238.6431   1.0756116740e+02   1.1481768939e+01    0.2857161    0.1816684  41.47  0.001611779    1.339    0.253
        56  -8.5144    132.9901     39.9791   5.3627300534e+01   4.6811257137e+01    0.2163944    0.1984422  85.24 0.0006549205    1.143    0.125
        57 -11.0265    218.8362     29.2518   3.7881269246e+01   2.7524654351e+01    0.5032309    0.3632303  55.13  0.001152941    1.596    0.373
        58  -8.3659    133.4515     32.8344   5.1166580698e+01   4.7617474357e+01    0.2232095    0.1789342  76.88 0.0006049357    1.292    0.226
        59 -11.4908    112.8936    235.6460   1.0397148816e+02   9.7245772399e+00     0.560258    0.4302526  31.29  0.002834176    1.268    0.212
        60  -9.9600      2.6596     22.1607   9.6142217293e+01   7.1389753802e+01    0.2673188    0.1593089 -15.26  0.001701083    1.512    0.339
        61 -12.3656    108.6790    229.1903   1.0407245564e+02   1.1622032117e+01     1.268297    0.4075258  36.74  0.004878771    2.743    0.635
