#   1 NUMBER                 Running object number                                     
#   2 MAG_AUTO               Kron-like elliptical aperture magnitude                    [mag]
#   3 X_IMAGE                Object position along x                                    [pixel]
#   4 Y_IMAGE                Object position along y                                    [pixel]
#   5 X_WORLD                Barycenter position along world x axis                     [deg]
#   6 Y_WORLD                Barycenter position along world y axis                     [deg]
#   7 A_WORLD                Profile RMS along major axis (world units)                 [deg]
#   8 B_WORLD                Profile RMS along minor axis (world units)                 [deg]
#   9 THETA_WORLD            Position angle (CCW/world-x)                               [deg]
#  10 FWHM_WORLD             FWHM assuming a gaussian core                              [deg]
#  11 ELONGATION             A_IMAGE/B_IMAGE                                           
#  12 ELLIPTICITY            1 - B_IMAGE/A_IMAGE                                       
         1 -11.9946    247.2538     30.3334   3.4527316632e+01   2.1442213037e+01     1.360533    0.3254946 -39.61  0.005527324    3.094    0.677
         2 -15.8425    235.0826     75.0759   4.5260498922e+01   1.7577438361e+01     9.620009     0.942718 -42.01   0.02487238    5.847    0.829
         3 -14.2081    199.9302     15.6398   3.5458650866e+01   3.3442576569e+01     2.683872     1.191707 -88.26   0.01141251    2.695    0.629
         4 -14.4937    237.7986      5.2811   3.0187491880e+01   2.6304433578e+01     4.122781          nan  64.58   0.01030033   10.270    0.903
         5 -13.7398    148.5044     32.6677   4.6827360474e+01   4.3842806091e+01     1.824571     1.072839  56.07  0.007090324    1.551    0.355
         6 -14.4430    183.7454     92.1896   5.7184998461e+01   2.5975830201e+01     7.938458     1.028414 -40.21   0.01748068    6.471    0.845
         7 -12.9710    166.0868     55.8624   5.0553872256e+01   3.6351100350e+01     3.049318     1.440003 -70.54  0.007156623    7.608    0.869
         8 -12.8558    133.5869      3.8666   4.0270009878e+01   5.0397950032e+01    0.8274708    0.5135853 -70.06  0.004281295    1.984    0.496
         9 -13.0203    145.7075      8.4014   3.9889290747e+01   4.7097029172e+01    0.7674378    0.4976503 -61.58  0.003459003    1.738    0.425
        10 -13.5833    134.7356     39.2212   5.1500543766e+01   4.6360148614e+01     2.424393    0.8609975  66.79  0.007837719    3.604    0.723
        11 -10.5823      2.8612      2.3183   8.4469681930e+01   7.4578374801e+01     0.157479    0.1216532  16.62   0.00119119    1.428    0.300
        12 -12.2675     67.7033    144.4947   9.9991464477e+01   3.7613376574e+01    0.6783301    0.4214413  58.78  0.001824042    1.896    0.473
        13 -13.2632    247.4148    248.0020   7.7861198224e+01  -1.1915372977e+01    0.8242298    0.5026457  16.61  0.005386977    1.410    0.291
        14  -9.3971    174.7186    242.0094   9.0424503803e+01  -1.1650348551e+00    0.1651585    0.1460691   6.26 0.0002746482    1.094    0.086
        15 -12.4430    249.0170    232.9255   7.5089139209e+01  -1.0187956407e+01    0.4202482    0.2316193   2.21  0.002292269    2.066    0.516
        16 -12.1284    202.2016    130.6067   6.3146272214e+01   1.4593080805e+01    0.6212609    0.3390468 -16.38   0.00197104    4.005    0.750
        17 -11.5308    160.5918    128.4165   7.1273744027e+01   2.3927615282e+01    0.4458641    0.2877914 -47.11  0.001932993    1.516    0.340
        18 -11.1125    162.7619    119.8884   6.8652810305e+01   2.5272917095e+01    0.3642903     0.184962 -39.90  0.001389075    1.958    0.489
        19 -13.5030    216.3274    114.0629   5.6828037783e+01   1.4804121887e+01    0.8564902    0.5332667 -16.41    0.0035946    2.439    0.590
        20  -9.6139    156.2942    112.1093   6.8130469729e+01   2.8367113670e+01    0.2188727    0.1928777 -54.66 0.0003946411    1.125    0.111
        21 -12.0688    167.7578    113.6687   6.5963895495e+01   2.5449861171e+01    0.4091915    0.3585669 -52.44 0.0004604796    1.115    0.103
        22 -11.8563    197.3875     98.2441   5.6259902277e+01   2.1759135766e+01    0.4483013    0.4105313 -79.82  0.001178985    1.106    0.096
        23 -10.4628    151.4355     97.4712   6.5326392644e+01   3.2498454734e+01    0.3136975    0.2686422  10.27 0.0009042562    1.407    0.289
        24  -9.2503    136.5552     94.7424   6.8155208637e+01   3.6478365466e+01    0.2163083    0.1460725 -53.45 0.0009357112    1.575    0.365
        25 -10.4210    161.6578     90.6441   6.1173691832e+01   3.1442614690e+01     0.351537     0.237936  40.26  0.001570215    1.637    0.389
        26 -11.4144    164.9977     88.5010   5.9884392292e+01   3.1058890019e+01    0.3831947    0.3608219  46.90 0.0009075534    1.114    0.103
        27 -11.1586    145.5497     86.6489   6.3651416099e+01   3.6005344285e+01    0.3123716    0.2925501 -32.70 0.0008115623    1.095    0.087
        28 -10.4508    214.5098     83.2490   4.9881358111e+01   2.0604264930e+01    0.2522521    0.1940094  63.49 0.0008034426    1.391    0.281
        29 -12.5667    162.1909     78.5058   5.7693346239e+01   3.3557752647e+01    0.3941741    0.2945648 -26.01 0.0006458561    1.514    0.340
        30 -11.6493    189.6576     71.7525   5.0858809261e+01   2.8163534348e+01    0.2556669     0.245946  83.57 0.0003734895    1.097    0.088
        31  -9.0627    136.2442    221.0052   9.5312044720e+01   8.6801171040e+00    0.1581938    0.1167983 -52.62 0.0003875467    1.508    0.337
        32 -12.2119    248.5359    212.6413   7.1626075989e+01  -7.3373900923e+00    0.3894052    0.1909368 -23.87  0.001978666    2.020    0.505
        33 -12.0416    206.9337     60.4985   4.5475177504e+01   2.5939452003e+01     0.450413     0.274095  41.39  0.001675285    2.241    0.554
        34 -13.5438    182.5100     61.0224   4.9200757473e+01   3.1580686721e+01    0.4828043    0.3692135   8.36  0.002362507    1.961    0.490
        35 -11.9931    200.7284     64.2816   4.7268179040e+01   2.6780460560e+01    0.3373262    0.2484546  49.74  0.001053894    1.529    0.346
        36 -10.5743    216.6853     56.0236   4.3162204870e+01   2.4414776241e+01    0.3099268    0.2887785 -42.69  0.001953834    1.219    0.179
        37 -12.1827    249.1642    156.9130   6.0819273355e+01   1.2814407865e+00    0.4999721    0.2905677 -45.95  0.002578527    1.670    0.401
        38  -9.8118    190.0465     51.5146   4.5563635857e+01   3.1208064323e+01    0.2543669    0.1627961 -52.44 0.0006016277    1.515    0.340
        39  -8.9723    210.7078    155.2920   6.7073604941e+01   8.2075225896e+00    0.1338187    0.1120814 -71.57  0.000230126    1.551    0.355
        40 -14.6212    205.3090    110.1970   5.7783672946e+01   1.7820568135e+01     1.496364    0.9251502  45.23  0.006732357    1.804    0.446
        41 -14.6850     38.7881    172.9860   1.1204108876e+02   3.4048738147e+01     1.808085     1.409226 -14.00  0.005312374    1.877    0.467
        42 -10.0536    185.8986     43.2287   4.3996246929e+01   3.3362893195e+01    0.5054186    0.1421022 -51.82  0.001366791    5.518    0.819
        43  -8.5951    208.5112     37.0194   3.9638706059e+01   2.8898484636e+01    0.1725504    0.1171497 -44.83 0.0003645397    1.376    0.273
        44 -15.0301     21.3539    185.0113   1.1747061566e+02   3.2955227367e+01     2.522802      1.47716 -50.10   0.00250993    2.027    0.507
        45 -10.1207    230.6993    195.9776   7.1650206864e+01  -2.2875949261e+00    0.1927978    0.1536705 -21.43  0.001138036    1.096    0.087
        46 -11.3701    201.0175     33.4987   3.9637016991e+01   3.1075480625e+01    0.2440647    0.1703351 -42.27 0.0005158431    1.395    0.283
        47  -9.6229    180.0529     30.5606   4.1453457859e+01   3.6405485911e+01    0.2027496    0.1640856 -40.87  0.000723105    1.294    0.227
        48 -13.0682    238.7702     39.3480   3.7112659146e+01   2.2002861319e+01    0.4800558    0.3341431  45.73   0.00244292    2.037    0.509
        49  -9.8458    243.0504     21.1216   3.2993343334e+01   2.3425507702e+01    0.1573201    0.1407626 -80.72   0.00113013    1.241    0.194
        50 -10.3788    191.9014    193.4746   7.8602864419e+01   4.4298865312e+00    0.5407723    0.2950343 -66.63  0.001469384    6.994    0.857
        51 -12.6238     29.3375    179.9093   1.1511052278e+02   3.3373327575e+01    0.4086901     0.341299 -30.36  0.001203087    1.630    0.387
        52  -9.1296    167.6497    201.2986   8.5172130889e+01   7.1677444808e+00    0.1384838    0.1105245  68.57   0.00070362    1.688    0.408
        53 -11.5798    229.9828    166.9756   6.6047956004e+01   2.6948966374e+00     0.338837    0.1796869 -45.60  0.001577855    1.878    0.468
