#   1 NUMBER                 Running object number                                     
#   2 MAG_AUTO               Kron-like elliptical aperture magnitude                    [mag]
#   3 X_IMAGE                Object position along x                                    [pixel]
#   4 Y_IMAGE                Object position along y                                    [pixel]
#   5 X_WORLD                Barycenter position along world x axis                     [deg]
#   6 Y_WORLD                Barycenter position along world y axis                     [deg]
#   7 A_WORLD                Profile RMS along major axis (world units)                 [deg]
#   8 B_WORLD                Profile RMS along minor axis (world units)                 [deg]
#   9 THETA_WORLD            Position angle (CCW/world-x)                               [deg]
#  10 FWHM_WORLD             FWHM assuming a gaussian core                              [deg]
#  11 ELONGATION             A_IMAGE/B_IMAGE                                           
#  12 ELLIPTICITY            1 - B_IMAGE/A_IMAGE                                       
         1 -15.1077    232.7005     99.5375   4.3187098644e+01   1.5833220140e+01     7.790954     1.457448 -47.93   0.01856977    5.623    0.822
         2 -15.4585    246.5428     47.5997   3.1565055718e+01   2.1137136122e+01     4.227129     2.574791  89.32   0.02581711    1.693    0.409
         3 -16.1068    245.4392     82.1209   3.8207221275e+01   1.6375999034e+01     7.046905     4.718778  42.62   0.04142256    2.180    0.541
         4  -9.6742    138.9400     26.0827   3.9423507513e+01   4.6554374058e+01    0.4373966    0.2102688 -16.20  0.001845215    3.340    0.701
         5  -9.8991    202.7868     18.5124   2.9668817650e+01   3.3213182373e+01    0.3490048    0.3308668  35.10  0.002598364    1.509    0.337
         6  -9.0534    199.9498     14.8273   2.9147284494e+01   3.4201763407e+01    0.2871594    0.2264692 -16.99  0.001451584    1.837    0.456
         7  -9.3171    142.0192     15.7124   3.6006447132e+01   4.6909138354e+01     0.395933    0.1821024 -11.17  0.001581411    4.193    0.762
         8 -10.8831    119.2310      9.8570   3.7952764782e+01   5.2633852981e+01    0.6128135    0.3364496  46.01  0.002641327    1.718    0.418
         9  -7.9769    108.3649      9.2882   3.9788662949e+01   5.5123392081e+01    0.1332794   0.07621302  41.35 0.0007023616    1.698    0.411
        10 -10.8143    232.7467      3.7409   2.4567984607e+01   2.8867790642e+01    0.6185455    0.2505723  62.70  0.003458218    2.617    0.618
        11  -9.1317    243.4761      4.0242   2.3984008445e+01   2.6866592295e+01    0.2120332    0.1351548  67.23  0.001049816    1.754    0.430
        12  -8.4507    249.6892      4.3940   2.3699549579e+01   2.5719259075e+01     0.283837    0.1136468 -83.32  0.001528565    2.606    0.616
        13  -8.3785    248.5688      1.4255   2.3260981205e+01   2.6227235063e+01    0.1304315    0.0805225  74.76 0.0004541496    1.622    0.383
        14  -8.7671    190.8246    191.1009   6.9297980052e+01   5.7669750624e+00     0.409815    0.1991643 -58.97  0.001408986    3.760    0.734
        15  -9.1556    249.2580    249.3979   6.8568331041e+01  -1.1356415649e+01     0.214555    0.1077559 -25.87 0.0009857478    1.639    0.390
        16 -10.1442    228.4972    250.0050   7.2344094756e+01  -9.2879456554e+00    0.4058399    0.1193103  28.80  0.001743336    3.318    0.699
        17 -10.1246    214.3026    249.3007   7.4884020360e+01  -7.5884618231e+00     0.279475    0.2469431  -7.28  0.001983007    1.326    0.246
        18  -9.5505    174.8833    249.3031   8.2797988853e+01  -2.6811175621e+00    0.3066592    0.2468669  52.39  0.001165984    1.789    0.441
        19 -12.1494     75.9607    239.3028   1.0363174231e+02   1.2937084919e+01     1.265039    0.7732722  76.27  0.006180075    2.117    0.528
        20  -8.6723    230.3620    194.0999   6.2275272947e+01  -5.4680022260e-01    0.2250115    0.1863324  30.63 0.0007868192    1.442    0.307
        21  -8.9199     19.3813    186.7643   1.1213206427e+02   3.1859603003e+01    0.2128526    0.1963976 -48.96 0.0003153304    1.234    0.190
        22  -9.1890    220.7210    185.3818   6.2359270232e+01   2.3400536738e+00    0.2170075    0.1923466 -44.55 0.0005951024    1.302    0.232
        23 -13.7886    227.7168     75.0728   3.8816789978e+01   2.0676385929e+01     1.579656     1.092143 -37.79  0.001190121    1.432    0.301
        24 -10.3286    243.0775    246.2928   6.9133936523e+01  -1.0300065573e+01    0.2450613    0.1733491 -23.80  0.001689326    1.190    0.159
        25  -9.8547    226.7579    246.3481   7.2070248481e+01  -8.5613965502e+00    0.3224303    0.1590863  -4.22  0.001483609    2.773    0.639
        26 -13.3830    249.6630     90.5309   3.9356481087e+01   1.4347565680e+01     1.193832    0.2620424 -41.55  0.001477185    3.562    0.719
        27 -10.3497    196.1671    244.0763   7.7594670308e+01  -4.5711980690e+00    0.2246015    0.1906817 -13.72            0    1.160    0.138
        28  -8.2379    108.1033    155.0700   8.2180892033e+01   2.8373354702e+01     0.217668    0.2149479 -22.18 0.0003235371    1.022    0.021
        29 -10.3338    165.9176    150.7806   6.6355683245e+01   1.8554195256e+01    0.5111657    0.2662096  50.77  0.001993647    2.318    0.569
        30  -9.4965    133.9117    146.5589   7.3228515825e+01   2.5686379552e+01     0.882935     0.243732 -54.73  0.002106271    5.179    0.807
        31 -10.4515    216.8523    182.1580   6.2447721491e+01   3.4962539150e+00    0.4334606      0.27714   9.74   0.00214934    2.003    0.501
        32  -9.3660    230.1893    166.8542   5.7107534275e+01   4.3180055301e+00    0.2677619     0.158541 -48.88 0.0009402573    1.656    0.396
        33 -10.4971    221.8144    177.5944   6.0658658187e+01   3.6022033044e+00    0.4227819    0.3736289 -53.26  0.002621335    1.363    0.266
        34  -9.8994    224.7297    173.5636   5.9356642917e+01   3.9083649055e+00     0.413192    0.1928571 -46.55  0.001861151    2.005    0.501
        35 -12.2984     13.1446    142.3406   1.0921674602e+02   4.3833741227e+01    0.9297545    0.8095718 -75.28  0.003925051    1.040    0.039
        36  -9.7790     68.2205    144.3001   9.2012957121e+01   3.7519277840e+01    0.7316363    0.4831034  58.62  0.003183479    1.904    0.475
        37  -9.3320     59.0533    120.5937   9.0153286100e+01   4.4909008294e+01    0.3306002    0.2090631 -59.15  0.001499837    1.520    0.342
        38 -10.6826     42.6412    135.0781   9.8619075888e+01   4.3123902742e+01    0.4523873      0.36636  -0.57  0.001025401    1.397    0.284
        39 -12.6115     54.4096    132.3048   9.4174842705e+01   4.2487872633e+01     2.012558      1.08498  19.08  0.008362023    2.166    0.538
        40 -11.2228    160.6415    128.8268   6.2500281865e+01   2.4364916854e+01    0.4659993    0.4061649 -41.57  0.002259499    1.091    0.084
        41  -8.2039    115.6581    129.9332   7.4311388252e+01   3.3171189324e+01    0.2176667    0.1990021 -43.23 0.0005540947    1.067    0.063
        42  -9.3464    136.2426    127.8868   6.8200766328e+01   2.9561900651e+01    0.3625451    0.1876274 -50.55  0.001387093    1.955    0.488
        43 -10.3091      7.3916    126.2937   1.0903258826e+02   4.8360016758e+01    0.3608377    0.2438558 -89.36  0.001642924    1.522    0.343
        44  -9.7635    164.8361    160.9432   6.8825212657e+01   1.6527093809e+01    0.2818902    0.2346171 -36.79  0.000256233    1.130    0.115
        45 -11.7003    172.5917    115.3460   5.6682786072e+01   2.4695403637e+01    0.7615629    0.5492536  54.69   0.00278315    1.499    0.333
        46  -7.9733    109.6278    109.2874   7.0793885293e+01   3.9146808594e+01    0.1576568    0.1241709  76.44 0.0007020046    1.714    0.417
        47  -9.6791    138.5052    103.4783   6.1382622366e+01   3.4385925442e+01     0.366638    0.1880376 -47.96  0.001373996    1.979    0.495
        48  -9.9698    140.5086     99.2917   5.9776942027e+01   3.4802098678e+01     0.418409     0.279498  56.17 0.0006482443    1.604    0.376
        49 -10.0867     78.1329    103.5912   7.9340889395e+01   4.6215616144e+01    0.2570501    0.2301736 -37.49 0.0002556483    1.072    0.068
        50  -9.1464    149.7791    101.8869   5.8274253740e+01   3.2263215623e+01    0.2763914    0.2208288  57.39 0.0005572289    1.306    0.234
        51  -9.9141    171.1640    158.3312   6.6831152245e+01   1.5928784133e+01    0.4378089    0.2309005  52.89  0.001687539    2.524    0.604
        52  -9.6442    158.0695     89.7409   5.3296129346e+01   3.2768238158e+01    0.3732354    0.2028894 -38.56  0.001595074    1.857    0.461
        53  -7.3371    128.2535     85.3534   5.8978112384e+01   4.0203634707e+01    0.1471645    0.1166046  -2.65 0.0003235354    1.602    0.376
        54 -10.4276    193.1995    155.6401   6.1605545192e+01   1.2499465150e+01    0.6891468    0.3460436 -56.94  0.002463095    2.683    0.627
        55 -11.1734    186.2807    145.1214   6.0724506620e+01   1.5906659850e+01     0.611163    0.4519167 -66.43  0.002954962    1.700    0.412
        56  -9.5802    169.4521     70.6593   4.6196728195e+01   3.3515499881e+01    0.2705263    0.1244043 -43.41  0.001139254    2.110    0.526
        57  -8.5904    162.1937     62.8119   4.5455998959e+01   3.6384819736e+01    0.1866304    0.1639393  29.97 0.0006557464    1.363    0.266
        58  -8.0478    152.4123     60.4898   4.6632185582e+01   3.8969930512e+01    0.1352132    0.1287481  79.71 9.806387e-05    1.034    0.033
        59  -8.4981    144.9697     58.1331   4.7427885357e+01   4.1031579149e+01    0.2038982    0.1869779  70.51 0.0003564511    1.022    0.022
        60 -10.3062    153.1076     48.8719   4.3346663013e+01   4.0487852360e+01    0.3979183    0.2235257  54.03  0.001934998    1.678    0.404
        61  -8.5616    114.0054     48.9783   5.1567230846e+01   4.9402550551e+01    0.1984797    0.1833476  44.53            0    1.012    0.012
        62 -10.0914    140.2854     42.7218   4.3960457951e+01   4.4263246555e+01    0.3701331    0.2481857   6.89  0.001741023    2.470    0.595
        63  -9.1036    167.9936     40.7769   3.8838939683e+01   3.8160492705e+01    0.2061399    0.1809742 -50.73 0.0004897577    1.190    0.160
        64  -8.7833    148.0000     38.9558   4.1513664647e+01   4.2964116502e+01    0.2024737   0.07544347 -32.36 0.0006978595    2.942    0.660
        65  -9.2755    180.2363     38.1629   3.6518051669e+01   3.5750359568e+01    0.2311859    0.1838034  41.40 0.0004902571    1.585    0.369
        66  -9.1943    214.9823    154.5376   5.7274537312e+01   8.9849060636e+00    0.2628692    0.1756974 -53.02 0.0007533973    1.561    0.359
        67  -9.3239    162.8892    243.1342   8.4407421104e+01   1.2312651550e-02    0.2677751    0.1843144  31.47 0.0007740307    1.350    0.259
        68  -9.3803    183.4279     29.7430   3.4140076184e+01   3.6071312531e+01    0.4498461    0.1830747 -42.33   0.00213302    2.316    0.568
        69  -9.2012    164.2173    238.8045   8.3445527772e+01   6.0743539612e-01    0.2338762    0.1891221  -2.05  0.000239598    1.130    0.115
        70  -7.3495     64.2663    195.3357   1.0132449138e+02   2.4753443826e+01    0.1427435     0.104783 -37.22 0.0004336025    1.589    0.371
        71  -8.0832    159.9371     20.7764   3.4860025917e+01   4.2316740428e+01    0.1718411     0.147125  62.64 0.0004741334    1.177    0.150
        72  -8.4576    165.1842    234.1592   8.2495711110e+01   1.3217220974e+00    0.1994547    0.1594399  -1.37 0.0002821927    1.157    0.136
        73  -7.6599    193.4246    232.2034   7.6192244314e+01  -2.2288080112e+00    0.1599105    0.1204482 -45.06 0.0003341715    1.534    0.348
        74  -7.5653    155.6546     11.3014   3.2971945520e+01   4.4228783240e+01    0.1279637   0.08070276 -73.92 0.0007038506    1.683    0.406
        75 -10.2549    132.4388    226.6319   8.8736747074e+01   7.6029861445e+00    0.2599029    0.2408605 -27.87 0.0005206064    1.127    0.113
        76  -8.9324     84.0273    219.4714   9.9404027215e+01   1.6261163685e+01    0.2436839    0.2017462 -68.11 0.0003270716    1.264    0.209
        77  -8.4145    155.7101    213.4649   8.1165311743e+01   6.7623350075e+00    0.2212528    0.1807334 -39.03 0.0003650893    1.238    0.192
        78  -9.0458     16.1857    202.2661   1.1422852881e+02   2.8312123093e+01    0.2103323    0.1803825 -62.09 0.0005922495    1.251    0.200
