#   1 NUMBER                 Running object number                                     
#   2 MAG_AUTO               Kron-like elliptical aperture magnitude                    [mag]
#   3 X_IMAGE                Object position along x                                    [pixel]
#   4 Y_IMAGE                Object position along y                                    [pixel]
#   5 X_WORLD                Barycenter position along world x axis                     [deg]
#   6 Y_WORLD                Barycenter position along world y axis                     [deg]
#   7 A_WORLD                Profile RMS along major axis (world units)                 [deg]
#   8 B_WORLD                Profile RMS along minor axis (world units)                 [deg]
#   9 THETA_WORLD            Position angle (CCW/world-x)                               [deg]
#  10 FWHM_WORLD             FWHM assuming a gaussian core                              [deg]
#  11 ELONGATION             A_IMAGE/B_IMAGE                                           
#  12 ELLIPTICITY            1 - B_IMAGE/A_IMAGE                                       
         1 -10.2068    230.5831     14.1462   1.2075505842e+01   2.5482735924e+01    0.7845778     0.345366 -48.29  0.003581523    2.141    0.533
         2 -10.4645    236.4193     11.0433   1.0828991163e+01   2.4471874522e+01    0.8654159    0.4728583 -51.08  0.004502208    1.689    0.408
         3  -9.6556    119.9339      9.4886   2.6739746174e+01   5.3302035528e+01    0.4369419    0.3465236  14.01  0.002538338    1.280    0.219
         4  -7.3915    179.6810      6.6755   1.5730582142e+01   3.8784606265e+01    0.1415252   0.09289795  40.40 0.0003245662    1.675    0.403
         5  -7.2048     85.6725      5.2498   3.3747347339e+01   6.1113716977e+01    0.1098062    0.1013213  88.31 0.0001774357    1.545    0.353
         6  -7.6582     75.9709    244.0600   9.0680481365e+01   1.5641987198e+01    0.1319889    0.1025711  71.49  0.000480899    1.095    0.087
         7  -8.6783    249.3194    250.0353   6.0277080325e+01  -1.1739693855e+01    0.2493391    0.1297348  40.60  0.001476877    1.858    0.462
         8  -8.4060     62.2463    248.7651   9.3400412574e+01   1.6649434206e+01    0.2200724    0.1223836  79.77  0.001299625    1.796    0.443
         9 -13.2171     31.3627    246.5258   9.8318202302e+01   2.0722989523e+01     1.452018     1.026202 -71.44  0.006569477    1.626    0.385
        10 -12.8466     53.0287    230.0020   9.3597865009e+01   2.1117087990e+01     2.163102     1.287104  89.65  0.002763627    1.585    0.369
        11 -14.6515     10.1986    207.1790   9.9630111408e+01   3.0101297170e+01     5.006388     1.932163 -75.11   0.02844228    2.172    0.540
        12  -8.4202    235.9611    232.3544   5.9702839487e+01  -7.8435543614e+00    0.1766004    0.1520002  -2.03 0.0005236257    1.248    0.199
        13 -10.7915    115.9502    227.8447   8.1680831036e+01   1.2570007664e+01    0.4909425     0.310333 -76.21  0.002759055    1.992    0.498
        14  -8.7222    140.8283    229.1002   7.7022860286e+01   8.2976627530e+00    0.2050318     0.154297  61.53  0.001251377    1.345    0.256
        15  -7.6174     84.5892    228.3135   8.7700969019e+01   1.7224042642e+01    0.1434284    0.1070355 -61.99  0.000636967    1.564    0.361
        16  -7.7867    160.6523    225.7064   7.2696524018e+01   5.4917839364e+00    0.1279034   0.09206248  16.63 0.0007030682    1.670    0.401
        17  -8.2217    186.2446    229.7408   6.8382533948e+01   5.1609095957e-01    0.2953221    0.1462622 -51.76  0.001392077    2.962    0.662
        18  -7.6061     71.4009    243.6665   9.1444977807e+01   1.6324110189e+01    0.1274389   0.09845232 -73.30 0.0004037126    1.461    0.316
        19  -9.0222    154.3641    216.8662   7.2631799734e+01   8.0304389568e+00    0.4476098    0.2503989  36.09  0.002042583    1.625    0.384
        20  -8.2547     66.8441    213.8868   8.9680640907e+01   2.2393235980e+01    0.1649359    0.1486949  86.70 0.0009543996    1.234    0.189
        21 -10.1401    120.7123    212.8525   7.8854087624e+01   1.4500552134e+01    0.4271244     0.185698  43.05  0.001953901    1.969    0.492
        22  -7.0370    242.4798    206.5117   5.4012417582e+01  -5.6153888684e+00    0.1276372    0.1021682   9.67 0.0008102258    1.006    0.006
        23  -9.0784    124.6724    205.8403   7.7077135078e+01   1.5150199088e+01    0.2292404    0.1668828  35.88 0.0005002961    1.353    0.261
        24  -8.2696     72.9945    204.6889   8.7552468684e+01   2.3380539563e+01    0.2159052    0.1519807 -89.58 0.0006387053    1.359    0.264
        25  -8.9535    134.9177    209.4462   7.5478353917e+01   1.2722557396e+01    0.2572694    0.1633446  33.59  0.001338012    1.578    0.366
        26  -8.0060    101.4911    202.4630   8.1447888720e+01   1.9612184506e+01    0.2157455    0.1206382 -76.35  0.001029317    2.236    0.553
        27  -7.9236     90.5838    202.2596   8.3688170895e+01   2.1334389318e+01    0.2288976    0.1195514 -70.09 0.0008411705    2.096    0.523
        28  -7.9103     99.2278    195.9613   8.1075429870e+01   2.1276914661e+01    0.1588017    0.1049178 -65.86 0.0004685344    1.582    0.368
        29  -8.7968     59.1719    194.3088   8.9282349538e+01   2.7337355974e+01    0.4449531    0.2441493  41.21  0.002471735    1.755    0.430
        30  -8.1207     38.9138    177.5035   9.1834644112e+01   3.3300737368e+01    0.2504154    0.1456496  46.36 0.0009254824    1.658    0.397
        31  -8.1772     62.7796    189.0335   8.7975635570e+01   2.7980569102e+01    0.2219904    0.1663057  69.30 0.0006361487    1.174    0.148
        32 -11.4971     54.4676    181.2229   8.8895201790e+01   3.0699836504e+01     1.331741     0.576919  59.06  0.006007527    2.576    0.612
        33  -7.9182     68.2908    203.0304   8.8325080725e+01   2.4354348804e+01    0.1646217    0.1300508 -85.32 0.0004322807    1.179    0.152
        34  -7.9664     50.9658    194.2282   9.0946406794e+01   2.8371060018e+01    0.1695825    0.1355713  75.89 0.0005721131    1.017    0.017
        35  -7.8151     70.2309    188.7942   8.6369901562e+01   2.7040052400e+01    0.1550192    0.1432776 -58.66 0.0006597394    1.335    0.251
        36  -8.1390    115.5120    186.4958   7.6183862597e+01   2.0542174957e+01    0.1360905    0.1233454  61.28 5.596782e-05    1.019    0.018
        37  -9.6958    142.6119    180.1947   6.9123988014e+01   1.6943221620e+01    0.2464216    0.2445385  58.70 0.0002788561    1.083    0.076
        38  -8.6719     70.7754    178.7108   8.5039578249e+01   2.9132335028e+01    0.2801713     0.250515  -7.41  0.001767502    1.603    0.376
        39  -7.8073    147.9172    177.8249   6.7519812157e+01   1.6408274014e+01    0.2174673    0.1875153  18.29 0.0007961907    1.273    0.215
        40  -9.3291     63.9073    176.3338   8.6272754089e+01   3.0569462312e+01    0.4285367    0.3078412 -67.01  0.001624562    1.327    0.246
        41  -8.1341     88.9158    174.7733   8.0416045464e+01   2.7365961781e+01    0.1881234    0.1848203  33.98 0.0005926208    1.235    0.190
        42  -8.1788     34.7490    173.3505   9.2321109013e+01   3.4643448355e+01     0.239622    0.1350768 -78.47  0.001370038    1.535    0.349
        43  -7.6898    103.9946    171.4998   7.6435421070e+01   2.5672764171e+01    0.1894584    0.1255395  12.68 0.0008106626    2.634    0.620
        44  -8.7159     86.0676    169.5939   8.0316166380e+01   2.8940980753e+01     0.219207    0.1763385 -65.75  0.000504917    1.221    0.181
        45 -10.2609     69.3143    169.0035   8.4118804205e+01   3.1471834096e+01    0.6400443    0.3944013 -86.33  0.001620321    1.748    0.428
        46 -10.0269     73.9750    164.4279   8.2402463873e+01   3.1856390041e+01    0.4417724    0.2993575 -58.11  0.001521713    1.451    0.311
        47  -8.5298     59.1608    170.0196   8.6570266048e+01   3.2571288757e+01    0.3232922    0.1846888  33.08   0.00153258    1.970    0.492
        48  -7.8696     54.3353    167.7613   8.7392389462e+01   3.3669541029e+01    0.2179997    0.1410271 -62.23  0.000824073    1.463    0.316
        49  -6.9318    141.3313    169.3007   6.7415548538e+01   1.9401072394e+01    0.1439328    0.1148235   3.66 0.0003958731    1.649    0.393
        50  -7.5818    247.2962    167.6552   4.5528142550e+01  -9.4863848412e-01    0.1231956     0.105697 -58.41 0.0007033149    1.670    0.401
        51 -11.6865     57.2345    132.0020   8.1653054682e+01   4.1519752942e+01    0.8218108     0.617031  60.34  0.004259606    1.430    0.301
        52  -9.5263     82.1105    156.3200   7.9225051833e+01   3.2523698196e+01     0.335809    0.2779148  65.86 0.0009071603    1.177    0.150
        53 -12.0271     69.8013    148.1069   8.0980630712e+01   3.6160245227e+01      1.31241     0.682929 -81.81  0.005480193    2.569    0.611
        54 -10.9372     69.0873    135.2322   7.9040847124e+01   3.9251133332e+01    0.9230683    0.4903174  86.18   0.00331574    3.675    0.728
        55  -8.4942     50.7209    163.0414   8.7652804613e+01   3.5155910124e+01    0.3085774    0.1580203  62.85  0.001087365    2.230    0.552
        56 -14.7981     11.2764    246.5965   1.0144945646e+02   2.2829731816e+01      1.71622     0.597463 -64.67  0.004760516    3.171    0.685
        57 -15.5194      5.1076    241.1825   1.0215151857e+02   2.4361068640e+01     2.403555     1.261726  26.13  0.008709553    3.264    0.694
        58  -8.4885     32.0733    156.4934   9.1201853039e+01   3.8633835527e+01    0.2240691    0.1639201   9.66   0.00136195    2.057    0.514
        59  -8.7385     32.8184    152.5734   9.0599763103e+01   3.9440653623e+01    0.2184231    0.1402237 -82.92 0.0006951427    1.353    0.261
        60  -8.5975     32.3012    149.3167   9.0353962494e+01   4.0226120268e+01    0.1644579    0.1267921  31.73 0.0006158217    1.563    0.360
        61  -8.1224    228.9204    154.1139   4.5903254305e+01   4.5725943616e+00    0.2103644    0.1915228   6.58  0.000793807    1.042    0.040
        62  -8.5582     60.4840    154.0078   8.4162331811e+01   3.6019724667e+01    0.2211417    0.1361127  77.11 0.0006990143    1.896    0.473
        63 -10.1917     54.6603    149.0763   8.4899690136e+01   3.7866406345e+01    0.6585768     0.352224 -87.48  0.003006697    2.284    0.562
        64  -9.2637     48.7327    146.1063   8.5957466603e+01   3.9238224706e+01    0.3225133    0.1919664  53.02  0.001313116    1.770    0.435
        65  -7.6902     50.6011    154.2727   8.6585636321e+01   3.7153914867e+01    0.1721309    0.1032432 -60.27 0.0002665201    1.526    0.345
        66  -8.9103     87.9797    151.5601   7.6988306716e+01   3.2723160142e+01    0.3062641    0.2379427  58.71  0.000447232    1.294    0.227
        67  -8.5274     48.7397    243.7028   9.5310384290e+01   1.9197104724e+01    0.2391699    0.1212726  40.69  0.001482759    1.828    0.453
        68  -7.9879    134.0146    147.7848   6.4847337695e+01   2.5402948407e+01    0.2821542    0.1921808 -64.40  0.001274723    1.716    0.417
        69  -8.2401     91.4101    148.2490   7.5548873585e+01   3.2945167669e+01    0.1986264    0.1292191 -71.67 0.0009475274    1.640    0.390
        70  -8.7604     40.5576    146.3007   8.7998652128e+01   4.0081432011e+01    0.2941697    0.1258931  21.33  0.001235485    3.612    0.723
        71  -8.2416     95.0200    145.0986   7.4058552582e+01   3.3088134031e+01    0.2065268    0.1923895  86.92 0.0002758129    1.021    0.020
        72  -7.6036    241.4660    143.3918   4.1317238679e+01   3.8842152193e+00    0.1369493    0.1239227  -6.06 9.615166e-05    1.029    0.028
        73  -7.9852    136.9329    142.9329   6.3097764967e+01   2.5875527250e+01    0.3133871    0.1899985  83.62 0.0009636183    4.171    0.760
        74  -9.7437     26.7411    138.9713   9.0499246918e+01   4.3089690606e+01    0.3901944    0.2043795  59.00  0.001962217    2.159    0.537
        75  -8.2544    103.4831    136.9937   7.0292257280e+01   3.3524883646e+01    0.4017384    0.2273115 -21.76  0.001220541    4.741    0.789
        76  -9.8025     90.3470    136.3934   7.3620176677e+01   3.5852858928e+01    0.2714835    0.2495521 -67.30 0.0005026262    1.035    0.034
        77  -8.8467    154.4823    134.9156   5.7060374983e+01   2.3922376489e+01    0.3751951    0.2709023 -26.98  0.001168804    1.606    0.377
        78  -9.5513     26.4792    133.8142   8.9942215341e+01   4.4287381673e+01    0.6544846    0.1422935  44.96  0.002255961    5.142    0.806
        79 -10.0252     20.5767    126.4044   9.0539089709e+01   4.6468585384e+01    0.3483357    0.2339373  59.33  0.001266236    1.624    0.384
        80  -9.5842     47.6506    132.6764   8.4305102322e+01   4.2466870155e+01    0.2898035    0.2184151  85.52  0.001712156    1.335    0.251
        81  -9.5699     40.0147    129.7612   8.5890226097e+01   4.3947236616e+01    0.3474468    0.1969305 -56.56 0.0003339908    1.550    0.355
        82  -9.4857     37.6959    126.6839   8.6058082335e+01   4.4889516107e+01    0.3308857    0.2190468 -25.52  0.001781143    2.170    0.539
        83  -9.0426     30.5976    130.1880   8.8421047960e+01   4.4750518983e+01    0.4163429    0.1710598  62.90  0.001516743    4.366    0.771
        84  -7.5865    111.5239    128.5704   6.6378923955e+01   3.4007517603e+01    0.1452548    0.1427043 -73.59 0.0001286313    1.017    0.017
        85  -9.7205     73.7553    125.4721   7.5988328117e+01   4.0890385494e+01    0.5178649    0.2178927  31.34  0.002065939    2.780    0.640
        86  -8.6253     99.0186    124.4882   6.8832040014e+01   3.7170670611e+01    0.2734769    0.2085415 -50.15  0.000626034    1.263    0.208
        87  -9.2495     47.8980    123.5115   8.2791463143e+01   4.4572521663e+01    0.3100315    0.1288712  30.23 0.0009409217    2.754    0.637
        88  -9.8284      4.8626    121.1993   9.3991908998e+01   4.8760593373e+01    0.2547306    0.2418292 -63.23  0.002001927    1.272    0.214
        89  -7.6295    234.3359    121.6729   3.7581532526e+01   8.8679949695e+00    0.1441112    0.1117493 -67.29 0.0006004196    1.722    0.419
        90  -9.3576     23.1081    119.8080   8.9013102668e+01   4.7769572406e+01    0.2794877    0.1897447 -18.10  0.001628866    2.117    0.528
        91  -7.6613    132.5463    119.5745   5.8763666925e+01   3.1875752950e+01     0.150154    0.1494663  55.73 2.865425e-05    1.010    0.010
        92  -9.3856     81.4597    161.9609   8.0260466491e+01   3.1338693186e+01    0.4271582    0.3934406  62.81  0.002413636    1.107    0.097
        93  -8.6192     14.9928    118.6564   9.1042882644e+01   4.8649302702e+01    0.2248565    0.1425899  84.74  0.001016891    1.600    0.375
        94  -7.4715    108.0505    118.0264   6.4888596538e+01   3.7039087338e+01    0.1782918    0.1646061 -52.07 0.0003414604    1.050    0.048
        95  -8.6980     72.2605    117.3891   7.4800814092e+01   4.2984895371e+01     0.265155     0.211464 -84.43 0.0005969074    1.360    0.265
        96 -10.4036     60.8444    115.2854   7.7660279592e+01   4.4980187469e+01    0.3217807    0.2231824 -74.20 0.0002904865    1.470    0.320
        97  -7.8287     47.2333    114.9508   8.1518088700e+01   4.6634888311e+01    0.1832188   0.09576093 -63.98 0.0008866944    1.661    0.398
        98  -8.8931      2.4649    112.7809   9.3683916740e+01   5.0781213953e+01    0.2239486    0.1573141  70.37  0.001490265    1.514    0.340
        99  -8.8546    119.5239    111.5733   6.0183647002e+01   3.6283002793e+01    0.3862391    0.2516336  67.38  0.001571035    2.231    0.552
       100  -9.6134    126.5000    235.9915   8.0633001320e+01   9.5002854461e+00      0.27197    0.1785877 -56.88  0.001529241    1.834    0.455
       101 -11.0600    124.1836    228.9150   8.0220374919e+01   1.1064924579e+01    0.5862191    0.3531138 -61.51  0.003305539    1.982    0.495
       102  -7.7314    111.6210    101.8300   5.9826579623e+01   3.9967916964e+01    0.2033135    0.1392992 -56.93 0.0002030618    1.566    0.361
       103  -7.8562     27.5398     99.5042   8.4629392278e+01   5.2040007571e+01    0.1254306    0.1013761 -61.02 0.0002053026    1.016    0.015
       104  -7.6150     11.3254     94.1825   8.8687605467e+01   5.4396149312e+01    0.1541631    0.1214127  79.57  0.000817947    1.403    0.287
       105 -10.5899    131.0576    232.3140   7.9318216512e+01   9.3746837793e+00    0.4125394    0.3214054  87.90  0.001339182    1.533    0.348
       106  -7.1447    138.2668     79.3559   4.6195961949e+01   3.8897195416e+01    0.1568692    0.1200961   1.59 0.0002895537    1.632    0.387
       107  -8.1004    131.1196     76.3644   4.7127833275e+01   4.1084481024e+01    0.2342272    0.2011684 -19.54 0.0003525112    1.195    0.163
       108  -7.8719    204.8645     76.2796   3.1274479875e+01   2.3194984314e+01    0.2019556    0.1797636  50.84 0.0003559479    1.146    0.127
       109  -6.9055     99.7226     76.7011   5.6130740644e+01   4.7509006596e+01    0.1447966    0.1105267  -7.98 0.0002782952    1.537    0.349
       110  -7.3695    217.4105     73.1580   2.8405001624e+01   2.0666548906e+01     0.190975    0.1284708 -46.60 5.728064e-05    1.459    0.315
       111  -7.6150     27.2275     70.3106   7.8844400954e+01   5.8509840243e+01    0.1509311    0.1072495  32.26 0.0004789739    1.705    0.414
       112  -9.0590    101.6228     64.4326   5.1649636721e+01   4.9515407158e+01    0.3532705    0.2358233 -24.36 7.916927e-05    1.608    0.378
       113  -7.9045    170.9610     63.2018   3.3877984397e+01   3.3778382445e+01     0.210224    0.1186659  57.28 0.0006037547    1.741    0.425
       114  -7.6617    143.8420     59.5853   3.8663325056e+01   4.1074649125e+01    0.2112346    0.1448105  68.20 0.0009287633    1.739    0.425
       115 -10.0104    187.4821     55.5236   2.8560536836e+01   3.0787761249e+01    0.4165481    0.3549065  83.44  0.001141331    1.223    0.182
       116  -7.2217    170.4172     56.5150   3.1992452221e+01   3.4966839955e+01    0.1480173    0.1443481  43.73 9.819246e-05    1.022    0.022
       117 -11.2494    199.4738     46.5213   2.4101611018e+01   2.9054769312e+01    0.8997609    0.8101717  75.21  0.004064172    1.071    0.067
       118 -11.2160    208.6620     38.2440   2.0566806139e+01   2.7874490904e+01    0.6535258    0.6406329  -1.19  0.001505902    1.156    0.135
       119  -7.1437     98.6443     48.5337   4.7078001031e+01   5.2876742357e+01    0.1384669     0.125927 -11.88 7.960078e-05    1.061    0.058
       120  -8.3199    150.0734     40.2500   3.1018672167e+01   4.2451702658e+01    0.2235276    0.2032816 -14.92  0.000435345    1.157    0.136
       121  -8.9841    221.7627     39.8101   1.9277363335e+01   2.4461194317e+01    0.2942101    0.1935891 -56.61  0.001257915    1.536    0.349
       122  -9.1076     76.9459    234.1531   8.9654050683e+01   1.7241518578e+01    0.2269541    0.1536759 -75.89 0.0006608274    1.539    0.350
       123  -8.8305    141.0288    249.4725   7.9531127562e+01   5.0596354808e+00    0.1919924   0.09489336  41.31  0.001032583    1.598    0.374
       124  -7.8927     91.3419    247.4200   8.8271061610e+01   1.2933994160e+01    0.2987608    0.1429729  71.22  0.001424442    2.942    0.660
       125  -8.4018    186.6771     18.2496   1.8086820841e+01   3.5824995794e+01    0.2472744    0.1761419  59.61  0.001053584    1.296    0.228
       126 -10.2015    106.0002    243.4106   8.5257329408e+01   1.1452647330e+01    0.2283239    0.1968237 -79.12 0.0004824045    1.332    0.249
       127  -7.8208     79.6091    244.7295   9.0099699227e+01   1.5030820617e+01    0.1414708   0.09375899  87.37 0.0007034127    1.534    0.348
