#   1 NUMBER                 Running object number                                     
#   2 MAG_AUTO               Kron-like elliptical aperture magnitude                    [mag]
#   3 X_IMAGE                Object position along x                                    [pixel]
#   4 Y_IMAGE                Object position along y                                    [pixel]
#   5 X_WORLD                Barycenter position along world x axis                     [deg]
#   6 Y_WORLD                Barycenter position along world y axis                     [deg]
#   7 A_WORLD                Profile RMS along major axis (world units)                 [deg]
#   8 B_WORLD                Profile RMS along minor axis (world units)                 [deg]
#   9 THETA_WORLD            Position angle (CCW/world-x)                               [deg]
#  10 FWHM_WORLD             FWHM assuming a gaussian core                              [deg]
#  11 ELONGATION             A_IMAGE/B_IMAGE                                           
#  12 ELLIPTICITY            1 - B_IMAGE/A_IMAGE                                       
         1 -12.6540    169.4790     69.2138   8.1395518795e+01   3.3669138581e+01     1.450045    0.6322318 -33.80  0.001799878    2.537    0.606
         2 -14.5482    186.5609     83.9570   8.1980363080e+01   2.6852882902e+01     7.221968     3.907187 -51.88   0.02886752    2.041    0.510
         3 -15.2761    139.9779     26.7212   7.4897216273e+01   4.6896292158e+01     10.14029     8.079517 -76.33   0.05675426    1.532    0.347
         4 -14.6567    233.5538     64.0169   6.9534067016e+01   1.8843000775e+01     2.834411     1.534781 -56.02  0.008308588    1.859    0.462
         5 -15.0822    232.7936     10.5610   5.8075216533e+01   2.6218721273e+01     1.466193     1.197211  -2.01  0.006900779    2.009    0.502
         6 -15.2300    205.4108     62.2981   7.3152627903e+01   2.5807010723e+01     10.13212     3.955734 -58.50   0.01614541    4.802    0.792
         7 -14.6804    248.8687      4.8968   5.5641986735e+01   2.3313717140e+01    0.7401462    0.5200397 -14.35  0.003930003    2.484    0.597
         8  -9.7970     53.2291     17.8068   9.6483712166e+01   6.5067317273e+01    0.5275576    0.1267886 -33.32  0.002015309    4.120    0.757
         9 -16.4703    245.4641     24.1031   5.9683565137e+01   2.1768921047e+01     3.436115     2.016377  59.80   0.01300561    1.809    0.447
        10  -9.2474    159.9110     17.0708   6.8416165281e+01   4.3077823200e+01      0.20851    0.1893574 -30.48 0.0005140928    1.299    0.230
        11 -11.3805    208.6410      7.1991   5.9648206955e+01   3.2193202671e+01    0.2587062    0.2424842 -15.98 0.0008144344    1.456    0.313
        12  -9.5385     79.9476      2.3046   8.0858010107e+01   6.2179243949e+01    0.2349577    0.1599056 -14.99 0.0009578902    1.561    0.360
        13  -8.0632    209.4482      1.5343   5.8310686142e+01   3.2581372647e+01    0.1259307    0.1017863  82.75  0.000149843    1.075    0.070
        14 -10.1812    238.2019    172.3997   9.2905680049e+01  -1.1983703745e+00    0.2605691    0.1993778 -48.41 0.0008338348    1.437    0.304
        15 -11.8877    237.3975    249.4614   1.0762689079e+02  -1.2876339952e+01     1.283124    0.3242985  38.25  0.004964338    3.439    0.709
        16 -11.0348    249.4619    249.7444   1.0547596095e+02  -1.4640366824e+01    0.4413658    0.2932443 -26.27  0.002776383    1.526    0.345
        17 -10.2441    228.4767    172.6511   9.4780001516e+01   5.7267452827e-01    0.2850532    0.2267388 -10.02  0.001525769    1.310    0.237
        18 -12.7305     27.5140    167.2347   1.4079473951e+02   3.7401658037e+01    0.7304947    0.5932133  77.03  0.004868026    1.136    0.120
        19 -12.2376     46.4008    167.5393   1.3638746848e+02   3.5310611428e+01    0.5594606    0.4906833  16.88  0.001332214    1.502    0.334
        20 -12.4254     53.5167    162.5042   1.3397930564e+02   3.5654379082e+01    0.8072864    0.6025938  78.42  0.002520668    1.326    0.246
        21  -9.2767    219.1387    169.6589   9.5955558834e+01   2.9302506066e+00    0.3451281    0.2170936  62.40   0.00146771    2.316    0.568
        22  -8.8255    214.9741    168.2140   9.6471935938e+01   4.0310399054e+00    0.2725572    0.2042781  78.36  0.001173221    2.073    0.518
        23 -10.9306    230.7029    166.6270   9.3083470095e+01   1.2334483207e+00    0.5426031    0.2333889 -37.85  0.001978047    2.245    0.555
        24  -8.0164     42.2762    247.3062   1.4487996511e+02   1.8543475753e+01   0.09500244   0.08478422 -72.10 0.0002264369    1.548    0.354
        25  -8.5599     19.7822    232.2340   1.4776767886e+02   2.4117892351e+01    0.1349302    0.1121765 -86.19 0.0004081822    1.326    0.246
        26 -12.0035    217.7370    126.6100   8.6591136103e+01   1.1433699407e+01     0.793735    0.5117801  56.68  0.003356902    1.677    0.404
        27 -11.9015    209.8294    135.6280   9.0201783781e+01   1.1434718365e+01     0.583168    0.5525488 -12.11  0.002677887    1.087    0.080
        28 -12.0793     59.0899    158.0474   1.3193168587e+02   3.6021419966e+01    0.7381067    0.5016702  85.95  0.001511108    1.583    0.368
        29  -9.1443    157.6916    140.1401   1.0272980554e+02   2.2317381596e+01    0.2512715    0.1979855 -64.83 0.0007141054    1.420    0.296
        30  -8.2383     97.0054    133.9542   1.1725627918e+02   3.6137738428e+01    0.1771763    0.1687477 -68.56 0.0003910932    1.004    0.004
        31 -11.1556    189.0496    130.7716   9.3311656508e+01   1.7126774478e+01    0.4070811    0.3286607  83.37  0.001907681    1.508    0.337
        32 -11.4796    160.5842    129.0182   9.9340976244e+01   2.4109432217e+01    0.5302349    0.4437229 -24.77  0.002094502    1.342    0.255
        33  -9.9098    133.6233     97.5000   9.7865854191e+01   3.7018281966e+01    0.3931684    0.2823631 -67.78 0.0006913813    1.825    0.452
        34 -10.9621    134.7434    110.0360   1.0098502538e+02   3.4123148152e+01     1.657055    0.3671893 -41.35  0.003971611    5.126    0.805
        35  -9.8038    140.4673    105.0019   9.8137543724e+01   3.3911074522e+01    0.4154759     0.295296  20.67  0.001758297    1.853    0.460
        36 -10.9596    135.6325    129.1745   1.0563385407e+02   2.9669793426e+01    0.5022819     0.332581 -37.32  0.001334446    1.642    0.391
        37 -10.5436    134.9194    122.7242   1.0422096232e+02   3.1283651608e+01    0.6018646    0.2573902 -53.49  0.001996391    2.680    0.627
        38 -11.0771    203.6192    128.7716   8.9820221540e+01   1.4183142270e+01    0.5888141    0.3143039 -23.57  0.002012178    2.984    0.665
        39 -10.3927    205.8382    122.8545   8.7971054069e+01   1.4843103958e+01    0.2998492    0.2927934  80.68 0.0008854917    1.036    0.035
        40 -10.6945    195.1954    127.8106   9.1303644136e+01   1.6308890002e+01    0.3872988     0.286386 -81.12 0.0009202011    1.854    0.461
        41  -9.5393    172.4903    125.0503   9.5568740789e+01   2.2188862437e+01    0.2518961    0.2113281  48.29 0.0005246334    1.180    0.153
        42  -9.4289    123.9763    123.1969   1.0726405806e+02   3.3503212325e+01    0.4975249    0.2427365 -66.16  0.001414756    4.156    0.759
        43  -8.9125    250.6276    231.1719   1.0203179523e+02  -1.2404164627e+01    0.1719726    0.1003267 -20.55 0.0008114114    1.717    0.417
        44 -11.6196    215.4205    117.4288   8.4864648630e+01   1.3704744715e+01      0.79587    0.4436418 -62.59  0.002219835    2.643    0.622
        45 -10.2558    210.4801    112.5339   8.4609985660e+01   1.5767830912e+01    0.5347134    0.2380874  42.62  0.001918884    2.612    0.617
        46 -12.3069    205.7573    110.5639   8.5019498327e+01   1.7244209826e+01    0.7412183     0.653318 -46.56  0.003071929    1.108    0.098
        47  -9.5200    221.9069    120.1400   8.4324839194e+01   1.1738651574e+01    0.2242301    0.1909869 -71.84 0.0003672795    1.273    0.214
        48 -10.2988    149.6027    117.0523   9.9005313827e+01   2.9243797391e+01    0.5948969    0.3642659 -80.52  0.001848315    3.677    0.728
        49 -10.4614    156.5482    112.3269   9.6068239388e+01   2.8636272952e+01    0.5346786    0.2991233 -66.58  0.001724921    3.198    0.687
        50 -11.4724    188.1954    137.7832   9.5172263276e+01   1.5873834259e+01    0.5072776    0.3687758  49.77   0.00134655    1.381    0.276
        51  -8.9349    144.1497    109.9033   9.8507553798e+01   3.2031769558e+01    0.3478216    0.2267995 -64.71  0.001384341    2.028    0.507
        52 -11.2892    123.5277    103.1458   1.0216224536e+02   3.8040924414e+01    0.6492107    0.4924447  73.60   0.00211887    1.723    0.420
        53  -8.4860    111.3448    138.9280   1.1440053626e+02   3.2338803001e+01    0.2069984    0.1874059 -48.38 0.0002970906    1.111    0.100
        54  -9.4164    117.0099    109.4941   1.0568603118e+02   3.8017063910e+01    0.2467498    0.1515578  42.24  0.001049314    1.639    0.390
        55  -7.7844    201.2992    222.3053   1.0991376656e+02  -3.0412215853e+00    0.1364103   0.09756733   7.55 0.0002185175    1.590    0.371
        56 -10.0260    165.9651    210.1309   1.1517578161e+02   5.7032042014e+00    0.2057022    0.1996203  39.91  0.000271032    1.084    0.078
        57 -10.1062    146.9913    100.8676   9.5353597557e+01   3.3263106901e+01    0.3536386    0.3369915  64.36 0.0006856961    1.049    0.047
        58  -8.9375     91.0389     98.8480   1.1050911875e+02   4.5243785975e+01    0.3387438    0.2018073 -67.07  0.001355708    2.471    0.595
        59  -9.5307    191.9728    193.2223   1.0640930553e+02   3.8696055786e+00    0.7709488     0.372652 -63.55  0.001886722    7.447    0.866
        60 -10.7213    208.3343     95.2656   8.0805363723e+01   1.9493724016e+01    0.5449777    0.3656446 -72.58  0.001318979    1.920    0.479
        61 -10.1726    140.1785     90.5859   9.4209188853e+01   3.6912526847e+01    0.3297708    0.3005823 -69.72 0.0005369887    1.196    0.164
        62 -10.4725      3.1427     89.5303   1.3697461559e+02   5.6817884847e+01    0.2457772    0.1675023 -34.63  0.001640608    1.433    0.302
        63  -8.7741     78.8008     89.6055   1.1186306520e+02   4.9227725393e+01    0.1929676    0.1303682  44.86  0.000950444    1.661    0.398
        64  -8.9461      6.6929     74.6506   1.3304682408e+02   5.9747994638e+01    0.1267472    0.0621505 -40.43  0.000704308    1.707    0.414
        65 -12.3587     69.5800    147.0626   1.2739930493e+02   3.7269168483e+01      1.59267     1.096965 -60.55  0.006982793    1.323    0.244
        66 -13.8770    246.5139     36.2927   6.2064027167e+01   1.9949340086e+01    0.7657121    0.3998294 -52.12 0.0009539996    1.713    0.416
        67  -9.4909     76.5416     66.0252   1.0561027914e+02   5.4237358833e+01    0.2012765     0.125671 -41.01 0.0004052585    1.543    0.352
        68  -8.7794    155.1182    159.5945   1.0777163679e+02   1.8538386735e+01    0.2486751    0.2155326 -69.83 0.0005211884    1.252    0.201
        69  -8.5311    147.1122    158.0655   1.0937959491e+02   2.0594536312e+01    0.2274096    0.2116215   0.37 0.0004575996    1.204    0.170
        70 -13.4167     16.0138    184.2457   1.4494765393e+02   3.4637205001e+01     1.332798    0.7323627  89.88  0.005995221    1.575    0.365
        71  -8.8831    203.6278    160.9981   9.7210039469e+01   7.7617330043e+00     0.234442    0.1832823 -57.37  0.000686446    1.457    0.314
        72  -9.1006    113.2768    153.9600   1.1708249584e+02   2.8387626381e+01     0.233396     0.209127  52.13 0.0002985786    1.105    0.095
        73  -9.6866     71.9218     48.4747   1.0132544273e+02   5.7973917806e+01    0.2995002    0.1749372 -39.88 0.0005664416    1.729    0.422
        74  -9.8590    134.0000    147.0397   1.1023586381e+02   2.5896886680e+01    0.4135861    0.2160634 -56.00  0.001505049    2.079    0.519
        75  -9.7282    133.3281    143.0122   1.0949985890e+02   2.6973641539e+01    0.3716333    0.1844187 -61.80  0.001256594    2.716    0.632
        76  -8.0267    198.6715    152.7193   9.6396957908e+01   1.0476116206e+01     0.154051    0.1198026   8.93 0.0005157485    1.601    0.375
        77 -10.0642    179.2368    147.8764   9.9513345253e+01   1.5780519327e+01    0.3801762    0.2693118 -54.39  0.001409706    1.525    0.344
        78 -10.6901    214.8940    188.4059   1.0070143844e+02   3.1934739457e-01    0.4589254    0.2682474  49.57  0.001465883    1.883    0.469
        79  -8.7316    190.8508    180.1425   1.0400979321e+02   6.6293829169e+00    0.2057071    0.1733068  -1.32 0.0004363448    1.309    0.236
        80  -9.9238    222.1233    177.9536   9.7118598590e+01   8.2780738402e-01    0.3907062    0.2957847  70.49  0.001585226    1.967    0.492
        81  -9.4883    250.0899    176.8728   9.1686531700e+01  -4.0731081700e+00    0.3694604    0.1824909 -29.67    0.0016395    2.052    0.513
        82  -9.6252    192.0390    143.9954   9.5803650603e+01   1.3720122457e+01    0.2319848    0.2302204 -61.84 0.0004007712    1.024    0.024
        83 -10.7640    234.6784    174.0133   9.3895251478e+01  -8.3222609249e-01    0.3827091    0.2625173  41.10  0.001970891    1.505    0.336
