#   1 NUMBER                 Running object number                                     
#   2 MAG_AUTO               Kron-like elliptical aperture magnitude                    [mag]
#   3 X_IMAGE                Object position along x                                    [pixel]
#   4 Y_IMAGE                Object position along y                                    [pixel]
#   5 X_WORLD                Barycenter position along world x axis                     [deg]
#   6 Y_WORLD                Barycenter position along world y axis                     [deg]
#   7 A_WORLD                Profile RMS along major axis (world units)                 [deg]
#   8 B_WORLD                Profile RMS along minor axis (world units)                 [deg]
#   9 THETA_WORLD            Position angle (CCW/world-x)                               [deg]
#  10 FWHM_WORLD             FWHM assuming a gaussian core                              [deg]
#  11 ELONGATION             A_IMAGE/B_IMAGE                                           
#  12 ELLIPTICITY            1 - B_IMAGE/A_IMAGE                                       
         1 -15.2599     74.9952     34.0735   8.7468798938e+01   6.0125957832e+01     2.664049     1.312972 -33.55  0.009402296    1.916    0.478
         2 -14.5673     89.3103     33.1062   8.2214066282e+01   5.7663193811e+01     1.468788     1.056078  -7.61  0.006052145    1.477    0.323
         3 -11.9460    193.5859     25.5805   5.7163659624e+01   3.3495551226e+01    0.3115392    0.2529644  17.25  0.001028846    1.473    0.321
         4 -12.5574    222.5261    247.4841   1.0238348147e+02  -5.3168533364e+00    0.5427828    0.3774648  23.36  0.003717519    1.099    0.090
         5 -13.2692    206.9689    249.1496   1.0522940314e+02  -3.2169857099e+00     0.682406    0.2461521  38.48  0.003447521    2.131    0.531
         6 -12.2430    151.8255    215.3775   1.1046282206e+02   1.0118562622e+01    0.8764265    0.5410145 -11.32  0.003725504    3.863    0.741
         7 -16.3697    117.5308    243.6305   1.2020680375e+02   1.1096991690e+01     4.329006     1.279594  38.00   0.01206151    3.069    0.674
         8 -19.4477     16.7150    134.6508   1.3007181725e+02   4.5129591544e+01     17.84907     1.411829 -73.20   0.03653973   12.162    0.918
         9 -11.4015     53.8998    221.1314   1.2962736140e+02   2.3492450881e+01     0.263442    0.1383301  63.97 0.0009014019    1.657    0.397
        10 -16.8743     70.7596    100.1731   1.0955903565e+02   4.7338377563e+01     7.100352      4.64197 -44.14   0.03630823    1.494    0.331
        11 -13.1639     89.8417    214.7485   1.2237681948e+02   1.9933988426e+01    0.8673087    0.3635921  42.70  0.004080495    1.994    0.499
        12 -10.1169     69.0268    218.2477   1.2663531672e+02   2.2127658564e+01    0.1599575    0.1171017  60.13 0.0003881314    1.081    0.075
        13 -11.8337     47.9985    217.7623   1.3044584556e+02   2.4801757030e+01    0.2492066    0.1419458  29.27  0.001475925    2.297    0.565
        14 -10.7179    120.3587    209.3067   1.1579520479e+02   1.6297291545e+01    0.7689536    0.2512357  36.18  0.002942345    3.230    0.690
        15 -11.9680    114.5080    215.1982   1.1766355014e+02   1.6183276108e+01    0.5534492     0.303465  25.61  0.002600817    2.727    0.633
        16 -11.7226    111.5369    211.8624   1.1784661925e+02   1.7229683039e+01    0.4251429    0.2686054  53.38  0.001814284    1.374    0.272
        17 -12.1059     40.5435    213.5832   1.3150141317e+02   2.6421503414e+01    0.3135479    0.1397706  51.84  0.001269242    1.797    0.443
        18 -10.7551     57.3535    212.8856   1.2836141781e+02   2.4584034107e+01    0.1870463    0.1207628  57.78 0.0004811299    1.250    0.200
        19 -11.1939     40.0971    207.8910   1.3118868002e+02   2.7538058511e+01    0.2114407    0.1105404  59.09 0.0004511081    1.586    0.369
        20 -11.1326     60.7853    205.7894   1.2711763265e+02   2.5497491042e+01    0.2415772    0.1938571 -49.61  0.001548725    1.731    0.422
        21 -13.7376    194.6280    196.7590   9.9295609547e+01   5.6011620175e+00     1.036632    0.8754992 -41.44  0.004850782    1.409    0.290
        22 -13.1596     77.0169    198.8718   1.2325854939e+02   2.4710318128e+01    0.7614584    0.6268212 -42.09  0.005008351    1.709    0.415
        23 -13.8369    246.3003    191.9654   8.9173067978e+01  -2.5174128695e+00     1.308262    0.5674369 -28.88  0.006342461    2.309    0.567
        24 -11.6499    147.5018    199.1945   1.0895012483e+02   1.3541732844e+01    0.7528936    0.4000916 -55.15  0.003687612    2.277    0.561
        25 -11.4689     39.9245    201.5399   1.3076284788e+02   2.8773382941e+01    0.2140832       0.1539  60.35 0.0005897566    1.148    0.129
        26 -12.5081    174.2937    195.2945   1.0297492785e+02   9.4556824861e+00     0.588838    0.4798611  18.08  0.002299722    1.246    0.198
        27  -9.9855     64.4801    199.4845   1.2582503010e+02   2.6248704553e+01    0.1192742    0.0951508  70.35 0.0001123664    1.007    0.007
        28 -12.5620     80.4301    179.0845   1.2029407517e+02   2.8224135669e+01    0.8987845    0.5227225  77.63  0.003290392    2.090    0.522
        29 -11.5198     72.1751    173.7505   1.2145518862e+02   3.0487828053e+01    0.4681168    0.2298312  38.28  0.002331961    2.012    0.503
        30 -13.1534    180.8433    174.4121   9.7912076911e+01   1.1720660804e+01     1.250692    0.6208075 -45.17   0.00553793    2.247    0.555
        31 -11.9900    109.3091    169.1830   1.1245735324e+02   2.5846638809e+01    0.6445203    0.3779376  32.01  0.002800093    1.933    0.483
        32 -12.2802     70.8298    157.2004   1.1962768507e+02   3.4261265674e+01    0.8301535    0.4171087 -57.30  0.004061809    1.926    0.481
        33 -11.6281    144.1150    158.7102   1.0271732827e+02   2.1730146522e+01     0.513194    0.3115161  49.48  0.002394545    1.607    0.378
        34 -11.0809     80.2795    158.3911   1.1755485775e+02   3.2682177715e+01    0.2721758    0.1963024 -43.76 0.0008464489    1.681    0.405
        35 -13.6869    104.9946    126.2415   1.0562287525e+02   3.5961182221e+01     1.036709    0.8827494  59.41  0.004872459    1.202    0.168
        36 -14.6269     98.1324    146.6243   1.1133567261e+02   3.2554890331e+01     2.376781     1.546234 -76.69   0.01071978    1.783    0.439
        37 -14.2291    108.1185    137.0782   1.0704742101e+02   3.2990320701e+01     1.454544     1.222242  16.98  0.007206932    1.453    0.312
        38 -11.0829    172.2801    127.5593   8.9653852937e+01   2.2059246591e+01    0.3032341    0.1464018  51.54  0.001153428    2.170    0.539
        39 -11.4635    101.3068    221.6105   1.2090644874e+02   1.7060839616e+01    0.2641356    0.2160492 -52.01  0.001251948    1.569    0.363
        40 -12.9735    139.0275    225.8019   1.1427716441e+02   1.0558262597e+01    0.7012213    0.5053614  -2.14  0.003692606    2.378    0.580
        41 -10.3797     92.0334    234.4742   1.2387218989e+02   1.6208889667e+01    0.1581881    0.1290637  71.76 2.295401e-05    1.133    0.117
