#   1 NUMBER                 Running object number                                     
#   2 MAG_AUTO               Kron-like elliptical aperture magnitude                    [mag]
#   3 X_IMAGE                Object position along x                                    [pixel]
#   4 Y_IMAGE                Object position along y                                    [pixel]
#   5 X_WORLD                Barycenter position along world x axis                     [deg]
#   6 Y_WORLD                Barycenter position along world y axis                     [deg]
#   7 A_WORLD                Profile RMS along major axis (world units)                 [deg]
#   8 B_WORLD                Profile RMS along minor axis (world units)                 [deg]
#   9 THETA_WORLD            Position angle (CCW/world-x)                               [deg]
#  10 FWHM_WORLD             FWHM assuming a gaussian core                              [deg]
#  11 ELONGATION             A_IMAGE/B_IMAGE                                           
#  12 ELLIPTICITY            1 - B_IMAGE/A_IMAGE                                       
         1 -10.5918    246.4902     26.5260   6.4544277153e+01   1.9992256307e+01    0.2226015    0.1090109 -32.98  0.000114426    1.789    0.441
         2  -9.3305    129.4941    249.0577   1.2949902643e+02   1.2695074316e+01    0.1147655   0.09750972 -73.88 0.0006423899    1.563    0.360
         3  -9.0005    146.3784    249.7466   1.2697391759e+02   1.0348083322e+01    0.1952893   0.08780077  48.39  0.001124215    1.705    0.413
         4  -9.3086    122.3113    244.6751   1.3022753419e+02   1.4168332954e+01    0.1682582   0.07431043  44.89 0.0005766921    1.622    0.383
         5  -9.9082    116.5882    248.6993   1.3144461066e+02   1.4426386719e+01    0.2688513    0.1434092  71.16  0.001670571    2.732    0.634
         6 -10.3182    123.1811    248.9788   1.3045921498e+02   1.3535861382e+01    0.5414098     0.150535  53.33   0.00224939    4.584    0.782
         7 -10.5779    115.0529    243.0293   1.3121619810e+02   1.5323187661e+01    0.3385653     0.117544  52.35  0.001832188    2.550    0.608
         8  -9.5049    110.6861    249.4964   1.3240772344e+02   1.5085156299e+01    0.2627783   0.09938828  57.68  0.001402054    3.009    0.668
         9 -10.8070     83.8983    244.9497   1.3615248749e+02   1.8958549410e+01    0.4873955    0.1410113  45.04  0.002785472    2.345    0.573
        10 -10.0664     88.2069    242.4355   1.3532423355e+02   1.8774049653e+01    0.3858834   0.06811162  49.62   0.00161657    4.340    0.770
        11 -10.4822     99.7592    247.4360   1.3391483929e+02   1.6713111851e+01     0.377165    0.1458618  59.66  0.002061637    2.982    0.665
        12  -9.6619     89.6449    250.1283   1.3563069080e+02   1.7604193825e+01    0.2658365    0.1014748  42.97  0.001462426    1.890    0.471
        13  -9.8575     74.6529    250.2481   1.3786942795e+02   1.9341754719e+01    0.3270398      0.08537  43.25  0.001843055    2.563    0.610
        14 -10.8190     64.6047    248.3189   1.3924164504e+02   2.0722671701e+01    0.5116767    0.2348653  55.95  0.003753373    1.597    0.374
        15  -8.8744     57.5329    247.4912   1.4023618216e+02   2.1603603829e+01    0.1996183   0.07073298  56.59  0.001247124    2.184    0.542
        16 -10.1079     50.6161    249.8777   1.4135940703e+02   2.2017907974e+01    0.3546357    0.1243087  42.07  0.002358658    2.090    0.522
        17  -9.7694     44.7100    244.9548   1.4198417100e+02   2.3293462593e+01    0.3018629   0.09678674  46.74  0.001695599    2.043    0.510
        18  -9.6800      9.2898    248.8952   1.4711552870e+02   2.6114441001e+01    0.2063141    0.1060413 -89.55  0.001792524    1.767    0.434
        19  -8.5278     38.2385    249.4163   1.4310927036e+02   2.3341178725e+01    0.1281338   0.05203376  50.14 0.0005962559    1.628    0.386
        20  -9.3812     33.7178    248.3181   1.4370552936e+02   2.3934471261e+01     0.210415    0.1007161  54.87   0.00137338    1.394    0.283
        21  -9.1058     26.3983    249.1360   1.4476557494e+02   2.4526388251e+01    0.1818696   0.06031314  51.63 0.0008756007    1.903    0.475
        22  -9.3174     18.8340    248.9725   1.4581032060e+02   2.5251138583e+01     0.199749   0.07782815  50.08   0.00151896    1.652    0.395
        23  -9.1478      4.2636    248.8191   1.4779379859e+02   2.6558930131e+01    0.1680494   0.08075081  43.94 0.0009842953    1.627    0.386
        24  -8.9087     13.9381    247.9285   1.4645200931e+02   2.5835027345e+01    0.1366262   0.08333649  61.99 0.0007129665    1.049    0.047
        25 -10.0931    211.4283    246.1345   1.1667887063e+02   1.6201118290e+00    0.2279808    0.1151935  25.86  0.001462327    1.833    0.455
        26  -9.9599    105.4736    246.5017   1.3297239486e+02   1.6116215549e+01    0.1871239     0.104634  41.60 0.0008460332    1.406    0.289
        27  -8.5928    197.5744    246.2372   1.1877658052e+02   3.5607449121e+00    0.1227077   0.08765111  -1.03 0.0009451853    1.709    0.415
        28  -8.6479    141.4160    246.2070   1.2740365924e+02   1.1422526011e+01     0.113128   0.09066628  85.91 0.0009361659    1.643    0.391
        29  -9.6097    134.9929    245.9346   1.2837305830e+02   1.2325079186e+01    0.1588172   0.09594612  60.30   0.00113006    1.692    0.409
        30  -8.7045     28.6021    243.7432   1.4425442986e+02   2.5054431441e+01    0.1163283   0.06090056  77.66 0.0009400768    1.618    0.382
        31  -8.9789     20.9500    244.4600   1.4536484818e+02   2.5673868308e+01    0.1577593   0.07389025  49.51 0.0007420972    1.462    0.316
        32  -9.7110      3.3292    242.5479   1.4775782131e+02   2.7498277879e+01    0.3041672   0.08329907  64.76  0.001915741    2.736    0.634
        33  -9.4073    234.6009    242.2047   1.1273925723e+02  -1.2826595466e+00     0.131564   0.08146709  -0.44  0.000955241    1.751    0.429
        34 -10.2184    104.7208    242.0712   1.3274556182e+02   1.6774123022e+01    0.1908576    0.1151651  57.94  0.001137075    1.369    0.270
        35  -8.5784    175.3224    245.3151   1.2207034864e+02   6.7982239151e+00    0.1018477   0.06418318  23.84 0.0007041399    1.661    0.398
        36 -10.1258    127.2308    240.1279   1.2905637041e+02   1.4068791039e+01    0.2169304    0.1197104 -72.32   0.00139267    2.904    0.656
        37  -8.8987     99.5081    241.5203   1.3351263434e+02   1.7503115670e+01    0.1791118   0.06049521  48.70 0.0008974915    2.170    0.539
        38 -10.4118     72.2874    239.9638   1.3760046786e+02   2.0982484995e+01    0.3912049     0.149186  47.41  0.002296106    1.836    0.455
        39  -9.9621     53.1180    239.6578   1.4048365815e+02   2.3146212782e+01    0.3180802    0.1328879  54.67  0.002153357    1.726    0.420
        40  -8.8221     37.8645    240.7805   1.4279490538e+02   2.4562138031e+01     0.217047   0.08146968  53.32  0.001124014    1.815    0.449
        41  -9.3970     14.5609    240.2929   1.4612686201e+02   2.6834509928e+01    0.2005652   0.08001273  60.49   0.00136102    1.727    0.421
        42 -10.3295    219.1213    244.8070   1.1536538595e+02   6.5672620428e-01    0.1813781    0.1245165  17.39  0.001421757    1.299    0.230
        43  -9.9313     27.1049    240.4357   1.4434232116e+02   2.5657580119e+01    0.2102125   0.05823548  40.64  0.001297405    2.600    0.615
        44  -8.6597     20.4594    240.3388   1.4529126672e+02   2.6292609694e+01    0.1545344   0.05990148  54.36 0.0006781193    1.702    0.412
        45  -8.1615      8.9933    240.2307   1.4690770044e+02   2.7334856483e+01    0.1036727   0.05219239  45.10 0.0005751869    1.551    0.355
        46  -9.8398    110.2953    244.0120   1.3203483651e+02   1.5815317060e+01    0.1386006    0.1011699  54.07  0.001152295    1.053    0.050
        47 -10.2381    108.5785    239.0424   1.3189994744e+02   1.6670215036e+01    0.2044259   0.09841606  52.44 0.0008464304    1.637    0.389
        48 -10.0168    122.8040    238.3920   1.2959892759e+02   1.4879681792e+01    0.1518475    0.1029966  45.74 0.0008755844    1.098    0.089
        49  -9.7210    113.9970    237.7086   1.3093343472e+02   1.6136000274e+01    0.1767083    0.1129842  65.57 0.0009630151    1.572    0.364
        50 -10.3866     94.7850    236.5598   1.3387466136e+02   1.8749601596e+01    0.4101615    0.1327183  48.55  0.002303335    2.273    0.560
        51  -9.9557     81.2124    236.6447   1.3600678370e+02   2.0393113063e+01    0.3362184    0.1347615  51.94  0.002086347    1.880    0.468
        52  -9.5706     44.3742    236.8837   1.4165293109e+02   2.4451105322e+01    0.2747774   0.09429426  53.86  0.001772453    2.066    0.516
        53  -8.3711    183.4683    237.5010   1.1991397677e+02   6.4320888616e+00     0.106708    0.0769916  36.30 4.079131e-05    1.005    0.005
        54  -8.3430     22.5640    237.5025   1.4488725525e+02   2.6498284917e+01   0.08992886   0.05894923  63.69 0.0001143604    1.011    0.011
        55  -8.4008    207.3254    235.3401   1.1594237884e+02   3.1777656061e+00    0.1099122    0.0636169  20.95 0.0007051296    1.729    0.422
        56  -8.2729    142.5128    234.9956   1.2613318505e+02   1.2589551181e+01    0.1247944   0.08288027  82.02 0.0008086041    2.420    0.587
        57 -10.6066     61.7996    231.8916   1.3872509384e+02   2.3297766507e+01     0.492828    0.1924694  54.55  0.003158176    1.958    0.489
        58  -8.7943      5.9826    235.3335   1.4718854477e+02   2.8288272780e+01    0.1230861   0.07645916  57.62 0.0005925831    1.124    0.110
        59  -9.5027    102.9326    234.0938   1.3238969335e+02   1.8049135067e+01    0.2523535   0.08032276  53.86   0.00122654    3.112    0.679
        60  -9.8676    110.4600    232.9984   1.3109313618e+02   1.7216373642e+01     0.210026    0.1029879  52.30  0.001364879    1.629    0.386
        61  -8.4120     19.8584    233.6374   1.4513870981e+02   2.7301436882e+01    0.1305021   0.05048611  49.31 0.0008328373    1.740    0.425
        62  -8.6540    124.2062    232.2202   1.2880811054e+02   1.5474952210e+01    0.1456974   0.09771369  60.60  0.001072773    1.397    0.284
        63  -9.3325    117.2378    232.4068   1.2995019235e+02   1.6393788783e+01    0.1517857   0.07054877  49.20 0.0009309228    1.649    0.394
        64  -8.4628     27.4898    232.0237   1.4395317559e+02   2.6821438954e+01    0.1306977   0.04892073  71.49 0.0008092135    2.521    0.603
        65  -9.3022     86.7634    231.2863   1.3475042214e+02   2.0463800323e+01    0.2760633   0.09626883  43.51  0.001602029    2.111    0.526
        66  -9.4544     81.3146    228.7953   1.3543922596e+02   2.1477306559e+01    0.2544071   0.08195339  50.59  0.001400252    2.383    0.580
        67  -9.3900     47.5613    229.9072   1.4081770275e+02   2.5122733747e+01    0.3241739    0.1032067  55.61  0.001909573    2.433    0.589
        68  -8.6358      5.7813    230.2741   1.4706874745e+02   2.9035666546e+01    0.1735966   0.03849035  42.80  0.001065793    2.696    0.629
        69  -8.6854    216.9998    229.5130   1.1368014829e+02   2.3067133272e+00    0.1714836   0.07851815  38.98  0.001033072    1.604    0.376
        70  -9.1994    104.0361    229.2073   1.3180593070e+02   1.8567999241e+01    0.1800351   0.08338295  57.10  0.001084359    2.011    0.503
        71  -8.9254     39.7094    229.1765   1.4198536132e+02   2.6037706539e+01    0.1716937   0.08588887  51.61  0.001299166    1.425    0.298
        72  -8.8115     31.2578    229.1434   1.4326738936e+02   2.6879819271e+01    0.1873253    0.0653486  55.80  0.001216107    2.052    0.513
        73  -9.8863     95.1635    227.6296   1.3311578117e+02   1.9927346560e+01    0.3012039    0.1120337  51.51  0.001708104    2.174    0.540
        74  -8.7330    113.3160    227.6796   1.3015942171e+02   1.7549120387e+01    0.1059552   0.06319692  62.63 0.0006382374    1.658    0.397
        75  -8.9150     10.5300    226.0765   1.4624414632e+02   2.9243318081e+01    0.1770302   0.07487036  54.68  0.001272924    1.600    0.375
        76  -9.1927      5.5035    225.9680   1.4697911028e+02   2.9692150000e+01     0.135222   0.08304904  54.57  0.000665952    1.208    0.172
        77 -10.1711     73.4922    223.3679   1.3631407858e+02   2.3195909808e+01    0.4060961    0.1668858  52.15  0.002533949    1.874    0.466
        78  -8.3711    108.6573    228.2930   1.3097529689e+02   1.8086458934e+01    0.1068713   0.06091894  60.73 0.0007028722    1.658    0.397
        79  -8.1873    224.5138    224.5238   1.1182871359e+02   1.6578109114e+00    0.1103318   0.07877555  27.65  0.000810046    1.004    0.004
        80  -9.6350     53.5851    222.0469   1.3943527212e+02   2.5644851410e+01    0.3012237    0.1069578  46.35  0.001864073    2.025    0.506
        81  -9.0115     15.5496    223.2920   1.4539932520e+02   2.9215516975e+01    0.1514206   0.06378541  39.27 0.0009323349    2.060    0.515
        82  -8.9940    100.5013    221.9891   1.3176645973e+02   2.0037099074e+01    0.1375704    0.0761727  79.70 0.0008102965    2.536    0.606
        83  -8.6083     85.2377    222.6280   1.3434123635e+02   2.1885680731e+01    0.1388039   0.08000223  38.33 0.0007354551    1.619    0.382
        84  -9.3413     44.5761    220.5097   1.4078318828e+02   2.6832813753e+01    0.2431774    0.1177105  63.52  0.001707858    1.678    0.404
        85  -9.9154      4.1084    221.7602   1.4705562680e+02   3.0438441617e+01    0.1629825    0.1282478 -83.57  0.001584657    1.510    0.338
        86  -8.6004     94.2418    221.4285   1.3275788895e+02   2.0926901797e+01    0.1507389   0.07079899  50.30 0.0009416447    1.648    0.393
        87  -9.1196     62.5193    220.8842   1.3792590188e+02   2.4831783693e+01    0.2885036   0.07310749  49.95  0.001467156    2.880    0.653
        88  -8.3208    217.6744    220.6806   1.1234333666e+02   3.0351364662e+00    0.1147008   0.06614557  20.49  0.000431335    1.678    0.404
        89  -8.4423    226.8341    219.3840   1.1072890629e+02   1.7836720851e+00    0.1687728   0.07434947  34.28 0.0009571083    1.752    0.429
        90  -8.9473     23.9885    216.9805   1.4385463061e+02   2.9405026224e+01    0.1590273    0.0733417  64.37  0.001128632    1.664    0.399
        91  -9.4936     13.0231    216.4903   1.4553301824e+02   3.0475071982e+01    0.2449247   0.09383924  51.46  0.001721978    1.804    0.446
        92  -8.9025     33.1791    216.1684   1.4236960856e+02   2.8650386076e+01    0.1413216   0.07780796  62.91  0.001077767    1.354    0.261
        93  -9.0311      6.8079    215.8349   1.4646007906e+02   3.1113086912e+01    0.2696135   0.07069137  47.78  0.001695015    2.374    0.579
        94  -9.2696      1.8573    212.1498   1.4709538603e+02   3.2097662956e+01    0.2745289     0.100012  57.17  0.001908737    1.889    0.471
        95  -8.2605    222.3453    213.3216   1.1053203944e+02   3.0354299759e+00    0.1192358   0.06734162  20.17 0.0003470927    1.733    0.423
        96  -9.2795     57.2082    212.2666   1.3823616809e+02   2.6748149027e+01    0.2751578    0.1161726  54.12  0.001729394    1.861    0.463
        97  -8.9948     44.4030    212.7177   1.4037695999e+02   2.8054188952e+01    0.1853357   0.08232813  50.86  0.001244389    1.678    0.404
        98  -9.2104     67.2775    211.3286   1.3648361433e+02   2.5749902574e+01    0.2882769    0.1010556  48.98  0.001634344    2.170    0.539
        99  -8.2903     23.6428    228.3237   1.4437759822e+02   2.7725903715e+01    0.1016017   0.04232823  61.25 0.0005452497    1.770    0.435
       100  -8.9608     10.3373    210.5601   1.4572996897e+02   3.1633298549e+01    0.2953019          nan  40.58  0.001275205    5.125    0.805
       101  -8.7411     36.0173    208.3193   1.4150827392e+02   2.9605723221e+01    0.1417552   0.09403304  58.16 0.0007559862    1.133    0.118
       102  -9.5030     21.7303    210.8062   1.4394210577e+02   3.0579087086e+01     0.199535   0.08761381  49.63   0.00141825    1.672    0.402
       103  -8.8109     50.5356    206.4946   1.3898096725e+02   2.8393757675e+01    0.1904722    0.0569006  47.37  0.001038125    2.431    0.589
       104  -8.7072     18.0196    206.5097   1.4435006337e+02   3.1601284496e+01    0.1354557   0.07380543  43.77  0.001032382    1.589    0.371
       105  -9.0971      6.2556    205.1245   1.4617422677e+02   3.2844167573e+01    0.1744462    0.1024229  64.95 0.0009448544    1.194    0.163
       106  -8.9053    241.2219    205.6099   1.0638893921e+02   8.7955194558e-01    0.1684595   0.07825813  33.60 0.0007517528    1.683    0.406
       107  -9.1442     12.4925    203.9693   1.4513430668e+02   3.2498870918e+01    0.1882263   0.08644982  54.65  0.001292419    1.586    0.369
       108  -8.6668    217.2054    207.1786   1.1041964850e+02   4.4439978462e+00    0.2008741   0.09854146  17.42 0.0009547236    2.888    0.654
       109  -8.0051     44.6694    201.7043   1.3967501598e+02   2.9795057516e+01   0.08078639   0.07794078 -50.96 0.0007026343    1.636    0.389
       110  -8.2871     18.4778    201.4525   1.4405400861e+02   3.2379997804e+01   0.09616408   0.06746115  68.76  0.000181005    1.004    0.004
       111  -8.2526     52.3506    198.6566   1.3814834986e+02   2.9477764213e+01    0.1136325   0.05623582  64.44 0.0007042197    1.808    0.447
       112  -9.2487      3.2042    196.5504   1.4635497952e+02   3.4491313437e+01     0.170419    0.1010779  83.91 0.0009653891    1.308    0.235
       113  -8.4659     13.8129    196.5849   1.4461044139e+02   3.3595304226e+01    0.1364437   0.05976753  50.38 0.0009408856    1.721    0.419
       114  -8.7329     19.5617    194.8008   1.4356533665e+02   3.3385549658e+01    0.1345429   0.06806228  80.20 0.0007268194    1.659    0.397
       115  -9.0252     39.5259    193.8363   1.4007429763e+02   3.1638277787e+01    0.2133894   0.08694948  53.01  0.001305734    1.943    0.485
       116  -8.8127      2.9405    188.3107   1.4609084785e+02   3.5893211111e+01    0.1315977   0.09470958  62.58 0.0007186013    1.142    0.125
       117  -8.0275    230.4973    185.4906   1.0471437038e+02   4.5618305903e+00    0.1233394   0.09233931  20.65 -3.358062e-05    1.051    0.048
       118  -9.7278    243.1582    181.1313   1.0191746754e+02   2.9337500093e+00    0.1970814     0.132234  16.96  0.001238702    1.253    0.202
       119  -8.5202     16.5025    180.4551   1.4338672033e+02   3.6126933520e+01    0.1009931   0.07141384  71.92 0.0003566733    1.031    0.030
       120  -8.3657      1.5634    176.8059   1.4587052602e+02   3.7994565794e+01    0.1410253   0.06530153  80.29 0.0009416344    1.726    0.421
       121  -9.6778    100.9980    175.9754   1.2693668560e+02   2.7252868120e+01    0.1624201    0.1382623  62.10  0.001149882    1.007    0.007
       122  -8.5568      4.9978    174.0208   1.4513949046e+02   3.8221649121e+01     0.166384   0.07772514  62.47  0.001124471    1.684    0.406
       123  -8.8164     17.3338    168.6681   1.4259586919e+02   3.8179561065e+01    0.1118246   0.05439633  65.51  0.000495895    1.730    0.422
       124 -10.2316    247.5033    162.9982   9.7821037574e+01   4.0878483272e+00    0.2330738    0.1109501 -18.39  0.001055537    2.173    0.540
       125 -10.2839    249.8860    150.8799   9.5012601817e+01   4.9795579555e+00    0.2553614    0.1514963 -16.10  0.001070859    1.602    0.376
       126  -8.3403    238.3394    150.3138   9.6730306162e+01   7.1089906089e+00    0.1390065   0.08359508  16.79 0.0007047043    1.698    0.411
       127 -10.1132    243.7336    147.8399   9.5350450255e+01   6.4156761065e+00    0.3510695    0.1075479 -24.41  0.001305464    3.502    0.714
       128  -9.5842    243.7838    138.8847   9.3438116655e+01   7.4361771514e+00    0.2133963    0.1534694   9.58  0.000761023    1.249    0.199
       129 -11.0846    247.4241    115.7563   8.7647394424e+01   9.4746127912e+00    0.7069749    0.2244705 -23.64  0.002543938    3.149    0.682
       130  -9.7137    240.5849    109.5477   8.7218803950e+01   1.1601068001e+01    0.3912343    0.1235686 -26.64  0.001402691    2.971    0.663
       131  -9.7689    242.3665    133.1800   9.2413473755e+01   8.3726116787e+00    0.3026696    0.1885663  -7.11   0.00157373    1.600    0.375
       132 -11.1609    248.1120    128.7263   9.0520403808e+01   7.8090382075e+00    0.6463314    0.2609739 -27.89  0.002820026    2.315    0.568
       133  -9.7906    238.5190    122.2021   9.0538933936e+01   1.0447737349e+01    0.6041887    0.2028874 -24.83  0.002234647    3.008    0.668
       134 -10.3356    248.1317     73.8382   7.7099675713e+01   1.4370179008e+01    0.2744576    0.1450998 -30.43  0.001225054    1.699    0.411
       135  -8.7133    242.3055     62.3140   7.4802583310e+01   1.7029157111e+01    0.1480605    0.1004872  18.63   0.00054178    1.621    0.383
       136  -9.6415    250.5098     56.0058   7.2084681377e+01   1.5912661756e+01    0.2260451    0.1254803 -21.12   0.00104102    1.618    0.382
       137 -10.4272    248.6392     40.8790   6.8229993855e+01   1.8002912089e+01    0.2477047    0.1865295  45.55  0.001341183    1.409    0.290
