#   1 NUMBER                 Running object number                                     
#   2 MAG_AUTO               Kron-like elliptical aperture magnitude                    [mag]
#   3 X_IMAGE                Object position along x                                    [pixel]
#   4 Y_IMAGE                Object position along y                                    [pixel]
#   5 X_WORLD                Barycenter position along world x axis                     [deg]
#   6 Y_WORLD                Barycenter position along world y axis                     [deg]
#   7 A_WORLD                Profile RMS along major axis (world units)                 [deg]
#   8 B_WORLD                Profile RMS along minor axis (world units)                 [deg]
#   9 THETA_WORLD            Position angle (CCW/world-x)                               [deg]
#  10 FWHM_WORLD             FWHM assuming a gaussian core                              [deg]
#  11 ELONGATION             A_IMAGE/B_IMAGE                                           
#  12 ELLIPTICITY            1 - B_IMAGE/A_IMAGE                                       
         1 -13.5052    210.0145     30.1250   3.5466541707e+00   2.8609952637e+01    0.8405691    0.7316831 -54.19  0.004324416    1.093    0.085
         2 -11.2181    227.3432      9.6610   3.5757525802e+02   2.7135528090e+01    0.2090108    0.1842526 -75.61 0.0007476299    1.156    0.135
         3 -12.1998     58.3922      4.7541   2.3050672362e+01   6.8199641821e+01    0.3353392    0.1794755  58.14  0.001361582    1.888    0.470
         4  99.0000     54.9538    228.6723   7.8703302124e+01   2.0045992487e+01    0.2433536    0.2232509   5.74  0.001697649    1.365    0.267
         5 -14.0159    247.0863    239.5916   4.0829750968e+01  -6.7933602672e+00     1.518195    0.4803089 -30.92   0.00770876    2.944    0.660
         6 -10.4674     11.1971    189.3331   8.6431128337e+01   3.2910016921e+01    0.1106502    0.0817026 -62.89 0.0001333541    1.499    0.333
         7  -9.5232     70.8318    186.7007   7.0780347756e+01   2.6945109760e+01    0.1824022    0.1069547  39.95            0    1.500    0.333
         8 -18.7923     27.8427    130.7018   7.6736495919e+01   4.5742128288e+01     17.68479     3.542412 -74.24   0.04577345    5.741    0.826
         9 -10.8848    162.2505    182.2523   4.7236947631e+01   1.3217727195e+01    0.2522925    0.1627047  31.03 0.0009996087    1.431    0.301
        10 -10.3235    175.0503    179.5135   4.3943103042e+01   1.1545338744e+01    0.2056243    0.1820918 -12.89 0.0007921221    1.099    0.090
        11 -12.6175    172.8025    173.7650   4.3327118323e+01   1.2957629027e+01    0.6643127    0.4484437   2.54  0.001682712    1.812    0.448
        12 -11.4826    180.3744    167.9261   4.0580468306e+01   1.2690582244e+01    0.5302404    0.3411169 -62.36  0.002319337    2.668    0.625
        13 -10.8165    160.6616    200.5163   5.0789303764e+01   1.0201131600e+01     0.314447    0.2090584 -54.98  0.001622322    1.995    0.499
        14 -11.1300      3.2514    176.4044   8.7750963097e+01   3.6491108398e+01    0.1426899    0.1340205  35.12 0.0009988558    1.239    0.193
        15 -10.7903      9.0700    166.2837   8.5643886788e+01   3.8429833509e+01    0.1945056    0.1553396 -82.14  0.000467851    1.173    0.147
        16 -11.1326      2.3511    164.2641   8.7347552128e+01   3.9401894420e+01    0.1972618    0.1689004 -64.77 0.0006381678    1.263    0.208
        17 -10.7951    115.5512    154.9662   5.3548793766e+01   2.7156939898e+01      0.28084    0.2048132  20.00 0.0003001428    1.503    0.334
        18  -9.9286    210.8705    198.8172   4.0383666229e+01   2.8658107358e+00    0.1874247    0.1396046   1.09 0.0004251758    1.161    0.139
        19 -12.1532    133.3461    145.4848   4.6855934798e+01   2.5917445022e+01     1.058619    0.2921253 -52.38  0.002857511    4.619    0.783
        20 -11.8253    106.4476    139.2534   5.2912822859e+01   3.2450030366e+01    0.5003507    0.3189693  72.07  0.000808785    2.606    0.616
        21 -11.2690    111.5019    150.0186   5.3687219572e+01   2.9020061978e+01    0.2805848    0.1976041  47.36 0.0007508392    1.416    0.294
        22 -12.0339    108.8212    145.3917   5.3507503326e+01   3.0578935514e+01    0.3638435    0.3286567 -65.80 0.0006908965    1.191    0.160
        23 -12.2169     92.7116    147.9371   5.8688409494e+01   3.2801669323e+01    0.3458652    0.3034512  38.57 0.0003416518    1.089    0.082
        24 -13.1897     97.8855    143.0388   5.6205856316e+01   3.3090663862e+01    0.7186098    0.5040012 -17.94  0.001729311    2.000    0.500
        25 -10.2319    224.1778    133.8235   2.5443623014e+01   1.0777953502e+01    0.4119298    0.1435399 -48.98  0.001311997    4.604    0.783
        26 -10.4902     56.2348    193.1491   7.5308202847e+01   2.7370524436e+01    0.1762355    0.1697691 -81.14 0.0005311395    1.172    0.146
        27 -12.4077    106.5408    131.0203   5.1089825673e+01   3.4367872360e+01    0.5901551    0.4535505  50.80   0.00202101    1.335    0.251
        28 -12.1309     97.6454    130.3427   5.3617537871e+01   3.6179402053e+01    0.3261465    0.2826384  39.63 0.0002602055    1.120    0.107
        29 -11.4032    133.5628    128.4630   4.2942440460e+01   2.9571209867e+01    0.5197581    0.3648804  70.65  0.001982697    2.062    0.515
        30 -11.5107     49.5591    224.4007   7.9603485777e+01   2.1519204936e+01    0.1691638    0.1484254  79.94 0.0005689575    1.198    0.165
        31 -10.6712    115.5182    125.1670   4.7115674961e+01   3.3977947367e+01    0.2493049    0.2137318   6.70 0.0007261924    1.303    0.232
        32 -10.6672    103.3547    120.1170   4.9514667368e+01   3.7539959909e+01    0.2805653    0.2422225  10.01 0.0005968729    1.274    0.215
        33 -10.5731    161.4871    118.8384   3.3817048369e+01   2.5644527683e+01     0.425306    0.2465074 -64.77  0.001506609    3.076    0.675
        34  -9.7431    156.3096    117.6590   3.4697888799e+01   2.6990603279e+01    0.2191735    0.1562974 -57.25 0.0007004926    1.632    0.387
        35 -10.2375    110.8415    115.1389   4.6026013846e+01   3.7210834036e+01    0.2302528    0.2129544  75.10 0.0004073895    1.177    0.150
        36 -11.9490    119.3019    105.0250   4.0909243826e+01   3.7696159054e+01    0.4300059    0.2994055 -45.79  0.001861544    1.472    0.321
        37 -10.8134    119.1462    112.1895   4.2849765169e+01   3.6156428507e+01    0.2504081    0.2418791  75.37 0.0006908083    1.091    0.084
        38 -11.7835    115.4575    109.1474   4.3119748762e+01   3.7608187686e+01    0.4856825    0.3156658  42.27  0.001196163    1.501    0.334
        39  -9.6818    103.7984    108.8096   4.6544874977e+01   4.0081965579e+01    0.2119619    0.1827002  73.82 0.0003832243    1.338    0.253
        40 -12.2985     81.0375    104.9528   5.3059501842e+01   4.5288193597e+01    0.6498306    0.3708741  51.01  0.001593841    2.014    0.503
        41 -12.0891    112.2456     99.5150   4.1456539512e+01   4.0413845419e+01    0.6184207    0.3989398  71.57  0.002320651    2.525    0.604
        42 -10.5000     97.7590     88.0211   4.2669349856e+01   4.5980663932e+01    0.3246067    0.1912383  63.86  0.001169896    2.646    0.622
        43  -9.4905    154.4917     87.4915   2.7156571661e+01   3.3173145758e+01    0.1490623     0.147341  82.67 4.866609e-05    1.003    0.003
        44 -10.4521    108.7654     81.3320   3.7142361031e+01   4.5019569254e+01    0.2945032    0.2403952  84.84 0.0008313712    1.560    0.359
        45 -15.7768     68.1928    143.8336   6.5451571258e+01   3.7641220631e+01     2.302112     1.765202  61.21   0.01165144    1.375    0.273
        46 -13.0301    170.1752     68.5165   1.8772345077e+01   3.2661387456e+01     0.563248    0.4518594  58.15 0.0008526472    1.243    0.196
        47 -10.7390     57.8166    221.8673   7.7516102899e+01   2.1054663610e+01    0.1530674    0.1374779 -86.48 0.0007045143    1.248    0.198
        48 -10.1659    234.2940    191.0096   3.4905718773e+01   7.4783453735e-01    0.1707251    0.1281172 -15.68 0.0004398275    1.104    0.094
        49 -13.6098    186.8758     55.0730   1.2488975848e+01   3.0696754531e+01     1.164072    0.8910841  29.83  0.004222534    1.702    0.413
        50 -11.9907    192.5706     49.5040   1.0271295147e+01   3.0134753836e+01    0.3730504    0.3398345  30.46 0.0008229814    1.331    0.248
        51 -10.3717     68.5430     63.8612   4.5540666287e+01   5.6830564354e+01    0.2526657    0.1975928  34.11 0.0004377064    1.249    0.199
        52 -11.8919     89.2783    211.8881   6.9089657328e+01   1.8967907544e+01    0.2608761    0.2255403 -75.36 0.0005740078    1.332    0.249
        53 -15.3113    121.4856    232.7716   6.4148477515e+01   1.0482327712e+01     6.394497     4.690386 -79.11   0.03737134    2.033    0.508
        54 -10.0873     60.9224     21.4689   3.0862853002e+01   6.5679975704e+01    0.2082068    0.1221614  45.60  0.001022147    1.564    0.361
        55 -10.7016     71.0736    230.1410   7.5189767849e+01   1.7792916249e+01    0.1274437    0.1032352 -76.32 0.0003730183    1.435    0.303
