#   1 NUMBER                 Running object number                                     
#   2 MAG_AUTO               Kron-like elliptical aperture magnitude                    [mag]
#   3 X_IMAGE                Object position along x                                    [pixel]
#   4 Y_IMAGE                Object position along y                                    [pixel]
#   5 X_WORLD                Barycenter position along world x axis                     [deg]
#   6 Y_WORLD                Barycenter position along world y axis                     [deg]
#   7 A_WORLD                Profile RMS along major axis (world units)                 [deg]
#   8 B_WORLD                Profile RMS along minor axis (world units)                 [deg]
#   9 THETA_WORLD            Position angle (CCW/world-x)                               [deg]
#  10 FWHM_WORLD             FWHM assuming a gaussian core                              [deg]
#  11 ELONGATION             A_IMAGE/B_IMAGE                                           
#  12 ELLIPTICITY            1 - B_IMAGE/A_IMAGE                                       
         1 -12.0891    152.7960     51.9350   8.1011832625e+01   4.0140546626e+01    0.9985183    0.8507614  19.51  0.005196713    1.324    0.245
         2 -11.6550    162.2316     28.8013   7.1964524012e+01   4.0802009377e+01    0.6372045    0.6030628  19.21   0.00339878    1.175    0.149
         3 -11.7201    157.6857     28.2433   7.2560269446e+01   4.2050562236e+01     0.814648    0.4895418 -39.07   0.00338425    1.761    0.432
         4 -11.3036    161.6086     23.1250   7.0299986665e+01   4.1619054026e+01     0.680545    0.3812182  55.57  0.003140228    1.601    0.375
         5  -9.2804    232.4379     13.5804   5.9414712868e+01   2.4823838817e+01    0.3427758    0.2153269 -38.81  0.001125384    1.525    0.344
         6  -9.8283    120.3382      8.5519   7.2798630786e+01   5.3534151345e+01    0.3075663    0.2620205  51.98   0.00130292    1.029    0.028
         7  -7.6207    204.5424      8.4365   6.0711444021e+01   3.2125113893e+01    0.1337754    0.1149973 -88.75 0.0001346463    1.018    0.017
         8  -8.9102    137.7920      2.3611   6.7368730944e+01   4.9752466526e+01    0.2033134    0.1024191  57.78 0.0006771446    1.642    0.391
         9  -8.5738    175.9701      1.4449   6.1856013428e+01   4.0051675318e+01    0.2058195    0.1161882  71.69 -2.967391e-05    1.525    0.344
        10  -8.6071     14.8418    159.9160   1.4300621042e+02   4.0570577161e+01    0.2928677    0.1323545 -53.05  0.001485911    2.492    0.599
        11  -9.0555    249.0901    249.7854   1.0692015146e+02  -1.1006603170e+01    0.2485259    0.1078253  38.50  0.001396996    1.980    0.495
        12 -18.2822     89.1201    212.9958   1.3208937101e+02   2.0179132008e+01     5.167593     4.108322  55.88   0.01265521    1.060    0.057
        13  -8.3728      3.1989    210.6712   1.4865081168e+02   3.1106141156e+01    0.3318629    0.1034467 -68.57  0.001511048    2.899    0.655
        14 -10.9306    134.2295    116.6986   1.0426308039e+02   3.2518244775e+01    0.6114136    0.4385633  77.60  0.002548628    1.909    0.476
        15 -10.2604    189.3991    154.7070   1.0052798773e+02   1.2763593354e+01    0.6327847    0.4890836  18.14  0.003153936    1.441    0.306
        16  -8.8820      7.5090    130.4940   1.4209989961e+02   4.7714871050e+01    0.1954347    0.1258717 -50.79 0.0006209237    1.624    0.384
        17 -10.0055    158.4669    127.4515   1.0102704993e+02   2.4856022719e+01    0.3456925    0.3068508  51.36 0.0008076501    1.098    0.089
        18  -9.9735    123.9166    125.6565   1.0911323603e+02   3.2763502758e+01    0.3190138    0.2696947 -56.88   0.00124163    1.206    0.171
        19  -9.2063     90.3567    123.5349   1.1778189465e+02   3.9580574230e+01     0.311635    0.2559399 -70.29 0.0007947442    1.220    0.181
        20  -8.9179     89.9368    119.0612   1.1692156022e+02   4.0683650565e+01    0.2976876    0.2054252  39.72 0.0009062093    1.493    0.330
        21  -9.4033    195.7039    183.6897   1.0517127204e+02   6.4410910420e+00    0.4041578    0.2972939 -86.52  0.001596905    2.603    0.616
        22  -7.4353     39.3351    122.2797   1.3227766356e+02   4.6847555256e+01    0.1255146   0.09077069 -38.04 0.0001341247    1.613    0.380
        23  -8.2254    175.8265    121.1305   9.5599195143e+01   2.2120015083e+01    0.2040107     0.178453  13.33 0.0002736305    1.270    0.212
        24  -9.7444     80.7762    120.0594   1.1978298695e+02   4.1955987802e+01     0.358485    0.2277622  58.41  0.001129673    1.851    0.460
        25  -9.0975    247.1832    118.2047   8.1972332927e+01   6.9013071483e+00    0.2216106    0.2040516 -43.71 0.0002347343    1.113    0.101
        26  -8.0844    232.8699    118.1034   8.4175972004e+01   9.8407700080e+00    0.2139577    0.1903626 -60.38  0.001219555    1.241    0.194
        27  -9.9230    202.8154    188.4659   1.0469066504e+02   4.3228593395e+00    0.3196205    0.2328679  41.56  0.001221009    1.283    0.221
        28  -8.4826     21.8112    181.1609   1.4318509254e+02   3.5321202499e+01    0.2883108    0.1587971 -73.73  0.001479898    1.586    0.370
        29  -8.5560      6.3023    208.3582   1.4797243603e+02   3.1266845400e+01    0.1808367     0.134393 -75.36 0.0009435884    1.426    0.299
        30  -8.0409     34.3946    113.2908   1.3230715493e+02   4.9431838963e+01    0.1926428    0.1250364 -41.84 0.0006212986    1.668    0.400
        31 -11.5494    191.9584    193.1075   1.0768148452e+02   5.6049998249e+00    0.9929631    0.6974657 -63.74  0.004942809    2.227    0.551
        32  -9.3489    182.9620    143.7976   9.9450674645e+01   1.6169674541e+01    0.3157656    0.2787527  30.95  0.001125501    1.110    0.099
        33 -11.3483     66.3222    108.2270   1.2156800154e+02   4.6852772925e+01    0.7842811    0.5140628  31.05  0.003222751    1.694    0.410
        34 -10.6358    161.3859    142.5347   1.0388340865e+02   2.1146322081e+01    0.5220045    0.2967503 -42.50  0.002195652    1.844    0.458
        35  -8.6634    109.9740     99.0324   1.0618495822e+02   4.1434602068e+01    0.2741923    0.2072647  44.74 0.0006506651    1.330    0.248
        36  -8.4045     74.9473     99.2940   1.1681402507e+02   4.7628798112e+01    0.1917477    0.1854859  25.52 0.0006324499    1.104    0.094
        37  -9.2826    177.0175    213.5726   1.1417531296e+02   5.0574916632e+00    0.2431416     0.177975 -41.57 0.0006611402    1.608    0.378
        38  -7.3765     46.6425     99.7361   1.2599499549e+02   5.1286057526e+01    0.1302501   0.09365794 -28.89 0.0002277545    1.630    0.386
        39  -7.4174    201.0408     96.1719   8.4265137170e+01   2.0700824861e+01    0.1939379    0.1108838  54.58 0.0008106062    1.758    0.431
        40 -10.2343     12.0126    206.3752   1.4681012358e+02   3.1113102426e+01    0.4107046    0.3010269  54.12   0.00195523    1.265    0.209
        41  -8.3402     81.3827     89.6743   1.1228303333e+02   4.8733894282e+01    0.3627073    0.1356286  33.95  0.001276343    3.104    0.678
        42  -8.2438    171.1558    143.2252   1.0185774682e+02   1.8868102321e+01    0.2105822    0.1819194  80.24  0.001066772    1.357    0.263
        43  -9.5025    148.6634     75.6922   8.9269042796e+01   3.7277226420e+01    0.4139277    0.2456924  46.09            0    1.656    0.396
        44  -8.7887    185.1264     73.8967   8.1213763708e+01   2.8394012197e+01    0.2167906    0.2095954  53.47 0.0002853565    1.059    0.056
        45 -12.4638    143.4029     67.9529   8.8130188458e+01   3.9927486809e+01     1.948017     1.300913  10.29  0.007245508    2.375    0.579
        46 -10.5658    154.9902     39.9770   7.6779942263e+01   4.1270569064e+01    0.5364256    0.2878802  32.20  0.002045587    2.617    0.618
        47 -10.3894    211.6023    187.9968   1.0292244463e+02   2.7731529193e+00    0.4588439    0.2167362  37.04  0.002053533    1.982    0.495
        48  -9.7620    240.8716     62.2099   6.9903658400e+01   1.6694222038e+01    0.2583098    0.2216922  51.90 0.0003781735    1.309    0.236
        49  -8.7484    126.9277     60.0242   8.9636116946e+01   4.5248682259e+01    0.2176124    0.2106575  25.34 0.0003237521    1.018    0.018
        50  -8.5198    245.2694     58.1770   6.8453202577e+01   1.6280403994e+01    0.2317218    0.2009446   6.02 0.0007934511    1.487    0.328
        51  -8.0423    242.3081     51.3246   6.7196423426e+01   1.7882636139e+01    0.1272921    0.1043942  23.73 0.0007036683    1.650    0.394
        52 -11.4265    155.5280     45.6909   7.8487545250e+01   4.0346653844e+01    0.6454551    0.6120438  35.52   0.00110397    1.093    0.085
        53  -7.3465    182.8810     47.3777   7.4113479005e+01   3.3010872073e+01    0.1994578    0.1253796  52.48 0.0001344141    1.551    0.355
        54  -7.4478    221.5460     40.4547   6.6937542232e+01   2.4189120406e+01    0.1386286    0.1225525 -73.04 0.0001597437    1.017    0.017
        55 -10.2783    137.5532     37.0314   7.9352522655e+01   4.6103685932e+01    0.2809851    0.2480818  59.44 0.0002222217    1.070    0.065
        56 -10.1805    158.4875    157.0661   1.0769734814e+02   1.8845881782e+01    0.4207428    0.3034495 -84.02  0.001521618    2.099    0.524
        57 -10.1512    228.9409    136.8681   8.9094357267e+01   7.6030868520e+00    0.2650177    0.2323216  35.63 0.0004108888    1.160    0.138
        58  -8.4122    168.3485    243.5800   1.2028592939e+02   2.0598091233e+00    0.2717011    0.1672922  51.31 0.0008445417    1.573    0.364
        59  -9.0536    148.6835     32.7139   7.5640582851e+01   4.3833337243e+01    0.2559444    0.2053681  39.91 0.0006210078    1.256    0.204
        60 -10.0337     51.0467    135.6763   1.3105136218e+02   4.2408053164e+01    0.3055478    0.2023127  59.60  0.001241421    1.602    0.376
        61  -8.4908    139.8025     15.6165   7.1569324266e+01   4.8030790742e+01     0.197014    0.1252762  75.07 0.0006711662    1.603    0.376
        62 -10.1128     86.6427    131.5670   1.2048519778e+02   3.8337099487e+01    0.4484809    0.3671012 -85.69 0.0008751359    1.270    0.213
        63  -8.7645    170.0183    236.3200   1.1897007353e+02   2.8215340778e+00    0.1868083    0.1672451   5.29  0.000343878    1.255    0.203
        64  -8.0185     34.4470    132.8314   1.3517434212e+02   4.4891128486e+01    0.2208972    0.1662679 -13.61  0.001284892    1.933    0.483
