#   1 NUMBER                 Running object number                                     
#   2 MAG_AUTO               Kron-like elliptical aperture magnitude                    [mag]
#   3 X_IMAGE                Object position along x                                    [pixel]
#   4 Y_IMAGE                Object position along y                                    [pixel]
#   5 X_WORLD                Barycenter position along world x axis                     [deg]
#   6 Y_WORLD                Barycenter position along world y axis                     [deg]
#   7 A_WORLD                Profile RMS along major axis (world units)                 [deg]
#   8 B_WORLD                Profile RMS along minor axis (world units)                 [deg]
#   9 THETA_WORLD            Position angle (CCW/world-x)                               [deg]
#  10 FWHM_WORLD             FWHM assuming a gaussian core                              [deg]
#  11 ELONGATION             A_IMAGE/B_IMAGE                                           
#  12 ELLIPTICITY            1 - B_IMAGE/A_IMAGE                                       
         1 -14.0117      6.3278    132.2182   1.4255074473e+02   4.6863337902e+01     4.815187    0.6660644 -71.01   0.01394847    5.959    0.832
         2 -14.2403      5.4785     87.8515   1.3646818299e+02   5.6588204989e+01     7.069407    0.8800137 -66.13   0.01931395    7.007    0.857
         3 -11.0091     18.0283     65.7100   1.2775084695e+02   6.0324844020e+01    0.4835107    0.1892319 -56.82  0.002431975    2.044    0.511
         4 -15.4862    161.2156    169.5557   1.1103708490e+02   1.5112307120e+01     6.638603     5.227359   7.33   0.03158732    1.702    0.412
         5 -11.3691    184.7865      4.2026   6.3846904565e+01   3.8326408301e+01    0.5126464    0.2341115  43.75  0.002225617    2.673    0.626
         6  -8.9090    104.2161      8.4015   7.9085149081e+01   5.6639549861e+01     0.173683    0.1127525  63.75 0.0009533237    1.659    0.397
         7  -9.8598     72.6629      3.1755   8.5639634255e+01   6.3118157700e+01    0.1657539    0.1364938  30.41  0.001157021    1.143    0.125
         8 -10.1440     98.4451      2.8852   7.8441072993e+01   5.8296152845e+01    0.2903824    0.1315673  50.83  0.001458459    1.814    0.449
         9  -8.2750     40.4837    231.0723   1.4487085805e+02   2.2151274971e+01    0.1635092   0.09384836 -79.94   0.00101157    1.529    0.346
        10  -9.8201    248.5901    250.1901   1.0868023958e+02  -1.4102894455e+01    0.3862986    0.1431604  36.41  0.001882318    2.318    0.569
        11  -9.6032    233.4578    250.5621   1.1140687827e+02  -1.1917745584e+01    0.2414693   0.09770571  38.81  0.001184082    2.104    0.525
        12  -9.6814    227.1484    250.6002   1.1254211359e+02  -1.0958665690e+01    0.2012735    0.1298589  21.17  0.001211091    1.410    0.291
        13  -9.2361    222.1639    249.8024   1.1331316791e+02  -1.0080866106e+01     0.175342    0.1238813  13.74  0.001089134    1.357    0.263
        14 -10.1431    203.4604    249.6004   1.1670444025e+02  -7.0465242704e+00    0.2777199    0.2580659   1.27  0.001977134    1.208    0.172
        15  -8.8498    184.0090    250.7630   1.2049580185e+02  -3.9661729770e+00    0.1764005   0.08757665  41.37 0.0008896889    1.650    0.394
        16  -8.6283     16.3980    245.1707   1.4976924986e+02   2.2245210644e+01    0.3201059     0.159355  87.26  0.002058087    1.641    0.391
        17  -9.1163     16.8760    238.2551   1.4929150510e+02   2.3481668223e+01    0.3276078    0.2512875  55.12  0.002563945    1.403    0.287
        18  -8.9195     23.1652    237.8475   1.4825381512e+02   2.2868407536e+01    0.3357653    0.1381649  79.48  0.001739301    2.458    0.593
        19  -9.4586     21.3718    243.7820   1.4890761790e+02   2.1955038859e+01    0.3128996    0.1380761 -76.48  0.001464282    1.968    0.492
        20  -9.6182     22.1330    248.7729   1.4908447203e+02   2.0951084550e+01    0.3652533    0.3108646 -79.11  0.002987439    1.559    0.359
        21  -9.3565     26.5061    248.9812   1.4841202376e+02   2.0415764299e+01    0.2575371    0.1308765  73.92  0.001245553    1.604    0.377
        22  -9.1660    225.8321    240.3252   1.1109404648e+02  -9.4097912090e+00    0.2802877    0.1304988  21.73  0.001163346    3.051    0.672
        23  -8.7564     45.8649    239.3492   1.4458016279e+02   1.9881960068e+01    0.2110283    0.1207969  89.57   0.00130618    1.547    0.353
        24  -8.9291    242.0317    238.4625   1.0785830541e+02  -1.1685938901e+01    0.1827546    0.1014271  34.25 0.0009925554    1.571    0.363
        25  -9.6622     65.1751    235.0724   1.4084075315e+02   1.8148030004e+01    0.4320237    0.1743014 -67.67  0.002159277    2.440    0.590
        26  -8.6611     48.9699    232.2393   1.4348058550e+02   2.0861370390e+01    0.2534875    0.1298058 -85.45  0.001422517    1.856    0.461
        27 -12.8549     24.0120    184.0668   1.4399676574e+02   3.3810143882e+01     2.906407      0.98945 -79.47   0.01239584    2.882    0.653
        28 -11.3771      3.5872    180.0227   1.4767939337e+02   3.6571636076e+01      0.95142    0.4305873  88.16  0.005152958    1.985    0.496
        29  -8.8267      4.3228    245.4418   1.5163175015e+02   2.3463761036e+01    0.3187333   0.06859223 -74.83  0.001458522    3.732    0.732
        30  -8.4481     46.0116    247.0158   1.4512746637e+02   1.8421629968e+01    0.1392458    0.1003877  73.68 0.0009937737    1.013    0.013
        31 -11.3024     17.8036    192.2139   1.4591716078e+02   3.2668088729e+01     1.341034     0.448628  82.76  0.003965362    6.837    0.854
        32  -7.8906     45.3379    179.7005   1.3912238880e+02   3.2444918277e+01    0.1326036   0.08014595  71.97  0.000703475    1.661    0.398
        33  -7.5678     49.6542    182.3048   1.3849611203e+02   3.1337664174e+01     0.135022   0.08091784  71.68  0.000533256    1.692    0.409
        34 -11.4771    194.8406    180.5600   1.0607084092e+02   5.9298493665e+00    0.4370487    0.3403609 -44.07  0.001886783    1.342    0.255
        35  -9.7237    207.2283    183.9620   1.0425524815e+02   2.8255314433e+00    0.2625082    0.1945179 -15.87 0.0008994343    1.555    0.357
        36  -9.5521     39.6452    194.5664   1.4186364437e+02   2.9817841341e+01    0.3033637    0.1643362 -88.65  0.001087541    1.726    0.421
        37  -8.7810    224.4652    126.7040   8.8360221737e+01   9.9465649427e+00    0.2884136    0.1343224 -43.89  0.001123805    2.050    0.512
        38  -9.0011     31.3062    202.7077   1.4422893482e+02   2.9018806832e+01     0.219538    0.1136126 -86.89 0.0009546579    1.713    0.416
        39  -8.2182     41.4799    206.4566   1.4262680444e+02   2.7049422237e+01    0.1216157   0.09345402  81.76 0.0002301535    1.003    0.003
        40 -10.2870     28.7576    171.5448   1.4178385531e+02   3.6105124160e+01    0.4574163    0.2050342  66.62  0.002081092    2.752    0.637
        41  -8.2625     52.3864    193.1729   1.3913941949e+02   2.8574680411e+01    0.1775181    0.1014949 -83.81 0.0009121566    1.639    0.390
        42  -8.4289     47.1399    193.1731   1.4021307582e+02   2.9228192229e+01    0.1776023    0.1190588  81.39 0.0005831739    1.319    0.242
        43  -9.0515     36.1075    208.9667   1.4386316899e+02   2.7155358586e+01    0.2602468    0.1515822  87.00   0.00113397    1.490    0.329
        44  -9.8386     16.9444    181.3562   1.4516733080e+02   3.5092761286e+01    0.3216702    0.1560085  83.18  0.001462711    2.038    0.509
        45 -10.2862     24.6557    163.7000   1.4183992641e+02   3.8275070817e+01    0.2475703    0.1336389  71.48  0.001304507    2.010    0.502
        46  -9.1393     55.6907    224.2476   1.4158338979e+02   2.1575467297e+01    0.3043032    0.1402421 -71.17   0.00160419    2.035    0.509
        47  -9.0243     45.5623    222.3439   1.4326478901e+02   2.3261714193e+01    0.3012832    0.1138404 -69.58  0.001484265    2.397    0.583
        48  -9.1066    238.1527    131.4228   8.7052815695e+01   6.1734041450e+00    0.3054115    0.1712844 -51.74  0.001312633    1.944    0.486
        49  -9.6903     33.3451    190.9970   1.4277631694e+02   3.1309587136e+01    0.2480432    0.1214345 -81.17 0.0007833946    1.813    0.448
        50  -8.8135     52.0209    207.8424   1.4072890619e+02   2.5448359907e+01    0.2172671    0.1511287 -79.50 0.0009991834    1.259    0.206
        51  -7.6187     35.6416    156.3221   1.3850183664e+02   3.8860023428e+01    0.1333145   0.08133883  73.02 0.0007044329    1.769    0.435
        52  -8.5855     53.6262    199.8168   1.3959734383e+02   2.6963472700e+01    0.1811836   0.09961085 -84.60  0.000941948    1.750    0.429
        53 -11.8289    166.2069    203.6802   1.1644790727e+02   7.1953574599e+00    0.6967393    0.3395926  34.43  0.002840025    2.231    0.552
        54  -8.9826     37.0296    186.9705   1.4163914583e+02   3.1782007647e+01     0.273188    0.1312026  83.31  0.001106455    2.382    0.580
        55  -8.5906     64.4126    222.7432   1.3982133022e+02   2.0700389700e+01    0.2166942    0.1062948 -73.94  0.001123016    1.981    0.495
        56  -8.5914     61.5476    204.0386   1.3845746151e+02   2.5004849870e+01    0.1882244    0.1088235 -70.94 0.0006626972    1.588    0.370
        57  -9.7314    188.0499    197.2279   1.1074033198e+02   4.1590293770e+00     0.306688    0.2022191 -23.97  0.001434334    1.933    0.483
        58  -8.4131     40.4639    183.8897   1.4061204235e+02   3.2074452891e+01    0.1858175    0.1026227 -74.78  0.001011778    1.541    0.351
        59  -9.5497     33.9301    218.0307   1.4500881861e+02   2.5538055487e+01    0.3136143    0.1442595 -83.07  0.001685555    1.977    0.494
        60  -8.9251    173.4242    217.4791   1.1733308946e+02   3.2883819675e+00    0.2750615    0.1769925  27.00  0.001114313    1.743    0.426
        61 -13.2588     17.9682    153.0033   1.4216938056e+02   4.1296647721e+01     1.882802    0.4491954 -73.15  0.006686917    3.864    0.741
        62 -10.8625    139.9336    142.7896   1.1023853278e+02   2.5494873357e+01    0.3831434    0.2338041 -45.95  0.001309137    1.651    0.394
        63  -8.6771     69.4344    214.8812   1.3805957928e+02   2.1613432739e+01    0.2758814   0.08936387 -57.04  0.001130918    3.204    0.688
        64 -10.2899     19.6428    137.3428   1.3992711756e+02   4.4699053136e+01     0.258919    0.1629213  75.25  0.001173882    1.738    0.424
        65  -8.7628    221.5143    135.9795   9.1039509307e+01   8.8469319787e+00    0.3324184    0.1325006 -45.03  0.001185991    2.481    0.597
        66  -9.0922     58.7324    214.4367   1.4008385358e+02   2.3182044943e+01    0.3059561    0.1462554 -68.69  0.001564604    1.948    0.487
        67  -9.9569     20.1156     79.1715   1.3012134625e+02   5.7461019095e+01    0.3065566    0.1738269 -87.22  0.001425044    3.180    0.685
        68  -8.8085     45.3062    214.0558   1.4259019149e+02   2.4991197291e+01    0.1741274    0.1227005 -89.38 0.0008732179    1.167    0.143
        69 -10.7665    243.9025    244.8012   1.0860259251e+02  -1.2766941108e+01    0.3253818    0.1965339  -5.85  0.001845576    1.903    0.475
        70  -7.9833     34.3145     68.6472   1.2277273978e+02   5.8429354591e+01    0.1131123   0.09335381  89.43 0.0001852654    1.734    0.423
        71  -8.4046    242.5073     59.5644   7.0011187884e+01   1.7461773259e+01    0.1363661    0.1201743 -71.49 0.0001141577    1.026    0.025
        72  -9.7516    163.9914    212.2266   1.1837512048e+02   6.0098287488e+00    0.3384857    0.2066058  29.40  0.001578219    1.862    0.463
        73  -9.3285    219.2691    244.6793   1.1301256991e+02  -8.9456587880e+00    0.2516396    0.1235774  24.26  0.001168867    2.365    0.577
        74  -7.7395     63.6439    197.2804   1.3727851558e+02   2.6187445798e+01    0.1359797   0.08128338  69.19 0.0003775417    1.660    0.398
        75  -8.8183    138.8365     35.7910   8.0542736248e+01   4.6009180233e+01     0.207273    0.1734372  34.51 0.0003904263    1.171    0.146
        76  -9.2309    230.6367    134.6140   8.9078578206e+01   7.1594295024e+00    0.3161622    0.2364703 -70.37 0.0004083033    1.737    0.424
        77  -8.5683     25.8146    134.8251   1.3806436535e+02   4.4743198885e+01    0.1758689    0.1243766  88.31  0.001030575    1.375    0.273
        78 -11.2957    150.8451    210.1376   1.2075180059e+02   8.8828451119e+00    0.5528323    0.2933295  31.97  0.002355402    2.214    0.548
        79  -9.1992    186.6544     13.3076   6.5950651352e+01   3.6954548107e+01    0.1403797     0.090782 -73.12 0.0007043512    1.698    0.411
        80  -9.1374    212.2866    245.2153   1.1438268643e+02  -7.8886842833e+00    0.2206069    0.1391498  30.17 0.0007127232    1.369    0.270
        81  -9.2675    197.4566    245.0541   1.1711500815e+02  -5.4066305559e+00    0.2530279    0.1361126  15.35  0.001027244    3.383    0.704
        82 -11.8810      4.2075    213.9392   1.4990071419e+02   2.9490884726e+01     1.304952    0.5382326 -85.09   0.00736422    1.982    0.496
        83 -10.0327    233.4916    243.7274   1.1027566146e+02  -1.1058152881e+01    0.2569309    0.1546281  15.52  0.001426079    1.762    0.433
        84  -8.8628     54.9068    242.4080   1.4327303300e+02   1.8133380634e+01    0.2689827    0.1329406 -71.72  0.001552995    1.951    0.487
        85 -12.9581      6.4167    199.2246   1.4855622787e+02   3.2276820271e+01     2.943327     1.048509 -89.30   0.01365109    2.823    0.646
        86  -9.4481     22.5826    229.7233   1.4782297619e+02   2.4493483368e+01    0.3296621    0.1542995  67.75  0.001918239    1.840    0.457
