#   1 NUMBER                 Running object number                                     
#   2 MAG_AUTO               Kron-like elliptical aperture magnitude                    [mag]
#   3 X_IMAGE                Object position along x                                    [pixel]
#   4 Y_IMAGE                Object position along y                                    [pixel]
#   5 X_WORLD                Barycenter position along world x axis                     [deg]
#   6 Y_WORLD                Barycenter position along world y axis                     [deg]
#   7 A_WORLD                Profile RMS along major axis (world units)                 [deg]
#   8 B_WORLD                Profile RMS along minor axis (world units)                 [deg]
#   9 THETA_WORLD            Position angle (CCW/world-x)                               [deg]
#  10 FWHM_WORLD             FWHM assuming a gaussian core                              [deg]
#  11 ELONGATION             A_IMAGE/B_IMAGE                                           
#  12 ELLIPTICITY            1 - B_IMAGE/A_IMAGE                                       
         1 -13.3871    207.4485     34.3045   5.1725770982e+01   2.8695424145e+01     1.464745     1.378938  40.57  0.006656046    1.165    0.142
         2 -13.6319    224.4293     18.0203   4.5344191770e+01   2.6400424175e+01     1.134765    0.9348227  40.41  0.002217044    1.441    0.306
         3 -12.8698      2.2626      5.1782   1.0110841155e+02   7.3137670815e+01     1.862444     0.295118 -50.83  0.006910724    4.546    0.780
         4 -12.6224      2.9942     18.9766   1.0628869797e+02   7.0708214665e+01    0.6435915    0.3986452 -69.54    0.0039433    2.130    0.531
         5 -12.3054      2.1879     14.2723   1.0493802434e+02   7.1593850404e+01     1.286722    0.3485342 -36.26  0.005662395    3.249    0.692
         6 -10.8153     19.8686     35.9151   1.0430303047e+02   6.6430440563e+01    0.2220673     0.136204 -54.28  0.001116049    1.399    0.285
         7 -11.3965    246.2645    248.8345   9.3482491156e+01  -1.0339956001e+01    0.3268284     0.179656  41.16  0.002064436    1.674    0.403
         8 -10.4672    184.6116    249.8204   1.0393024597e+02  -1.1368219918e+00     0.204364    0.1114454  44.01  0.001213599    1.451    0.311
         9 -10.2991    101.0767    248.8269   1.1815558763e+02   1.1929391177e+01    0.1776776    0.1467291 -30.00  0.001127337    2.133    0.531
        10 -12.8674    103.7638    229.7150   1.1585645313e+02   1.4633299942e+01     1.375637    0.1092793  44.45   0.00379289    6.695    0.851
        11  -8.9834     70.5082    250.5276   1.2333306725e+02   1.5871621865e+01    0.1085779   0.07750446  63.11  4.16692e-05    1.005    0.005
        12 -12.9087     19.8400    221.9336   1.2977321306e+02   2.6749258990e+01    0.2848528    0.2143124  81.96 0.0007758653    1.168    0.144
        13 -11.5960     50.4160    191.0133   1.2212003592e+02   2.9302402193e+01    0.2398873    0.2109952 -86.41 0.0005448143    1.267    0.210
        14  -8.0548    181.5349    192.4864   9.5726713204e+01   7.6026221417e+00    0.1351296    0.1190307  33.16 5.248556e-05    1.005    0.005
        15 -13.6926     10.3207    207.8079   1.3060714931e+02   3.0298754821e+01     1.107327    0.9037683  30.23   0.00886364    1.851    0.460
        16 -13.6036     36.9836    205.6248   1.2582453396e+02   2.7960201019e+01     1.892973     0.797457  47.28   0.01081276    1.988    0.497
        17 -11.7836     57.7765    183.3134   1.1990378770e+02   2.9986993444e+01    0.2401616    0.2039734 -79.97 0.0004162113    1.216    0.178
        18 -10.7166     69.6334    171.5314   1.1607064934e+02   3.0948069471e+01    0.2308127    0.1936108  86.77 0.0002866079    1.032    0.031
        19 -13.0663     55.4613    169.0203   1.1885567802e+02   3.3333925219e+01    0.4582889    0.2632948 -48.65  0.001401937    2.221    0.550
        20 -11.8009     77.8924    163.3220   1.1315379182e+02   3.1592766243e+01    0.5680729    0.4557733 -67.14  0.003456593    1.219    0.179
        21 -13.8577     25.5030    215.7261   1.2848581127e+02   2.7295964666e+01     0.716337    0.4641114  63.11  0.002407594    1.180    0.153
        22 -10.1150     92.5341    148.7599   1.0746092099e+02   3.2639876361e+01    0.2755982    0.2475336 -82.00 0.0007865633    1.037    0.036
        23  -9.2051     96.1568    145.0697   1.0593305682e+02   3.2891278486e+01    0.2091766    0.1920522 -83.95 0.0003461938    1.034    0.032
        24 -11.8890     80.7850    147.2688   1.1006067753e+02   3.4787842359e+01    0.2953869    0.2267664 -59.56  0.000795972    1.265    0.210
        25 -11.0206     84.6595    248.5017   1.2086854897e+02   1.4297387916e+01     0.367416   0.09095975  40.38   0.00153781    3.545    0.718
        26 -12.0799     67.9304    143.7095   1.1264100557e+02   3.7420416017e+01    0.6352406    0.4013566  72.67  0.002342717    1.794    0.443
        27  -9.7556    106.5070    134.0501   1.0124143300e+02   3.3636482567e+01    0.4770946    0.2711305 -42.95   0.00161761    1.941    0.485
        28 -10.1788     92.9552    131.8341   1.0425471185e+02   3.6453931309e+01    0.2298895    0.2026471 -54.66 0.0003163721    1.146    0.127
        29  -8.8452    104.6080    122.1096   9.9183310305e+01   3.6705510658e+01    0.1927982    0.1651217 -54.46 0.0003661372    1.120    0.107
        30  -8.6739    167.4897    112.5024   8.1324939847e+01   2.5595019856e+01    0.1575274    0.1503176 -77.11 -4.713403e-05    1.109    0.098
        31  -9.7907    198.3211    247.3193   1.0124502533e+02  -2.9946620369e+00    0.1172147   0.07509086  18.75 0.0007043592    1.668    0.400
        32 -10.8053    244.9810    105.9976   6.5136007374e+01   8.9850757946e+00    0.2307397    0.1690088 -60.40  0.001142026    1.701    0.412
        33 -11.4800    242.8570     94.0663   6.2536254983e+01   1.1317081973e+01    0.3478833    0.2173308 -47.19  0.001399978    1.619    0.382
        34  -9.6200    161.7415     79.9914   7.3471630831e+01   3.3285244369e+01    0.2262462    0.2068751 -34.84 0.0004693217    1.082    0.076
        35 -15.1719      5.8663    141.1671   1.2705792717e+02   4.4374239164e+01     9.547886     1.492769 -77.05   0.02813228    6.220    0.839
        36 -11.9131    153.1513    249.1449   1.0926974038e+02   3.9374867056e+00    0.6041455    0.1663024  41.27  0.002536919    2.885    0.653
        37 -10.7769    175.5559    249.5946   1.0545681716e+02   3.2430823051e-01    0.2993731   0.08530388  45.95  0.001254742    2.891    0.654
        38 -11.5806    139.6759    248.7729   1.1155593238e+02   6.1084805914e+00    0.3502654    0.2455297  61.02  0.002357742    1.362    0.266
        39 -14.3392      8.0038    240.6952   1.3248518273e+02   2.4670589945e+01     2.569543      1.66842  50.32   0.02104455    1.435    0.303
