#   1 NUMBER                 Running object number                                     
#   2 MAG_AUTO               Kron-like elliptical aperture magnitude                    [mag]
#   3 X_IMAGE                Object position along x                                    [pixel]
#   4 Y_IMAGE                Object position along y                                    [pixel]
#   5 X_WORLD                Barycenter position along world x axis                     [deg]
#   6 Y_WORLD                Barycenter position along world y axis                     [deg]
#   7 A_WORLD                Profile RMS along major axis (world units)                 [deg]
#   8 B_WORLD                Profile RMS along minor axis (world units)                 [deg]
#   9 THETA_WORLD            Position angle (CCW/world-x)                               [deg]
#  10 FWHM_WORLD             FWHM assuming a gaussian core                              [deg]
#  11 ELONGATION             A_IMAGE/B_IMAGE                                           
#  12 ELLIPTICITY            1 - B_IMAGE/A_IMAGE                                       
         1 -12.8832    247.9141     41.9883   3.1587386966e+01   2.0564189997e+01    0.4504211    0.2832017 -41.49   0.00284827    1.343    0.255
         2 -13.3501    247.1164     24.9423   2.8293083959e+01   2.2775116743e+01    0.5579376    0.3383827 -74.34  0.003572362    1.515    0.340
         3 -12.7837    248.3197     17.5440   2.6790097085e+01   2.3393174459e+01    0.5652779    0.2522886 -52.24  0.003258998    1.734    0.423
         4 -11.8356    249.3010      6.4829   2.4645019087e+01   2.4406723029e+01    0.7678624    0.2005856 -37.98  0.003712187    2.762    0.638
         5 -13.0674    242.1388     11.7521   2.6043314802e+01   2.5180444788e+01    0.6497224     0.118317 -39.08  0.002755019    3.337    0.700
         6 -12.6137    242.1746      3.2590   2.4409660819e+01   2.6063474517e+01    0.4517739    0.2798126 -72.75  0.003079251    1.328    0.247
         7  -9.3546    167.3179      9.6259   3.1432443108e+01   4.1402921357e+01    0.1392391   0.07928691 -63.43 0.0007031303    1.801    0.445
         8 -10.1955    160.9874      9.4964   3.2080599230e+01   4.2908960935e+01    0.1863792   0.09163359 -78.28 0.0008096676    2.468    0.595
         9 -11.1738     24.1389      8.3221   6.8812812832e+01   7.2561145790e+01     0.199885     0.126643  14.64   0.00118832    1.460    0.315
        10 -12.2531     21.5496      2.4308   6.6852886960e+01   7.3658157287e+01     0.452301    0.1731797  30.41  0.002110279    2.550    0.608
        11 -13.4362    238.2241     15.9233   2.7099751694e+01   2.5471898674e+01    0.5829486    0.1696526 -46.78  0.002758544    2.510    0.602
        12 -10.4712    182.4088      3.2172   2.8369461736e+01   3.8520042158e+01    0.1734752   0.09390859 -45.36 0.0009494034    1.720    0.419
        13 -12.8402      5.2817      3.5406   7.8292813201e+01   7.5489455513e+01    0.8442296    0.3589157  22.87  0.004457094    2.241    0.554
        14 -13.4121      6.1017     14.6532   8.3772264458e+01   7.3701679712e+01     1.104386    0.4938233 -27.80  0.005549606    2.220    0.549
        15 -10.4418    169.1613      2.4075   2.9338910115e+01   4.1635178876e+01    0.1829583    0.1001381 -88.21 0.0009440166    1.750    0.429
        16  -9.8319    159.3507      2.6827   3.0376949393e+01   4.3910278226e+01     0.135491   0.07983042 -67.38 0.0007047473    1.735    0.424
        17  -9.7146    152.6850      2.3155   3.0982705263e+01   4.5521560841e+01    0.1318029   0.08212648 -67.04 0.0003781229    1.645    0.392
        18 -11.2015    170.6653    239.6899   8.3781336940e+01   9.1023918564e-01    0.2562291    0.1631503  -1.59  0.001386367    1.776    0.437
        19  -9.4226    249.3080    250.3379   7.0944606240e+01  -9.9324882475e+00    0.1155493    0.0627877  -6.35 0.0007042768    1.681    0.405
        20 -10.0793    226.2278    250.4244   7.4870667716e+01  -7.5116303929e+00    0.1476231   0.09179303  30.64 0.0009493291    1.664    0.399
        21 -10.6961    210.5049    250.5199   7.7704325139e+01  -5.7328613227e+00    0.1929495   0.09252805  37.06 0.0007326962    2.234    0.552
        22 -10.4163    184.8978    250.1851   8.2495655318e+01  -2.5549212056e+00    0.3018842    0.1679672  20.85  0.001699896    1.579    0.367
        23 -10.6008    187.6230    245.4009   8.1255851533e+01  -2.2046199445e+00    0.2672118    0.1721672   5.12  0.001489433    1.490    0.329
        24 -11.5858    168.7469    249.6250   8.5613545179e+01  -3.7993475624e-01    0.3715369    0.2066128  14.86  0.001360369    1.856    0.461
        25 -11.8125    152.0316    249.5382   8.9012299402e+01   1.8676110668e+00    0.3323528     0.167533  32.26  0.001306591    1.657    0.396
        26 -11.3614    210.3490    242.6841   7.6527350369e+01  -4.6474501129e+00    0.3170089    0.1589469 -18.43  0.001621334    2.266    0.559
        27  -9.7048     43.4648    244.0000   1.1160103472e+02   1.7011388775e+01    0.2644072   0.05886728  29.91 0.0009409103    3.985    0.749
        28  -9.5966    248.4087    239.2152   6.9342906622e+01  -8.4801255193e+00    0.1460933   0.09075323 -36.24 0.0009543943    1.734    0.423
        29 -11.1755    183.7023    237.1261   8.0766551125e+01  -4.4516451911e-01    0.3501018    0.1683005 -26.20  0.001638268    2.513    0.602
        30  -9.8397     64.6691    239.3255   1.0669961042e+02   1.5441481132e+01    0.1347438    0.0775276  57.85 0.0007050778    1.706    0.414
        31  -9.5699    229.3125    247.3450   7.3855886227e+01  -7.4586360258e+00    0.1211326   0.06851934  -5.30 0.0003929802    1.709    0.415
        32  -9.9944     43.9623    236.4624   1.1096003349e+02   1.8469439593e+01    0.1890046   0.06392505  48.78 0.0008091874    2.529    0.605
        33  -9.9500      5.3294    235.6433   1.1895410278e+02   2.2569109546e+01    0.1955562   0.09418862  58.79  0.001109039    1.698    0.411
        34  -9.9322    230.0149    234.8517   7.1749696242e+01  -5.8946503870e+00    0.2203681    0.1122616 -39.45  0.001241377    2.050    0.512
        35 -10.9821    204.4416    233.0947   7.6107600287e+01  -2.5448230478e+00    0.3845537    0.2792697  27.06  0.001473409    1.349    0.259
        36 -10.1099    215.3823    231.8215   7.3868457217e+01  -3.7311663774e+00    0.1723303   0.09382268 -25.65  0.000954048    1.724    0.420
        37  -9.8767    177.5408    231.9657   8.1201093384e+01   1.2045920631e+00    0.2676139    0.1384377   1.14  0.001038887    3.487    0.713
        38  -9.5910    171.3338    232.3352   8.2527847423e+01   2.0054315087e+00    0.1351447    0.0877148  -3.30 0.0003594644    1.738    0.425
        39  -9.3908    225.4966    230.5101   7.1834319561e+01  -4.7710152471e+00    0.1203561   0.09114467  -4.24 0.0008106008    1.003    0.003
        40  -9.5604     15.3521    230.6737   1.1666589999e+02   2.2656974537e+01    0.1328512   0.06436845  58.10 0.0007047715    1.763    0.433
        41 -10.5379    189.8679    233.2686   7.8943494685e+01  -6.7169197713e-01    0.3163926    0.1392918 -27.81  0.001401971    2.738    0.635
        42 -10.2030    240.1269    219.2048   6.7418408140e+01  -4.9224142963e+00    0.3164381    0.1176242 -25.35  0.001342762    3.123    0.680
        43  -9.4538    220.0000    217.0437   7.0552895953e+01  -2.1504401100e+00    0.1929975   0.06168433 -39.38 0.0008010804    2.933    0.659
        44 -10.1376     55.9049    216.1932   1.0657805200e+02   2.1381403325e+01    0.2704193    0.1623115 -83.82 0.0003341816    1.818    0.450
        45 -10.4873    247.8616    213.8846   6.5232572068e+01  -5.0805521654e+00    0.3970406    0.1271781 -29.10  0.001647811    3.234    0.691
        46  -9.4541      1.5416    205.4841   1.1833243588e+02   2.9347055233e+01    0.1208796   0.09730333  73.27 0.0001982979    1.009    0.009
        47 -10.1820     13.0167    215.8581   1.1635237973e+02   2.6043438160e+01    0.2238654   0.09285147  52.70  0.001093576    2.069    0.517
        48 -10.6999      3.5144    189.0118   1.1696682639e+02   3.2980484707e+01    0.1965476    0.1062584 -83.20  0.001043194    1.624    0.384
        49  -9.2292    237.0000    186.9935   6.2211702169e+01   2.0761308632e-01    0.2041145   0.05993781 -38.73  0.000799712    2.924    0.658
        50 -10.1612      2.0122    178.0229   1.1665627670e+02   3.5719080174e+01    0.2396267   0.09906794  73.66  0.001016758    2.573    0.611
        51 -10.1023    100.9951    175.9790   8.9809509947e+01   2.4393225949e+01    0.2004379    0.1938479  54.64            0    1.025    0.025
        52 -10.9100      5.2217    173.8086   1.1555767432e+02   3.6503223947e+01    0.2348846   0.08918015  59.21 0.0009532996    2.810    0.644
        53  -9.9755      7.3210    170.6767   1.1478460296e+02   3.7113249432e+01    0.1388883   0.07996382  62.75 0.0005665951    1.677    0.404
        54  -9.7510     21.6952    169.3649   1.1081841327e+02   3.6242645993e+01     0.145896   0.08571485  65.42 0.0007036821    1.740    0.425
        55  -9.3943    246.5906    161.8170   5.5917621846e+01   2.8276476111e+00    0.1757323   0.09876129 -42.89 0.0007989403    1.631    0.387
        56  -9.3729    245.7472    156.9765   5.5106122674e+01   3.7108692672e+00    0.1732302   0.08886979 -36.26 0.0008914072    1.586    0.370
        57  -9.8937    250.0000    150.5020   5.3219947818e+01   4.1213318325e+00    0.2780787   0.05815728 -38.67 0.0009247098    3.854    0.741
        58 -10.1649    244.1782    148.7993   5.3733724084e+01   5.2430281545e+00    0.2920645   0.07334247 -42.82  0.001016251    3.539    0.717
        59 -11.1391      8.0260    144.7564   1.1240275764e+02   4.3596265597e+01    0.2917939    0.1320417  73.77  0.001183017    2.685    0.628
        60 -10.1619    242.4693    133.4834   5.0911599300e+01   7.9715150926e+00    0.2441849   0.09588639 -45.99  0.001037455    2.400    0.583
        61 -10.2002    248.1258    129.6809   4.9359350314e+01   7.6946214938e+00    0.2372705    0.1437822 -44.48  0.001327102    1.430    0.301
        62 -10.0092    240.5956    125.7144   4.9589196788e+01   9.5286364550e+00    0.2599216    0.1060105 -35.31  0.001140533    2.121    0.528
        63 -10.9696    248.0993    118.6685   4.7141156971e+01   9.4399701452e+00    0.2371405    0.1411849 -44.34  0.001319034    1.410    0.291
        64 -10.3029    247.5040    112.5181   4.5967688065e+01   1.0502564671e+01    0.1272936    0.1023236 -41.02 5.082843e-05    1.021    0.021
        65 -11.0193    248.2271    106.2394   4.4597763104e+01   1.1361582804e+01     0.338848   0.07140994 -43.89  0.001116932    3.943    0.746
        66 -10.3973      2.5115    104.9890   1.0978152830e+02   5.4107166804e+01    0.2078467    0.1111441 -71.38  0.001026591    1.572    0.364
        67  -9.6958    229.6999    102.6602   4.6228196196e+01   1.5149163618e+01    0.1271906   0.09833147  -8.02 0.0007036029    1.667    0.400
        68 -11.5320    248.8385     98.4884   4.2943579636e+01   1.2451050433e+01    0.2684673    0.1536786 -54.70  0.001436702    1.754    0.430
        69 -12.0386    248.2932     92.7281   4.1830108826e+01   1.3417447781e+01    0.4017952     0.159153 -50.82  0.001753324    2.529    0.605
        70 -12.5240    242.0681     92.6682   4.2540140079e+01   1.4506903933e+01     0.353415    0.1817984 -44.03  0.001439942    1.587    0.370
        71 -12.3902    235.2335     86.2347   4.1995175617e+01   1.6721105124e+01    0.5124555    0.1408424 -38.09  0.001923703    2.977    0.664
        72  -9.7181    226.3408     88.1234   4.3503079197e+01   1.8091754945e+01    0.2001965   0.09696962 -45.91 0.0007435536    1.783    0.439
        73  -9.8639     24.9791     90.0482   9.8359452718e+01   5.6322521500e+01    0.2095495    0.1802717 -46.08 0.0004566687    1.019    0.018
        74 -11.3500    239.3515     81.1565   4.0441844981e+01   1.6734293523e+01    0.2256078    0.1141109 -55.68 0.0009825154    2.033    0.508
        75  -9.6496    214.6644     79.8156   4.3158713726e+01   2.1683617964e+01    0.1994165    0.1022918 -45.34 0.0009387362    1.704    0.413
        76 -11.4616    244.3233     76.8341   3.8997695274e+01   1.6472368039e+01    0.2644755    0.1980986 -74.09  0.001230679    1.417    0.294
        77  -8.9370    220.3020     78.6819   4.2173561229e+01   2.0731563769e+01    0.1362514   0.08862883 -62.69 0.0005127628    1.623    0.384
        78 -10.5324    248.3821     74.1378   3.8024515245e+01   1.6138517553e+01    0.1880902   0.08542951 -46.19 0.0009463714    1.772    0.436
        79  -8.9925     52.6372     72.6766   8.2046695494e+01   5.7230632393e+01    0.1538857    0.1026516 -16.37 0.0007041011    1.785    0.440
        80  -9.1949    222.0000     71.0135   4.0248723338e+01   2.1553959523e+01    0.2107858   0.06501965 -36.36 0.0007898962    2.856    0.650
        81  -9.8887    214.4874     69.9845   4.0928403196e+01   2.3224672936e+01    0.1968538   0.08656354 -54.11 0.0008093831    2.452    0.592
        82  -8.8458    218.6664     68.3421   4.0045738827e+01   2.2618342249e+01    0.1409215   0.08589974 -63.62 0.0007050878    1.756    0.431
        83  -9.6416    203.5839     66.7763   4.1573872465e+01   2.5989001613e+01    0.1989674    0.1069236 -47.39 0.0009455994    1.685    0.406
        84 -11.2854    248.7188     64.2290   3.5980196983e+01   1.7473762255e+01    0.2860803   0.09357007 -34.84   0.00120845    2.745    0.636
        85  -9.4954    207.0000     58.9886   3.9295305421e+01   2.6403389235e+01    0.2170803   0.06825864 -35.10 0.0008027658    2.945    0.660
        86 -11.1039    250.4488     56.2350   3.4216324384e+01   1.8251236747e+01    0.2850224   0.09028055 -38.41  0.001108168    2.465    0.594
        87 -11.3847    193.7569    245.6925   8.0113562960e+01  -3.0263214010e+00     0.549112     0.263236 -27.64  0.002806668    2.274    0.560
        88 -11.2062    226.7631     29.7871   3.0767045347e+01   2.6132765690e+01    0.2097787    0.1318186 -37.00  0.001122957    1.508    0.337
        89 -10.1837     89.6879    249.1154   1.0220162962e+02   1.0369529097e+01    0.2405121    0.1383097  40.95  0.001331901    1.435    0.303
        90 -10.8602     65.1119    248.9015   1.0741870155e+02   1.3519506716e+01    0.3298472    0.1218552  41.58  0.001547258    2.106    0.525
        91 -10.5945    218.4380    245.7007   7.5524500130e+01  -6.0138929128e+00    0.2669335   0.09638375 -35.33  0.001296044    2.663    0.624
        92 -11.8085    177.1870    243.5200   8.3034697962e+01  -5.6243601211e-01    0.3638622    0.2122697  -8.28  0.001861555    2.155    0.536
        93 -11.5943    164.5513    244.7583   8.5771223362e+01   9.3569815468e-01    0.3019245    0.1279956  34.15  0.001436923    2.025    0.506
        94 -11.3414    157.9841    245.0102   8.7157432301e+01   1.7866624043e+00    0.2013425    0.1628611  14.91  0.000802205    1.025    0.025
        95 -11.1774    134.6337    245.1795   9.2088769036e+01   4.9743327421e+00    0.3882311   0.09289573  43.41  0.001168616    5.065    0.803
        96 -10.5829     96.8153    243.9960   1.0012920249e+02   1.0377891276e+01    0.3888906    0.1272017  35.21  0.001617437    2.442    0.591
        97 -10.4971     83.2114    244.4257   1.0313498647e+02   1.2094074455e+01    0.3220623   0.09546375  34.63  0.001296429    2.659    0.624
        98 -10.1817    225.3553    241.0868   7.3567195129e+01  -6.1957839213e+00    0.2281145   0.08604841 -30.69  0.001100458    2.566    0.610
        99 -10.5690    202.1092    240.7491   7.7762665623e+01  -3.3632299932e+00    0.2653299    0.1505249 -29.57   0.00152959    1.707    0.414
       100  -9.9345      2.9996    242.5084   1.1970077195e+02   2.1406785566e+01    0.1677851   0.09205314  36.08   0.00103785    1.611    0.379
       101 -11.1894    155.6781    240.9903   8.7067558572e+01   2.7589121584e+00    0.1735469    0.1509179   3.52 0.0006132836    1.090    0.083
       102 -10.7281     29.2359    239.6759   1.1428681387e+02   1.9419012556e+01    0.3973959    0.1158072  52.70  0.001650616    3.056    0.673
       103 -10.3552     50.1694    249.9776   1.1062592522e+02   1.5084958144e+01    0.3187201   0.09076015  39.35  0.001400259    2.509    0.601
