#   1 NUMBER                 Running object number                                     
#   2 MAG_AUTO               Kron-like elliptical aperture magnitude                    [mag]
#   3 X_IMAGE                Object position along x                                    [pixel]
#   4 Y_IMAGE                Object position along y                                    [pixel]
#   5 X_WORLD                Barycenter position along world x axis                     [deg]
#   6 Y_WORLD                Barycenter position along world y axis                     [deg]
#   7 A_WORLD                Profile RMS along major axis (world units)                 [deg]
#   8 B_WORLD                Profile RMS along minor axis (world units)                 [deg]
#   9 THETA_WORLD            Position angle (CCW/world-x)                               [deg]
#  10 FWHM_WORLD             FWHM assuming a gaussian core                              [deg]
#  11 ELONGATION             A_IMAGE/B_IMAGE                                           
#  12 ELLIPTICITY            1 - B_IMAGE/A_IMAGE                                       
         1 -12.8720    201.7719     28.2326   5.2738380888e+01   3.0585445275e+01    0.7029251     0.561934 -33.65  0.003726078    1.232    0.189
         2 -12.2518    209.0886     20.5628   4.9630660162e+01   2.9570776533e+01    0.5502352    0.3294515  18.30  0.001183466    2.522    0.603
         3 -13.2134     21.6485     21.7502   1.0122488356e+02   6.9589104473e+01    0.7225706     0.345942 -34.07  0.003781104    2.004    0.501
         4 -12.8885    217.3065     11.0662   4.6106502958e+01   2.8487705344e+01    0.7047124    0.5952119 -54.58  0.003240172    1.112    0.101
         5 -10.3617    182.0236    233.5082   1.0236543678e+02   4.0185182269e+00    0.2022336    0.1532932  -2.19  0.001400855    1.647    0.393
         6 -14.2630    245.9629    238.3151   9.2660236118e+01  -6.0192562632e+00     1.551588    0.7016261 -21.98  0.009274391    2.552    0.608
         7 -11.1609    207.5522    243.7446   9.9481248416e+01  -1.0081595771e+00    0.3620519    0.2205558 -11.74  0.002325563    2.205    0.546
         8 -11.6411    204.0745    239.4368   9.9471118123e+01  -3.9770772521e-02    0.5976928    0.2910938  36.07  0.003341347    1.560    0.359
         9 -12.3845    195.8513    248.0763   1.0193672559e+02   2.7579183852e-01    0.5055123    0.3811235 -26.07  0.003666142    1.698    0.411
        10 -12.9234    188.6246    246.9397   1.0297298253e+02   1.4734984569e+00     1.198447    0.6419438  25.42  0.007107726    1.968    0.492
        11 -12.2428    168.7665    247.4259   1.0630904114e+02   4.4001199099e+00    0.6149437    0.3094218  55.14  0.003432806    2.271    0.560
        12 -13.9602    126.7777    247.2603   1.1332055663e+02   1.0655848299e+01     2.234073    0.4255594  41.56  0.008599804    3.885    0.743
        13 -12.7872    115.8682    208.0170   1.1113607239e+02   1.8181834391e+01    0.8173349    0.5104439  49.40  0.004499313    1.297    0.229
        14 -14.6238    115.3863    224.6854   1.1305287927e+02   1.5587462684e+01     2.331434     1.279272  49.16   0.01355268    1.422    0.297
        15 -14.6814    142.3145    227.6012   1.0855118363e+02   1.1031961414e+01     2.551688      1.14782  37.54   0.01343802    1.930    0.482
        16  99.0000     26.5724    236.1740   1.2911521390e+02   2.5054843177e+01    0.8747898    0.1937212  58.63  0.004034095    3.726    0.732
        17 -15.1979     23.7823    156.3159   1.2491412872e+02   4.0121383009e+01     2.412047     1.602778  36.47    0.0161398    1.664    0.399
        18 -14.5889     26.2264    182.5465   1.2629024454e+02   3.4590526531e+01     2.785676     1.154204 -55.38   0.01427968    3.210    0.688
        19 -16.2337     16.3617    241.7487   1.3093467938e+02   2.5208011082e+01      2.50329    0.6323405  50.24   0.01467199    2.365    0.577
        20 -12.8010     44.1298    221.5085   1.2544544447e+02   2.5563484129e+01     1.058861    0.5155189  77.31   0.00656397    1.973    0.493
        21 -14.0580     26.9754    218.5522   1.2821718179e+02   2.7929940052e+01     1.459509    0.6587597  70.67     0.009189    1.886    0.470
        22 -11.5666     98.0277    227.4108   1.1642480114e+02   1.7686428403e+01    0.7250245    0.3744346  68.83  0.003985315    2.327    0.570
        23 -10.5279     89.0050    222.0117   1.1755115493e+02   1.9814684674e+01    0.2284315    0.1936587 -76.54  0.001198389    1.393    0.282
        24  -9.9822     73.2519    231.8027   1.2112005291e+02   2.0333605496e+01    0.1270593     0.114892  62.65 0.0008783907    1.357    0.263
        25 -10.8324     84.4975    227.9750   1.1886541876e+02   1.9465178898e+01    0.2433756    0.1717904  72.57  0.001053508    1.279    0.218
        26 -12.1436    177.8185    218.5444   1.0107002536e+02   6.5673911190e+00    0.5643399    0.4461476 -25.98  0.003890123    1.563    0.360
        27 -10.4354     72.8482    218.6404   1.2017630142e+02   2.2547384168e+01    0.2357935    0.1443051  56.74 0.0008940533    1.266    0.210
        28 -12.6618    227.4162    212.5671   9.1664280420e+01  -7.3249914471e-01    0.5945562    0.3181948  -5.17   0.00301473    2.735    0.634
        29  -9.9184     73.5005    207.0175   1.1907845154e+02   2.4474254667e+01    0.1567769    0.1030238 -75.45  0.000808417    1.584    0.369
        30 -11.8224     36.9295    200.7795   1.2543806177e+02   3.0024685749e+01    0.5239305    0.2353755  79.65  0.002908272    2.258    0.557
        31 -12.2539     40.9417    196.6478   1.2441052718e+02   3.0346576782e+01     0.575074    0.3176538  79.89  0.002857199    1.637    0.389
        32 -10.1976     88.9682    204.1245   1.1586261466e+02   2.2861893600e+01    0.2155541    0.1411266  43.36  0.001356484    1.360    0.265
        33 -11.1792    100.5745    197.1470   1.1284948299e+02   2.2401913681e+01    0.4119124    0.2941644 -36.39  0.002419388    2.207    0.547
        34 -11.1182     82.8007    197.5229   1.1639353071e+02   2.4918602264e+01    0.3685872    0.3174604  41.27  0.002329229    1.339    0.253
        35 -11.6981    196.1986    195.5153   9.4254273176e+01   6.5297878519e+00    0.4052114    0.3958877   8.31  0.002883448    1.260    0.206
        36 -10.4798      4.9025    196.9793   1.3103816575e+02   3.3868804492e+01    0.2438807    0.1127205  88.71  0.001575631    1.778    0.438
        37 -14.3627    214.3646    179.0708   8.8124531736e+01   5.5317426758e+00    0.9455279    0.5843112 -17.88  0.005052828    1.863    0.463
        38  -9.4708     66.6048    184.5187   1.1834153912e+02   2.9562281068e+01    0.1148885   0.09706995  74.71 0.0003618512    1.090    0.083
        39 -12.1113    164.7150    179.0077   9.7416957008e+01   1.4662904335e+01    0.5466766    0.3121446  26.12  0.002506389    2.244    0.554
        40 -11.2351     10.5983    176.8963   1.2900713692e+02   3.7157458276e+01    0.4017456    0.1845007 -78.93  0.002016027    1.837    0.456
        41 -10.8010     71.2372    177.2505   1.1662943055e+02   3.0377196557e+01    0.3199765    0.2112368  78.17    0.0008459    1.465    0.317
        42 -12.1164    197.8654    175.0358   9.0356752909e+01   9.1096017104e+00    0.3014988    0.2266914 -57.07   0.00167835    1.873    0.466
        43 -10.8441    120.4112    173.7069   1.0567700409e+02   2.3535743112e+01    0.3139634    0.2909688  32.05  0.002026767    1.228    0.185
        44 -12.7826     87.7320    181.5552   1.1364769165e+02   2.7215881878e+01     1.078957     0.733142  76.16  0.005608302    1.484    0.326
        45  -9.7917     80.8215    167.8307   1.1346293082e+02   3.0942274206e+01    0.1672062    0.1545439  88.62 0.0005071076    1.177    0.151
        46 -13.3582    150.1880    163.3518   9.7637825409e+01   2.0076225674e+01     1.254697     0.707323 -62.51  0.005535191    2.519    0.603
        47 -10.8658     86.4731    161.4848   1.1136972284e+02   3.1417504888e+01    0.2451281    0.2152522 -86.00 0.0007658666    1.112    0.100
        48 -11.2945     89.0083    158.2375   1.1033866122e+02   3.1708788648e+01    0.3953047    0.2618558  50.14  0.001793539    1.387    0.279
        49 -12.1688     68.3565    164.2992   1.1579745147e+02   3.3392679727e+01    0.3614483    0.2208191 -46.60  0.001081439    2.192    0.544
        50 -12.1541     98.0940    144.6813   1.0610343025e+02   3.3131371313e+01    0.5711874    0.4543246  36.97  0.003276361    1.352    0.261
        51 -10.8326     70.3357    144.6938   1.1281918115e+02   3.7298606844e+01    0.3140842    0.2277814 -84.36   0.00117376    1.309    0.236
        52 -11.0976     66.1951    142.1168   1.1346869989e+02   3.8419013081e+01    0.4347961    0.2725085  56.63  0.002194308    1.557    0.358
        53 -11.6603     89.1034    144.1510   1.0818388825e+02   3.4678271924e+01    0.2471578    0.2373849 -78.89 0.0004593332    1.167    0.143
        54 -14.7688     62.1180    244.1545   1.2381700680e+02   1.9796322631e+01     1.591378    0.6388754  49.54  0.009247011    1.748    0.428
        55 -11.1084     86.5052    136.2197   1.0751862621e+02   3.6804355309e+01    0.2565606     0.186962  44.15  0.001421745    1.374    0.272
        56 -11.5390    168.2379    134.2531   8.7945773178e+01   2.1747048996e+01     0.263446    0.1873798 -36.30   0.00129711    1.492    0.330
        57 -10.6867     98.2589    129.3277   1.0331462307e+02   3.6419376425e+01    0.2249122    0.2101234 -31.20 0.0006530114    1.272    0.214
        58 -13.5481      2.2740     76.0836   1.2248715457e+02   5.9350524793e+01     1.437988    0.1323603 -72.34  0.003797082    7.346    0.864
        59 -12.3890    193.2852     34.5979   5.5789926255e+01   3.2027078764e+01    0.5652763    0.2774551  51.58  0.002003682    2.024    0.506
        60 -13.7860    114.8459    188.8549   1.0896889915e+02   2.1663195891e+01     1.737839      1.19528  58.88   0.01029479    1.329    0.248
        61 -13.9438      5.2499    130.5121   1.2717049235e+02   4.7147000780e+01     1.577597    0.7448081  75.91  0.008724307    2.004    0.501
        62 -10.7192    169.5045    232.9147   1.0443326611e+02   6.0526059571e+00    0.2409072    0.1600789  37.47  0.001342208    1.174    0.148
        63 -11.8142      3.0689     23.0437   1.1116493657e+02   7.0641716639e+01    0.3440935    0.1516855 -52.01  0.001959609    1.624    0.384
