#   1 NUMBER                 Running object number                                     
#   2 MAG_AUTO               Kron-like elliptical aperture magnitude                    [mag]
#   3 X_IMAGE                Object position along x                                    [pixel]
#   4 Y_IMAGE                Object position along y                                    [pixel]
#   5 X_WORLD                Barycenter position along world x axis                     [deg]
#   6 Y_WORLD                Barycenter position along world y axis                     [deg]
#   7 A_WORLD                Profile RMS along major axis (world units)                 [deg]
#   8 B_WORLD                Profile RMS along minor axis (world units)                 [deg]
#   9 THETA_WORLD            Position angle (CCW/world-x)                               [deg]
#  10 FWHM_WORLD             FWHM assuming a gaussian core                              [deg]
#  11 ELONGATION             A_IMAGE/B_IMAGE                                           
#  12 ELLIPTICITY            1 - B_IMAGE/A_IMAGE                                       
         1 -19.1323    227.3459     61.4863   7.0688788150e+01   2.0804179907e+01     8.189125     5.876178  68.84   0.02848344    1.387    0.279
         2 -13.7528    196.2205     37.7517   6.9128575121e+01   3.1655093606e+01     1.154039    0.6620698 -22.34  0.005278637    2.289    0.563
         3 -11.2135    218.3266     10.8568   6.0174008350e+01   2.9613882645e+01    0.4357515     0.118572  52.34  0.001452512    4.714    0.788
         4 -10.7471    206.8412     10.6647   6.1274489187e+01   3.2315858311e+01    0.1738892     0.133785  66.59  0.000686446    1.244    0.196
         5 -10.4777    155.0951     10.8213   6.7839265358e+01   4.4704011816e+01    0.2047495    0.1821186  14.83  0.000422631    1.314    0.239
         6 -11.0670     94.2776      3.3952   7.7127586674e+01   5.8860889059e+01    0.3672491    0.1872951   7.45  0.001764462    2.618    0.618
         7  -9.5693    192.2981    144.0422   9.6692945722e+01   1.3725111676e+01    0.2185882    0.1917257 -45.56 0.0004172035    1.117    0.105
         8 -12.2496    190.0529    248.6842   1.1745277166e+02  -5.0022949412e+00    0.5411385    0.2353754  28.14  0.002206094    2.958    0.662
         9 -13.5159      6.3054    246.2805   1.5036498716e+02   2.2853081969e+01     1.257931    0.6212816  78.92  0.008144451    1.594    0.373
        10 -11.5862    230.2507    166.9129   9.4425639515e+01   1.4440070288e+00    0.4135998    0.2430506 -55.58  0.001387374    2.251    0.556
        11 -12.9484    230.0067    172.9488   9.5752844217e+01   4.1136472890e-01     0.861759    0.3367625  50.96  0.002862136    3.149    0.682
        12 -13.5877    219.3222    171.8118   9.7514925425e+01   2.6622276701e+00     1.057247     0.630352 -58.24  0.003728347    2.387    0.581
        13 -11.1919    211.4530    168.0814   9.8235476882e+01   4.9168712494e+00    0.3400445    0.2592562  41.00  0.001160913    1.335    0.251
        14 -12.3894    216.1970    180.8932   1.0002447495e+02   1.6069881283e+00    0.4267062    0.2929758  34.48  0.001217671    1.477    0.323
        15 -12.2582    190.3414    170.7383   1.0307554618e+02   8.7183159415e+00     0.924842     0.411726  60.06  0.002696722    4.388    0.772
        16 -11.9742    181.1501    165.5930   1.0391003754e+02   1.1692070787e+01    0.6861604    0.3602157  61.60  0.002409807    2.892    0.654
        17 -12.8573    207.6896    178.7519   1.0124324506e+02   3.6545470446e+00    0.7770816    0.5423052  85.64  0.003208155    2.814    0.645
        18 -11.6268    200.0157    175.1184   1.0201770092e+02   5.8762299895e+00    0.4900424    0.3440258  41.04  0.001422665    1.419    0.295
        19 -10.6942    180.9454    174.8055   1.0591952327e+02   9.8427062637e+00    0.2857284    0.2101649  63.91  0.001338244    1.625    0.385
        20 -11.7697    202.4792    166.4765   9.9668049888e+01   7.0517732943e+00    0.4279232     0.307806  76.32  0.001242511    2.114    0.527
        21 -12.0140    204.0049    162.0208   9.8387418956e+01   7.6069930358e+00    0.5518951     0.286363 -55.80  0.002067957    2.576    0.612
        22 -12.6842    245.5243    161.7430   9.0613217248e+01  -4.9968690065e-01    0.6598065     0.456718  -0.63  0.002651485    1.896    0.473
        23 -12.3038    236.1230    161.7547   9.2258687194e+01   1.2504693799e+00    0.5000902    0.2742933  51.41  0.002244139    2.107    0.525
        24 -13.2481     36.5656    157.5438   1.3690493387e+02   3.8653751917e+01    0.8205194    0.6816953 -83.32  0.003752799    1.035    0.034
        25  -9.3394    182.6519    161.2829   1.0264444141e+02   1.2265701013e+01    0.1533148    0.1216369  84.78 0.0007016276    1.648    0.393
        26  -9.9299    155.8675    159.9270   1.0829107528e+02   1.8280222214e+01    0.2468784    0.1888081  87.74  0.001028075    1.695    0.410
        27  -9.8586    147.0167    157.7004   1.0986190673e+02   2.0641360722e+01    0.2166127    0.2010124  56.93 0.0004735341    1.067    0.063
        28 -13.5698    245.6346    201.5633   9.8724477690e+01  -7.0925397289e+00     1.165932    0.7111083  -5.97   0.00567411    2.111    0.526
        29 -13.5778     67.9614    144.0415   1.2694903097e+02   3.8038462797e+01     1.166125    0.7813669  84.49  0.003674371    1.836    0.455
        30 -13.9719     73.0363    140.4445   1.2494749865e+02   3.8182557336e+01     1.297541     1.054611 -50.46  0.002736859    1.200    0.167
        31 -12.2422    248.3255    188.3653   9.5637668785e+01  -5.4544101690e+00    0.3662354    0.3505852  30.05  0.002084475    1.263    0.208
        32 -10.4495    240.6729    132.8729   8.5130261507e+01   5.5709457434e+00    0.3747573     0.265722 -87.02  0.001169477    2.195    0.545
        33  -9.9466    164.9306    151.1196   1.0426161221e+02   1.8264454255e+01      0.24074    0.2079176  89.70 0.0004864533    1.312    0.238
        34 -11.7700    141.9523    121.6202   1.0258234825e+02   2.9839532516e+01     0.617976    0.2948615  60.92  0.001950771    3.258    0.693
        35 -11.9778    145.1469    113.0759   9.9587372151e+01   3.0984438484e+01    0.5367138    0.3432885  79.11  0.001948685    2.710    0.631
        36 -11.5040    150.9205    148.7983   1.0696501443e+02   2.1814171395e+01    0.5093725    0.3160085 -87.71  0.001663721    3.452    0.710
        37 -11.2055    182.0146    149.0394   1.0001798988e+02   1.4959143897e+01    0.4503236    0.2207699  57.69  0.001436049    2.597    0.615
        38 -10.9243    133.7817    146.7500   1.1062152444e+02   2.5889855733e+01    0.6032676    0.2218325 -52.47  0.001955332    2.825    0.646
        39 -12.7174    111.3120     74.0300   9.7220171908e+01   4.6111358201e+01    0.3534916    0.3266888 -57.39  0.001271419    1.202    0.168
        40 -12.4899    130.5717    133.9383   1.0845922387e+02   2.9501321882e+01     1.200573    0.5696005 -65.24  0.003503449    3.938    0.746
        41 -10.0275    182.2995    153.5599   1.0099078350e+02   1.3950308706e+01    0.2895525     0.235519  88.78 0.0008085652    1.546    0.353
        42  -8.9535     78.2646     41.6735   9.6183258432e+01   5.7580045483e+01    0.1149882     0.101972 -58.08 0.0002572041    1.567    0.362
        43 -12.7365     59.4549    146.9786   1.2966269605e+02   3.8473410347e+01    0.5733503    0.5119445  73.36 0.0008887013    1.154    0.133
        44 -11.8365    181.7100     33.9780   7.0233152859e+01   3.5698466415e+01    0.3504578    0.2546903 -35.02 0.0009679603    1.489    0.329
        45  -8.9769    184.1240     28.1516   6.8343375572e+01   3.5818288885e+01    0.3906769    0.2265889 -71.08  0.001770123    2.166    0.538
        46  -9.6677    186.6543     25.0368   6.7184798383e+01   3.5566714803e+01    0.1462063    0.1259774   4.47  0.000343976    1.519    0.342
        47 -10.8936    200.1138    144.2412   9.5148885101e+01   1.1966528731e+01    0.3162138    0.2617794  80.54 0.0003353629    1.469    0.319
        48 -10.3697    195.7577    141.6415   9.5422809242e+01   1.3449171955e+01    0.2651726    0.2150238 -67.08 0.0007690968    1.407    0.289
        49  -9.6630    167.9649    208.5104   1.1518970518e+02   5.7480187285e+00     0.187032     0.185736  -2.12  0.001136337    1.086    0.079
        50 -10.5805    191.7414    192.7653   1.0731218109e+02   4.1484015904e+00     0.631649    0.3083785 -63.36  0.001726736    5.993    0.833
        51 -11.5914    239.6677    188.0746   9.7116502004e+01  -3.9297070075e+00    0.2550862     0.189208  26.08 0.0006237212    1.361    0.265
        52 -12.9109    247.7086    175.4965   9.3121415504e+01  -3.2365718129e+00    0.6240096    0.4036666 -30.49   0.00326844    1.427    0.299
