#   1 NUMBER                 Running object number                                     
#   2 MAG_AUTO               Kron-like elliptical aperture magnitude                    [mag]
#   3 X_IMAGE                Object position along x                                    [pixel]
#   4 Y_IMAGE                Object position along y                                    [pixel]
#   5 X_WORLD                Barycenter position along world x axis                     [deg]
#   6 Y_WORLD                Barycenter position along world y axis                     [deg]
#   7 A_WORLD                Profile RMS along major axis (world units)                 [deg]
#   8 B_WORLD                Profile RMS along minor axis (world units)                 [deg]
#   9 THETA_WORLD            Position angle (CCW/world-x)                               [deg]
#  10 FWHM_WORLD             FWHM assuming a gaussian core                              [deg]
#  11 ELONGATION             A_IMAGE/B_IMAGE                                           
#  12 ELLIPTICITY            1 - B_IMAGE/A_IMAGE                                       
         1 -10.9726    201.4058     62.0314   2.4713999438e+01   2.6437512319e+01     2.426951      1.21944 -45.31   0.01006426    1.905    0.475
         2 -13.0051    243.1087    114.9899   3.2181683743e+01   9.5647134606e+00     6.034522     1.771082 -41.02   0.02138759    3.306    0.698
         3 -12.3088    243.1724     57.2556   1.8321687590e+01   1.7645041741e+01     2.566531    0.4708706 -40.04  0.008077521    3.812    0.738
         4 -13.3545    232.2856     34.5129   1.3633824914e+01   2.2919606283e+01     4.475089      1.17088 -30.30   0.01579953    3.060    0.673
         5 -11.9337    249.0033     16.1012   7.7593632990e+00   2.1372691526e+01     1.805494    0.2521476 -30.00  0.005793142    4.239    0.764
         6  -9.7991    208.5136     36.4221   1.6545431018e+01   2.8258173133e+01    0.7734292    0.3246378 -25.48  0.003023252    2.377    0.579
         7 -12.4150    210.0831     52.7072   2.0922971731e+01   2.5704412489e+01     3.675576     1.804271 -21.15    0.0146476    2.316    0.568
         8  -7.6910    213.3684     21.2222   1.1811437606e+01   2.8907131073e+01    0.2602016     0.205727 -43.50   0.00132806    1.125    0.111
         9  -8.7704     16.4000     19.4540   6.5852206633e+01   7.2806313944e+01    0.3781032    0.2563843 -89.98  0.001881581    2.957    0.662
        10  -7.7905    168.9683     17.0076   1.5270275013e+01   4.0682425770e+01    0.2199039     0.201055 -53.35 0.0006062193    1.057    0.054
        11 -10.1956    149.1230      8.5081   1.4892995413e+01   4.6827059368e+01    0.5552966     0.218456 -30.61  0.002168916    2.386    0.581
        12 -10.3534    139.1125      8.5431   1.6350087317e+01   4.9480326513e+01    0.5941806    0.2767678 -47.26  0.002376268    2.347    0.574
        13 -10.2214    134.3687     10.9377   1.8043319742e+01   5.0496796804e+01    0.5023444    0.2512055 -88.51   0.00185005    2.860    0.650
        14  -8.3643    160.9977      9.2710   1.3627503656e+01   4.3596221734e+01     0.203926    0.1832675 -85.61 0.0009732264    1.056    0.053
        15  -7.7921    218.2520      9.5044   8.2251983601e+00   2.9004995791e+01    0.2363339    0.1055174 -25.90   0.00103647    2.122    0.529
        16 -13.2879    246.2247     36.1448   1.2824199841e+01   1.9668662790e+01     4.667022    0.9806911 -31.03   0.01590089    3.437    0.709
        17  -9.1075    154.0705      4.5343   1.2807644528e+01   4.5883812788e+01    0.2248692    0.1863127 -23.52   0.00123832    1.269    0.212
        18  -9.1614    120.8007      2.3933   1.6791090123e+01   5.4837493407e+01    0.4682801   0.08175758  53.89  0.001382486    4.008    0.750
        19  -9.3018    132.5319      3.8569   1.5501270780e+01   5.1649696708e+01    0.2559841    0.2160783 -27.87  0.001428128    1.232    0.188
        20  -8.3900    231.7052      2.0071   5.3868852209e+00   2.6635481566e+01    0.2050413    0.1681406  -9.42  0.001045483    1.464    0.317
        21  -8.5353    159.6003      2.4002   1.1405270600e+01   4.4607868538e+01    0.2587723    0.2113642 -36.88  0.001435975    1.231    0.187
        22  -9.5243    139.9471      2.2979   1.3810296683e+01   4.9829267074e+01    0.4298709    0.2275316 -80.41  0.001748075    2.392    0.582
        23  -7.4290    197.7718    204.1731   5.7571280228e+01   4.5377681838e+00     0.178165    0.1363075  80.12 0.0009500388    2.818    0.645
        24 -11.4424    232.6550    213.7184   5.3196897510e+01  -1.7504488022e+00     1.477482    0.6887854 -43.17  0.007564757    3.186    0.686
        25  -9.3139    243.5282    199.2490   4.9053583385e+01  -1.6096006316e+00    0.3957064    0.1844757 -25.41  0.001772258    2.077    0.519
        26 -10.8821    244.6413    191.3706   4.7501109651e+01  -8.5011416867e-01     1.542053    0.3152428 -39.55  0.004719377    7.049    0.858
        27 -11.6641    247.6769    244.4163   5.5524845327e+01  -6.7849259768e+00     1.239109    0.5913669 -29.80  0.008164904    2.253    0.556
        28 -11.7295    238.8990    246.0757   5.7096189854e+01  -5.8853569258e+00     1.040869    0.6623696  15.60  0.007802333    1.193    0.162
        29 -10.0187    241.0287    216.1935   5.2264784313e+01  -3.1521073016e+00    0.4763877    0.2940262   3.05  0.002204835    1.525    0.344
        30  -8.0592    199.4820    192.0587   5.5232852488e+01   5.9481237116e+00    0.3173856    0.2439829 -89.93  0.001648069    2.854    0.650
        31  -9.1394    236.5017    188.0078   4.8189538535e+01   7.3693989310e-01    0.2547632    0.1013623 -38.20  0.001201406    2.708    0.631
        32  -9.8514    249.6845    184.0116   4.5395280696e+01  -6.9856906821e-01    0.5010728    0.3833443  -9.66  0.003472797    1.100    0.091
        33  -8.9402    236.3317    182.2422   4.7166837195e+01   1.4828811333e+00    0.3581223    0.2547782  66.69  0.001848749    3.136    0.681
        34  -8.8723    231.6079    175.5960   4.6691770413e+01   3.0695224143e+00     0.444309    0.1743538 -36.47  0.001901154    2.517    0.603
        35 -11.2731    248.9275    207.2173   4.9566938338e+01  -3.2316602205e+00     2.248517    0.3507116 -32.10  0.007436108    6.414    0.844
        36  -8.6723      6.1321    181.8278   9.5145066805e+01   3.5690356824e+01    0.1852234    0.1126944  65.36 0.0005186224    1.261    0.207
        37  -7.7387    221.0000    179.1020   4.9119680399e+01   4.2838194164e+00    0.1966055   0.06602571 -34.92 0.0008040009    2.953    0.661
        38  -7.3893    100.9859    175.9863   7.3041845846e+01   2.5328718631e+01     0.152134    0.1361989  67.90            0    1.030    0.029
        39  -8.2803    250.4271    171.9294   4.3028813006e+01   6.5868824132e-01    0.3029914    0.1435724 -26.31 0.0007952724    1.919    0.479
        40  -9.6968    245.8025    169.4299   4.3257407389e+01   1.6687478600e+00    0.4514427    0.2833879 -22.53  0.002686023    1.414    0.293
        41  -8.0393    236.6867    169.3336   4.4670924710e+01   3.0965099226e+00    0.2093932    0.1846969 -59.21  0.001011573    1.766    0.434
        42  -9.1047    234.9229    163.6591   4.3842478746e+01   4.1373879670e+00    0.4082775    0.2126205 -36.80   0.00210082    1.896    0.473
        43  -7.7516    224.3179    167.1548   4.6273170063e+01   5.3943993183e+00    0.3171004   0.09330765 -42.12  0.001106938    4.107    0.757
        44  -9.5458    238.6240    159.1030   4.2345117611e+01   4.1532828036e+00    0.3581308    0.2638489 -26.70  0.002012657    1.252    0.202
        45  -7.9331    133.1448    199.0330   6.9274700051e+01   1.5729796945e+01    0.1751772    0.1544854  23.60            0    1.188    0.158
        46 -11.7922    240.9741    129.0946   3.5654827628e+01   7.9342648999e+00     2.793785    0.4638212 -39.31     0.002123    5.709    0.825
        47  -9.4384    216.0607    247.2481   6.0850839525e+01  -3.1429643303e+00    0.3667746    0.1743816 -13.49  0.001911801    3.273    0.694
        48 -10.7262    231.2283     95.4641   2.9248017139e+01   1.4731232156e+01     1.534245    0.8524562  86.50  0.005079367    5.023    0.801
        49 -11.7597    247.0944     94.4166   2.6873119776e+01   1.1742094948e+01     1.987901     0.919594 -41.08   0.00904675    1.936    0.483
        50  -7.9600    192.4383    248.7818   6.4932219623e+01  -1.9702421962e-01     0.131168   0.09289037 -10.27 0.0005227607    1.588    0.370
        51  -7.8652    181.2849    249.5656   6.6911124172e+01   1.2217620070e+00    0.2036944   0.08175154  39.89 0.0007090887    1.960    0.490
        52  -8.0292    139.9945    245.9996   7.3715322064e+01   7.3994342762e+00    0.1703526    0.1221987  13.72  0.001063573    1.694    0.410
        53  -8.4477    227.5064    159.4591   4.4210311159e+01   5.9444990548e+00    0.3085703    0.1166466 -31.77  0.001050254    2.538    0.606
        54  -8.3385    222.7369    155.5568   4.4209838215e+01   7.3207427766e+00    0.1742235    0.1251036  52.58 0.0009600313    1.725    0.420
        55  -9.5252    234.1500    147.0635   4.0578075830e+01   6.5697298768e+00    0.2954604    0.2497932 -15.66  0.001869184    1.060    0.057
        56  -8.6735    232.5087    153.5915   4.2198287293e+01   5.9271866704e+00    0.3504551    0.1532148 -44.37  0.001481337    2.823    0.646
        57  -7.7262    192.5048    148.0460   4.8044313259e+01   1.4039108975e+01    0.2117109    0.1322458 -36.48 0.0009140282    1.584    0.369
        58  -7.2369    133.6844    148.7038   6.0733864029e+01   2.5361277816e+01    0.1411452    0.1146747  -0.14 0.0003023933    1.605    0.377
        59  -7.2601    218.5580    144.5269   4.2596150453e+01   9.7095689874e+00    0.1352164    0.1173532  -5.61 0.0008070627    1.024    0.024
        60  -9.3819    147.5081    143.7331   5.6515053136e+01   2.3701546496e+01    0.4218583    0.2292468  23.39  0.001495878    3.159    0.683
        61  -6.8424    125.3446    143.3021   6.1652284692e+01   2.8089018261e+01    0.1449292    0.1168699  -1.69 0.0002998028    1.683    0.406
        62  -8.4363    175.1790    139.7492   4.9658218648e+01   1.8916525122e+01    0.4039733    0.2630605 -74.56  0.001556667    3.112    0.679
        63  -8.4029    225.7087    139.1012   4.0230622125e+01   9.2236958726e+00    0.3232038    0.2490078 -75.53   0.00143269    2.256    0.557
        64  -8.9123    222.6461    131.1723   3.8975005834e+01   1.0990946304e+01    0.5496169    0.2513556 -46.62  0.001805976    2.643    0.622
        65  -7.8409    167.4173    140.2916   5.1396130253e+01   2.0384521502e+01    0.2472943     0.181643  66.53  0.001181629    1.743    0.426
        66  -7.9991    210.0340    138.1787   4.2679657483e+01   1.2294040493e+01    0.2457142    0.1658976 -46.19 0.0009788582    1.634    0.388
        67  -7.5037    183.6741    143.3064   4.8732242018e+01   1.6577840944e+01    0.1367173    0.1147756 -85.60 0.0007035775    1.649    0.394
        68  -7.7275    178.7638    132.5726   4.7301468192e+01   1.9499191817e+01    0.2008548    0.1398046  57.84 0.0009471119    1.657    0.397
        69  -9.5972    154.5239    131.3846   5.2199163128e+01   2.4765489449e+01     0.345552    0.2393166  41.55  0.001639312    1.444    0.308
        70  -8.2397    192.3258    129.2813   4.3882157878e+01   1.7291343992e+01    0.2710125    0.2046739 -74.96  0.001054156    2.011    0.503
        71  -7.7392    182.6914    130.6596   4.6071398830e+01   1.9034177940e+01    0.1504916     0.111705   3.43 0.0007043764    1.688    0.408
        72  -7.1444     51.5735    130.4526   7.9246966555e+01   4.2921620952e+01    0.1355207    0.1178753 -83.44 -5.119154e-05    1.049    0.047
        73  -7.4400    209.3851    127.1565   4.0292312215e+01   1.4196616214e+01    0.2027306    0.1196982 -44.11 0.0004006603    1.749    0.428
        74  -8.6496    167.4675    126.9843   4.8335371282e+01   2.2910970024e+01    0.2342429    0.2003191  40.27  0.001101622    1.174    0.148
        75  -8.6343    225.5283    123.9932   3.6879630839e+01   1.1540266429e+01    0.3189536    0.2025466 -51.74  0.001009713    1.967    0.492
        76  -8.0509    214.4888    124.1082   3.8711566636e+01   1.3673552228e+01    0.2664118    0.2011284 -60.80  0.001279676    1.760    0.432
        77  -8.6441    200.8420    124.3366   4.1144716140e+01   1.6389735182e+01    0.3126934    0.2252826 -14.09  0.001033228    1.525    0.344
        78  -9.1380    164.4031    123.0004   4.8035668043e+01   2.4334425244e+01    0.3201653    0.2435199 -55.79  0.001134792    1.443    0.307
        79  -8.3457    115.5154    122.5243   5.9692206918e+01   3.4595381057e+01    0.3349055    0.1359161 -65.05 0.0008104375    5.783    0.827
        80  -9.9096    154.9583    123.8178   5.0318254027e+01   2.6194696875e+01    0.4544552    0.2793388  63.70  0.001859242    2.160    0.537
        81  -9.4198    219.0875    117.1987   3.6329735824e+01   1.3852410507e+01    0.6206108    0.3132537 -47.72  0.002609849    2.286    0.563
        82  -9.6359    178.9468    119.6548   4.4186288966e+01   2.1833351672e+01    0.3994052    0.2970475  74.66  0.001868157    1.829    0.453
        83  -7.4995    210.4235    119.4991   3.8315031515e+01   1.5232088536e+01    0.1415179    0.1277926 -21.69 -0.0003463032    1.023    0.022
        84  -9.2140    188.3031    117.6126   4.1850770775e+01   2.0187599295e+01    0.3007028    0.2287218 -47.39  0.001406133    1.357    0.263
        85  -9.5142    170.1021    117.8351   4.5551693823e+01   2.4094963043e+01    0.3302045    0.2679013 -74.19  0.001168084    1.547    0.353
        86  -8.7805    140.9062    117.6452   5.2087032713e+01   3.0470474837e+01    0.2675733    0.2095402 -31.87 0.0009974393    1.377    0.274
        87  -9.6209    153.2812    115.6749   4.8689675006e+01   2.8201883024e+01    0.4182148    0.2873334 -85.93   0.00166633    2.447    0.591
        88  -7.8277    204.7847    116.3561   3.8532465087e+01   1.6910806050e+01    0.1989162     0.128882  39.07 0.0007935247    1.653    0.395
        89  -7.9399    200.3846    116.3272   3.9302667348e+01   1.7838304075e+01    0.2301194    0.1826703  79.59 0.0007027865    1.708    0.415
        90  -8.5261    134.9922    116.0091   5.3127416883e+01   3.2076800984e+01     0.281053    0.1673947  68.55 0.0007973434    2.628    0.620
        91  -8.0302    209.9552    114.8687   3.7283457506e+01   1.6081986332e+01    0.2234045    0.1840024   1.53 0.0005695311    1.289    0.224
        92  -8.1250    194.8808    114.8638   3.9940486413e+01   1.9258409873e+01    0.2289388    0.1950982   2.92 0.0007723871    1.252    0.201
        93  -7.3718     60.3101    114.3392   7.3978348716e+01   4.5797712593e+01    0.1427772    0.1029845 -37.80 0.0004571213    1.689    0.408
        94  -9.7906    160.6611    111.2032   4.5894461760e+01   2.7464460543e+01    0.4393225    0.2893126 -21.65  0.001860089    1.922    0.480
        95  -9.1342    161.1434    106.9670   4.4680926081e+01   2.8187833252e+01    0.3176295     0.251655 -74.15  0.001502908    1.567    0.362
        96  -7.6004    201.1899    110.0081   3.7600709247e+01   1.8734934006e+01    0.2378266    0.1509404 -55.05 0.0006872388    1.941    0.485
        97  -9.0602    183.1361    109.4404   4.0793241593e+01   2.2781145936e+01    0.3795905    0.2577108  77.50  0.001609053    2.241    0.554
        98  -9.5466    154.9546    108.4079   4.6436266145e+01   2.9296018314e+01    0.4623834    0.2233659 -45.27  0.001762478    2.053    0.513
        99  -9.0561    190.2843    107.7344   3.8997938362e+01   2.1501820971e+01    0.4414685     0.239428 -50.76  0.001782005    2.132    0.531
       100 -10.1287    187.2082    103.3012   3.8426715517e+01   2.2969191649e+01    0.4844215    0.3418906  43.82  0.002323616    1.490    0.329
       101  -9.2953    172.1120    108.2360   4.2686898977e+01   2.5468806692e+01    0.3579845    0.2519191  79.83  0.001534522    2.090    0.521
       102  -6.9478     47.7115    108.3144   7.6900624370e+01   4.8898485279e+01    0.1408905   0.09649578  75.18 0.0003136911    1.587    0.370
       103  -7.9053    211.8616    106.1797   3.4837034073e+01   1.7093978006e+01    0.2785148    0.2056182 -66.05  0.001362352    1.810    0.448
       104  -8.3898    204.7459    105.6954   3.5904715768e+01   1.8691437610e+01    0.3605483    0.2365586 -74.36  0.001467162    2.712    0.631
       105  -9.4611    141.7080    104.8621   4.8591671545e+01   3.2984378844e+01    0.3008505    0.2134914 -59.85 0.0009901524    1.576    0.366
       106  -8.1548    174.3404    102.9401   4.0836721818e+01   2.5953785612e+01    0.2584359    0.2171386  68.94 0.0008334485    1.340    0.254
       107  -9.2594    162.1419     85.8543   3.8587493725e+01   3.2002624512e+01    0.2472505    0.2359642 -39.15  0.001308973    1.017    0.016
       108  -8.8345    157.5019    102.0259   4.4158237734e+01   2.9987082107e+01    0.3775074    0.1891559 -42.93  0.001460149    1.941    0.485
       109 -11.0492    160.2506     95.7439   4.1821296393e+01   3.0575358105e+01     1.259818    0.2737587 -42.88  0.003232334    4.430    0.774
       110  -9.5045    167.5924     99.9909   4.1429510586e+01   2.8057146821e+01    0.4194299    0.2808978 -53.39  0.001853985    1.626    0.385
       111  -9.2935    164.5945     94.5147   4.0547686609e+01   2.9792440757e+01     0.421226     0.250798 -45.68  0.001617962    1.663    0.399
       112 -10.5698    149.1639    100.0298   4.5505249107e+01   3.2294580692e+01    0.5040967    0.3640572 -49.80  0.002326083    1.391    0.281
       113  -7.3924     42.5623    102.5788   7.7588139438e+01   5.0928182620e+01    0.1376571    0.1170466 -86.78 0.0008009201    1.074    0.069
       114  -8.9681    210.0775     99.3877   3.3423407340e+01   1.8572962251e+01    0.3409735    0.2863453 -78.12  0.001389107    1.479    0.324
       115  -7.5844    174.8504     71.1544   3.1716064573e+01   3.1504227551e+01    0.2081989    0.1774512  -6.49 0.0004009536    1.323    0.244
       116  -7.7941    186.5170     79.4575   3.2045687303e+01   2.7259287353e+01     0.227194    0.1460534 -21.95 0.0001118687    1.722    0.419
       117  -9.1006    186.5019     83.3470   3.3146077534e+01   2.6605547912e+01    0.3181944    0.2518483 -57.38 0.0009713217    1.340    0.254
       118  -8.8991    181.6667     80.4706   3.3200456012e+01   2.8253849912e+01    0.4049786    0.2741477  87.22  0.001709263    2.110    0.526
       119 -10.0829    176.2517     84.1107   3.5252336991e+01   2.8924105897e+01    0.6509574    0.4424784 -15.68  0.002825035    1.816    0.449
       120  -9.7823    175.4541     76.6587   3.3239583358e+01   3.0417684540e+01    0.4638839    0.4350602 -32.25  0.001577219    1.044    0.042
       121 -10.1914    179.8083     98.5898   3.8588841308e+01   2.5496413678e+01    0.5240679    0.2370681 -38.66  0.001987593    2.085    0.520
       122  -9.5380    176.7451     92.9519   3.7646128228e+01   2.7227134768e+01    0.5464376    0.2583809 -44.17  0.001799632    2.081    0.519
       123  -8.2571    204.8369     98.8621   3.4151309896e+01   1.9801530741e+01     0.267307     0.255826 -67.30   0.00121008    1.145    0.126
       124  -8.7821    202.3810     94.6189   3.3461261182e+01   2.1046032291e+01    0.4471027    0.2150289 -42.27  0.001375378    1.972    0.493
       125  -7.1632    217.2844    105.3343   3.3755050703e+01   1.6091952105e+01    0.1432026    0.1058677   3.06 0.0003404985    1.621    0.383
       126  -8.3385    220.1507     97.2359   3.1302814226e+01   1.6760639490e+01      0.38497    0.1999199 -49.39  0.001614749    2.175    0.540
       127  -8.6895    216.3186     96.5826   3.1725055769e+01   1.7677223628e+01    0.4155414    0.2659378 -21.68  0.001569114    1.603    0.376
       128  -9.0774    154.9119     95.5295   4.2937961997e+01   3.1863491929e+01     0.247811     0.205185 -39.89 0.0007099031    1.175    0.149
       129 -10.3107    169.7599     91.8273   3.8723584776e+01   2.9077882880e+01    0.7745891    0.3091307 -50.63  0.002418948    3.232    0.691
       130  -8.4923    209.4501     92.4244   3.1737640025e+01   1.9831730825e+01    0.4304983    0.2465947 -51.57  0.001304842    1.977    0.494
       131  -8.7954    207.2462     86.7726   3.0606813487e+01   2.1228740914e+01    0.5123239    0.3016399  82.83  0.001969789    2.981    0.665
       132  -9.7385    187.8225     93.1071   3.5599824376e+01   2.4617276295e+01    0.3195948    0.2591158  69.93  0.001611951    1.407    0.289
       133  -8.7460    197.0287     93.5093   3.4076993759e+01   2.2437454766e+01    0.2128571    0.1490848  55.83 0.0005892852    1.542    0.352
       134 -10.3130    151.7588     89.1632   4.1822184950e+01   3.3850196607e+01    0.4886693    0.3170478 -60.06  0.002023273    1.878    0.468
       135  -9.2949    142.7883     90.7349   4.4370674292e+01   3.5644287296e+01    0.3243406    0.2098854 -49.85 0.0007783675    1.567    0.362
       136 -10.3219    127.9393     89.2330   4.7645841567e+01   3.9356631482e+01    0.6234303    0.3086745 -31.34  0.001180154    2.614    0.617
       137  -9.3346    196.2464     84.7305   3.1845677073e+01   2.4080944109e+01    0.2997576    0.2695113  70.78  0.001629811    1.217    0.178
       138 -10.2865    168.0990     82.7086   3.6442522671e+01   3.1141935368e+01     0.507661    0.3407796  51.52   0.00207746    1.540    0.350
       139  -9.3527    156.3913     83.8161   3.9217118685e+01   3.3769191457e+01    0.3465348    0.2535481   3.68  0.001477298    1.956    0.489
       140  -8.8028    198.9714     80.4987   3.0238598664e+01   2.4137290753e+01    0.2702414    0.2286303 -72.97 0.0009252261    1.326    0.246
       141  -8.9028    208.3842     81.5827   2.9051762356e+01   2.1794000064e+01    0.4473618    0.2609631  82.92  0.001742591    2.871    0.652
       142  -8.9940    203.0670     79.2127   2.9235400362e+01   2.3390072874e+01    0.4051841    0.3121782 -81.17  0.001690006    1.609    0.378
       143  -8.4146    182.8852     88.0448   3.5116064843e+01   2.6652973208e+01    0.3115344    0.2091682   0.11  0.001263807    2.270    0.559
       144  -7.5521    126.5836     81.1676   4.5548469447e+01   4.1343900751e+01    0.2138688    0.1973065  67.89  0.001098241    1.128    0.113
       145  -8.9910    214.4445     78.4122   2.7309138251e+01   2.0914227220e+01    0.4942865    0.2936793 -64.45  0.002059496    2.393    0.582
       146  -9.3098    149.6047     77.2449   3.8719491022e+01   3.6651839670e+01    0.3218615    0.2236591 -26.69 0.0009470777    1.562    0.360
       147  -9.1255    189.9944     77.5857   3.0915314873e+01   2.6737136617e+01    0.3144827    0.2354028 -66.64  0.001267189    1.565    0.361
       148 -10.4407    164.1304     66.5821   3.2342031152e+01   3.4956270722e+01    0.9491313    0.2662947 -38.76  0.002850312    3.197    0.687
       149  -9.8856    157.6505     75.6160   3.6464941144e+01   3.4981065736e+01     0.370734    0.2828197 -38.71  0.001130602    1.263    0.208
       150  -8.1982    183.5997     76.3056   3.1656528337e+01   2.8491866912e+01    0.3683001    0.1846789 -38.40  0.001468335    1.844    0.458
       151  -9.6272    193.3890     71.4750   2.8619287261e+01   2.6912265321e+01    0.5103249    0.4230248  34.62  0.002231857    1.363    0.266
       152  -7.8101    128.2977     73.3464   4.2603033985e+01   4.2521364693e+01    0.1589924    0.1249744   3.32 0.0003519442    1.677    0.404
       153  -9.2583    170.4799     70.8536   3.2440213210e+01   3.2640430118e+01    0.4629612    0.2351402 -24.30  0.001694915    2.358    0.576
       154  -7.7538    151.2790     71.6549   3.6595263851e+01   3.7273859691e+01    0.1623373     0.118192 -65.17 0.0007008641    1.633    0.388
       155  -7.9557    182.3321     69.3180   2.9837363106e+01   2.9958232910e+01    0.3341385    0.2266581  -0.85  0.001393282    2.137    0.532
       156  -9.7994    145.7384     67.3934   3.6448862996e+01   3.9419311926e+01    0.4310678    0.2628964 -32.52  0.001135103    1.654    0.396
       157  -9.0391    196.1621    244.0364   6.3693107834e+01  -1.6855266429e-01    0.2107603    0.1115324  25.47  0.001280061    1.652    0.395
       158  -8.5303    171.7979     63.4934   2.9939247098e+01   3.3539221618e+01     0.295447    0.1996107 -15.36 0.0008886073    1.791    0.442
       159  -8.9260    158.3122     61.6740   3.1925514197e+01   3.7255983008e+01    0.3587066     0.177954 -33.32  0.001374615    1.968    0.492
       160  -8.3780    141.4284     62.2536   3.5715066324e+01   4.1411407426e+01    0.2217122    0.1401557 -46.33 0.0005465691    1.586    0.369
       161  -7.7644    178.6233     60.5066   2.7825463629e+01   3.2297472233e+01    0.2675963    0.1383542 -33.55 0.0008955902    1.824    0.452
       162  -9.4521    132.2695     58.4786   3.6562489786e+01   4.4353117385e+01    0.3514702    0.2420197 -36.57  0.001133016    1.418    0.295
       163  -8.0695    180.3010     74.0539   3.1587740916e+01   2.9673647515e+01    0.2887554    0.2653435 -85.47  0.001005314    1.151    0.131
       164  -8.0680    133.6498     67.7002   3.9387604503e+01   4.2330170399e+01    0.1605336    0.1231284  16.75 0.0007037356    1.691    0.409
       165  -9.5894    138.7394     56.4683   3.4342456529e+01   4.3093022534e+01    0.4446001    0.2733161  24.20  0.001665348    2.545    0.607
       166  -7.8267    182.6300     55.5858   2.5666897104e+01   3.2046647625e+01    0.3064236    0.1450037 -25.70  0.001143648    2.263    0.558
       167 -10.1327    148.7555     51.8696   3.0585045571e+01   4.1310555383e+01    0.5460023     0.377539  30.47  0.002391529    1.800    0.444
       168  -7.9916    193.2591     50.2479   2.2468292708e+01   3.0161115002e+01    0.2684504    0.1649943 -26.67 0.0009684294    1.618    0.382
       169  -8.1602    178.6761     50.0406   2.4586442985e+01   3.3880244522e+01    0.3453454    0.1337967 -30.40 0.0009039925    2.476    0.596
       170  -8.4856    190.7860     57.6201   2.5009273774e+01   2.9696878456e+01     0.442173    0.2783569  -2.74  0.001779301    2.406    0.584
       171  -7.8557    187.2441     50.3069   2.3356095262e+01   3.1662841908e+01    0.2207658    0.1799679  41.04 0.0005451157    1.378    0.274
       172  -7.4891    172.3073     49.9774   2.5600768606e+01   3.5525008136e+01    0.2039944    0.1798424 -46.48 0.0001587478    1.082    0.076
       173  -7.3362    119.2430     49.0193   3.6372475405e+01   4.9188264938e+01    0.2080426    0.1270888 -34.10 0.0008866117    1.612    0.380
       174  -8.3568    197.0240     45.0782   2.0431270324e+01   2.9946149678e+01    0.3434156    0.2093866 -26.23 0.0009644912    1.628    0.386
       175  -8.8062    150.1443     42.1965   2.6942144248e+01   4.2440427297e+01    0.2736544    0.2069822 -49.18  0.001316268    1.332    0.249
       176 -10.3559    228.9824    112.5650   3.3685017524e+01   1.2608364592e+01    0.9418524     0.616166 -53.26  0.004649431    1.871    0.466
       177  -7.9246    201.1832     41.4590   1.8845579120e+01   2.9402607017e+01    0.2725369    0.1904852 -31.37 0.0008678281    1.346    0.257
       178  -7.5224    118.3142     41.6814   3.3769692022e+01   5.0626179724e+01    0.1551394    0.1161759 -67.30 0.0002076197    1.650    0.394
       179  -7.9401    192.6058     39.3402   1.9307464221e+01   3.1828989603e+01    0.2327468    0.1508541 -58.25 0.0008763028    1.603    0.376
       180  -8.8191    201.2996     33.9573   1.6655993617e+01   3.0344953667e+01    0.4793879    0.1768585 -40.95  0.001487087    2.349    0.574
       181  -7.8493    173.5276     34.4248   2.0396382103e+01   3.7389606517e+01    0.2483447    0.1469337 -10.93 0.0005989798    2.185    0.542
       182  -8.0339    144.6596    248.6488   7.3169537512e+01   6.3930646486e+00    0.1098341   0.07645869  12.06 0.0007043655    1.801    0.445
       183  -7.8944    202.1602     26.8569   1.4502507734e+01   3.1001127916e+01    0.5020802    0.0957937 -35.88   0.00155889    3.560    0.719
       184  -7.3477    188.4641     27.4912   1.6232320529e+01   3.4388160665e+01    0.1415372    0.1351956 -61.30 0.0007315148    1.053    0.050
       185  -7.8628    132.3190     25.3256   2.4122386060e+01   4.9404976173e+01    0.1560759    0.1087444  29.30 0.0005296824    1.677    0.404
       186  -8.0113    209.5516     23.3108   1.2747682857e+01   2.9594861043e+01    0.2694477    0.1569754 -30.89  0.001295897    1.579    0.367
       187  -8.1798    157.8254    244.6183   7.0386293902e+01   5.0792739446e+00    0.1691522   0.08060161  44.00 0.0009116952    1.752    0.429
       188  -7.0093    197.0000     22.9106   1.3894509004e+01   3.2757121692e+01    0.2233473   0.07664289 -25.79 0.0006178851    2.820    0.645
       189  -7.5132    167.5261     22.9448   1.7450129485e+01   4.0392639790e+01    0.2173056    0.1414548 -26.89  0.001016047    1.544    0.352
       190  -8.1820    204.7561     20.6570   1.2457288147e+01   3.1076533230e+01    0.3300485    0.1679624 -17.57  0.001397526    2.264    0.558
       191  -9.3242    136.4336     21.5711   2.1870172456e+01   4.8787914798e+01     0.339225    0.1376089 -27.41  0.001262449    2.427    0.588
       192  -7.5037    189.4926     20.9988   1.4129804402e+01   3.4885850218e+01    0.2208523   0.08537527 -47.15 0.0008101517    2.512    0.602
       193  -9.2384    222.8230    242.2015   5.9070660553e+01  -3.4979889678e+00     0.203834    0.1292499 -11.67   0.00096819    1.616    0.381
       194  -7.7293    214.9349    240.0269   6.0039950441e+01  -2.2436754973e+00     0.175326    0.1044612  11.93 0.0007629152    1.652    0.395
       195  -8.1513    141.5048     24.4997   2.2078167746e+01   4.7100698015e+01    0.1455252    0.1421552  87.09 0.0008106795    1.000    0.000
       196  -7.9209    201.8196    240.4093   6.2259375697e+01  -5.2889426809e-01    0.1550652   0.08055678  27.60 0.0005127384    1.607    0.378
       197  -8.2353    198.9965    236.1651   6.2152966093e+01   3.4102565305e-01    0.1760464    0.1423416   1.30 0.0007185988    1.207    0.172
       198  -9.0609      1.9827    233.3222   9.7749381525e+01   2.6183668472e+01     0.193532    0.1062873  73.90  0.000919404    1.390    0.281
       199  -8.1634    223.6699    197.9209   5.2040024862e+01   1.4099730376e+00    0.1626634     0.131419  -4.98 0.0006391535    1.117    0.105
       200  -8.1160    213.7787    231.3913   5.8998493990e+01  -1.1473746907e+00    0.2077971    0.1306529 -15.37  0.000940096    1.705    0.414
       201  -8.5104    222.7914    226.1380   5.6737344657e+01  -1.7890261945e+00    0.3323574    0.1573965  18.35  0.001417008    2.510    0.602
       202  -7.0297    192.6796    228.2904   6.2135182755e+01   2.1731679521e+00    0.1040147   0.08270941  51.21 0.0003863758    1.604    0.376
       203  -8.8981    243.3930    223.9913   5.3128575487e+01  -4.2790118225e+00    0.2105442    0.1382008  12.77 0.0009593801    1.221    0.181
       204  -7.2849    211.3209    225.3440   5.8517575094e+01  -1.1946343111e-01    0.1187542   0.07265776   9.01  0.000704991    1.728    0.421
       205  -7.6378    227.4861    216.4985   5.4478737167e+01  -1.3525994911e+00    0.1147031   0.08762827  12.22 0.0001463266    1.007    0.007
       206  -8.1317    240.0255    208.1156   5.1104239131e+01  -2.1313287648e+00     0.202429    0.1090358 -33.10  0.001211954    1.954    0.488
