#   1 NUMBER                 Running object number                                     
#   2 MAG_AUTO               Kron-like elliptical aperture magnitude                    [mag]
#   3 X_IMAGE                Object position along x                                    [pixel]
#   4 Y_IMAGE                Object position along y                                    [pixel]
#   5 X_WORLD                Barycenter position along world x axis                     [deg]
#   6 Y_WORLD                Barycenter position along world y axis                     [deg]
#   7 A_WORLD                Profile RMS along major axis (world units)                 [deg]
#   8 B_WORLD                Profile RMS along minor axis (world units)                 [deg]
#   9 THETA_WORLD            Position angle (CCW/world-x)                               [deg]
#  10 FWHM_WORLD             FWHM assuming a gaussian core                              [deg]
#  11 ELONGATION             A_IMAGE/B_IMAGE                                           
#  12 ELLIPTICITY            1 - B_IMAGE/A_IMAGE                                       
         1  -8.1248     97.4022     14.7066   1.9679023431e+01   5.9195377124e+01    0.2642971     0.124255 -30.78  0.001113765    2.083    0.520
         2  -8.8302      7.4019     14.9246   6.3046709796e+01   7.4615048623e+01    0.2278501    0.1715681 -84.00  0.001323211    2.102    0.524
         3  -8.5222     55.8535      9.8028   3.1000290154e+01   6.8826180776e+01    0.2238591    0.1811485 -35.26 0.0006852085    1.356    0.262
         4  -8.2001     90.8110      8.7923   1.8515876232e+01   6.1406081727e+01    0.1873091    0.1578306 -53.12 0.0006019866    1.374    0.272
         5  -8.2704     28.2721      9.6439   4.5496743837e+01   7.3390606624e+01    0.1140223   0.09860516 -54.80 0.0004173887    1.643    0.391
         6  -8.0266     13.2763      8.6706   5.5200659168e+01   7.5307810621e+01    0.1059054   0.09642994 -65.35 0.0004925946    1.594    0.373
         7  -8.5355      5.6194      7.7907   6.0573169580e+01   7.6140026426e+01    0.1614016    0.1033556 -56.98 0.0005448385    1.655    0.396
         8  -8.0547     70.4657      6.0105   2.3117726923e+01   6.6295747698e+01    0.1973583    0.1246823 -23.56 0.0007999274    1.561    0.359
         9  -8.6433     33.5169      4.9772   3.9192051890e+01   7.3341506882e+01    0.3041935    0.1783153 -49.44  0.001479871    2.524    0.604
        10  -8.1513     97.5668      4.0333   1.4525368132e+01   6.0253790207e+01    0.2548844    0.1525434  42.28  0.001239329    1.611    0.379
        11  -8.5835     79.3200      3.7338   1.9056007741e+01   6.4568720597e+01    0.2842704    0.1690969 -44.70  0.001232175    2.035    0.509
        12  -7.6792     44.5015      2.5075   3.1576929066e+01   7.1835106020e+01     0.127188    0.1106719   0.50 0.0008092446    1.084    0.078
        13  -7.8318    114.9485      2.0000   1.0136852512e+01   5.6131889752e+01    0.2259699   0.07374507  68.83 0.0007965004    2.901    0.655
        14  -8.2544     62.6904      1.4312   2.3144650432e+01   6.8417919314e+01    0.2166691     0.126913  60.70 0.0007683328    1.895    0.472
        15  -7.5799     39.3017      1.3022   3.3403502031e+01   7.2890644274e+01    0.1307677   0.08518813   9.66 0.0001833016    1.589    0.371
        16  -9.3080    194.2357    240.5046   5.6936483929e+01  -2.4862282631e+00    0.3227415      0.19237 -44.69  0.001264054    2.161    0.537
        17  -9.3108    243.1755    245.8198   4.9420219418e+01  -8.7927137509e+00    0.3587343    0.1606354 -19.07  0.002094428    2.224    0.550
        18  -9.4694    246.7012    228.2554   4.6143779014e+01  -7.2349196393e+00    0.4500676    0.1730263 -33.69  0.002273516    2.430    0.588
        19  -8.5333    249.1488    249.0597   4.8958171824e+01  -9.7526746380e+00    0.2608603    0.1281877 -10.55  0.001614751    1.986    0.496
        20  -9.6534    248.6911    242.1138   4.7989518101e+01  -8.9804249817e+00    0.3318632    0.1733821 -36.60  0.001542234    2.258    0.557
        21  -9.0660    248.2432    235.5894   4.7056903572e+01  -8.2271629881e+00     0.253527    0.1684758 -41.98   0.00167334    2.413    0.586
        22  -9.0527    232.8596    247.9481   5.1396959579e+01  -7.9118836706e+00    0.2611187    0.1595547 -39.43  0.001597454    2.224    0.550
        23  -9.5360    211.3156    247.2337   5.4897172237e+01  -5.3901384037e+00    0.3595961    0.2097294 -50.81  0.001619127    3.319    0.699
        24  -8.8601    132.4714    248.0109   6.9399178111e+01   4.4885210203e+00    0.3067625    0.1929598  67.83  0.001276573    2.629    0.620
        25  -7.3356     86.4893    250.4963   7.8410666311e+01   9.9883822976e+00    0.1144546   0.08825085  47.96 0.0001096211    1.021    0.020
        26  -8.6261     77.6585    242.8684   7.9499297143e+01   1.2373905991e+01    0.2339997    0.1138994  71.74  0.001138035    2.872    0.652
        27  -7.8667     34.6402    243.3174   8.7684662326e+01   1.7229666055e+01    0.1241367   0.05588988  57.39 0.0007043393    1.760    0.432
        28  -9.3782    182.9610    239.9991   5.8910012942e+01  -9.8448598719e-01     0.401219     0.238188  54.00  0.002041281    3.127    0.680
        29  -9.4085    160.2042    240.1962   6.3183469821e+01   1.9739736298e+00     0.279836    0.2119016 -76.51  0.001445073    2.328    0.570
        30  -8.1425    113.3278    248.5132   7.3112717796e+01   6.9080272384e+00    0.1838621    0.1023838 -81.55 0.0009371447    3.190    0.686
        31  -7.9944     88.3358    242.2318   7.7371647157e+01   1.1152808542e+01    0.1442295    0.1007367  88.49 0.0006891699    1.679    0.404
        32  -7.8542    213.7583    240.9889   5.3576536585e+01  -4.9362045590e+00     0.132704   0.08319144 -27.71 0.0003688179    1.591    0.371
        33  -8.7370    146.7423    239.6550   6.5691513820e+01   3.8572949386e+00    0.2873119    0.2006234  74.74  0.001302516    2.607    0.616
        34  -8.4133    240.5184    240.0142   4.8971786773e+01  -7.8784984065e+00    0.1931759   0.08583393 -26.95  0.001025532    2.077    0.518
        35  -9.1206    242.4966    236.0246   4.8040882960e+01  -7.6514165218e+00    0.2803226    0.1272018 -12.88  0.001346955    2.598    0.615
        36  -8.6973    135.5991    238.6371   6.7733410442e+01   5.5186850145e+00    0.1895594    0.1377957  85.10  0.001104563    2.207    0.547
        37  -7.8463      2.3182    239.6628   9.3381020205e+01   2.1070567437e+01     0.119081   0.04981894  59.11 0.0007049018    1.703    0.413
        38  -9.4564    230.8776    236.8025   5.0057254354e+01  -6.4389349152e+00    0.2393768    0.2066965 -50.41  0.001304495    2.275    0.560
        39  -8.6548    209.2105    238.2265   5.3957508541e+01  -4.0510638293e+00    0.1379927    0.1211925  12.37 0.0005879661    1.363    0.266
        40  -7.9228    129.3171    238.6285   6.8962881527e+01   6.3687899351e+00    0.1200835   0.08163241  59.88 0.0007034098    1.792    0.442
        41  -8.6678     14.1927    237.8235   9.1197482552e+01   2.0304497505e+01     0.236731   0.03465458  36.66  0.001007222    3.509    0.715
        42  -9.0929    217.0049    235.5168   5.2203175925e+01  -4.6599314891e+00    0.1930596    0.1682182  -9.04 0.0009017232    1.381    0.276
        43  -9.2584    213.6466    231.6303   5.2192430755e+01  -3.7679334793e+00    0.2209992    0.2190669 -74.99  0.001095825    1.825    0.452
        44  -8.9429    203.1695    234.5394   5.4474883635e+01  -2.8372891446e+00    0.2660593    0.1886395 -53.83  0.001215398    2.446    0.591
        45  -9.7654    175.7245    233.0749   5.9287899436e+01   9.2791647538e-01    0.4068936    0.2153446 -53.54  0.002118867    2.835    0.647
        46  -8.3115    170.1870    235.5198   6.0671686443e+01   1.3176726294e+00    0.1670197    0.1556173  44.27 0.0007063823    1.389    0.280
        47  -7.9080     58.9503    237.0000   8.2705016061e+01   1.5676705241e+01    0.1856841   0.05480702  33.24 0.0005876821    2.900    0.655
        48  -8.8599    194.7325    232.8625   5.5741838756e+01  -1.5428865675e+00    0.2429965    0.2205788 -84.45  0.001441193    2.020    0.505
        49  -9.1506    108.8013    234.2489   7.2559281553e+01   9.8641431504e+00    0.3509642    0.1831607  57.20   0.00125906    2.270    0.559
        50  -8.6555    122.8654    234.1718   6.9733957986e+01   7.9740999651e+00    0.1823692    0.1424234  51.15 0.0008733333    1.249    0.199
        51  -8.1953     99.7799    234.1846   7.4364853106e+01   1.1076426040e+01    0.2106863    0.1028046  61.91 0.0009586193    2.861    0.650
        52  -8.5687     92.4452    232.2445   7.5655997475e+01   1.2386308056e+01    0.2943364    0.1755709 -76.38  0.001362379    2.055    0.513
        53  -8.3763     78.0735    234.0010   7.8702301938e+01   1.3907849330e+01    0.1972931    0.1136927  60.04  0.001130062    1.679    0.404
        54  -9.2326     68.5780    232.3244   8.0465590444e+01   1.5392798991e+01    0.4095048    0.1611273  61.97  0.001736347    3.269    0.694
        55  -8.2070      8.6411    234.6775   9.2097162354e+01   2.1419309924e+01   0.09249923   0.08103983 -49.26 3.619389e-05    1.771    0.435
        56  -8.3145    144.9966    233.1723   6.5223582210e+01   5.0990147648e+00    0.2417028    0.1377343  53.20  0.001258003    2.234    0.552
        57  -8.4545    140.1535    230.0948   6.5793091160e+01   6.2634991414e+00     0.229903    0.1310019  51.51 0.0008204723    2.031    0.508
        58  -8.3951    132.7143    232.5855   6.7583337625e+01   6.8864750784e+00    0.1848523    0.1438347  72.61 0.0008404883    1.704    0.413
        59  -9.9114    235.8394    230.1771   4.8208669683e+01  -6.2324545985e+00    0.4434328     0.240658 -17.99  0.001740771    1.682    0.405
        60  -9.5220    186.4368    230.5055   5.6916910403e+01  -1.3520030346e-01    0.2853689    0.2336514 -74.84  0.001405293    2.345    0.574
        61  -8.3254    157.3388    231.9733   6.2654310509e+01   3.5872851224e+00    0.1625802    0.1405683  17.07 0.0006028938    1.054    0.051
        62  -9.0058    151.2983    228.9532   6.3433964720e+01   4.8939502202e+00    0.2706231    0.1894983  75.21   0.00114408    2.703    0.630
        63  -9.5495    148.4554    224.2893   6.3372974253e+01   6.0458700984e+00    0.3898447    0.2891283  53.60  0.001877429    1.575    0.365
        64  -8.1643      1.5101    230.4874   9.3262965079e+01   2.2865601430e+01    0.1145803   0.07406604  62.51 0.0008087362    1.094    0.086
        65  -8.4067    229.6628    228.4741   4.8964436195e+01  -5.3093526954e+00    0.1776263   0.09043716 -30.91 0.0006650468    1.857    0.462
        66  -8.9682    162.4049    227.7718   6.1095212379e+01   3.5328070679e+00    0.2810042     0.180547  52.14  0.001567673    2.018    0.504
        67  -8.8318    127.8805    227.1485   6.7898595002e+01   8.4701463406e+00     0.303852    0.1789571  56.87  0.001334062    2.103    0.524
        68  -7.8746    223.0319    226.9678   4.9847479038e+01  -4.3291979990e+00    0.1390846    0.1047709  -3.05 0.0004463921    1.056    0.053
        69  -8.0397    119.9891    227.4825   6.9546377364e+01   9.5126024880e+00    0.1733105   0.08315841  51.64 0.0003927466    2.325    0.570
        70  -7.8957     50.2387    227.2257   8.3769094427e+01   1.8537521692e+01    0.3088935   0.05731322  49.63  0.001074172    4.272    0.766
        71  -8.7360    205.9453    225.5333   5.2608671332e+01  -2.0046974266e+00    0.2321254      0.14756 -43.31  0.001409972    1.972    0.493
        72  -8.4894    200.0289    226.0256   5.3750107668e+01  -1.3043262171e+00    0.1544051    0.1434167  47.12  0.000557204    1.646    0.392
        73  -8.8247    180.6317    224.1530   5.7064993111e+01   1.5604553862e+00    0.2586077    0.1612798  47.06 0.0005673583    1.985    0.496
        74  -8.9820     94.2199    224.1349   7.4497860637e+01   1.3644286206e+01     0.364072    0.1641991  59.35  0.001544861    2.952    0.661
        75  -8.7915    216.4468    223.2340   5.0390378088e+01  -3.0374109204e+00    0.2219841    0.1791102 -42.73 0.0009785097    1.780    0.438
        76  -8.5673    173.1110    223.1880   5.8361114340e+01   2.7450276647e+00    0.1866581    0.1596612  89.37 0.0006810409    1.953    0.488
        77  -8.1654    113.8256    223.7995   7.0387502683e+01   1.1023865532e+01    0.1723586    0.1252414  53.06 0.0004106216    1.331    0.249
        78  -8.9344    104.6454    223.3881   7.2248923013e+01   1.2369084707e+01    0.3200451    0.1977058  72.54  0.001668121    2.207    0.547
        79  -7.8346     38.3428    224.6605   8.5984347039e+01   2.0367970130e+01    0.1313969   0.06308801  59.83  0.000704903    1.774    0.436
        80  -8.4680    162.9962    222.4885   6.0231164493e+01   4.2742123796e+00    0.2452416    0.1326305  43.52  0.001064414    1.880    0.468
        81  -8.6780    159.0720    220.2708   6.0689042852e+01   5.1873255405e+00    0.2562026    0.1946289  62.48 0.0009920946    1.886    0.470
        82  -8.0978     59.4205    223.2118   8.1623868756e+01   1.8249790848e+01    0.1645943   0.09933074  82.71 0.0009429666    1.722    0.419
        83  -9.2430    239.1820    220.8665   4.6160479484e+01  -5.5037673503e+00    0.3271432    0.1624545 -28.51  0.001346971    1.795    0.443
        84  -9.3207    225.6249    221.5184   4.8531472193e+01  -3.9574325917e+00    0.2252384    0.1981501  27.72  0.001204625    1.582    0.368
        85  -9.4729    192.4604    221.1295   5.4380656917e+01   3.8808581306e-01    0.2759982    0.2499827 -73.16  0.001018507    1.850    0.459
        86  -7.6626    140.4857    222.5306   6.4746652718e+01   7.4740410704e+00    0.1241181    0.1057612  38.42 0.0008075905    1.105    0.095
        87  -8.8128     82.5935    220.0287   7.6527474576e+01   1.5971123189e+01    0.2725259    0.1539095  72.20  0.001273506    2.189    0.543
        88  -8.3868    202.5158    219.9943   5.2353719633e+01  -7.9925660029e-01    0.1636328    0.1075219 -31.35  0.000452575    1.522    0.343
        89  -9.0448    120.2576    218.8589   6.8456537186e+01   1.1013972461e+01    0.4405859    0.2066753  56.76  0.001806798    3.176    0.685
        90  -7.3789     27.6723    220.6678   8.7888399531e+01   2.2293422928e+01    0.1021821   0.08687378 -46.49 0.0007051574    1.715    0.417
        91  -8.3634    210.1599    218.9355   5.0808033803e+01  -1.6584793847e+00    0.1638821    0.1443261  -0.50 0.0005328038    1.264    0.209
        92  -8.7125    243.4663    215.5009   4.4571580752e+01  -5.3489899779e+00    0.1809091   0.09662771  28.29  3.38752e-05    1.777    0.437
        93  -8.1190    250.0175    218.5211   4.4027751537e+01  -6.4701287324e+00    0.1877041    0.1364331  39.65  0.001271049    2.074    0.518
        94  -8.7588    246.2356    215.4706   4.4120361176e+01  -5.6689577254e+00    0.4127417    0.1299294 -26.87  0.001768683    3.368    0.703
        95  -9.3448    132.9431    215.9012   6.5418451069e+01   9.7184333412e+00    0.4472227    0.2775002  71.76  0.002038429    2.990    0.666
        96  -8.7052     51.6849    217.3501   8.2790065626e+01   2.0338241615e+01    0.2153442    0.1286725  79.96  0.001042568    1.653    0.395
        97  -8.2716    179.3465    217.1760   5.6249039577e+01   2.7897108484e+00    0.1589533    0.1136625 -51.06 0.0006030555    1.821    0.451
        98  -8.5275    142.9480    216.2908   6.3393952474e+01   8.1892294048e+00    0.2130606    0.1721927  72.91    0.0010655    1.665    0.400
        99  -8.3664     62.1525    217.0339   8.0572389257e+01   1.9155591953e+01    0.2592429    0.1123162  54.76  0.001234428    2.153    0.535
       100  -8.1506      5.7836    216.9548   9.2023438751e+01   2.5154183226e+01     0.146159   0.07566878 -86.96 0.0008729438    1.700    0.412
       101  -8.7207    169.1888    215.6811   5.8001583653e+01   4.4733362627e+00    0.2227455    0.1934082  88.96 0.0009174893    1.793    0.442
       102  -8.0141     73.2638    220.6250   7.8541921750e+01   1.7055554970e+01    0.1281738   0.07741446  65.63  0.000698461    1.668    0.400
       103  -8.8659    232.2123    214.3372   4.6230502740e+01  -3.8475912686e+00    0.2362283    0.1644828 -34.97  0.001002458    1.610    0.379
       104  -8.2071    154.4694    214.9827   6.0847466209e+01   6.7278145377e+00    0.1677826    0.1251065 -49.51 0.0007323528    1.553    0.356
       105  -9.4020    214.0492    212.0670   4.8984799405e+01  -1.2231977314e+00    0.3430434    0.2780384  54.27   0.00165347    2.104    0.525
       106  -8.3025    185.6709    214.1766   5.4564109812e+01   2.3560849213e+00    0.1669113    0.1564232 -46.97 0.0008289031    1.459    0.314
       107  -8.8003     93.0797    213.7312   7.3649752954e+01   1.5806205317e+01    0.3373261    0.1657926  55.91  0.001570617    2.222    0.550
       108  -9.3133     72.8173    211.3248   7.7793245114e+01   1.8988471895e+01    0.6390966    0.2232631  58.24  0.002209455    4.177    0.761
       109  -7.8120     41.3171    214.6710   8.4763836543e+01   2.2065673700e+01    0.1319602   0.06867164  61.32 0.0007046309    1.681    0.405
       110  -7.7730    197.6662    213.6885   5.2227342884e+01   7.5696936419e-01    0.1282113   0.08175383   0.45 0.0003830862    1.679    0.405
       111  -8.6844    161.7209    212.3348   5.8983332014e+01   6.1082984547e+00    0.2127541    0.1887405  64.50 0.0007488245    1.484    0.326
       112  -7.8744    225.1142    212.1838   4.7072329992e+01  -2.6756957101e+00    0.1473756    0.1260138 -15.95 0.0005223859    1.321    0.243
       113  -7.7759    106.5086    212.5065   7.0610848759e+01   1.4171367779e+01    0.1290229    0.1101249  51.11 0.0008098608    1.061    0.057
       114  -7.8142    242.6933    211.7094   4.4055324692e+01  -4.7855798314e+00    0.1179831   0.07017805  -1.83 0.0002019495    1.576    0.365
       115  -9.0426    204.3812    210.6982   5.0497311862e+01   2.7129628317e-01    0.2241295    0.2120629  48.51 0.0007850687    1.609    0.378
       116  -9.3205    175.3256    209.6997   5.5856995545e+01   4.5450475923e+00    0.3651123    0.2504454  62.46  0.001689168    2.644    0.622
       117  -8.7799    148.1581    210.3340   6.1461677343e+01   8.4624539415e+00    0.2871467    0.2072017  71.74  0.001332881    2.205    0.546
       118  -8.8135    116.2934    210.1991   6.8211060940e+01   1.3208874470e+01    0.3011493    0.1805819  68.43 0.0008454899    2.507    0.601
       119  -8.2906    192.3931    210.2452   5.2650118253e+01   2.0049437972e+00    0.1554207    0.1142721 -44.46 0.0004678179    1.638    0.390
       120  -8.5271     85.8295    209.4807   7.4771407849e+01   1.7650401785e+01    0.3116394    0.1687169  67.22  0.001456921    2.323    0.570
       121  -8.5880     32.3731    209.6133   8.6313872847e+01   2.4091806821e+01    0.2332371   0.08596935  83.68 0.0009513117    3.263    0.693
       122  -9.2546    236.4593    208.1452   4.4467059366e+01  -3.5696843928e+00    0.2524835    0.2116256 -42.76  0.001174762    1.837    0.456
       123  -9.3354    246.4103    206.9601   4.2638580394e+01  -4.6311158396e+00    0.2582846    0.1630862 -27.79 0.0005734366    1.401    0.286
       124  -7.9796    156.3887    208.1341   5.9428527162e+01   7.6155868553e+00    0.1616101    0.1241072 -59.66  0.000936936    1.658    0.397
       125  -8.3159    139.0128    207.7752   6.3008019375e+01   1.0292999434e+01    0.2086464    0.1696174 -83.61 0.0007671187    1.645    0.392
       126  -8.0200    126.0711    208.0561   6.5816109828e+01   1.2178009339e+01    0.2033566    0.1452706  63.76 0.0006346654    1.704    0.413
       127  -9.2685     99.3250    205.6939   7.1368296359e+01   1.6550334163e+01    0.3990095     0.232915  85.48  0.001371391    2.625    0.619
       128  -9.4060    194.8581    203.4438   5.1043088907e+01   2.6965396642e+00     0.315082    0.3018005 -76.18  0.001437141    1.590    0.371
       129  -9.2426    192.3041    197.2613   5.0459027638e+01   4.0472868569e+00    0.3562477    0.2698449 -52.71  0.001106223    1.776    0.437
       130  -9.1418    183.8692    203.9412   5.3238604932e+01   4.2199702951e+00    0.2823066    0.2371674  71.59  0.001410507    1.960    0.490
       131  -8.7888    131.2738    203.7786   6.4091242629e+01   1.2210892298e+01     0.288596    0.2050338  76.15 0.0009756587    2.068    0.517
       132  -8.0448    109.1886    205.1365   6.9116042805e+01   1.5240347617e+01    0.1821478    0.1417926  66.54  0.001011697    1.376    0.273
       133  -8.7363     56.1733    204.8680   8.0856778285e+01   2.2425037642e+01    0.2575211     0.145857  68.05 0.0007866275    1.745    0.427
       134  -9.6139    163.7046    202.7822   5.7082105785e+01   7.4391316110e+00    0.4288527    0.2523992  50.92  0.001247285    2.157    0.536
       135  -9.3110    250.1242    201.3806   4.1069039740e+01  -4.3664968969e+00    0.4166254    0.1456679 -35.22  0.001722457    2.526    0.604
       136  -9.2935    245.7131    193.3851   4.0335719381e+01  -2.7727189028e+00    0.3209646    0.2214705 -50.14  0.001795683    2.460    0.593
       137  -8.5512     48.6881    202.5018   8.2313676979e+01   2.3821868642e+01    0.2334307    0.1259559  74.56  0.001187661    1.884    0.469
       138  -8.4873    210.8922    201.6105   4.7758186190e+01   7.0221041084e-01    0.2178939    0.1530757 -47.07 0.0007735776    1.880    0.468
       139  -8.8137    140.5108    200.8204   6.1655524738e+01   1.1358823184e+01    0.3275067    0.2218442  65.62  0.001382518    2.159    0.537
       140  -8.3955     10.5011    202.4441   9.0503457693e+01   2.7773606460e+01    0.1191699   0.09013756  70.02 0.0001331909    1.019    0.018
       141  -8.8759    243.1703    200.7173   4.2065195946e+01  -3.4293895214e+00    0.2254053    0.1611215 -27.71  0.000759477    1.337    0.252
       142  -8.0541    221.8865    201.0539   4.5707358740e+01  -7.2065210237e-01    0.1732436    0.1365588 -51.02 0.0007279621    1.973    0.493
       143  -8.4678     80.0662    200.9353   7.5141827150e+01   2.0222262552e+01    0.2886031    0.1524135  63.65  0.001269424    2.209    0.547
       144  -9.5179    149.4904    198.4468   5.9359821125e+01   1.0410094793e+01    0.4240341    0.2986029  80.90  0.001389599    2.619    0.618
       145  -8.8604    123.9778    199.2380   6.5039011898e+01   1.4207924022e+01    0.2957301    0.2053919  89.02   0.00114755    2.122    0.529
       146  -9.3109    113.1157    198.4945   6.7362662881e+01   1.6005071936e+01    0.4468303    0.2525831  65.95  0.001902248    2.705    0.630
       147  -8.9188    237.1389    198.2499   4.2613367681e+01  -2.3371186463e+00    0.2531228    0.1417421 -34.63  0.001088508    1.673    0.402
       148  -8.4026    177.0268    198.9510   5.3747037371e+01   6.0670657479e+00    0.1852474    0.1610666  70.22 0.0006561956    1.699    0.411
       149  -9.0909     88.7934    198.2663   7.2856767023e+01   1.9595059473e+01    0.3637253    0.2053328  66.83  0.001411308    2.203    0.546
       150  -8.3256    202.3110    197.7478   4.8651955211e+01   2.5028425715e+00    0.2070477    0.1883381 -52.41 0.0007577641    1.580    0.367
       151  -8.9080     61.0848    196.6287   7.9024491910e+01   2.3630440741e+01    0.4243696    0.1894291  67.70  0.001717825    2.912    0.657
       152  -7.9527     12.4145    197.2076   8.9861898936e+01   2.8745480312e+01    0.1758567   0.08756822  79.79 0.0009439245    1.719    0.418
       153  -8.7568    215.9230    195.3618   4.5742318635e+01   9.2511956886e-01    0.2519665    0.1649385 -47.00  0.001105798    1.991    0.498
       154  -7.9921     53.4723    195.9623   8.0700369957e+01   2.4707335939e+01    0.1881779   0.08997984  75.72 0.0008094702    2.508    0.601
       155  -9.0618    185.2318    194.6926   5.1381737091e+01   5.5328822472e+00    0.2236233    0.2090296  84.28 0.0005975357    1.570    0.363
       156  -8.8845    160.8412    194.0266   5.6230506819e+01   9.4423158190e+00    0.2801986    0.2303924 -79.82  0.001512805    1.776    0.437
       157  -8.1071    230.9405    193.9827   4.2880065530e+01  -9.3281732491e-01    0.1636218     0.145533 -39.81 0.0004850985    1.617    0.382
       158  -8.6617    224.3739    193.8704   4.3984905200e+01  -2.7616891341e-02     0.205397    0.1288406 -32.98 0.0009254523    1.481    0.325
       159  -8.8009     76.9977    193.7622   7.5060401333e+01   2.2205196093e+01    0.2573826    0.1844611  73.81 0.0006088173    1.403    0.287
       160  -8.7309     44.0397    193.4581   8.2640264639e+01   2.6368603186e+01    0.3277233    0.1615192  72.96  0.001540653    2.140    0.533
       161  -8.1793    198.7505    191.5459   4.8207654576e+01   4.0058480136e+00    0.1937073    0.1572805 -54.88 0.0007258852    1.733    0.423
       162  -8.2421    172.2953    191.3999   5.3400175265e+01   8.1067336584e+00    0.2036597    0.1631498 -64.14 0.0007832151    1.728    0.421
       163  -9.1676    139.3991    190.3661   6.0256751048e+01   1.3557427017e+01    0.3401912    0.2540631  85.40  0.001024676    2.003    0.501
       164  -7.7842    205.4493    191.5227   4.6948854816e+01   3.0158571212e+00    0.1274451    0.1084624  -4.89 0.0005933741    1.062    0.058
       165  -7.6767    179.4348    191.4743   5.1964473781e+01   6.9736481616e+00    0.1297778    0.1177307   3.55 0.0001334728    1.076    0.070
       166  -9.4607     95.3241    189.6799   7.0274862004e+01   2.0529448986e+01    0.7148777    0.1662618  44.01  0.002235069    3.970    0.748
       167  -9.8402     90.4153    188.2222   7.1244619498e+01   2.1567944245e+01    0.5125475    0.2656218  56.85  0.001660145    2.170    0.539
       168  -8.6093     21.5566    191.2886   8.7557780457e+01   2.9217437748e+01     0.324012   0.04310814  52.17 0.0009109387    6.054    0.835
       169  -8.9848    216.5436    187.8042   4.4243613635e+01   1.9765098072e+00    0.2715009    0.2078367 -48.35  0.001120482    1.755    0.430
       170  -7.6305    210.3613    189.6629   4.5704302704e+01   2.5868902944e+00    0.1141323     0.105476 -86.94 0.0007036659    1.821    0.451
       171  -9.2373    155.9675    187.4477   5.6141561451e+01   1.1450094501e+01    0.3185989     0.211835 -58.18 0.0008776383    1.848    0.459
       172  -8.4157    148.6408    189.1515   5.8021602178e+01   1.2308924586e+01    0.2013546    0.1729053 -84.06  0.001036373    1.513    0.339
       173  -8.9721    129.2119    188.3341   6.2219175639e+01   1.5598893817e+01    0.3084559    0.2276101 -87.53 0.0008296706    1.876    0.467
       174  -8.8484     34.2396    187.9108   8.4461481150e+01   2.8713301916e+01    0.3265568    0.1496392  72.83  0.001483586    2.264    0.558
       175  -8.3565    237.1763    188.1321   4.0758074893e+01  -9.3863343954e-01    0.1919862    0.1324992 -13.52 0.0007819715    1.199    0.166
       176  -8.8400    191.3923    187.0555   4.8797744709e+01   5.8668225701e+00    0.2860968    0.2158962 -64.64 0.0009684625    2.165    0.538
       177  -9.5201    120.6520    186.0722   6.3830261117e+01   1.7436147403e+01    0.4526781    0.2704291 -76.49   0.00195656    2.500    0.600
       178  -9.0147     54.7539    186.6177   7.9549603981e+01   2.6690097154e+01    0.4504556    0.1928095  68.34  0.001653073    3.140    0.682
       179  -8.9287    249.2882    185.6776   3.8344959617e+01  -2.1832415232e+00    0.2707649    0.1579271 -40.10  0.001134393    1.856    0.461
       180  -8.2015    230.3306    187.0534   4.1703166003e+01   1.4478003644e-01    0.1788409    0.1326523 -23.14  0.001127583    1.165    0.141
       181  -8.8401    164.9393    186.5877   5.4078545785e+01   1.0156315876e+01    0.2654857    0.2211147  75.86  0.001053783    1.745    0.427
       182  -9.1491    109.5997    185.8995   6.6387294826e+01   1.9207324161e+01     0.399969    0.2567888  78.83  0.001198066    2.272    0.560
       183  -8.6829    202.8163    184.5849   4.6152632175e+01   4.5198748598e+00    0.2344218    0.1765176 -38.85 0.0007063809    1.397    0.284
       184  -8.7006    183.0006    184.5430   4.9990994716e+01   7.6188133580e+00    0.2362102    0.1839568 -53.36 0.0006885697    1.600    0.375
       185  -9.0198     66.7304    184.5185   7.6470432221e+01   2.5676096055e+01    0.3813221     0.175124  60.03 0.0009404005    2.518    0.603
       186  -8.4507    224.1715    183.5583   4.2100894112e+01   1.5270322777e+00    0.2066403    0.1475943 -33.50 0.0005625882    1.352    0.260
       187  -8.5289    210.0726    183.9491   4.4688059546e+01   3.5275435442e+00     0.220735    0.1604412 -28.52 0.0004976229    1.250    0.200
       188  -8.2670    197.1496    183.2819   4.6981210593e+01   5.6066316709e+00    0.2271597    0.1684434 -59.88 0.0008312602    2.071    0.517
       189  -8.9526    174.1209    183.1456   5.1539245372e+01   9.2987549841e+00     0.280187    0.2092497 -53.25  0.000608951    1.598    0.374
       190  -8.0813    242.6825    183.3175   3.8954902755e+01  -9.9234296760e-01     0.107275   0.09366995 -42.26 0.0004786803    1.655    0.396
       191  -8.8740     44.4574    182.4729   8.1622673640e+01   2.8871469309e+01     0.319572    0.1528741  54.47  0.001018855    1.941    0.485
       192  -7.8807      1.7881    183.5963   9.1550910853e+01   3.2729711055e+01    0.1676233   0.08589074  46.21 0.0009409923    1.674    0.403
       193  -9.3669    147.5305    180.4891   5.6771563568e+01   1.4203702445e+01    0.3287828    0.2574922 -89.20  0.001151923    1.852    0.460
       194  -8.2349    235.1843    181.2131   3.9783117976e+01   3.2729441744e-01    0.1631624    0.1313449 -32.99 0.0005422148    1.373    0.272
       195  -9.3962     25.8412    178.9665   8.5781747198e+01   3.1674165277e+01    0.6522799    0.2174901  75.47   0.00215057    4.315    0.768
       196  -8.5511    137.8147    179.2261   5.8746064458e+01   1.6083561120e+01     0.277432     0.205203  75.39  0.001348659    1.927    0.481
       197  -9.3904    191.4946    178.1927   4.7105993019e+01   7.3691972208e+00    0.2728689    0.2623379 -80.50 0.0005571794    1.442    0.306
       198  -8.1613    169.4989    178.4815   5.1635450615e+01   1.0924128065e+01    0.2216622    0.1319698 -54.88 0.0006644934    2.086    0.521
       199  -8.8563     36.1058    176.8240   8.3153949668e+01   3.1140993081e+01     0.491918    0.1827735  77.34  0.001656789    3.983    0.749
       200  -8.5220    250.5662    172.3639   3.5605242451e+01  -4.9277320737e-01    0.2291558    0.1219394 -28.27 0.0005521861    1.518    0.341
       201  -9.1991    248.8303    176.9475   3.6762363033e+01  -9.1069636246e-01    0.2405942    0.2166445 -23.21  0.001084464    1.431    0.301
       202  -8.4458    247.3013    173.6668   3.6367881967e+01  -2.3875235765e-01    0.1731659    0.1100631 -39.16 0.0003519508    1.613    0.380
       203  -8.5390    205.0598    177.4849   4.4373233129e+01   5.3421286682e+00    0.2444503    0.1728932 -47.26 0.0007473936    1.670    0.401
       204  -8.9361    129.1829    176.8324   6.0333899199e+01   1.8029109116e+01    0.3136798    0.2234236 -84.00 0.0008380399    1.984    0.496
       205  -8.7184    231.0408    176.6304   3.9592808716e+01   1.5906922511e+00    0.2359311     0.154873 -40.94 0.0008473821    1.627    0.386
       206  -8.4842    217.4812    177.1285   4.2039200046e+01   3.5010287002e+00    0.1842641    0.1737342 -24.70 0.0006362844    1.362    0.266
       207  -9.1215    183.0795    175.9098   4.8340253996e+01   9.1457091434e+00    0.2712399    0.2194585 -54.14 0.0007149376    1.517    0.341
       208  -8.1267     97.0311    177.4782   6.8176407351e+01   2.3032985067e+01    0.1920882    0.1263807   3.86 0.0008101352    2.571    0.611
       209  -8.9785     88.8995    176.6476   7.0064209367e+01   2.4445500046e+01    0.2745571    0.1776484  88.11 0.0008059511    1.875    0.467
       210  -9.2614     58.5033    175.0241   7.7449943150e+01   2.8989069616e+01    0.5252479    0.2373477  67.67  0.001987892    2.985    0.665
       211  -9.1477     55.7959    170.4132   7.7625432324e+01   3.0454935858e+01    0.3961533    0.1969875  72.60  0.001618381    2.499    0.600
       212  -8.7552     12.9235    176.1906   8.8649041699e+01   3.3532062340e+01    0.3145284    0.1395623  67.42  0.001215217    2.038    0.509
       213  -9.4367    104.2527    174.4690   6.5947226645e+01   2.2609480255e+01    0.5555826    0.2930297  63.39  0.001725262    2.893    0.654
       214  -8.4809    224.3643    174.2509   4.0267123465e+01   2.9274680710e+00    0.2238416    0.1412497 -38.59  0.001225691    1.541    0.351
       215  -9.1355    158.5788    174.6718   5.3264955488e+01   1.3503087044e+01    0.3006708    0.2438268  76.53   0.00106196    1.757    0.431
       216 -10.6086     75.6479    169.5723   7.2439166415e+01   2.8050461901e+01     1.275784    0.4870612 -79.60  0.003661378    4.918    0.797
       217  -7.8987    241.6709    173.6960   3.7268964795e+01   5.2880634287e-01    0.1301305   0.08165931  -4.33 0.0007035291    1.651    0.394
       218  -9.4951    175.7998    172.0543   4.9082200370e+01   1.1076610046e+01    0.3939625    0.2729147 -41.17  0.001138837    1.422    0.297
       219  -8.4790    142.9988    172.3596   5.6329654843e+01   1.6645546386e+01    0.2434292    0.2003303 -88.20 0.0006429827    1.585    0.369
       220  -8.5061    134.9142    171.6506   5.8077575308e+01   1.8181918108e+01    0.2474681    0.1997607  85.14 0.0008203351    1.590    0.371
       221  -9.4942    121.3217    170.3195   6.1086625124e+01   2.0778285797e+01    0.3616202    0.2591465 -85.03 0.0008863323    1.856    0.461
       222  -9.2301     45.3485    170.9870   8.0336202375e+01   3.1550635228e+01     0.400613    0.2061761  69.91  0.001360946    2.087    0.521
       223  -8.2940    237.4008    169.3017   3.7094909356e+01   1.7844728166e+00    0.2188922    0.1325318 -36.86 0.0007292952    1.515    0.340
       224  -9.0842    230.8510    169.9086   3.8300413144e+01   2.6436669292e+00     0.244446    0.1736422  17.94  0.001191436    1.428    0.300
       225  -8.3971    205.6485    169.9011   4.2762849931e+01   6.5218931477e+00    0.2499946    0.1533044 -47.38 0.0007867669    1.864    0.463
       226  -8.4611    198.5125    169.9950   4.4130785960e+01   7.6605192121e+00    0.2253507    0.1937222  55.68 0.0009326409    1.583    0.368
       227  -8.5634    149.7558    169.3470   5.4222232175e+01   1.6107259586e+01    0.2721873    0.2156275 -85.31 0.0008691812    1.777    0.437
       228  -8.5216    244.4520    169.1359   3.5928549847e+01   8.1097880168e-01     0.182376    0.1591778 -28.33 0.0005578136    1.352    0.261
       229  -8.6740    218.8377    168.2860   4.0043721022e+01   4.7124888496e+00    0.2127173     0.160883 -34.69 0.0005504467    1.275    0.216
       230  -9.1694    166.9988    168.3000   5.0205176712e+01   1.3312656211e+01    0.3243693    0.2655721  71.81  0.001147198    1.721    0.419
       231  -8.0759     88.7697    168.7529   6.8962706347e+01   2.6346369159e+01    0.2048035    0.1533411  66.66  0.001006386    1.383    0.277
       232  -7.9940    211.5430    167.7744   4.1247620227e+01   5.9397614164e+00    0.1806723    0.1174741 -43.21 0.0008103284    1.603    0.376
       233  -8.7019    112.0130    167.5982   6.2906426858e+01   2.2949790547e+01    0.3155697    0.2131046  84.23  0.001184823    2.096    0.523
       234  -8.8988    191.9066    166.6315   4.4733727261e+01   9.3530178873e+00    0.2541323    0.1865153 -41.02 0.0005971004    1.357    0.263
       235  -8.6405    185.1762    166.5534   4.6060247208e+01   1.0508488597e+01    0.2697793    0.2116511 -63.39 0.0008315176    1.770    0.435
       236  -8.8583     20.3947    165.8585   8.6174061135e+01   3.5380272894e+01    0.4089987    0.1645238  64.41  0.001330986    2.525    0.604
       237  -8.4658     13.0097    167.2576   8.8093543025e+01   3.5684708882e+01    0.2551582   0.08000629  65.44 0.0009010412    3.595    0.722
       238  -9.5969    137.5293    164.6492   5.6160778612e+01   1.9253837623e+01     0.690196    0.2899781  52.94  0.002221161    3.634    0.725
       239 -10.0631     94.9373    162.6070   6.6420592010e+01   2.6892922299e+01    0.8458796    0.4269311  70.55  0.002591563    4.306    0.768
       240  -8.0010    234.0700    164.8503   3.6748185526e+01   2.9501293737e+00    0.1886194    0.1572531 -31.69 0.0005909671    1.274    0.215
       241  -9.8392     34.1669    163.4520   8.2477215942e+01   3.4646071747e+01    0.6371139    0.1820315  50.26  0.002257282    3.437    0.709
       242  -7.9204    240.3924    164.2405   3.5597307109e+01   2.1180389795e+00     0.173979    0.1020985 -38.18 0.0005073355    1.572    0.364
       243  -8.7185    212.9247    163.5452   4.0132427146e+01   6.4280178160e+00    0.2484393    0.1731645 -36.42 0.0005385447    1.332    0.249
       244  -8.5749    159.8165    164.1887   5.0955080898e+01   1.5400907876e+01    0.2123375    0.1993252 -89.96 0.0009425239    1.285    0.222
       245  -8.3367    246.0276    162.5653   3.4369078592e+01   1.5614748205e+00    0.2007876    0.1358406 -26.23  0.000503413    1.176    0.150
       246  -8.5009    204.8840    162.6292   4.1420014297e+01   7.8959476799e+00    0.2537313    0.1670466 -50.29 0.0005830188    1.830    0.453
       247  -9.2527      3.3986    162.3152   9.0160363216e+01   3.7667900748e+01    0.4001352    0.1537034  53.27  0.001504382    2.275    0.560
       248  -9.1136    177.4942    160.3840   4.6367950666e+01   1.3016058590e+01    0.2992366    0.2391409 -56.28 0.0007959815    1.481    0.325
       249  -8.5557    151.8467    160.6458   5.2036761689e+01   1.7565983901e+01    0.2784634     0.195259 -67.02 0.0009455048    1.886    0.470
       250  -8.5855     60.7963    160.1789   7.5100435250e+01   3.2395421843e+01    0.3779091    0.1926426  71.22  0.001484148    2.567    0.610
       251  -8.8659    227.3953    158.9937   3.6661130720e+01   4.8880174778e+00    0.3125875    0.1937924 -51.76   0.00128856    2.234    0.552
       252  -7.6837    242.2656    159.6780   3.4373601671e+01   2.5382387980e+00     0.137557    0.1026869 -14.54 0.0003005221    1.113    0.102
       253  -8.1988    245.2778    158.6347   3.3688799123e+01   2.2583096016e+00    0.1968212     0.134583 -39.92 0.0004462574    1.480    0.324
       254  -8.1591    243.2016    154.9321   3.3251607196e+01   3.1257568729e+00    0.1921352    0.1516856 -35.97 0.0005255846    1.301    0.231
       255  -9.0084    239.9692    152.7635   3.3308116745e+01   3.9454681863e+00     0.202673    0.1489441 -10.50 0.0003971362    1.242    0.195
       256  -9.6220    250.2082    157.5593   3.2712722522e+01   1.7118006590e+00     0.318303    0.1582954 -35.98 0.0008429576    1.669    0.401
       257  -8.1355    246.5799    155.4647   3.2838288335e+01   2.5482573036e+00    0.1892447    0.1292388  -7.06 8.690784e-05    1.438    0.305
       258  -8.3387    236.8251    158.8024   3.5063332396e+01   3.4781009028e+00     0.166927    0.1393524 -35.08 0.0004546327    1.307    0.235
       259  -8.7486    128.0133    158.9647   5.7369734823e+01   2.2208327226e+01    0.2751246    0.2328004  84.55 0.0009663122    1.384    0.278
       260  -9.5409    105.7693    157.6868   6.2767303979e+01   2.6339662287e+01    0.4758049    0.3091674  77.03  0.001250282    2.203    0.546
       261  -8.6800    196.6336    157.6610   4.1945270632e+01   1.0173659771e+01    0.2444093    0.1976767 -73.73  0.000841269    1.944    0.486
       262  -8.6803    188.1483    157.6768   4.3618339641e+01   1.1649639339e+01    0.2428577    0.1791935 -45.43 0.0005341138    1.396    0.284
       263  -9.2398    167.6083    157.1187   4.7789649662e+01   1.5440415381e+01     0.332402    0.2549362 -78.16  0.001101131    1.994    0.498
       264  -8.6456    217.9545    156.3112   3.7725656400e+01   6.8315139802e+00    0.2867792    0.1688776 -46.86 0.0008114693    1.891    0.471
       265  -9.0925    157.6365    155.9032   4.9743689129e+01   1.7515100351e+01    0.3111235    0.2440824 -69.58  0.001433552    1.634    0.388
       266  -9.1571    119.6086    154.9319   5.8695393193e+01   2.4630468450e+01    0.4472096    0.2965018 -89.79  0.001767825    2.359    0.576
       267  -9.3228     81.8247    154.6728   6.8629553872e+01   3.0880134904e+01    0.4970735    0.2803789  69.00  0.001383206    2.435    0.589
       268  -9.3220     49.8120    155.0473   7.7434444223e+01   3.5068382970e+01    0.4442168    0.2013211  59.48   0.00161146    2.556    0.609
       269  -8.2915    204.8320    155.1549   3.9854996869e+01   9.2173931708e+00    0.2060606    0.1765358 -39.56 0.0006776069    1.242    0.195
       270  -8.6355    144.4337    154.6070   5.2527409522e+01   2.0223625453e+01    0.2800701    0.2200691  71.78 0.0007695972    1.665    0.399
       271  -9.2959     68.1236    153.7470   7.2237132873e+01   3.3075126630e+01    0.4857023    0.2468793  67.25  0.001477226    2.726    0.633
       272  -9.6680    132.8873    152.7352   5.4932628821e+01   2.2762076175e+01     0.452696    0.3481869  76.03  0.001333407    1.705    0.414
       273  -9.0637    133.3167    148.3313   5.3914004942e+01   2.3698397100e+01    0.2590704    0.2211134  13.71 0.0007756073    1.311    0.237
       274  -8.3536    151.7609    152.7885   5.0430596385e+01   1.9266200048e+01    0.1988832    0.1784754 -86.79 0.0005103771    1.339    0.253
       275  -9.5734     29.7992    150.8474   8.2455324418e+01   3.8312091971e+01     0.506483    0.2085932  63.56  0.001803182    2.811    0.644
       276  -9.2584     19.9454    152.1767   8.5239864814e+01   3.8876483267e+01    0.2208661    0.1459274  70.72  0.001211336    1.342    0.255
       277  -8.9012    189.5166    149.9670   4.1679471525e+01   1.2862439597e+01    0.2761873    0.2247378 -64.70 0.0007869879    1.637    0.389
       278  -7.9725    182.4258    151.1631   4.3375650858e+01   1.3921493412e+01     0.202628    0.1311146 -50.82 0.0007585351    1.695    0.410
       279  -8.4027    162.6180    150.5213   4.7476319251e+01   1.7722130892e+01    0.2425549    0.1765562 -62.56 0.0006938381    1.706    0.414
       280  -8.6642     98.1993    150.5565   6.3487585957e+01   2.9351340771e+01     0.313146    0.2196577  86.31  0.001072664    1.774    0.436
       281  -9.3590    248.9463    149.0802   3.1156986970e+01   3.1701675788e+00     0.310963    0.1527321 -33.10 0.0008174133    1.624    0.384
       282  -8.6500    243.2621    149.6456   3.2140851591e+01   3.9325053099e+00     0.253276     0.145409 -33.79  0.001088992    1.420    0.296
       283  -8.4995    212.8920    149.6078   3.7186494451e+01   8.8199640565e+00    0.2340108    0.1643927 -25.19 0.0003577892    1.262    0.207
       284  -8.7251      3.3616    150.1242   8.9478535503e+01   4.0712256679e+01    0.1969395   0.09345248  84.32 0.0009406166    1.786    0.440
       285 -10.0395    240.8024    145.6136   3.1669130106e+01   4.9400891744e+00    0.5138216    0.2131286 -25.36  0.002063088    2.614    0.618
       286  -8.6774    198.5638    148.6920   3.9634302999e+01   1.1477066337e+01    0.2565045    0.2178809 -49.61 0.0003864133    1.337    0.252
       287  -9.9061     89.4083    146.2189   6.5112022994e+01   3.1873283953e+01    0.7218143    0.3926519  87.17  0.002356458    3.531    0.717
       288  -9.6962     39.8846    147.6566   7.9320401320e+01   3.8117561881e+01    0.5861766    0.2477443  62.50    0.0020145    2.961    0.662
       289  -9.2671    233.7273    146.8271   3.3046834676e+01   5.8571931365e+00    0.4574611    0.1474746 -29.56  0.001560109    3.398    0.706
       290 -10.2973    148.8567    145.0550   4.9436598598e+01   2.1509247094e+01    0.5890268    0.4116866 -89.59  0.001619633    2.524    0.604
       291 -10.4405     54.9745    144.5652   7.4631450382e+01   3.7193178761e+01     0.988084    0.4603345  74.54   0.00329859    3.510    0.715
       292 -10.2119     57.2155    134.6324   7.2499168483e+01   3.9569030708e+01    0.5431399    0.2979638   3.92  0.001917581    3.736    0.732
       293  -8.5552    223.3357    146.6280   3.4720357712e+01   7.5769871607e+00    0.2624802    0.1855958 -39.75 0.0007254675    1.337    0.252
       294  -9.9642    139.2723    145.0001   5.1731378642e+01   2.3347761109e+01    0.4982465    0.3366434 -77.92  0.001359776    2.296    0.564
       295  -9.3853    139.2987    137.5404   5.0060637675e+01   2.5058664521e+01    0.4351969    0.2589945 -23.60  0.001591111    2.587    0.613
       296 -10.3006    106.6642    144.0276   5.9953627888e+01   2.9552465296e+01    0.8457255     0.521043  83.26  0.002585401    2.822    0.646
       297  -8.8917     78.1300    147.0131   6.8406276967e+01   3.3398473175e+01    0.2873874     0.171867  62.44  0.001201397    1.979    0.495
       298  -8.0717    206.5035    146.1058   3.7575607909e+01   1.0542847088e+01    0.2154961     0.124623 -36.74 0.0004261824    1.527    0.345
       299  -8.2626    175.6057    145.8631   4.3623787539e+01   1.6237906164e+01    0.2767852     0.174191 -54.77 0.0007657494    1.865    0.464
       300  -9.1499     13.4032    146.0686   8.6521432235e+01   4.0997341007e+01    0.3089341    0.1746595  51.62  0.001403024    1.689    0.408
       301  -9.8426    125.0228    142.5346   5.4782965370e+01   2.6605448621e+01      0.58551    0.3818304 -80.84  0.001576244    2.392    0.582
       302  -8.8898    247.0338    143.5879   3.0288864924e+01   4.2999338781e+00    0.2554182    0.1544296 -30.87 0.0005507868    1.312    0.238
       303  -8.8268    165.6235    143.8730   4.5335481653e+01   1.8546936763e+01    0.2958818    0.2426917  72.99  0.000944273    1.631    0.387
       304  -7.5728    194.2899    143.6553   3.9334760592e+01   1.3188502428e+01    0.1402651    0.1130058 -64.61 0.0006091665    1.655    0.396
       305  -7.7448    230.5003    142.5201   3.2637225526e+01   7.0810016448e+00    0.1382633    0.1116279 -21.92 -2.009302e-05    1.009    0.008
       306  -8.4095    182.0831    141.5958   4.1305857582e+01   1.5866284687e+01    0.2468503    0.1913145 -46.59 0.0004978845    1.295    0.228
       307 -10.4558     69.5232    140.5580   6.9802854023e+01   3.6335594369e+01     0.590215    0.3722602  78.79  0.001935182    1.921    0.479
       308  -9.2443     71.2298    133.5805   6.8099583475e+01   3.7952223981e+01    0.3481967    0.2026327   9.66  0.001298411    3.006    0.667
       309  -9.1727      2.7312    141.2220   8.9090976185e+01   4.3029368460e+01    0.4295462    0.1749628  68.80   0.00165127    2.404    0.584
       310  -8.1605    250.5113    140.9248   2.9209477905e+01   4.1834513815e+00    0.1994878    0.1032628 -33.37 0.0005267713    1.523    0.344
       311  -9.8721     23.5290    137.9805   8.2956767142e+01   4.2275261987e+01    0.5473051    0.2330417  64.47  0.002053343    2.709    0.631
       312  -9.2938    241.3546    137.2793   2.9790060577e+01   6.1766314122e+00    0.3105988    0.1432117 -24.20  0.001316671    2.285    0.562
       313  -8.0850    218.4680    138.2891   3.3706695457e+01   9.8290275102e+00    0.1865391    0.1176072 -43.06 0.0009185998    1.510    0.338
       314  -8.3281    207.4679    137.7993   3.5532499003e+01   1.1868766868e+01    0.2665068    0.1751033 -51.65 0.0007422953    1.758    0.431
       315  -8.7565    197.4702    137.1774   3.7244615574e+01   1.3821287680e+01    0.3078088    0.2033355 -54.73 0.0008591907    1.841    0.457
       316  -8.5822    172.1608    137.8052   4.2515972733e+01   1.8545017593e+01    0.2620806     0.193229 -51.64 0.0007885651    1.416    0.294
       317  -8.6927    150.3786    136.0111   4.7020232833e+01   2.3227658425e+01    0.5160623    0.3298447  -3.37  0.001849489    2.947    0.661
       318  -9.0081    248.5456    135.0049   2.8228700956e+01   5.4016612626e+00    0.2969684    0.1486907 -35.72  0.000839962    1.588    0.370
       319  -8.6269    250.7824    129.8409   2.6788831227e+01   5.8566132180e+00    0.4073654   0.09952805 -32.55  0.001316906    3.707    0.730
       320  -8.3616    162.6482    136.1240   4.4213354265e+01   2.0770609745e+01    0.2425588    0.1861464 -58.97 0.0008741461    1.461    0.315
       321  -8.2185    109.9555    137.0000   5.7607430256e+01   3.0727123301e+01    0.2489302   0.08939878  37.74 0.0007973456    2.907    0.656
       322  -9.4512     38.9550    135.8093   7.8160638063e+01   4.1370952083e+01    0.3075616    0.2010962  70.14 0.0008434977    1.550    0.355
       323  -7.9962    187.8051    135.3695   3.8705212198e+01   1.5999506026e+01    0.2055067    0.1679671 -39.66 0.0003748196    1.146    0.128
       324  -8.2387     95.8557    135.1352   6.1166449811e+01   3.3671276611e+01    0.2458888    0.2002845  83.12 0.0007641503    1.343    0.256
       325 -10.3608     83.4621    132.8833   6.4321746624e+01   3.6290651740e+01    0.5945228    0.3565983 -78.05  0.001443769    1.974    0.493
       326  -8.0602    237.6167    133.7963   2.9597137489e+01   7.3426737760e+00     0.195402    0.1041226 -41.54 0.0007223688    1.681    0.405
       327  -9.0372    112.9091    133.1461   5.5958954472e+01   3.1151812391e+01    0.3873974     0.282596  87.59 0.0009750525    1.827    0.453
       328  -8.5126    179.4363    133.8091   4.0038479885e+01   1.7936272898e+01    0.2728781    0.2296447 -67.33 0.0008870852    1.464    0.317
       329 -10.3423    132.5605    130.4090   5.0101819072e+01   2.8052459288e+01    0.8541158    0.4455474 -49.27    0.0025078    1.831    0.454
       330 -10.2296    130.8828    118.3001   4.7555996570e+01   3.1272835776e+01    0.7469244    0.4815443  86.67  0.001979883    3.151    0.683
       331 -10.3006    133.1973    109.4204   4.4608002616e+01   3.2888343023e+01    0.7952686    0.3890837 -46.73  0.002312789    1.917    0.478
       332  -9.1025    142.9777    131.4877   4.7739439034e+01   2.5726843197e+01    0.3435322     0.243086 -64.51 0.0006486659    1.669    0.401
       333  -9.6031     13.1103    129.3308   8.5198135751e+01   4.5417409644e+01     0.490961    0.2176676  66.34  0.001949649    2.440    0.590
       334  -8.2629    247.0384    129.8520   2.7326309371e+01   6.4480105553e+00    0.1997477    0.1515232 -40.45 0.0006014867    1.269    0.212
       335  -8.0994    204.7543    130.1888   3.4261745696e+01   1.3759430665e+01    0.2214715    0.1494039 -68.97 0.0008326443    2.617    0.618
       336  -8.0705    192.8112    129.8655   3.6420567130e+01   1.6101100581e+01    0.1972084    0.1679798 -56.53 0.0004352415    1.331    0.249
       337  -9.3002    168.4006    129.1951   4.1279405032e+01   2.1091311926e+01    0.3220063    0.2560945 -67.17  0.000747144    1.545    0.353
       338  -9.6057    152.7990    128.3138   4.4607424644e+01   2.4458597866e+01    0.6323591    0.2708758 -47.02  0.001433199    2.233    0.552
       339 -10.1619     99.2875    127.6100   5.8578351158e+01   3.5021887575e+01    0.6837927     0.431241  87.83  0.001878793    2.567    0.610
       340  -8.7436     99.2021    120.1718   5.6909028091e+01   3.6959112231e+01    0.3497532    0.2340415 -20.71  0.001366415    2.304    0.566
       341  -9.7682     73.3260    129.0476   6.6631116089e+01   3.8861301871e+01    0.4967481    0.3078676 -85.85  0.001455913    1.949    0.487
       342  -9.0142     50.3378    128.6774   7.3674813951e+01   4.2028160235e+01    0.3419295    0.2137037  77.21  0.001204955    1.808    0.447
       343 -10.5419     44.4118    123.4162   7.4728254555e+01   4.4145127376e+01     1.101732    0.4918809  83.58  0.003370162    3.937    0.746
       344  -8.0605    234.6692    129.7232   2.9143935029e+01   8.5002246673e+00    0.1344479   0.09561312  -3.39 0.0002207226    1.598    0.374
       345  -8.3873    211.5031    129.0025   3.2782680102e+01   1.2719237311e+01    0.2256101    0.1235221 -39.82  0.001015051    1.594    0.373
       346  -7.6650    186.4779    129.4781   3.7570642633e+01   1.7415476122e+01    0.1513395    0.1360131 -34.48 9.106407e-05    1.056    0.053
       347 -10.4570     60.3115    124.9729   6.9925536693e+01   4.1784338444e+01    0.8496394    0.4460584  75.65  0.002957742    3.089    0.676
       348  -9.6965     36.9966    127.3837   7.7651350268e+01   4.3853349387e+01    0.2945702    0.2400723  53.46 0.0005693633    1.285    0.222
       349 -10.6424     28.2477    121.2605   7.9612387079e+01   4.6359310991e+01     1.073866    0.4519971  85.17  0.003734259    3.165    0.684
       350  -9.9800    117.9224    124.9814   5.2699802642e+01   3.2235100661e+01    0.5954419     0.414443 -89.44  0.001620476    2.144    0.534
       351  -7.9119    228.4980    124.9928   2.9032100295e+01   1.0353941138e+01    0.2049954    0.1002626 -51.07 0.0008106723    2.613    0.617
       352  -9.0104    179.2226    124.6293   3.7859766229e+01   1.9838827963e+01    0.2980475    0.2497358 -56.18 0.0006256145    1.292    0.226
       353  -7.9251    244.0000    124.0276   2.6476737471e+01   7.8679287812e+00    0.2260999   0.06264625 -35.54  0.000478688    2.870    0.652
       354  -8.1425    188.5541    123.7765   3.5774130623e+01   1.8124983528e+01       0.2049    0.1320606 -47.78 0.0004945266    1.531    0.347
       355  -8.7098     84.6924    122.2297   6.1762018785e+01   3.8915119648e+01    0.4534097    0.2993925  16.58  0.001901604    2.108    0.526
       356  -7.8355    202.8605    121.8093   3.2603515177e+01   1.5673801809e+01    0.1922575    0.1640952 -54.20 0.0003814653    1.292    0.226
       357  -7.8860    195.3268    122.0707   3.4055205588e+01   1.7104861062e+01    0.2200756    0.1201555 -46.48 0.0005917061    1.780    0.438
       358  -8.8486    171.9201    121.3282   3.8568305405e+01   2.2018791126e+01    0.2590322    0.2007503 -49.61 0.0004503435    1.274    0.215
       359  -9.1227    158.6148    121.3560   4.1520495905e+01   2.4790794117e+01    0.3197828    0.2458705 -76.30 0.0007823095    1.747    0.427
       360  -9.5756     71.2369    120.0508   6.5516806705e+01   4.1592066616e+01     0.379362    0.2496288  87.69  0.001090889    1.885    0.470
       361  -9.9605    141.7353    118.0716   4.4716780975e+01   2.9071990804e+01    0.6387269    0.3625717 -56.23  0.002007329    1.942    0.485
       362  -9.6670      2.9320    116.7851   8.7212842001e+01   4.9427193513e+01    0.6117706     0.239449  74.15  0.002382805    2.848    0.649
       363  -7.9271    231.4908    117.4676   2.6830306610e+01   1.1092540830e+01    0.1416026    0.1149495 -34.76  0.000188731    1.072    0.067
       364  -8.0277    185.8009    115.9429   3.4357700482e+01   2.0229435398e+01    0.2487424    0.1611393 -58.71 0.0006786952    1.923    0.480
       365  -8.8385    250.1808    114.8955   2.3572170651e+01   8.2951383390e+00    0.2004437    0.1544278 -41.13 0.0007575045    1.203    0.169
       366  -8.1288    192.9004    115.1002   3.2779738500e+01   1.8932326869e+01    0.2265345    0.1859522 -48.24 0.0005018287    1.204    0.169
       367  -7.4662    153.3082    115.6556   4.1282408170e+01   2.7166764790e+01    0.1625976    0.1253789 -76.18 0.0007043908    1.697    0.411
       368 -10.1209     92.7035    112.3601   5.7008125664e+01   4.0149657986e+01    0.5983137    0.3585638 -72.16  0.001411508    2.084    0.520
       369  -8.5852     60.1012    114.7211   6.8069518766e+01   4.4605252567e+01    0.3317686    0.1939046  -0.61  0.001193644    3.316    0.698
       370  -8.0207    167.2813    114.4069   3.7792235136e+01   2.4447808403e+01    0.2026295    0.1541418  61.09 0.0004454367    1.576    0.365
       371  -9.6228    121.9391    112.3040   4.8406028148e+01   3.4550343507e+01    0.3714332    0.3054806 -72.39 0.0006087444    1.340    0.254
       372  -8.7872    174.8678    111.6798   3.5465244690e+01   2.3391237519e+01    0.3149902    0.2074999 -47.39 0.0007115224    1.450    0.310
       373  -9.2067    159.1409    111.4443   3.8820294760e+01   2.6833269423e+01    0.3106699    0.2133722 -50.11 0.0005567434    1.423    0.297
       374  -9.4067     14.5047    111.1869   8.2886285963e+01   5.0194704280e+01    0.3447311    0.1804227  68.48  0.001176816    2.096    0.523
       375 -10.3858    248.1436    108.7320   2.2453955978e+01   9.6102269626e+00    0.5048359    0.2392007 -27.14  0.002255083    1.972    0.493
       376  -9.5961    249.0853    102.2377   2.0849174278e+01   1.0473186192e+01    0.3557906    0.1946487 -29.50  0.001770393    1.536    0.349
       377 -10.2567     66.5686    109.1696   6.4744969005e+01   4.5215663811e+01    0.7087306    0.3264847 -61.35  0.002087361    1.952    0.488
       378  -8.3720    149.8465    109.8569   4.0560182851e+01   2.9200083124e+01    0.2244125    0.1839498 -63.21 0.0005309799    1.321    0.243
       379 -10.1985    109.2691    113.1966   5.2231423210e+01   3.6855442250e+01    0.8608677    0.3963921 -57.05  0.002578573    2.266    0.559
       380  -8.1462    189.1631    107.8708   3.1634593874e+01   2.1106809012e+01    0.2830262    0.1587217 -44.76 0.0007457495    1.643    0.391
       381  -8.3654     44.0036    109.0000   7.2451037468e+01   4.8141640115e+01    0.2204363   0.08634509  26.15 0.0008067283    2.972    0.664
       382  -9.8067    118.7157    106.0043   4.7610456173e+01   3.6743407243e+01    0.3522734    0.2568363 -59.60  0.001552903    1.402    0.287
       383  -9.1096    116.2114    102.4088   4.7324887847e+01   3.8133531686e+01    0.2761609    0.2536863  72.58  0.001054316    1.183    0.155
       384 -10.2367    108.6784     98.5161   4.8429239270e+01   4.0625384166e+01    0.6675783    0.5065156  81.41  0.001084138    1.766    0.434
       385  -8.8563    107.4119     92.7296   4.7120093354e+01   4.2292472270e+01    0.6637472    0.3960283  18.33   0.00225505    3.031    0.670
       386 -10.5528     45.7862    102.1518   7.0520012274e+01   4.9815355070e+01    0.8592904    0.4343404  70.01  0.002922229    3.459    0.711
       387 -10.7202     22.6468    102.3522   7.8899009164e+01   5.1990897431e+01    0.7315834    0.3679556  71.81  0.002178049    2.545    0.607
       388  -9.5849    150.5625    102.9645   3.8492959300e+01   3.0564749005e+01    0.5016798    0.2945923 -58.86  0.001201041    2.091    0.522
       389  -8.8245     78.7111    104.6451   5.9609579393e+01   4.4562675587e+01    0.3255484    0.2106653  13.28  0.001235831    2.288    0.563
       390  -8.5296    166.7767    104.0881   3.5142768660e+01   2.6721091449e+01    0.2489564    0.2008365 -58.83 0.0007142656    1.314    0.239
       391  -9.8883     79.1423    112.4153   6.1321958292e+01   4.2426831707e+01    0.6216102    0.3880408  81.92  0.001782285    2.495    0.599
       392  -9.8176    128.3099    101.6235   4.3738971183e+01   3.5762398755e+01     0.440952    0.2821777 -54.19  0.001157162    1.572    0.364
       393  -7.8447    130.6647     96.6836   4.1682742147e+01   3.6393419731e+01    0.1657665    0.1296351  -4.78 0.0005937741    1.694    0.410
       394  -8.7851      6.8782    102.7986   8.4541710823e+01   5.2943052478e+01    0.2700293    0.1381326  75.17  0.001095507    2.065    0.516
       395  -7.9424    175.8084    102.0252   3.2694634980e+01   2.5146903006e+01    0.2546835    0.1634083 -59.81 0.0009576665    1.915    0.478
       396  -8.3548    159.6502    100.7590   3.5783681242e+01   2.9008100097e+01    0.2808143    0.1847182 -49.28 0.0005582719    1.473    0.321
       397  -9.2754     82.2125     99.8787   5.7222487971e+01   4.5233081515e+01    0.4118157    0.2709925 -75.52  0.001034318    1.857    0.462
       398  -9.3517     95.1204     96.9341   5.2182379859e+01   4.3673522046e+01    0.3489017     0.259358 -68.74 0.0006963158    1.465    0.318
       399 -10.1289     64.0235     95.8084   6.2505582223e+01   4.9173767719e+01    0.6127562    0.3705631  87.91  0.001759588    2.655    0.623
       400  -9.4175    139.8243    104.1581   4.1453490667e+01   3.2671480955e+01    0.4715348    0.3067233 -60.79  0.001336807    1.795    0.443
       401  -8.9934    246.6045     93.8241   1.9220703409e+01   1.2233398417e+01    0.2063994   0.09784953 -41.52 0.0005210036    1.693    0.409
       402  -7.9986    188.5381     93.4694   2.7918038829e+01   2.4001447493e+01    0.1560123    0.1372044 -41.30 0.0001713422    1.022    0.022
       403  -8.1913    176.3353     92.9943   3.0096466781e+01   2.6823477312e+01    0.2291525    0.1849071 -42.85 0.0005172526    1.121    0.108
       404  -9.4887    138.9227     91.7411   3.8081327404e+01   3.5653371134e+01    0.5018847    0.2931606 -54.33  0.001677422    1.843    0.458
       405 -10.3177    123.8231     91.0720   4.1860600879e+01   3.9188488685e+01     0.617101    0.4948146  26.55  0.001129672    1.461    0.315
       406  -8.7326     46.5520     91.9239   6.8060299312e+01   5.2501422655e+01    0.3790716    0.2034146  11.65  0.001505447    2.761    0.638
       407  -9.7137     34.8587     89.6842   7.2087348962e+01   5.4359478083e+01     0.547325    0.2786692  89.54  0.001731825    2.832    0.647
       408  -9.4023      5.2177     91.9480   8.3875164218e+01   5.5942436662e+01    0.2644556    0.1900622  63.71 0.0008393048    1.491    0.329
       409  -8.1614    157.7300     91.2130   3.3477608553e+01   3.1444637565e+01    0.2604603     0.184821 -54.33 0.0005652737    1.447    0.309
       410  -8.9806     23.0542     89.6542   7.6694895481e+01   5.5404590608e+01    0.3367525    0.2456124  26.20   0.00142029    1.637    0.389
       411  -8.0758    151.1682     89.1166   3.4343045144e+01   3.3400586682e+01     0.227615    0.1793609 -59.33 0.0005478882    1.335    0.251
       412 -10.1417     86.4703     86.0900   5.1874687121e+01   4.8001399874e+01    0.6343148    0.4242807 -73.42  0.001646267    1.962    0.490
       413  -7.8750    164.0267     86.9946   3.0879162553e+01   3.0841494785e+01    0.1946577    0.1729312 -41.58 0.0003777168    1.029    0.028
       414  -7.9207     64.4936     87.5180   6.0170678921e+01   5.1291612725e+01    0.1573888    0.1364264 -46.48 1.801927e-05    1.081    0.075
       415  -8.1922    164.8151     94.0299   3.2751016096e+01   2.9237683306e+01    0.2459009    0.1997845 -57.54 0.0005298177    1.266    0.210
       416  -9.7640     48.5650     84.0511   6.5387083529e+01   5.4360528419e+01    0.5973076    0.3550161  75.17  0.001811835    2.818    0.645
       417  -7.3876    179.2950     85.6209   2.7443256430e+01   2.7571149250e+01    0.1664091    0.1124169 -61.78 0.0007021872    1.751    0.429
       418  -8.4050    158.0227     83.6536   3.1167372025e+01   3.2918194839e+01    0.2761651    0.1999872 -49.40 0.0004039437    1.326    0.246
       419  -9.7367    104.6990     82.9190   4.4919962528e+01   4.5189168165e+01    0.4708593    0.3173735 -63.77 0.0009001447    1.749    0.428
       420  -9.0677    140.8781     82.5302   3.4772489219e+01   3.7184886445e+01     0.364594    0.2164715 -46.11  0.001059175    1.594    0.373
       421  -9.5551     24.6872     80.6314   7.4328014866e+01   5.7693060495e+01    0.4415449    0.2517865  82.26  0.001262983    2.291    0.564
       422  -8.2771    150.3423     80.4641   3.1897364191e+01   3.5378558901e+01    0.2805447    0.1765019 -55.27 0.0008118564    1.735    0.424
       423  -8.6411    119.3576     80.0295   3.9632702443e+01   4.2672922811e+01    0.3393565    0.2296488 -60.70  0.000782111    1.704    0.413
       424  -8.8190     74.6372     80.0883   5.4235928692e+01   5.1580537887e+01    0.3734876    0.2408482 -74.25  0.001049531    2.106    0.525
       425  -8.9093      9.8675     80.6566   8.0466824693e+01   5.8699906368e+01     0.361862    0.1643744  51.36   0.00136908    2.826    0.646
       426  -8.0375    166.9346     79.3388   2.8009570496e+01   3.1657062318e+01    0.2117987    0.1994878 -40.10 0.0005338925    1.040    0.039
       427  -8.0592    184.3562     78.1774   2.4396762886e+01   2.7784318393e+01    0.2261082     0.125435 -43.87 0.0004396099    1.622    0.383
       428  -7.5006    174.7216     78.2964   2.6185447829e+01   3.0013622132e+01    0.1563275    0.1140207 -62.78 0.0002207012    1.534    0.348
       429  -7.7945    157.1346     76.1616   2.9066412605e+01   3.4609575509e+01    0.2269572    0.1754877 -58.93 0.0004783326    1.354    0.261
       430  -8.5613    140.5424     75.2476   3.2534092884e+01   3.8768867169e+01    0.2981684     0.145752 -43.59 0.0006508259    1.916    0.478
       431  -9.3942    128.0437     74.9353   3.5580897185e+01   4.1784345397e+01    0.4469778    0.2602654 -53.82 0.0007888718    1.882    0.469
       432  -9.9693     63.3219     73.5679   5.6517678331e+01   5.5024279847e+01    0.5591843    0.3178298 -67.24  0.001063229    2.135    0.532
       433  -9.6485     82.5380     72.4858   4.8882351454e+01   5.2024831847e+01    0.4191224     0.298969 -77.10  0.001017266    1.976    0.494
       434  -7.8858    151.4905     73.4677   2.9442305269e+01   3.6492338652e+01     0.160796     0.148862 -48.06 0.0001535915    1.014    0.014
       435  -8.5298    115.6687     72.6360   3.8215169002e+01   4.5114901398e+01    0.3038245    0.1908969 -45.01 0.0005001453    1.503    0.335
       436  -8.0588     42.8137     72.8081   6.4763203051e+01   5.7972599335e+01    0.1987999    0.1635312 -86.04 0.0004994631    1.362    0.266
       437  -9.2726    105.8586     71.6048   4.0783162832e+01   4.7511051483e+01    0.3100599     0.219629 -51.60 0.0006809736    1.400    0.286
       438  -9.0846     95.1940     71.0638   4.4010847375e+01   4.9880453941e+01     0.388243    0.2498844 -59.90 0.0009918537    1.801    0.445
       439  -9.4781     51.6921     69.8060   6.0100796321e+01   5.7628550568e+01    0.5046916    0.2881268 -76.20  0.001523965    2.594    0.614
       440  -8.7667     16.7713     70.0300   7.5547744192e+01   6.1069098056e+01    0.2439015    0.1693278 -87.07 0.0006308142    1.489    0.328
       441  -8.8635    147.0428     67.8518   2.8613500314e+01   3.8652465962e+01    0.4031083    0.2038179 -42.42 0.0009483463    1.842    0.457
       442  -9.0024    138.7325     65.8837   2.9865731790e+01   4.1053741545e+01    0.4031251    0.2311528 -52.62 0.0009292935    1.907    0.476
       443  -7.8540    135.1916     64.1884   3.0134349920e+01   4.2239136963e+01    0.2225175    0.1967499 -41.78  0.001109327    1.068    0.063
       444  -8.7971    121.8810     65.7396   3.4082877187e+01   4.5117547797e+01    0.3137958     0.217388 -49.99 0.0007476332    1.447    0.309
       445  -8.4214    163.4487     72.8708   2.6743013603e+01   3.3717366371e+01    0.3013548    0.1382885 -41.13  0.001105801    1.972    0.493
       446  -8.6731     37.4197     64.2859   6.4689870864e+01   6.0736146482e+01    0.3253238     0.214556 -78.45  0.001055663    1.815    0.449
       447  -8.8875    110.3028     63.5844   3.6585532329e+01   4.8227240916e+01    0.3180049     0.245182 -73.27 0.0005781897    1.660    0.398
       448  -8.5840     64.4390     62.8888   5.2471503029e+01   5.7424532500e+01      0.28949    0.1851872 -14.91  0.001178878    2.312    0.567
       449  -8.0236    158.1784     61.8280   2.4306936318e+01   3.7020999627e+01    0.2058757    0.1827711  -6.31 0.0004494239    1.273    0.214
       450  -8.9788     97.5218     60.3170   3.9336781871e+01   5.1721807709e+01    0.2723621    0.2433982  55.81 0.0007655591    1.227    0.185
       451  -9.6876     73.4165     59.4204   4.7605681042e+01   5.6685197124e+01    0.4369234    0.2540327 -53.68  0.001017179    1.765    0.433
       452  -8.4544    147.3406     59.1856   2.5663172743e+01   4.0177501697e+01    0.2357538    0.1307427 -44.00 0.0004797388    1.714    0.417
       453  -7.9085     89.1706     59.2090   4.1722482892e+01   5.3702833349e+01    0.2133429    0.1777938 -63.96 0.0006000875    1.364    0.267
       454  -9.9052     23.3883     56.1987   6.8995902837e+01   6.4090473820e+01    0.4796741    0.2944086  83.79  0.001935724    2.535    0.606
       455  -9.4519      7.6726     57.0074   7.7028197808e+01   6.4942817209e+01    0.3473461    0.2186199  75.16  0.001111726    2.045    0.511
       456  -8.3794    130.8096     57.1776   2.8739248627e+01   4.4621203713e+01    0.2446238     0.203105 -59.22 0.0005402548    1.262    0.208
       457  -8.1687    140.0399     56.0391   2.6179812059e+01   4.2550482941e+01    0.2504425    0.1795629 -64.18  0.000503028    1.634    0.388
       458  -8.8766    119.3249     55.6898   3.1131485807e+01   4.7672898269e+01    0.3229229    0.2383623 -65.93 0.0008233838    1.665    0.399
       459  -9.0988     62.9390     54.6288   5.0011169289e+01   5.9550625988e+01    0.3400527    0.2068234 -57.84 0.0006456391    1.819    0.450
       460  -8.6795     44.2742     55.4224   5.8627648256e+01   6.2088749443e+01    0.3148788    0.2305834 -76.66   0.00107942    1.747    0.428
       461  -8.9259     54.0630     53.6999   5.3509771597e+01   6.1143515849e+01    0.3870748    0.2000674 -60.99  0.001101873    2.357    0.576
       462  -8.5131    105.6899     53.0850   3.4000366388e+01   5.1349556044e+01     0.248848    0.2195219  79.00 0.0005996174    1.317    0.241
       463  -9.4208     92.5147     50.4890   3.7134834251e+01   5.4767136623e+01    0.4149949    0.2470509 -50.49  0.001148615    1.826    0.452
       464  -8.3713     75.6748     51.1556   4.3468517285e+01   5.8041634253e+01    0.3218629    0.1704327  21.33  0.001089083    3.361    0.702
       465  -8.0172    144.6590     48.8273   2.2663373773e+01   4.2626523288e+01    0.2279898    0.1277786 -42.92 0.0005094671    1.703    0.413
       466  -8.4554    130.0262     49.0068   2.5954014003e+01   4.6259511158e+01    0.2497081     0.180077 -63.03 0.0006449117    1.632    0.387
       467  -8.0821    120.6523     47.1957   2.7568755622e+01   4.8874164886e+01    0.2191517    0.1428146 -24.72 0.0009408691    1.642    0.391
       468  -8.1758    112.1685     46.7399   2.9639130686e+01   5.0995952211e+01    0.2699057    0.1915086 -44.76 0.0007066735    1.405    0.288
       469  -9.0087     82.2890     46.3735   3.8987621533e+01   5.7697348848e+01    0.3267875    0.2344004 -52.77 0.0008007456    1.541    0.351
       470  -7.5792    173.7150     46.6753   1.6717536315e+01   3.5661572902e+01    0.1448387    0.1169685  15.46 0.0003168851    1.602    0.376
       471  -8.4243     45.1773     44.6636   5.4075136070e+01   6.4414732376e+01    0.2404976    0.1759588 -56.40 0.0005906714    1.408    0.290
       472  -9.3109     16.6603     44.5803   6.8991779724e+01   6.7429473443e+01    0.2446125    0.2047601 -67.34 0.0006712993    1.218    0.179
       473  -8.6212     92.3530     43.0859   3.4099514073e+01   5.6180660271e+01    0.3103281    0.1382761 -29.34  0.001100191    2.528    0.604
       474  -8.3013    132.9398     42.9265   2.3031616382e+01   4.6533145856e+01    0.2455856    0.1750161 -62.97 0.0005744339    1.639    0.390
       475  -9.6198      5.3542     42.0713   7.4572109285e+01   6.8724659447e+01    0.3302341    0.2112017 -87.14  0.001143814    1.852    0.460
       476  -9.1655     69.5184     40.9865   4.1538472479e+01   6.1220410584e+01    0.3698695     0.239397 -57.79  0.001163052    2.028    0.507
       477  -8.7064     58.1183     42.0226   4.6872382028e+01   6.3021197944e+01    0.3344687    0.1897645 -54.28  0.001062043    2.018    0.505
       478  -8.8685    105.9332     40.9481   2.9036852509e+01   5.3459483015e+01    0.2695106    0.1967968 -43.29 0.0004885355    1.373    0.272
       479  -8.1896     36.7358     40.5960   5.6657188472e+01   6.6387947175e+01    0.2182387    0.1628991 -69.15 0.0007763357    1.686    0.407
       480  -7.7738    160.6645     39.7772   1.6594025587e+01   3.9975768401e+01    0.2221184    0.1209314 -40.85 0.0005285483    1.697    0.411
       481  -8.5324     95.4550     37.7541   3.0799909301e+01   5.6409496552e+01    0.2817462    0.1347571 -39.23 0.0008505324    2.026    0.506
       482  -8.1849     80.7142     36.3869   3.5140952505e+01   5.9845652759e+01     0.262525    0.1632366 -44.21 0.0006755485    1.652    0.395
       483  -9.2768     26.1971     35.1321   6.0139448318e+01   6.8750756517e+01    0.3286681    0.2136173 -65.94 0.0009347983    1.809    0.447
       484  -7.9233    125.9875     35.3019   2.1669261593e+01   4.9449872404e+01    0.2009919    0.1939065  69.16 0.0004242259    1.052    0.049
       485  -8.3671    111.9538     34.3266   2.4646673416e+01   5.3069150232e+01    0.2718318    0.1941906 -55.89 0.0006702496    1.618    0.382
       486  -7.9055     88.5270     34.4706   3.1560943352e+01   5.8495363979e+01    0.1468436    0.1366552  -3.10 0.0001483852    1.018    0.018
       487  -8.3942    119.3996     33.2198   2.2355894271e+01   5.1401564823e+01    0.2099299    0.1309254 -41.54 0.0004016876    1.600    0.375
       488  -8.6693     60.6925     32.3559   4.1214832456e+01   6.4431758734e+01    0.2300487    0.2026077 -46.60  0.000652513    1.272    0.214
       489  -8.7893     48.5293     32.9358   4.7171774604e+01   6.6343571179e+01    0.2298537    0.2154014 -78.79 0.0006718218    1.431    0.301
       490  -8.8729     13.0224     29.9860   6.5940349146e+01   7.1033541596e+01    0.3315005    0.1767278 -68.01  0.001591925    2.112    0.526
       491  -8.1799    101.6309     29.3452   2.5267205953e+01   5.6285531498e+01     0.215514     0.166568 -64.02 0.0005606321    1.604    0.377
       492  -8.7101     72.3429     30.9132   3.5685276821e+01   6.2480196849e+01    0.2543988    0.2036656 -54.28 0.0008006969    1.509    0.337
       493  -8.8454     81.6549     27.2284   3.0474673764e+01   6.1132118445e+01    0.3098122    0.2192152 -54.27 0.0009851698    1.785    0.440
       494  -8.9060      3.8011     27.4968   7.0928373595e+01   7.2171747792e+01    0.2216117    0.1807107 -88.02  0.001018707    1.546    0.353
       495  -8.9194     91.9240     26.2745   2.6690825484e+01   5.8988744322e+01     0.312885    0.1835937 -44.80 0.0008269082    1.877    0.467
       496  -8.4920    104.3685     22.7949   2.1615252766e+01   5.6529791416e+01    0.1921272    0.1823983 -86.79 0.0007883883    1.150    0.131
       497  -8.4157    120.9571     21.5278   1.7228802851e+01   5.2581391371e+01    0.2245732    0.1858532 -26.35 0.0005314128    1.222    0.181
       498  -8.8914     63.9329     20.9981   3.3971012315e+01   6.5707323450e+01    0.3044518    0.1841523 -41.29 0.0009100654    1.739    0.425
       499  -8.7390     48.4667     21.5059   4.1276843772e+01   6.8410829766e+01     0.235472    0.2015793 -22.73 0.0005835008    1.090    0.082
       500  -7.9610     34.3222     22.6712   4.9496612025e+01   7.0318764519e+01    0.1196594    0.1069894 -80.25 0.0006462202    1.693    0.409
       501  -8.4675     19.6767     21.3602   5.7791153446e+01   7.2271246113e+01    0.1731329    0.1543485  85.64 0.0005772527    1.693    0.409
       502  -8.8959     74.1480     19.3109   2.9122863845e+01   6.3879672762e+01    0.2848216    0.2033082 -37.80 0.0007071883    1.454    0.312
       503  -8.1124     87.8782     17.5331   2.3698244605e+01   6.1087900853e+01    0.2233912    0.1838459 -46.51 0.0006220875    1.362    0.266
       504  -8.0104     38.9718     18.0151   4.4278111590e+01   7.0488118222e+01    0.1866762    0.1604854 -59.81 0.0009184268    1.637    0.389
       505  -7.9370    112.8567     16.7830   1.6954730795e+01   5.5177758642e+01    0.1917472    0.1613621 -62.07 0.0003765021    1.314    0.239
       506  -7.9803     30.0471     15.9814   4.8280863790e+01   7.2087541645e+01    0.1778836     0.159768 -68.90 0.0006478704    1.668    0.400
       507  -8.0680    191.6439    249.3849   5.8625985221e+01  -3.2897680059e+00    0.1506503    0.1210805  43.46 0.0006767326    1.666    0.400
       508  -9.0877    175.7272    247.6204   6.1256330230e+01  -1.0762952269e+00    0.2526509    0.2031285  56.53  0.001262518    1.858    0.462
       509  -7.8229     17.3062     13.6971   5.5273996600e+01   7.3984849965e+01    0.1070695    0.1005689 -83.00 0.0002286842    1.600    0.375
       510  -9.0670    156.5865    248.2445   6.4871174942e+01   1.3008232300e+00    0.2684376     0.171567  58.72  0.001296417    2.492    0.599
       511  -8.4446     93.8043    249.2018   7.6912383083e+01   9.2903655978e+00    0.2006636   0.09050845  59.57 0.0009538735    2.847    0.649
       512  -8.4940    218.6976    247.0833   5.3620704291e+01  -6.2292617529e+00    0.2460866    0.1203065 -41.13  0.001443528    2.596    0.615
       513  -9.0934    103.7554    246.3949   7.4751414969e+01   8.4847050635e+00    0.3706978    0.2030377 -85.70  0.001901001    3.109    0.678
       514 -10.1343    223.8904    243.4305   5.2216287925e+01  -6.4051902217e+00    0.4571767    0.2062358 -39.89   0.00260355    2.661    0.624
       515  -9.5599    146.8429    245.6558   6.6395640162e+01   2.9482227934e+00    0.2710021    0.1826186  54.10  0.001210909    1.812    0.448
       516  -9.5067    120.3871    245.6649   7.1467638834e+01   6.4376765533e+00    0.3105759    0.1916511  66.91  0.001737499    2.350    0.574
       517  -9.1371     21.8524    245.3750   9.0100507429e+01   1.8171781137e+01    0.1790088    0.1487653 -80.58 0.0003199404    1.455    0.313
       518  -8.6741      9.9982    244.0132   9.2158659006e+01   1.9567695810e+01    0.2835842   0.07381099  72.36  0.001143484    4.360    0.771
       519  -8.7867    169.3134    243.4658   6.1896579624e+01   3.1110261512e-01    0.2136828    0.1780631  49.11 0.0006822171    1.525    0.344
       520  -8.2875    139.4321    244.2189   6.7641738688e+01   4.1431153100e+00    0.1372281    0.1132355 -80.27 0.0009416222    1.709    0.415
       521  -8.6492    201.8178    242.7412   5.5907472396e+01  -3.7095061411e+00    0.1873596    0.1474028 -39.58 0.0008083374    1.705    0.413
