#   1 NUMBER                 Running object number                                     
#   2 MAG_AUTO               Kron-like elliptical aperture magnitude                    [mag]
#   3 X_IMAGE                Object position along x                                    [pixel]
#   4 Y_IMAGE                Object position along y                                    [pixel]
#   5 X_WORLD                Barycenter position along world x axis                     [deg]
#   6 Y_WORLD                Barycenter position along world y axis                     [deg]
#   7 A_WORLD                Profile RMS along major axis (world units)                 [deg]
#   8 B_WORLD                Profile RMS along minor axis (world units)                 [deg]
#   9 THETA_WORLD            Position angle (CCW/world-x)                               [deg]
#  10 FWHM_WORLD             FWHM assuming a gaussian core                              [deg]
#  11 ELONGATION             A_IMAGE/B_IMAGE                                           
#  12 ELLIPTICITY            1 - B_IMAGE/A_IMAGE                                       
         1 -13.9562    187.3779     30.5985   6.1150507133e+01   3.4567958215e+01       1.7297     1.010244  15.61    0.0067426    2.439    0.590
         2 -14.2686    247.2826      6.5775   4.7347897738e+01   2.1840214101e+01     0.937309     0.634086 -39.26  0.004415851    1.341    0.254
         3 -12.0833     59.1698      4.2405   8.2009242501e+01   6.7292366914e+01    0.4855998    0.2803057 -13.26  0.002464348    1.913    0.477
         4 -11.3922    210.2415      1.7361   4.9274640529e+01   3.1552041102e+01    0.6021478    0.1900157  71.96  0.002080231    3.080    0.675
         5 -13.3904     54.1554    238.5986   1.2829451079e+02   2.2921279978e+01    0.3725837    0.1393632  62.70  0.001795423    2.398    0.583
         6 -12.8029     92.7453    235.4058   1.2202699567e+02   1.8696352227e+01     1.048769    0.4912262 -46.66  0.005746048    4.114    0.757
         7 -15.3621    106.2026    244.6576   1.2061927650e+02   1.5650733480e+01     4.841364     1.624402  35.83   0.02236883    3.638    0.725
         8  -9.0856     70.7236    228.2807   1.2505466102e+02   2.2515294958e+01    0.1017244   0.05581988  63.76 0.0005366044    1.503    0.334
         9  -9.8236     87.7343    222.9887   1.2186395173e+02   2.1169584065e+01    0.2158518    0.1639245 -48.98  0.001104215    1.986    0.497
        10 -10.2036     89.8574    218.8033   1.2115965853e+02   2.1527726438e+01    0.3735708    0.1432244  59.92    0.0018329    2.893    0.654
        11 -15.1214    125.5332    229.6366   1.1616230324e+02   1.4987277098e+01     2.680242      1.61022 -88.41   0.01628138    2.620    0.618
        12  -9.4981     40.7532    220.0242   1.2937925574e+02   2.7213326541e+01    0.1353903   0.08235615  62.99 0.0004948518    1.186    0.157
        13 -11.6186     76.4781    215.9703   1.2320123183e+02   2.3701109691e+01    0.2433278    0.1421088  68.75  0.001651766    1.547    0.354
        14 -11.1912     45.0620    215.7158   1.2843677063e+02   2.7436499288e+01     0.145169   0.09729422  66.98 0.0004026923    1.087    0.080
        15 -15.8069      6.7031    167.1900   1.3247263145e+02   3.9613594872e+01     1.270157    0.5143962 -89.54  0.004577337    2.077    0.518
        16 -19.3395     20.6685    132.6188   1.2724603076e+02   4.5276193267e+01     16.13202     1.469975 -73.92   0.04030369    9.611    0.896
        17 -11.4862     63.7268    206.2442   1.2464845973e+02   2.6849047971e+01    0.3362259    0.2183637 -76.17  0.001410245    1.573    0.364
        18  -9.8058     78.6833    210.0603   1.2234720089e+02   2.4364527205e+01    0.1439958    0.1139936  79.45 0.0005283107    1.167    0.143
        19 -10.1014     61.9099    216.1002   1.2566751760e+02   2.5461193308e+01    0.2490117   0.09169111  57.33  0.001368605    2.336    0.572
        20  -9.6960    164.3418    205.9613   1.0674883851e+02   1.2215526965e+01    0.1500973    0.1367319  36.45 0.0004147339    1.151    0.131
        21  -9.5843     94.8239    204.4619   1.1899371753e+02   2.3120164440e+01    0.2562735    0.1688965 -28.94  0.001334259    3.781    0.736
        22 -11.6947     45.0171    203.6813   1.2770853861e+02   2.9423480053e+01    0.1628372    0.1151699  74.40 0.0003545101    1.097    0.088
        23 -11.4906     66.9910    244.5715   1.2667976203e+02   2.0590770569e+01    0.1614695     0.121931  82.89 0.0003392267    1.308    0.236
        24  -9.5030     70.9857    243.7464   1.2602030635e+02   2.0233776538e+01    0.2406049   0.09931915  60.54  0.001300133    2.088    0.521
        25 -11.0998    193.6900    193.6531   9.9795204975e+01   8.8808173441e+00    0.4565127    0.3522896 -51.74  0.002943555    1.766    0.434
        26  -9.9039     67.2058    195.8555   1.2320636799e+02   2.8185129327e+01    0.1755404    0.1087607  66.09  0.001079154    1.366    0.268
        27 -11.7014     72.5731    192.0445   1.2189041546e+02   2.8175523013e+01    0.4905117    0.4326448  57.89  0.003358268    1.265    0.209
        28  -9.1356    179.9799    192.4744   1.0202527827e+02   1.1408304955e+01    0.1631258    0.0952915  61.25 0.0005730082    2.319    0.569
        29  -9.2313     60.4719    189.0790   1.2387956245e+02   3.0189871643e+01    0.1431707   0.09330594 -82.56 0.0003721316    1.450    0.310
        30 -10.4211      4.5093    236.6370   1.3555671533e+02   2.8198554869e+01   0.08673806   0.05820029  64.37 0.0003225932    1.088    0.081
        31  -9.7638     76.9410    183.2679   1.2023476341e+02   2.9169378938e+01    0.1568933    0.1229527  65.43 0.0004800769    1.029    0.028
        32 -10.4047    206.3105    181.0078   9.5496006934e+01   8.2804802570e+00     0.170641    0.1508372  17.32  0.001075911    1.103    0.093
        33 -10.0379     99.6854    180.6670   1.1552747242e+02   2.6472608137e+01    0.1831055    0.1634629  50.14 0.0005536823    1.214    0.176
        34  -9.9497    211.3181    178.9734   9.4272389767e+01   7.6437546336e+00     0.173753     0.149536  15.60 0.0006092954    1.088    0.081
        35 -11.2923     82.9754    177.6621   1.1847468369e+02   2.9381579312e+01    0.2975631    0.2059215 -53.27  0.001232058    1.767    0.434
        36 -11.6805     86.3899    172.7390   1.1724117097e+02   2.9819203097e+01    0.2982956    0.2373094 -57.84  0.001104066    1.471    0.320
        37 -10.2561     85.0054    235.3190   1.2325944373e+02   1.9704707940e+01    0.2365715    0.1359816 -76.87  0.001541835    2.001    0.500
        38 -10.6098    196.0061    170.9610   9.5541097140e+01   1.1493740414e+01    0.3084786    0.2292374  25.56 0.0009833571    1.277    0.217
        39 -11.2149     92.8912    163.6973   1.1479747308e+02   3.0592304565e+01    0.2769689    0.2424067 -56.34 0.0007111953    1.358    0.264
        40  -8.6878     72.9977    167.0000   1.1932007585e+02   3.2707478043e+01     0.189691   0.05986108  38.32 0.0008146797    3.028    0.670
        41  -9.8820     78.0054    243.4432   1.2492206132e+02   1.9427573474e+01    0.1500048   0.09035209  57.85 2.952289e-05    1.198    0.165
        42  -9.6903    141.7462    158.1865   1.0376830746e+02   2.3584521765e+01    0.1854738    0.1619269  70.48 0.0006487477    1.162    0.139
        43 -11.1516     98.3612    155.9702   1.1258506215e+02   3.1261293206e+01    0.5001351    0.3429048 -30.71  0.002623503    2.447    0.591
        44  -9.7601    164.5194    153.5013   9.8301788757e+01   2.0133705643e+01    0.1342005    0.1210445  44.16 8.161351e-05    1.018    0.018
        45 -10.7249    134.0000    143.4886   1.0279263595e+02   2.7667869974e+01    0.5627138      0.17325 -55.18  0.001814389    4.380    0.772
        46 -10.2833    109.0039    140.6350   1.0783540262e+02   3.2587628029e+01    0.3926657    0.2526283 -33.56  0.001918557    2.300    0.565
        47 -11.4396     97.5604    140.8340   1.1047333617e+02   3.4383087450e+01    0.2251225    0.2133397 -78.34  0.000492218    1.145    0.126
        48 -10.4234    115.7232    131.0282   1.0456429867e+02   3.3365665789e+01    0.2755046     0.217816  16.76  0.001015732    1.701    0.412
        49 -10.1400    106.1104    130.8726   1.0678419273e+02   3.5034857346e+01    0.3034807    0.2439213 -77.85  0.001485534    1.268    0.211
        50 -10.2386    103.8395    126.9611   1.0660399267e+02   3.6213190986e+01    0.2428107    0.2204344 -40.99 0.0007633402    1.263    0.208
        51  -9.8913    161.3407    128.6585   9.3911984249e+01   2.5054341255e+01    0.1447044    0.1121415  88.82 0.0007049073    1.774    0.436
        52 -10.4954    136.3160    125.7622   9.8771661497e+01   3.0608382572e+01    0.5201995    0.3300717 -20.75  0.002191366    2.686    0.628
        53  -9.7764    125.3965    127.1956   1.0156994823e+02   3.2392565305e+01    0.1950192     0.127975 -63.36 0.0009502028    1.721    0.419
        54  -9.4847    110.9949    119.5215   1.0342588032e+02   3.6531391582e+01    0.1946147    0.1308054  44.58 0.0003771191    1.483    0.326
        55 -10.7478     68.6919    116.0104   1.1341542720e+02   4.3746787524e+01    0.1841323    0.1488884 -69.27 0.0006891212    1.120    0.107
        56  -9.5785    167.9526    112.7799   8.8853011572e+01   2.6471303694e+01    0.2781948    0.1926213 -68.64   0.00122373    2.139    0.533
        57 -15.3647      3.3431    206.9204   1.3476178373e+02   3.2925818848e+01     1.130641    0.3338768 -85.46  0.006420047    3.002    0.667
        58  -9.3162    205.7916    110.1784   8.0791887287e+01   1.8489720858e+01    0.2017181    0.1611081  14.80 0.0005286858    1.302    0.232
        59 -15.4609      5.9296    186.0331   1.3350684563e+02   3.6258434920e+01    0.6155927    0.4537127  73.18  0.004303019    1.085    0.078
        60 -12.3130     48.5787    232.4743   1.2881909382e+02   2.4446936564e+01    0.3379797    0.1789471  85.36  0.002463993    1.804    0.446
        61 -11.4560    172.0617     71.1577   7.6693858989e+01   3.2685907271e+01     0.422694    0.3088827 -87.12  0.001043514    1.964    0.491
        62  -8.8811     39.4725    231.6555   1.3018240354e+02   2.5551599165e+01   0.09519222   0.06382232  60.95 0.0002048587    1.051    0.049
        63 -12.0390    173.0009     45.3397   6.8397777512e+01   3.6401794153e+01    0.4418833    0.3550578  48.61 0.0008636467    1.227    0.185
        64 -11.5371     55.8693    246.2144   1.2844744127e+02   2.1637339945e+01    0.3564959    0.1457525  79.36   0.00192861    3.048    0.672
        65 -11.3972     55.1244    229.3778   1.2761875579e+02   2.4182252431e+01    0.3009399    0.1405188  53.33  0.001680003    1.546    0.353
        66 -12.4680     58.7249    225.1241   1.2678463362e+02   2.4419235421e+01    0.2701658    0.1504127  63.90  0.001026373    1.413    0.292
