#   1 NUMBER                 Running object number                                     
#   2 MAG_AUTO               Kron-like elliptical aperture magnitude                    [mag]
#   3 X_IMAGE                Object position along x                                    [pixel]
#   4 Y_IMAGE                Object position along y                                    [pixel]
#   5 X_WORLD                Barycenter position along world x axis                     [deg]
#   6 Y_WORLD                Barycenter position along world y axis                     [deg]
#   7 A_WORLD                Profile RMS along major axis (world units)                 [deg]
#   8 B_WORLD                Profile RMS along minor axis (world units)                 [deg]
#   9 THETA_WORLD            Position angle (CCW/world-x)                               [deg]
#  10 FWHM_WORLD             FWHM assuming a gaussian core                              [deg]
#  11 ELONGATION             A_IMAGE/B_IMAGE                                           
#  12 ELLIPTICITY            1 - B_IMAGE/A_IMAGE                                       
         1 -12.3322    197.4020     39.5650   4.6090113079e+01   3.0986262307e+01     1.015908    0.9347297 -49.32  0.003705588    1.099    0.090
         2 -12.4670    207.1357     29.4279   4.2249224432e+01   2.9945568301e+01     0.834742    0.7371985  22.23  0.001803659    1.453    0.312
         3 -10.0256     28.8555     22.5682   8.5295780915e+01   6.8571045341e+01    0.1909769    0.1635512 -75.27  0.001201688    2.234    0.552
         4 -10.9385    234.2366      4.5442   3.3894964061e+01   2.6593148722e+01    0.4961507    0.4414813  26.85  0.002947915    1.598    0.374
         5 -10.8998    228.6326      3.9339   3.4170673718e+01   2.7886566005e+01    0.4686624     0.374388 -62.01  0.003111554    1.076    0.070
         6  -8.1324     62.3188      8.6745   6.4358681088e+01   6.5532643254e+01    0.1096864   0.09874474 -55.51 0.0004004416    1.677    0.404
         7  -8.8708    113.9500    206.2707   1.0337078723e+02   1.5925152603e+01    0.2775612    0.1673695  86.21  0.001190823    2.690    0.628
         8 -14.0110     46.9152    200.3827   1.1713427596e+02   2.6768655723e+01     7.819106     1.929703  49.34   0.02864899    3.785    0.736
         9 -13.2424     57.4005    240.2745   1.1846865545e+02   1.7364213009e+01     1.044358     0.558717  56.48  0.004224884    1.546    0.353
        10 -14.5409     31.7302    249.7607   1.2363447809e+02   1.8667816081e+01     8.539357     2.517168  28.12   0.01978205   15.577    0.936
        11 -10.1151    156.0111    219.9325   9.6524317839e+01   6.3065982024e+00     0.264661    0.2237122  -6.04  0.001606866    1.345    0.256
        12  -9.3610     63.7526    201.7858   1.1369862293e+02   2.4345397415e+01    0.2381858    0.2148482 -55.88 0.0004267083    1.368    0.269
        13  -9.2483    109.8693    201.1368   1.0353141550e+02   1.7652974103e+01    0.2025033    0.1672658  68.13 0.0002675115    1.183    0.155
        14  -9.2847    194.8928    198.8002   8.5010423246e+01   3.3041441875e+00    0.2436522    0.1828803 -68.09  0.001231306    2.161    0.537
        15  -8.4305     67.3190    196.2812   1.1231722741e+02   2.5078174747e+01    0.2763809    0.1530157 -79.11  0.001368054    1.871    0.466
        16  -8.1767     71.0235    185.7093   1.1021241791e+02   2.6952365109e+01    0.1787486    0.1579457  70.66 0.0003961809    1.059    0.056
        17  -8.7926     99.3235    180.9791   1.0292288141e+02   2.3779211170e+01    0.1977929    0.1720121 -70.98 0.0006387949    1.136    0.120
        18  -8.5151    150.4915    178.8886   9.0650491914e+01   1.5173315910e+01    0.3611221    0.2116457 -68.68  0.001399131    2.765    0.638
        19  -8.1644    144.4135    179.8297   9.2204867014e+01   1.6113524848e+01    0.2071344     0.133576 -36.42 0.0005906442    1.764    0.433
        20  -8.7074     40.9844    178.3279   1.1625561240e+02   3.2428818724e+01    0.1737675    0.1473797  70.76 0.0004017937    1.108    0.098
        21 -10.3279     70.4932    174.9995   1.0892697765e+02   2.9511346396e+01    0.3176828    0.2672771 -50.46 0.0009662245    1.340    0.254
        22 -10.5831     74.8836    169.8233   1.0712717713e+02   3.0117577888e+01    0.4705447     0.287607 -41.04  0.001640287    2.104    0.525
        23  -8.3249    119.3049    173.6614   9.6934127595e+01   2.2042993983e+01     0.150411    0.1109332  77.94 0.0007040304    1.675    0.403
        24  -9.2853     47.5949    172.7976   1.1411002684e+02   3.2963704994e+01    0.1974237    0.1634704 -76.06  0.001113901    1.116    0.104
        25 -10.2039     95.7263    168.5897   1.0179101388e+02   2.7228644174e+01    0.5236018    0.2083306  46.29  0.001948867    2.549    0.608
        26  -8.8065     45.8475    166.0272   1.1372731735e+02   3.4773433493e+01    0.2306101     0.130143  79.66  0.001090858    2.005    0.501
        27 -12.3627     58.9302    131.7379   1.0518632215e+02   4.1596630357e+01     1.276001    0.6066953 -79.31  0.004637548    3.051    0.672
        28 -12.1281     71.9589    155.8347   1.0572018375e+02   3.3904805867e+01    0.5887704    0.5307828 -64.10  0.001341681    1.113    0.102
        29 -12.8148     68.4472    144.1491   1.0471103877e+02   3.7263866382e+01      1.42347    0.9406126  38.97  0.003897054    1.616    0.381
        30 -10.5928     90.0817    153.9015   1.0066957010e+02   3.1647125913e+01    0.6171365    0.4459634 -24.70  0.002018648    1.962    0.490
        31  -7.8374    112.6774    151.2740   9.4306351585e+01   2.8415664901e+01    0.1510036    0.1148521  74.63 0.0003357794    1.576    0.366
        32  -7.9759    174.6925    148.3549   7.8794725124e+01   1.6719049682e+01    0.1538624    0.1226849 -81.06 0.0007042284    1.721    0.419
        33  -9.3979    134.1221    145.5167   8.7646246535e+01   2.5670418056e+01    0.6536637    0.2016218 -54.49  0.001796065    4.085    0.755
        34  -9.9093     40.8906    146.6597   1.1250073088e+02   4.0014315803e+01    0.3243363    0.1746932 -64.02  0.001344821    1.573    0.364
        35  -9.6046     40.0556    142.4677   1.1214455444e+02   4.1130669197e+01    0.2194431    0.1861968 -78.24 0.0008002649    1.011    0.011
        36  -9.7164    103.0987    139.6536   9.4413152392e+01   3.2908871585e+01    0.5255296    0.3402627 -22.79  0.002102925    2.456    0.593
        37 -10.5619     91.0652    139.1741   9.7584175611e+01   3.5074880780e+01     0.286388    0.2576343 -39.34 0.0003467815    1.182    0.154
        38  -7.6424     44.3053    138.6624   1.1043707496e+02   4.1609761556e+01    0.1401244   0.09351455  75.79  0.000297558    1.674    0.402
        39  -9.0268    106.0015    130.7664   9.1667649069e+01   3.4525530600e+01    0.3565603    0.2998299 -81.56  0.001744959    1.306    0.234
        40 -10.9633     44.5516    130.1969   1.0904349631e+02   4.3673238909e+01    0.5015257    0.2283619 -71.98  0.002124572    2.143    0.533
        41  -9.4258    112.5076    129.8422   8.9680265577e+01   3.3537614041e+01    0.3114908    0.2395201   1.24 0.0006786932    1.791    0.442
        42  -8.1310    157.1691    159.8198   8.5268684608e+01   1.7894492077e+01    0.3200378    0.1872656 -67.24  0.001164127    2.832    0.647
        43  -9.2868     99.4565    125.9127   9.2373032902e+01   3.6866757736e+01    0.2993876     0.247568 -18.71 0.0009674613    1.446    0.308
        44  -7.7931    135.6675    124.3204   8.2234436065e+01   3.0180153067e+01    0.1611912    0.1259795  89.69 0.0003812952    1.697    0.411
        45  -9.6457    118.8310    124.3797   8.6663047034e+01   3.3601342518e+01    0.3167505    0.2072255  25.19  0.001319776    1.942    0.485
        46 -10.8257     83.4722    161.0515   1.0361047279e+02   3.0950732995e+01    0.5278146    0.3828723  66.44 0.0008499248    1.479    0.324
        47 -10.3640     45.6609    109.3132   1.0494255462e+02   4.8685323256e+01    0.3155191    0.2336209 -80.29  0.001195854    1.404    0.288
        48 -11.8931     42.5723    109.2195   1.0590281019e+02   4.9039226177e+01    0.9896079    0.3020293 -62.13  0.003608813    2.762    0.638
        49  -7.9517    168.5080    113.0187   7.1467843653e+01   2.5370853530e+01     0.225071     0.131247 -61.28 0.0008092367    2.443    0.591
        50  -8.1054    108.4783    118.9921   8.8176098968e+01   3.6864304941e+01    0.2246466    0.1986859  42.00  0.000471989    1.185    0.156
        51  -8.3590    205.3943    110.2764   6.3362483286e+01   1.7577938273e+01    0.2651938    0.1786556  40.25 0.0008435466    1.653    0.395
        52 -10.0691    115.3673    109.2517   8.3735011913e+01   3.7779724013e+01    0.2948228    0.2451676 -59.16  0.001454283    1.234    0.190
        53  -9.2337     58.0315    220.5337   1.1670601190e+02   2.1140220971e+01    0.3024223    0.1665088  44.47  0.001292308    1.601    0.375
        54  -8.8257    237.5044    100.9929   5.5866501567e+01   1.2376608523e+01    0.2034842    0.1194256 -13.99 0.0008106421    2.648    0.622
        55  -9.3443     54.5082    221.5735   1.1749038440e+02   2.1374232920e+01    0.3797371    0.1629799  50.18  0.001926656    1.987    0.497
        56  -9.1403     53.4962     93.9906   9.8980370364e+01   5.1452033784e+01     0.222733    0.1218596 -56.11  0.001034315    1.594    0.373
        57  -8.2295    120.5132     87.5302   7.6106473910e+01   4.1443765385e+01    0.1531606    0.1485147 -33.54 0.0001801358    1.026    0.026
        58 -10.2983     48.8720    216.1319   1.1813620623e+02   2.3183226041e+01    0.5408733    0.4545923 -74.57  0.002460188    1.300    0.231
        59  -8.4160     58.5371     67.6859   8.9812438377e+01   5.6654708771e+01    0.2337661    0.1676415  53.38  0.001203621    1.919    0.479
        60 -15.5472      6.2207    245.8625   1.2766114753e+02   2.2050059179e+01     1.726533     1.644147  -6.68   0.01477757    1.879    0.468
        61 -12.1420    186.5695     47.5721   4.9824677111e+01   3.2537706128e+01    0.9762967    0.7367573  13.44  0.002671476    1.831    0.454
        62 -11.6044     18.0747    191.9585   1.2243069324e+02   3.1724459307e+01      0.35423     0.240152  45.54 0.0004263497    1.480    0.324
        63 -16.1171      5.4711    214.0637   1.2625808303e+02   2.8237787621e+01     20.35524    0.6244935 -76.00   0.02823867   12.801    0.922
        64  -8.8652    148.1497     44.4211   5.5608797873e+01   4.2519222015e+01    0.2627454    0.2054018 -44.58 0.0007015477    1.332    0.249
        65 -10.5577     32.8638     29.8163   8.6563239645e+01   6.6949209876e+01    0.5138934    0.1104736 -40.90  0.001806546    3.925    0.745
        66 -10.4799     26.8148     35.1953   9.1552751895e+01   6.6657328044e+01    0.3132799     0.194208  38.23  0.001132465    2.113    0.527
        67  -9.2774     92.3468    216.8289   1.0934095501e+02   1.7145464443e+01    0.2964594    0.2001642 -85.93  0.001650437    1.643    0.391
        68  -9.5708     59.5275    231.2148   1.1733950279e+02   1.8824283882e+01    0.2721417      0.18793 -76.78   0.00109025    1.437    0.304
        69 -10.0374    146.9362     51.1854   5.8043361949e+01   4.1831079234e+01     0.476537    0.3190314 -80.82  0.001605021    2.238    0.553
        70  -9.2464     44.6261    230.3254   1.2007669565e+02   2.0836739497e+01    0.2666214    0.2097186  52.66  0.001250389    1.219    0.179
        71  -8.7534     77.3748    226.4491   1.1343003236e+02   1.7379081418e+01    0.2078412    0.1591532  85.49 0.0006501364    1.243    0.196
