#   1 NUMBER                 Running object number                                     
#   2 MAG_AUTO               Kron-like elliptical aperture magnitude                    [mag]
#   3 X_IMAGE                Object position along x                                    [pixel]
#   4 Y_IMAGE                Object position along y                                    [pixel]
#   5 X_WORLD                Barycenter position along world x axis                     [deg]
#   6 Y_WORLD                Barycenter position along world y axis                     [deg]
#   7 A_WORLD                Profile RMS along major axis (world units)                 [deg]
#   8 B_WORLD                Profile RMS along minor axis (world units)                 [deg]
#   9 THETA_WORLD            Position angle (CCW/world-x)                               [deg]
#  10 FWHM_WORLD             FWHM assuming a gaussian core                              [deg]
#  11 ELONGATION             A_IMAGE/B_IMAGE                                           
#  12 ELLIPTICITY            1 - B_IMAGE/A_IMAGE                                       
         1 -14.5341     68.8098    144.3634   9.9058216348e+01   3.7427337616e+01     5.054288     2.649406  68.65    0.0116342    4.041    0.753
         2 -13.1817    199.9429     42.5314   4.1455384918e+01   3.0606961459e+01     1.016441    0.9083662 -43.13  0.003326119    1.164    0.141
         3 -13.6239    210.0334     32.6748   3.7949368359e+01   2.9607053586e+01    0.9387952     0.825782   0.10  0.001647106    1.525    0.344
         4 -12.8694    235.4133      6.7068   3.0177985242e+01   2.7190012218e+01    0.7965079    0.6104601 -80.24  0.004578545    1.093    0.085
         5  -9.2575     60.4654      7.5359   5.8963569952e+01   6.5403852337e+01    0.1231723   0.09888984  21.59 0.0001534557    1.012    0.012
         6  -9.6728     17.6629      4.6723   7.6634216635e+01   7.2083026529e+01    0.1220501   0.06953683  -3.03  0.000705182    1.727    0.421
         7  -8.3007     68.2390    199.6340   1.0744775938e+02   2.4105760457e+01    0.1356168   0.09263797  75.61 0.0006921648    1.603    0.376
         8 -10.5748    140.1110    249.7080   9.7975028262e+01   3.7252283922e+00    0.3190441    0.1828822  46.87  0.001692168    1.743    0.426
         9 -14.5679     41.4125    195.4118   1.1326818150e+02   2.8297151402e+01     5.955889     2.433951  72.75    0.0109063    4.701    0.787
        10 -17.2290     14.5456    242.4486   1.2230438021e+02   2.1038040082e+01     6.070884     2.442237  24.64   0.02956625    3.354    0.702
        11  -9.6417     59.4346    197.0647   1.0922499801e+02   2.5814731853e+01    0.2185898    0.1737831  49.72  0.001294447    1.203    0.169
        12  -9.5568    142.5013    208.4841   9.1368613412e+01   1.0960236959e+01    0.1384819    0.1274554  20.98 8.288543e-05    1.001    0.001
        13  -7.9827    224.2699    206.6489   7.4064955510e+01  -1.6628010133e+00     0.113299    0.1020168 -53.35 0.0003196618    1.627    0.386
        14 -10.5388    147.6341    187.8682   8.6561546050e+01   1.4327308774e+01      0.60051    0.3807277 -76.80  0.002315442    3.070    0.674
        15 -10.6064    117.8367    191.5668   9.4315287897e+01   1.8588917307e+01    0.3101852    0.2499798  -5.05  0.001372126    1.504    0.335
        16 -12.7416     54.9047    185.9287   1.0900649980e+02   2.8973448263e+01    0.7939354     0.658883  84.92  0.004487577    1.129    0.114
        17 -10.8987     42.9105    177.8209   1.1102251595e+02   3.2285363060e+01    0.6364529    0.4633389  12.43  0.002596054    1.777    0.437
        18  -8.9404     79.5477    182.2403   1.0235183615e+02   2.6632860887e+01    0.2690207    0.1367801 -69.79  0.001126083    2.169    0.539
        19 -10.0688     99.3830    180.8221   9.7096098030e+01   2.4009279531e+01    0.2586635    0.2269155   7.51 0.0006032838    1.287    0.223
        20 -10.0098     65.0774    179.3258   1.0561421558e+02   2.9287410887e+01    0.3415443     0.245557  77.78   0.00123878    1.521    0.342
        21 -10.4468    186.9250    175.1007   7.5277614686e+01   9.9338050117e+00    0.3695993    0.3094375 -44.08  0.001126271    1.260    0.206
        22 -11.9673     81.4894    158.8295   9.8063179848e+01   3.2039778619e+01    0.9765202     0.584034  65.91 0.0007934339    2.413    0.586
        23 -12.8443     69.9585    153.6706   1.0037523654e+02   3.4948343702e+01    0.6570211    0.4572008 -54.74  0.001470241    1.345    0.257
        24 -11.4875    125.0274    243.9444   1.0034888966e+02   6.9253600070e+00    0.3543646    0.2928935 -16.19  0.002173102    1.449    0.310
        25  -8.3352    193.3286    170.2891   7.2946835264e+01   9.7184280158e+00    0.1472441    0.1062547  -1.78 0.0004270329    1.618    0.382
        26 -11.3294    107.6198    203.8476   9.8697256852e+01   1.7514695970e+01    0.4311206    0.2783437  71.47  0.001920511    2.198    0.545
        27  -9.3001    111.3337    168.3724   9.1823274050e+01   2.4991114053e+01    0.3926347    0.2302306  59.37  0.001216912    2.355    0.575
        28  -8.3219    120.4993    165.5672   8.8914855220e+01   2.4066201122e+01    0.1468519    0.1453435  22.85 0.0001238089    1.018    0.018
        29 -10.1469     32.3059    156.4494   1.1122282456e+02   3.8591764774e+01    0.2960811     0.240842  87.02   0.00177987    1.161    0.139
        30 -11.5106     88.8925    151.8749   9.4727941684e+01   3.2634116148e+01    0.7406475    0.4661413 -27.53  0.003110927    2.174    0.540
        31 -10.6705    133.8953    145.4715   8.1195831606e+01   2.6242496313e+01     1.233715    0.3419502 -54.47  0.002942705    5.484    0.818
        32 -10.9560     54.1101    148.4946   1.0401833612e+02   3.8255114706e+01    0.8055732      0.36363 -58.16  0.003429385    1.936    0.483
        33  -8.8634    111.5331    149.7817   8.8055875579e+01   2.9373175475e+01    0.3660027    0.2186572  68.22   0.00128135    3.092    0.677
        34  -9.3902    174.7884    148.9231   7.2233785758e+01   1.7452724521e+01    0.2804223    0.2124237 -59.95 0.0009691295    1.578    0.366
        35  -9.2476     38.5303    146.0540   1.0810717586e+02   4.0567933387e+01    0.2571508    0.1722358  48.09  0.001045952    1.629    0.386
        36  -9.1400    143.5145    145.5012   7.8772618240e+01   2.4364993607e+01    0.1537095    0.1483434 -18.98 0.0008105024    1.009    0.008
        37 -10.3237    102.3575    138.4291   8.8145306562e+01   3.3702846155e+01    0.5863047    0.3572674 -19.88  0.002179141    2.692    0.628
        38 -10.1478    105.8519    131.1927   8.5504613646e+01   3.4820551497e+01    0.5012348    0.3102818 -54.10  0.001873708    1.611    0.379
        39 -11.5582     89.9109    137.7931   9.1588896811e+01   3.5934101973e+01    0.2967456    0.2582944 -34.42 0.0003714642    1.159    0.137
        40 -10.1589     44.2613    129.9755   1.0386451034e+02   4.3998786082e+01    0.2715668    0.2031367 -54.56  0.001484361    1.184    0.155
        41 -10.0155    135.3452    128.5308   7.6813989760e+01   2.9786865121e+01    0.3916732    0.2132803 -54.03  0.001515897    2.027    0.507
        42  -9.8567    111.8901    129.0701   8.3289286551e+01   3.4221230143e+01    0.3496495    0.2665929   8.27   0.00102858    1.614    0.381
        43 -11.1119    110.8853    203.1553   9.7824454439e+01   1.7157396139e+01    0.2647082     0.252162  60.72 0.0004983884    1.045    0.043
        44 -10.2337     98.9388    124.9661   8.6040377109e+01   3.7523277483e+01    0.3244085    0.2568804 -14.48   0.00123922    1.472    0.321
        45  -9.9912    117.2121    123.7870   8.0507671940e+01   3.4442274946e+01    0.2226982     0.182467 -13.29  0.000913372    1.380    0.276
        46 -10.4575     40.1548    126.5436   1.0454807364e+02   4.5278268483e+01    0.4845847    0.1848383 -67.47  0.001847845    2.535    0.606
        47  -9.1533    135.0158    119.7889   7.4701423736e+01   3.1787252635e+01    0.2276605    0.1666398 -61.56  0.001013834    1.606    0.377
        48  -9.1219     88.0794    121.4534   8.8466198566e+01   4.0197664803e+01    0.4153282    0.2345719  61.22  0.001479331    3.077    0.675
        49 -11.0602     33.8876    118.6876   1.0517471057e+02   4.7828424612e+01    0.3482393    0.2394627 -26.24  0.001252244    1.658    0.397
        50 -11.4377     68.7188    171.7475   1.0359389062e+02   3.0649068986e+01    0.4583552    0.2996889 -29.38   0.00212414    2.108    0.526
        51  -9.8877    231.3013    113.6758   5.3642721772e+01   1.3054860648e+01    0.2600691    0.2244151 -48.76 0.0007090637    1.104    0.094
        52  -9.6025    134.8554    112.0056   7.2713469106e+01   3.3505536254e+01     0.388997    0.1057715 -44.05  0.001094937    3.597    0.722
        53  -9.2157    107.8919    118.3309   8.1786094165e+01   3.7462573098e+01    0.2302008     0.204198 -52.16  0.000254423    1.133    0.117
        54 -10.9164     33.2998    110.5738   1.0389164276e+02   4.9870406081e+01    0.5407632    0.1767082 -67.47  0.001884691    3.178    0.685
        55 -10.2063    244.3821    111.1980   5.1201763404e+01   1.1071755665e+01     0.199647    0.1030267 -45.34 0.0009535564    1.707    0.414
        56  -9.2708    205.5202    110.1918   5.7041075993e+01   1.8736593370e+01     0.240639    0.2052324  50.15 0.0006343657    1.279    0.218
        57 -10.7115    115.3760    108.3404   7.7021541906e+01   3.8278537460e+01    0.4862375    0.2525077 -39.87  0.001909463    1.933    0.483
        58 -11.5277     42.2616    104.2228   9.9542046478e+01   5.0531805237e+01    0.4697269     0.287856  42.99  0.001837416    1.947    0.486
        59  -9.2490    137.7660    104.6088   6.9977567170e+01   3.4443835373e+01    0.2050516    0.1476015  55.75 0.0004046969    1.543    0.352
        60 -10.4793    240.7100    101.9385   4.9720283563e+01   1.3248689092e+01    0.1952292    0.1558664 -42.49  0.001167901    1.068    0.064
        61 -10.0654     34.0081    100.0397   1.0154881424e+02   5.2342429167e+01    0.2117558    0.1799512 -48.14 0.0006187202    1.001    0.001
        62  -9.1382    125.5981     93.0156   6.9906014588e+01   3.9410271925e+01    0.2626835    0.2214056  84.65   0.00107281    1.525    0.344
        63  -9.3028     53.5631     90.7782   9.2319882501e+01   5.2392167439e+01    0.1938836    0.1297778 -62.80 0.0006962453    1.616    0.381
        64 -14.5878      9.9153    206.7569   1.2110042442e+02   2.8834930140e+01     1.002717    0.8537188  -8.14  0.004153547    1.725    0.420
        65 -11.4039     73.2508    167.0414   1.0167175832e+02   3.1188916424e+01    0.4223313    0.3258921 -59.75 0.0007544072    1.233    0.189
        66  -8.2357     75.4606     85.4007   8.3039328385e+01   5.0474553790e+01    0.1423658    0.1318908 -16.58 0.0001707626    1.033    0.032
        67  -9.4294    113.8450     83.2581   7.0267145077e+01   4.3808797692e+01    0.3795677    0.2591077  72.57  0.001566682    2.390    0.582
        68  -9.0477    158.5158     83.0045   5.9119149907e+01   3.3974168463e+01    0.2256249    0.1445116 -37.45   0.00058028    1.550    0.355
        69  -8.8329     56.1436     66.3529   8.4211151528e+01   5.7273839947e+01     0.182966    0.1617543   4.42 0.0005121155    1.115    0.103
        70  -9.1621     34.5362    171.5732   1.1241908975e+02   3.4669400499e+01    0.2168875     0.179751  60.98 0.0007549037    1.198    0.165
        71 -12.7938    189.1673     50.5059   4.4893663096e+01   3.1985768489e+01    0.8555067    0.7138844  38.32  0.001391626    1.399    0.285
        72 -10.8283    129.1149    248.7712   1.0011253700e+02   5.4809356185e+00    0.2991852    0.2205103  33.21  0.001839241    1.160    0.138
        73 -10.2456     92.7865    249.0270   1.0759289313e+02   1.0556669124e+01     0.247201    0.1490544  43.16  0.000953387    1.397    0.284
        74  -8.1367     66.4657     51.5051   7.5100868743e+01   5.8469512325e+01     0.136723    0.1180251  -3.47 0.0002411326    1.003    0.003
        75 -10.4443    135.4974    211.4458   9.3431271738e+01   1.1503287270e+01    0.2779009    0.1367127 -51.56   0.00121815    2.189    0.543
        76 -10.7671    122.2353    198.5054   9.4410697172e+01   1.6351481207e+01    0.3770503    0.2745644 -76.58  0.001728463    1.757    0.431
        77  -8.9864    198.3720     23.7425   3.7109682900e+01   3.3227138821e+01    0.1585784    0.1202269 -20.51 0.0006089789    1.617    0.382
        78  -9.2832     89.0998    210.6206   1.0395405487e+02   1.8795865916e+01    0.2075467    0.1733142  89.16  0.000732823    1.245    0.197
        79  -8.5921    189.5011     14.5380   3.5838379433e+01   3.6209358603e+01    0.1243314    0.1067746 -86.27 0.0001757132    1.008    0.008
        80 -10.9734    192.8774    194.8509   7.7964707814e+01   5.2043859342e+00    0.8588874    0.4463559 -60.94  0.002792974    4.862    0.794
        81 -15.5462      2.4471    196.8764   1.2202685708e+02   3.1634538660e+01     17.39831          nan -74.68   0.03537836   12.954    0.923
