#   1 NUMBER                 Running object number                                     
#   2 MAG_AUTO               Kron-like elliptical aperture magnitude                    [mag]
#   3 X_IMAGE                Object position along x                                    [pixel]
#   4 Y_IMAGE                Object position along y                                    [pixel]
#   5 X_WORLD                Barycenter position along world x axis                     [deg]
#   6 Y_WORLD                Barycenter position along world y axis                     [deg]
#   7 A_WORLD                Profile RMS along major axis (world units)                 [deg]
#   8 B_WORLD                Profile RMS along minor axis (world units)                 [deg]
#   9 THETA_WORLD            Position angle (CCW/world-x)                               [deg]
#  10 FWHM_WORLD             FWHM assuming a gaussian core                              [deg]
#  11 ELONGATION             A_IMAGE/B_IMAGE                                           
#  12 ELLIPTICITY            1 - B_IMAGE/A_IMAGE                                       
         1 -14.4984     68.4915    144.4280   1.0042306626e+02   3.6984780706e+01       4.8252     2.654217  71.83  0.006943645    3.408    0.707
         2 -14.2252    217.9790     27.0437   3.6756072494e+01   2.8238709202e+01     1.155588    0.8793519  32.73  0.006862809    1.862    0.463
         3 -14.3625    204.7990     39.5908   4.1155443863e+01   2.9600069435e+01     1.928147     1.447833  27.81  0.007833609    1.862    0.463
         4 -12.5332    246.1358      4.0636   2.9660278905e+01   2.4975075293e+01    0.4574765    0.4078998  46.78  0.003152567    1.580    0.367
         5 -12.6117    240.8620      3.7625   2.9947314797e+01   2.6046912055e+01    0.4451029    0.3104113 -75.80  0.002777169    1.208    0.172
         6 -10.2715     52.7635      4.4630   6.1876453444e+01   6.6918671267e+01    0.2169081    0.1092748  49.43  0.001128206    2.085    0.520
         7 -10.4440     47.6885      2.3492   6.2824622271e+01   6.7968878990e+01    0.2154884    0.1798486  16.14  0.000463825    1.153    0.132
         8  -9.3429     79.7697    182.8219   1.0359300075e+02   2.6060400759e+01    0.2845893    0.1624821  89.91  0.001162796    2.574    0.611
         9 -11.0145    140.1535    249.6285   9.9281680857e+01   3.5095534699e+00    0.2369464    0.2166925 -52.30  0.001644962    1.317    0.241
        10 -15.9173      5.3190    186.0266   1.2140584480e+02   3.3485357897e+01     9.882462    0.7320145 -74.03   0.01736985    7.772    0.871
        11  -9.7086     99.3064    180.9294   9.8451363387e+01   2.3593828558e+01    0.2358725    0.1999914  36.17 0.0005779924    1.184    0.156
        12 -15.9947      7.7680    247.2167   1.2444171519e+02   2.0598953300e+01     1.989548     1.626684  14.93   0.01522077    1.869    0.465
        13 -12.7074     85.6726    154.2358   9.7399543383e+01   3.2098801235e+01     1.667203     0.750096 -56.42  0.006617642    2.086    0.521
        14 -12.4683     78.3425    160.7543   1.0052764772e+02   3.1575445901e+01    0.6099963    0.4789921  53.63 0.0004674379    1.331    0.249
        15 -13.5816     65.7989    156.6718   1.0324481327e+02   3.4296806327e+01    0.5905868    0.4312913 -45.82  0.001266496    1.403    0.287
        16 -10.3812    146.2545    171.9145   8.5273156145e+01   1.7579878580e+01    0.2749248    0.2085375  54.82  0.000948681    1.510    0.338
        17 -14.4797     56.9845    238.9571   1.1485559323e+02   1.6885521432e+01     1.119187     0.792263 -70.48 0.0006134776    1.476    0.322
        18 -10.5618    230.6468    167.1404   6.6617161448e+01   3.3803730153e+00    0.2770326    0.1098258 -44.73  0.001088054    2.603    0.616
        19 -16.2231     31.2261    249.4360   1.2044530714e+02   1.7819658447e+01     11.12324     3.542504  23.52   0.01859688   13.047    0.923
        20 -11.6576     31.7709    156.1404   1.1229735668e+02   3.8257423434e+01    0.3916276    0.3696854 -19.67  0.001882732    1.288    0.223
        21  -9.9141    235.2336    155.0246   6.3288246572e+01   4.6940050137e+00     0.185475   0.09969335 -36.13 0.0004974893    1.615    0.381
        22  -8.9937    152.5894    152.7848   7.9710845184e+01   2.0557752232e+01    0.2206373    0.1440743 -57.74 0.0009405713    1.785    0.440
        23 -10.9815    133.6664    144.1771   8.2460695999e+01   2.6161233896e+01     1.095054    0.2897259 -53.96  0.002575549    5.575    0.821
        24 -10.0425    174.6348    149.1930   7.3825630887e+01   1.6985049699e+01    0.2757969    0.2170115  39.94 0.0007204383    1.316    0.240
        25 -10.1796     48.1773    145.2502   1.0633297867e+02   3.9269619620e+01    0.2634232    0.2007974 -30.76  0.001429756    1.536    0.349
        26 -11.0433     32.4254    144.2606   1.1060435315e+02   4.1124667569e+01    0.4760474    0.2279724  45.08    0.0021901    2.310    0.567
        27 -10.7343    100.5817    139.5761   9.0334059716e+01   3.3290932220e+01    0.6100955    0.3617785 -20.46  0.002187356    2.961    0.662
        28 -10.3905    198.3032    139.9418   6.6747786316e+01   1.4159840339e+01    0.3241876     0.234675 -59.90 0.0009886684    1.736    0.424
        29 -12.4882     87.4596    139.4690   9.4034759604e+01   3.5458722342e+01    0.3113262    0.2553277 -42.26 0.0005290341    1.199    0.166
        30 -10.9001     77.2137    137.6673   9.6632285430e+01   3.7448909950e+01    0.3514322    0.2705562  69.56 0.0006412741    1.567    0.362
        31 -10.3896    105.9958    131.1945   8.6932565885e+01   3.4365297532e+01     0.401448    0.2836473 -50.39  0.001418264    1.361    0.265
        32 -10.2295    110.0207    130.2081   8.5568585541e+01   3.3874548038e+01    0.3657085    0.2616563   1.42 0.0009386794    1.945    0.486
        33 -14.6862     19.0457    219.0948   1.2081767506e+02   2.5069728279e+01     1.050853    0.8434142  86.27  0.007596883    1.095    0.086
        34 -10.7986    135.3642    128.4612   7.8303980417e+01   2.9394006462e+01    0.4823994     0.204808 -46.58  0.001699395    2.299    0.565
        35  -9.6064    160.5055    127.9824   7.2007284046e+01   2.4305957240e+01    0.2504011    0.1488024 -42.47 0.0002027428    1.624    0.384
        36 -10.9722     97.4108    126.2372   8.8247198917e+01   3.7051545594e+01    0.3202884     0.248588 -26.33 0.0008488903    1.417    0.294
        37  -9.3673    116.2193    124.7613   8.2526816661e+01   3.3997771735e+01    0.2168459    0.1785232 -14.36 0.0005546103    1.366    0.268
        38 -11.2135     45.0609    123.7581   1.0367344900e+02   4.4968378933e+01    0.2697853    0.2337716 -45.17  0.001593092    1.110    0.099
        39  -8.9019    163.6703    121.3275   6.9617841893e+01   2.5028242067e+01    0.1565363    0.1247298 -81.38 0.0007051086    1.708    0.415
        40 -11.2592     44.1527    129.3952   1.0494073940e+02   4.3662435333e+01    0.2741139    0.2414571  58.51  0.000981802    1.258    0.205
        41  -9.8550    106.9934    119.0492   8.3722001450e+01   3.7052517258e+01    0.2196469    0.2079855 -23.82            0    1.027    0.027
        42 -12.2198     64.2561    175.0279   1.0637116789e+02   3.0008942794e+01     0.492184    0.3121192 -39.48  0.002387961    1.935    0.483
        43 -15.8629      9.6805    207.8888   1.2194911836e+02   2.8306686060e+01     3.531833     1.620428 -62.09   0.01304071    2.135    0.532
        44  -9.1925     82.7228    116.9708   9.0479620365e+01   4.1689539203e+01    0.2057539    0.1797258 -52.48 0.0003725561    1.090    0.082
        45  -9.1767    168.0070    113.0101   6.6526137922e+01   2.5788707414e+01    0.2534087    0.1939753 -78.97  0.001136721    1.827    0.453
        46 -10.4841     39.4435    113.1271   1.0348769277e+02   4.8167067727e+01     0.208529    0.1826157  68.02 0.0007450192    1.321    0.243
        47 -14.6562     37.9323    200.1840   1.1543714975e+02   2.7233287750e+01     2.098835    0.8892492 -79.26  0.008552834    2.402    0.584
        48 -10.0822    205.4111    110.2764   5.8412294225e+01   1.8292956587e+01    0.3243553    0.2194014  35.47  0.001095263    1.727    0.421
        49 -10.8080     28.8576    107.1036   1.0584371505e+02   5.0604981175e+01     0.258003    0.1921867  26.85 0.0008807428    1.561    0.359
        50 -12.7468    248.4163    104.4827   5.0390676901e+01   1.0885731891e+01    0.9933503    0.4213583 -55.90  0.003518363    3.805    0.737
        51  -9.4720    134.8021    104.1838   7.2125322225e+01   3.4812714715e+01    0.3597676    0.1142086 -48.30  0.001036797    3.496    0.714
        52  -9.2108    119.6540    103.7253   7.6076131432e+01   3.8061297916e+01    0.1573015    0.1204456   1.80 0.0004677383    1.626    0.385
        53 -10.0572     39.0079    102.0038   1.0140775448e+02   5.0907861392e+01    0.2056905     0.186489 -59.07 0.0005835147    1.094    0.086
        54  -9.6977    120.9841     98.4825   7.4240768673e+01   3.8912852563e+01    0.2285134    0.1524065  43.34 0.0005326033    1.538    0.350
        55 -12.0935     69.0334    169.9425   1.0442646491e+02   3.0614505342e+01    0.3982968    0.2673451 -45.19 0.0007063541    1.605    0.377
        56 -12.6573    247.3697     91.1263   4.7643482844e+01   1.3206700105e+01    0.6866308    0.2923751 -47.40  0.003018427    2.157    0.536
        57 -15.5243     47.5514    190.9966   1.1235990188e+02   2.8258823629e+01     5.253078     2.323235  67.46     0.020124    3.373    0.704
        58 -10.5529     53.2257     91.4778   9.3980798929e+01   5.1827312409e+01    0.2913315    0.2256531 -72.95 0.0009910027    1.534    0.348
        59 -10.1972     72.0663     83.1087   8.5023132342e+01   5.1112961968e+01    0.3848757    0.2476415  57.17  0.001646338    2.383    0.580
        60  -9.1621    160.1968     82.5704   6.0028621261e+01   3.3364188235e+01    0.2044135    0.1389041  39.86 0.0004867592    1.567    0.362
        61  -9.1888     92.9860     67.0005   7.2901030777e+01   5.0758003999e+01    0.2146081    0.1833482 -82.75  0.000589986    1.682    0.406
        62 -10.6669     13.4373     59.9282   1.0130149555e+02   6.2523886993e+01    0.2499486    0.1878247 -54.47 0.0004124567    1.213    0.176
        63  -9.5551    149.7229    187.5857   8.7493442303e+01   1.3627124826e+01    0.2388005    0.1855384 -75.57  0.001044338    1.762    0.432
        64 -12.6613    195.8229     45.6643   4.3820254556e+01   3.0838281265e+01    0.6922295     0.515076  52.64  0.001295852    1.415    0.294
        65  -9.6185     89.9757    212.9824   1.0524476882e+02   1.7843045217e+01    0.3590838     0.191502  66.71  0.001509292    2.732    0.634
        66  -9.4556    137.0608     43.2748   5.3194808728e+01   4.5015883274e+01    0.1915194    0.1721384  61.80 0.0002266463    1.100    0.091
        67  -9.3237     48.5773     42.6842   8.0400129925e+01   6.2348155836e+01    0.1929253    0.1502674  44.94 0.0006107828    1.721    0.419
        68 -10.5009    139.2009     37.1359   5.0791816437e+01   4.5317052526e+01    0.3569593    0.2438759 -73.90  0.001447609    2.073    0.518
        69  -8.8952     72.3485     54.7432   7.5656007678e+01   5.6658209569e+01    0.1242221    0.1111825  68.79  0.000696288    1.598    0.374
        70  -9.4990    189.6634     15.0271   3.6857489555e+01   3.5909056636e+01    0.1728283    0.1534895 -59.55 0.0007373043    1.122    0.109
        71  -9.9123    112.3108    205.9459   9.9224016255e+01   1.5992851171e+01    0.1807483    0.1764471 -86.89 0.0003019787    1.074    0.069
        72 -10.5140    107.9030    204.0073   9.9952762926e+01   1.7090943781e+01    0.2035538    0.1912555  60.97 0.0004712867    1.034    0.033
        73 -11.5368    193.4672    195.5187   7.9474820911e+01   4.5545180488e+00    0.8862534    0.4890099 -62.67  0.002977068    4.733    0.789
