#   1 NUMBER                 Running object number                                     
#   2 MAG_AUTO               Kron-like elliptical aperture magnitude                    [mag]
#   3 X_IMAGE                Object position along x                                    [pixel]
#   4 Y_IMAGE                Object position along y                                    [pixel]
#   5 X_WORLD                Barycenter position along world x axis                     [deg]
#   6 Y_WORLD                Barycenter position along world y axis                     [deg]
#   7 A_WORLD                Profile RMS along major axis (world units)                 [deg]
#   8 B_WORLD                Profile RMS along minor axis (world units)                 [deg]
#   9 THETA_WORLD            Position angle (CCW/world-x)                               [deg]
#  10 FWHM_WORLD             FWHM assuming a gaussian core                              [deg]
#  11 ELONGATION             A_IMAGE/B_IMAGE                                           
#  12 ELLIPTICITY            1 - B_IMAGE/A_IMAGE                                       
         1 -12.9228    198.3091     32.7123   6.0868908672e+01   3.1332094513e+01     1.035566    0.7946125  25.66  0.005107103    1.439    0.305
         2 -13.6716    213.5680     15.1499   5.3554157264e+01   2.9301764052e+01     1.450092    0.9892095  26.55  0.006927484    1.737    0.424
         3 -12.1276      2.4695      4.3879   1.1027181978e+02   7.3289986661e+01    0.6622532    0.2923276 -56.27  0.003844031    1.720    0.419
         4 -10.4977     16.8848     25.5038   1.1059305798e+02   6.8291900870e+01     0.212725    0.1466113  45.76  0.001112742    1.994    0.499
         5 -11.0885    185.1491    250.1697   1.0926287316e+02   3.7878683850e+00    0.4161588    0.1100798  43.65  0.001424956    2.676    0.626
         6 -10.1651    192.1813    248.8450   1.0804277369e+02   2.8900960508e+00     0.188479    0.1088942  46.24 0.0009460111    1.354    0.261
         7 -10.8054    169.7407    248.5621   1.1144546040e+02   6.2080070359e+00     0.270905     0.172074  21.32 0.0008199663    2.020    0.505
         8 -11.5578    150.2541    247.8873   1.1438613753e+02   9.1155913110e+00    0.3196826    0.2582051 -39.16  0.002662455    1.788    0.441
         9 -11.5135    124.2459    240.3777   1.1774782602e+02   1.3744968463e+01    0.4798718    0.1722563  42.27  0.002639064    2.130    0.531
        10 -10.7134    114.4342    250.3319   1.2012475025e+02   1.3827762021e+01    0.6005045    0.1553539  42.58  0.002958565    2.845    0.649
        11 -11.5001    109.0397    245.9633   1.2060284629e+02   1.5111210755e+01    0.3522808     0.235822  83.83  0.001370249    1.718    0.418
        12 -11.8271    105.4816    237.2892   1.2045452541e+02   1.6745448928e+01    0.5296065    0.4116498 -15.54  0.003660793    2.853    0.649
        13 -11.0875     98.3143    231.4031   1.2111675906e+02   1.8529197027e+01    0.3006192    0.2104295 -87.96  0.002098957    1.569    0.363
        14 -11.3487     87.9229    248.5677   1.2402490285e+02   1.7512588840e+01    0.4430816     0.189063  49.94 0.0007108836    1.634    0.388
        15 -11.1945     83.5228    244.3352   1.2440551769e+02   1.8636106277e+01     0.446816    0.2636606 -47.50  0.003027922    3.098    0.677
        16 -11.3276     90.7273    240.3719   1.2301486925e+02   1.8268354503e+01    0.4561362    0.2248652  89.61   0.00220586    2.952    0.661
        17  -9.0932     62.5295    250.4635   1.2792287658e+02   2.0314339389e+01    0.1484068   0.07667594  36.26  0.000722002    2.149    0.535
        18 -11.2146     60.3546    245.8052   1.2798704228e+02   2.1207423781e+01    0.3424043    0.2461525  60.15  0.001725734    1.103    0.093
        19  -9.8325     66.7653    243.8106   1.2691410714e+02   2.0741603324e+01     0.206029    0.1308973  34.71 0.0009717695    1.928    0.481
        20 -12.2792      3.9602    186.1591   1.3398934307e+02   3.6387424007e+01    0.8799067    0.4396081 -89.05   0.00632411    1.593    0.372
        21 -12.4802     18.5808    217.0313   1.3291983224e+02   2.9926135913e+01    0.9287644    0.7440938   4.26  0.007312008    2.797    0.642
        22 -13.5900     10.0976    209.3391   1.3393115547e+02   3.1945565283e+01     1.664762    0.8280538 -71.24   0.01229422    2.071    0.517
        23 -12.4107     44.1570    208.0481   1.2834120206e+02   2.8773612484e+01     1.157535    0.4004412  66.33  0.005754226    3.218    0.689
        24 -13.1401     40.0373    243.6764   1.3086892932e+02   2.3747097680e+01    0.8531846    0.5677174  68.45  0.007584746    1.088    0.081
        25 -13.3803     28.4759    246.6138   1.3265583216e+02   2.4520592707e+01     1.182814    0.5921134  53.26  0.008986305    1.345    0.257
        26 -13.3419      4.4891    244.6418   1.3593616389e+02   2.7079016484e+01    0.9011621    0.4541782  77.27  0.007637715    1.482    0.325
        27 -12.5798     13.9118    238.6150   1.3443170089e+02   2.7083440655e+01    0.5380282    0.2846104  57.80  0.002947304    1.250    0.200
        28 -12.7031     31.1453    227.0260   1.3142879937e+02   2.7131492184e+01    0.3684871    0.2270253 -81.00 0.0008478287    1.607    0.378
        29 -13.8915     37.4917    218.6509   1.3002782524e+02   2.7776648676e+01     1.035345    0.6817195  44.51  0.008322896    1.479    0.324
        30  -8.8195    194.2671    245.3192   1.0731236800e+02   2.9292268377e+00    0.1001804   0.06506751  23.27 0.0002041297    1.557    0.358
        31 -10.7946    167.5379    242.5033   1.1113210709e+02   7.1946155678e+00    0.1941473    0.1360966  53.71 0.0008775034    1.303    0.233
        32 -11.0940    164.6873    242.3176   1.1155861052e+02   7.6385805462e+00    0.2090597    0.1545573 -47.96  0.001628628    1.874    0.466
        33 -11.2050    143.0487    242.1016   1.1494069376e+02   1.0841314124e+01    0.2638214    0.1435146 -50.87  0.001782614    2.510    0.602
        34 -11.1658    175.9544    242.6421   1.0983230926e+02   5.9267623339e+00    0.3018393    0.1356521  55.32  0.001611237    2.585    0.613
        35 -12.1233    136.0043    241.2988   1.1597437490e+02   1.1956370314e+01    0.4640033    0.2546353  42.11  0.002328824    1.404    0.288
        36 -10.3186    135.9784    225.0184   1.1433655341e+02   1.4066531022e+01    0.2249288    0.1894969 -78.67  0.001161044    1.457    0.314
        37 -10.0911    132.4146    223.7334   1.1479440254e+02   1.4772650233e+01    0.1802652    0.1656001  70.94 0.0009967636    1.248    0.199
        38 -11.3372    135.1048    236.6279   1.1566419776e+02   1.2674305192e+01    0.3421765    0.2239117  33.44   0.00136101    1.586    0.369
        39 -11.0784    134.7886    231.5274   1.1520670246e+02   1.3379232519e+01    0.3423743    0.2329941 -32.02  0.002251749    2.514    0.602
        40 -12.2526    134.5496    248.7631   1.1689888784e+02   1.1250124690e+01      1.06857    0.1872395  41.25  0.003935702    4.872    0.795
        41  -9.9905     53.8739    240.7391   1.2867733886e+02   2.2659938385e+01    0.1639029    0.1084687  78.12 0.0008228045    1.289    0.224
        42 -10.2484    244.4966    240.4919   9.9157192502e+01  -3.9487094716e+00    0.1058542   0.07276982  27.51 0.0008106329    1.000    0.000
        43 -11.0625    116.5951    238.3992   1.1878420610e+02   1.5073063376e+01    0.2761869    0.2280834 -24.96  0.001446894    2.117    0.528
        44  -9.3606     61.4653    239.0035   1.2743320162e+02   2.2043075286e+01    0.1595172    0.1086578  44.32 0.0007132794    1.431    0.301
        45  -9.1801    173.1390    236.1030   1.0952640343e+02   7.0706097404e+00    0.1376066    0.1038141  54.44            0    1.297    0.229
        46 -10.7141    142.0072    221.6422   1.1296282209e+02   1.3609905534e+01    0.3561261    0.1678035  39.77  0.001070403    1.787    0.441
        47 -11.1289    128.7376    235.2791   1.1655586277e+02   1.3767776904e+01    0.3185175    0.1738896  58.96  0.001893995    1.715    0.417
        48 -11.1669    122.6942    233.8204   1.1739185179e+02   1.4824837459e+01    0.3277417    0.1949527  51.39  0.001162878    1.258    0.205
        49  -8.6329     70.5662    235.4422   1.2581326548e+02   2.1480570802e+01   0.09948706   0.06978076  60.90 0.0002684183    1.007    0.007
        50 -10.2254    156.6264    232.0324   1.1171213787e+02   1.0053699581e+01    0.1933563    0.1577728  40.83 0.0005067149    1.131    0.116
        51 -10.3827     98.0978    223.5668   1.2049376638e+02   1.9692107962e+01    0.2637784    0.1857989  37.15  0.001279972    1.537    0.350
        52  -9.7408     94.5056    219.4260   1.2073519956e+02   2.0795577104e+01    0.2749607    0.1264827  59.52   0.00113123    2.025    0.506
        53 -11.3900    113.3323    231.3231   1.1867861570e+02   1.6484978159e+01     0.251089    0.2089725 -80.09  0.002076944    1.431    0.301
        54 -10.7288     78.9857    224.5214   1.2371251645e+02   2.2054275467e+01    0.5111039    0.2424343  88.07  0.002905684    2.874    0.652
        55 -11.5693    105.1145    227.5551   1.1968432139e+02   1.8154562661e+01    0.3864918    0.2461809  65.73  0.002350475    1.426    0.299
        56  -8.5330     78.2379    233.3893   1.2447263583e+02   2.0837795245e+01   0.07854459   0.07615038 -68.86 0.0006920422    1.649    0.393
        57 -11.3761     96.4514    240.0732   1.2209917004e+02   1.7566567778e+01    0.3633938    0.2932039 -16.32  0.002171003    2.681    0.627
        58  -9.2861     46.0046    231.2971   1.2936677858e+02   2.4916482174e+01    0.1768427   0.08960392  67.48  0.001275258    1.576    0.365
        59  -9.2997    250.6630    231.3227   9.6965044343e+01  -4.0863568818e+00   0.09115197   0.07704008  47.97 0.0007043595    1.714    0.417
        60  -9.6089    141.2799    231.2057   1.1411617603e+02   1.2462010092e+01    0.1557971    0.1063722  43.85 0.0005343288    1.144    0.126
        61  -7.9824     57.4525    231.4373   1.2760562990e+02   2.3613349184e+01   0.09905526   0.06832531  62.65 0.0003874219    1.004    0.004
        62  -9.6780     55.1097    235.9003   1.2822422332e+02   2.3221654497e+01    0.2268284    0.1028813  53.47 0.0009876475    1.554    0.357
        63  -9.1356    142.1917    227.1947   1.1354071127e+02   1.2845862226e+01    0.1505804    0.1046922  59.96 0.0005469037    1.342    0.255
        64 -10.5531    117.0571    224.4662   1.1742749833e+02   1.6915926182e+01    0.2453846    0.1740403  41.80 0.0004290551    1.289    0.224
        65  -9.2813     64.8571    224.7215   1.2601377167e+02   2.3759110777e+01    0.1487989    0.1245661 -76.22  0.001134019    1.514    0.340
        66  -9.1131     87.9448    223.7569   1.2218606754e+02   2.1016789670e+01    0.1533687    0.1045764  56.70 0.0008500479    1.084    0.078
        67 -10.5712    245.5630    220.2200   9.6085228734e+01  -2.4026816271e+00    0.2318758    0.1007698 -23.94   0.00132109    2.685    0.628
        68  -9.7298    110.5689    219.2655   1.1801520589e+02   1.8592218868e+01    0.3024944    0.1524266 -82.38  0.001559725    3.404    0.706
        69  -9.9745     70.2567    218.4480   1.2469881888e+02   2.4073240116e+01    0.3740901    0.2055392  85.96  0.002494185    1.922    0.480
        70  -8.8552     88.9905    218.3406   1.2156826270e+02   2.1697851580e+01    0.1522729     0.105082  55.83  0.000497254    1.092    0.084
        71  -9.2769     92.7566    226.0883   1.2158500674e+02   2.0037457130e+01    0.1798327    0.1173998  50.86 0.0006984022    1.169    0.145
        72  -9.1971    137.5071    214.8794   1.1296381561e+02   1.5229027822e+01    0.2279074    0.1397001  78.52  0.001274404    2.530    0.605
        73 -11.3711     84.6875    230.8248   1.2326182995e+02   2.0396149408e+01    0.4154011    0.1918986 -70.34  0.002661803    2.531    0.605
        74  -9.3890     88.1684    212.8310   1.2123841312e+02   2.2660097448e+01    0.1924424    0.1240857  86.34 0.0009668692    1.622    0.383
        75 -10.9447     62.5847    210.3675   1.2539870947e+02   2.6288594584e+01    0.6538759     0.371435  34.46  0.004266665    2.059    0.514
        76  -8.4813    130.7620    211.3608   1.1372862913e+02   1.6767184289e+01    0.1073903   0.07504836  72.79 0.0002312904    1.591    0.371
        77 -10.3926     55.7086    208.3088   1.2641720804e+02   2.7433055851e+01    0.2770796    0.1631099  65.99   0.00081669    1.354    0.261
        78  -8.9628    106.5404    209.9277   1.1779336001e+02   2.0573460241e+01    0.1442145    0.1047563 -68.82 0.0005608439    1.587    0.370
        79  -9.6223    112.3904    208.2539   1.1659930400e+02   1.9984704658e+01    0.1757812    0.1535908  55.03 0.0006673878    1.180    0.152
        80  -9.6091    156.1055    208.0558   1.0892517755e+02   1.3238952080e+01    0.1688274    0.1344871  46.75 0.0003287539    1.012    0.012
        81  -8.7148     74.3601    208.2628   1.2322830122e+02   2.5182423630e+01    0.1322774   0.08441816  87.81 0.0003099959    1.541    0.351
        82 -10.3381     54.4662    205.5252   1.2643720744e+02   2.8035758020e+01    0.3537696    0.1706022  34.15  0.001317038    2.424    0.587
        83  -9.1559    125.7577    206.3462   1.1403687721e+02   1.8274840609e+01    0.1780946     0.135723 -70.85  0.001250952    1.551    0.355
        84  -9.8538     90.8597    204.9112   1.2005938877e+02   2.3558659362e+01    0.3725338    0.1578178  39.57  0.001819188    2.177    0.541
        85  -9.0460     32.9110    207.0023   1.3014650544e+02   3.0135349800e+01     0.123476    0.1078016 -74.56 0.0004684351    1.584    0.369
        86 -10.3478    250.1005    201.4372   9.2433142851e+01  -1.3830098741e+00    0.3022459     0.137299 -11.90  0.001493359    2.990    0.666
        87  -9.5314    103.3528    202.8139   1.1763592957e+02   2.2148868955e+01    0.2919694    0.1448307  51.22  0.001702577    1.637    0.389
        88 -10.0792     84.2538    201.2845   1.2089585443e+02   2.5042070754e+01     0.235424    0.1912625 -48.23  0.001226154    1.796    0.443
        89  -8.6832     64.2608    201.6308   1.2445845826e+02   2.7528635029e+01    0.1359262   0.08827976  39.85 0.0009384506    1.591    0.372
        90  -9.6485     44.0341    199.7328   1.2783924129e+02   3.0178416103e+01    0.2496549    0.2228104 -32.48  0.002025143    2.005    0.501
        91  -8.4289    127.7079    199.7084   1.1291281127e+02   1.8986197889e+01    0.1038754   0.08615978  22.22  0.000300822    1.550    0.355
        92 -10.6699     27.6747    195.2966   1.3038389677e+02   3.2638038890e+01    0.4183995    0.2045488  76.95  0.001207182    1.759    0.431
        93  -8.4290    145.2258    198.0157   1.0954106933e+02   1.6442126268e+01    0.1282674    0.0990442 -53.64 0.0003479834    1.577    0.366
        94 -11.1220    103.1991    196.1013   1.1695821465e+02   2.3261708134e+01    0.2124588    0.1916972  45.38 0.0003548301    1.303    0.232
        95  -9.1345     97.6121    196.3513   1.1800556001e+02   2.4022446197e+01    0.3072796    0.1363612  54.06  0.001319431    1.986    0.497
        96 -10.0880     73.6087    243.5301   1.2586242332e+02   1.9964741245e+01    0.2218603      0.15119  47.27  0.001817001    1.296    0.228
        97 -10.4306    249.3587    193.9043   9.1283093530e+01  -5.4245877309e-01    0.3129295    0.1730023  25.48  0.001838586    1.601    0.376
        98 -11.7554     58.1144    194.7628   1.2501432074e+02   2.9434207534e+01    0.3823721    0.3276223 -22.41  0.001796627    2.177    0.541
        99  -9.2061     20.8733    195.1521   1.3153496910e+02   3.3320942785e+01    0.1597645    0.1152776 -68.23  0.001117662    1.667    0.400
       100  -9.0822     19.9976    191.2324   1.3148308390e+02   3.4081077598e+01    0.1601022   0.09891164  71.74  0.001224949    1.193    0.162
       101  -8.8398    119.4642    194.1237   1.1374627440e+02   2.1147619515e+01    0.2281435    0.1065387  57.81  0.000765597    2.244    0.554
       102  -9.4037    113.4616    190.9678   1.1448276992e+02   2.2583272968e+01    0.3299178    0.1895292 -38.83  0.001726767    2.934    0.659
       103  -8.6988     72.5177    192.9967   1.2226590676e+02   2.7974205372e+01    0.1393619    0.0968655 -77.37  0.000325824    1.442    0.306
       104 -10.8256     15.6042    192.0775   1.3227650647e+02   3.4340800253e+01    0.1860073     0.123524  76.48 0.0003224065    1.091    0.084
       105  -9.4320    191.4533    191.5254   1.0038925124e+02   9.4897253332e+00    0.2129601    0.1711645  37.36 0.0006905641    1.024    0.023
       106  -9.0299     38.5839    192.2220   1.2830329120e+02   3.2057621800e+01    0.1815545   0.09626077 -57.09  0.001145934    2.466    0.595
       107  -9.1062     41.1094    188.5937   1.2761287301e+02   3.2427623431e+01    0.2126491    0.1105769  61.48  0.001393355    1.567    0.362
       108  -9.3502     31.8267    190.0351   1.2935693484e+02   3.3138542736e+01    0.2968118   0.08094458  44.97  0.001576443    2.678    0.627
       109 -10.4096    249.9836    187.8307   9.0137135375e+01  -4.1391834815e-02    0.2705655    0.1636397 -14.94  0.001650752    1.704    0.413
       110  -9.2544     77.0357    188.5187   1.2102218343e+02   2.8171085304e+01    0.1559809    0.1234123  77.10 0.0001840153    1.086    0.079
       111 -11.3471     65.3251    186.6410   1.2303075661e+02   2.9989829805e+01    0.2538513    0.2058403 -79.83  0.000443672    1.295    0.228
       112  -9.6794     29.0759    184.3314   1.2949746787e+02   3.4425283179e+01    0.2170249    0.1848166 -54.47  0.001462605    1.759    0.431
       113  -9.0310     24.1768    183.8331   1.3034492975e+02   3.4990773778e+01    0.2227113    0.1215492  45.74 0.0008835412    1.623    0.384
       114 -10.2565    127.8492    182.7923   1.1073246951e+02   2.1672456752e+01    0.1990534    0.1682646  86.74 0.0002827414    1.248    0.199
       115  -8.4492    140.3866    183.4586   1.0844492474e+02   1.9489724080e+01     0.120711    0.1021465  57.35 1.427701e-05    1.055    0.052
       116  -8.9094    107.9073    182.4943   1.1451542156e+02   2.4860736233e+01    0.1668378    0.1425884  85.05 0.0004368807    1.153    0.133
       117  -9.0672     36.5556    182.6576   1.2803346446e+02   3.3969041751e+01    0.1721788   0.08371006 -72.04  0.001087376    1.915    0.478
       118  -9.2554     85.9688    180.2925   1.1849328607e+02   2.8430946633e+01    0.1842049    0.1340086  82.96 0.0003444281    1.297    0.229
       119  -8.7179     27.1473    180.1662   1.2958912410e+02   3.5364879101e+01    0.1463898   0.08733561  66.96 0.0005240343    1.311    0.237
       120  -8.9358     47.5369    179.7029   1.2578119725e+02   3.3327396432e+01    0.1746515   0.08424267  40.37 0.0007261313    1.960    0.490
       121  -8.4267     92.5365    178.3827   1.1700572423e+02   2.7851451912e+01    0.1160394   0.09477014  63.40 -3.157265e-05    1.033    0.032
       122 -11.8615    247.9156    173.1724   8.7809604733e+01   1.8256504999e+00     0.508597     0.352211  22.11  0.003191736    1.228    0.186
       123  -9.7810     83.5774    186.8065   1.1962960217e+02   2.7601301142e+01    0.1932635    0.1355654  62.91 0.0003265348    1.181    0.154
       124 -11.5563     65.2760    175.6893   1.2203929608e+02   3.1983438574e+01     0.217623    0.1749675  61.07 0.0003510184    1.128    0.113
       125 -10.7391     62.0876    172.3563   1.2234539776e+02   3.2995808911e+01     0.251091    0.1965997  57.06  0.001363217    1.173    0.147
       126  -9.4485    102.9911    176.0171   1.1467381122e+02   2.6741913474e+01     0.174792    0.1466319  66.43  0.001202328    1.012    0.012
       127 -10.7489     75.6698    174.7522   1.1991241394e+02   3.0829291031e+01    0.2348218     0.174299  72.71 0.0006562201    1.148    0.129
       128 -10.2722     19.2273    173.4012   1.3063399040e+02   3.7347825231e+01    0.3482878    0.1555034  73.56  0.001833473    1.997    0.499
       129 -10.7855     14.3931    167.0217   1.3116365067e+02   3.8962918152e+01    0.2587573    0.2077441  55.61   0.00127463    1.316    0.240
       130 -10.6840     12.1030    173.4383   1.3194633555e+02   3.7972893286e+01    0.2599214    0.1476922 -62.43  0.001393659    2.000    0.500
       131 -11.1476      3.2179    172.7846   1.3352519583e+02   3.8833712634e+01    0.3056787    0.1862783  69.58 0.0008723461    1.212    0.175
       132  -9.6493      1.6510    167.3106   1.3355293524e+02   3.9961297055e+01     0.104229   0.07442833  79.02 0.0008417839    1.032    0.031
       133  -9.1287    107.6852    172.9389   1.1335184716e+02   2.6577426539e+01    0.1637809    0.1381305  81.37 0.0005280365    1.125    0.111
       134  -9.0438     45.9604    172.4843   1.2550433621e+02   3.4838023610e+01    0.1484571   0.09255482  46.30  0.000385627    1.489    0.329
       135  -8.9760     37.2808    171.8554   1.2712698893e+02   3.5881081307e+01    0.1821587    0.1060266  79.12  0.000956371    1.479    0.324
       136  -9.8399     27.8537    171.3668   1.2888968888e+02   3.6915661203e+01    0.2500696     0.137593 -70.93  0.001390379    1.697    0.411
       137  -8.5890     52.6154    170.7662   1.2406118653e+02   3.4414367068e+01   0.09068145   0.08679755  -2.69 0.0003951442    1.632    0.387
       138  -9.2183     48.3834    168.6065   1.2470516587e+02   3.5301502994e+01    0.2553191    0.1066473  45.04  0.001425467    2.078    0.519
       139 -10.3991     44.8068    165.6734   1.2516184299e+02   3.6254364250e+01     0.444968    0.1479926 -54.97  0.001958337    3.798    0.737
       140 -11.5401      6.7914    166.6775   1.3257026793e+02   3.9667126399e+01    0.3004495    0.1480285 -75.97   0.00203049    1.722    0.419
       141 -11.5989     83.6251    166.1941   1.1736435222e+02   3.1355332802e+01    0.5353919    0.3798287  45.25  0.003447709    1.357    0.263
       142 -12.2528    245.0988    162.1330   8.6148232856e+01   3.5363538091e+00    0.5785289    0.2969107 -35.26  0.002980361    2.169    0.539
       143 -11.7659    246.5187    157.4805   8.5007778802e+01   3.8142560502e+00    0.9676205    0.6920138  80.13  0.004623324    3.306    0.698
       144  -8.3650     54.0000    164.9564   1.2325560103e+02   3.5361149497e+01    0.1682688   0.05631031 -70.04 0.0005109345    2.812    0.644
       145  -9.0371     60.3526    164.1963   1.2189489019e+02   3.4756755399e+01    0.3086362    0.1197716  63.06  0.001321498    3.333    0.700
       146  -8.8981     36.8213    162.6192   1.2650062406e+02   3.7683448517e+01    0.1454223   0.07994235  52.33 0.0005050699    1.586    0.369
       147 -12.7700     10.9599    153.3902   1.3101064614e+02   4.1849181998e+01     0.844815    0.2802846 -84.57 0.0003269936    2.670    0.626
       148 -12.8511      2.5979    127.7618   1.3109644706e+02   4.7575842994e+01     1.140582    0.2445629 -80.91  0.004463777    4.173    0.760
       149 -12.2460      2.2758    142.3616   1.3210306828e+02   4.4676097011e+01    0.7076677    0.1504677 -76.13  0.003138613    3.493    0.714
       150  -9.7020     16.0594    158.2510   1.3030626181e+02   4.0482509729e+01    0.1664178    0.1161162  87.98 0.0003786664    1.111    0.100
       151 -11.7420      8.8335    142.4516   1.3074297277e+02   4.4164783848e+01    0.4129897    0.2134098  48.42  0.002747567    1.791    0.442
       152 -10.4194     32.2038    154.9352   1.2681421681e+02   3.9641751786e+01     0.292221    0.1684501 -56.33 0.0009413144    2.018    0.504
       153 -10.9361     24.5234    155.0561   1.2839253968e+02   4.0347260447e+01    0.4454113    0.1222991  36.69  0.002196207    3.270    0.694
       154  -8.3748    228.4262    155.4608   8.7540741484e+01   7.3813630076e+00     0.128841    0.1107655  18.50  8.95621e-05    1.032    0.031
       155  -9.8650     84.8555    155.1557   1.1573309523e+02   3.3308594884e+01    0.1786548    0.1393644  72.56 0.0002710429    1.146    0.128
       156 -12.7199    248.1824    101.2061   7.2338127476e+01   1.0397560525e+01     1.060054    0.5648477 -22.98  0.004914261    1.790    0.441
       157 -11.8669    247.8878    142.4709   8.1719089059e+01   5.3212067602e+00    0.6485775    0.4437893  32.30   0.00372442    1.327    0.246
       158 -13.0652    248.6264    132.6188   7.9490871184e+01   6.3704177223e+00     1.412608    0.5428787 -30.76  0.006015639    2.490    0.598
       159  -8.6392    113.6533    151.1442   1.0896854665e+02   2.9661183940e+01    0.2542961    0.1175191 -64.27  0.001100254    2.666    0.625
       160 -10.3064     96.5321    150.8130   1.1261630785e+02   3.2446319033e+01    0.3012839    0.2340575 -58.02  0.001408681    1.373    0.272
       161 -10.8594     23.0398    149.9610   1.2831485583e+02   4.1484167626e+01    0.2280267    0.1598763  30.97  0.001434222    1.802    0.445
       162 -12.0671     68.4434    144.3695   1.1792659635e+02   3.7683123319e+01    0.5860384    0.3635721  76.14  0.002229384    1.695    0.410
       163  -8.7000     53.2845    146.3082   1.2151150511e+02   3.9130367474e+01    0.1045249   0.08470153 -50.57 0.0001781357    1.567    0.362
       164  -9.7861     41.5081    147.4945   1.2419442288e+02   4.0181686740e+01    0.1945293    0.1647232 -87.38 0.0005919948    1.155    0.134
       165  -9.7100    133.4445    140.8261   1.0291077658e+02   2.8158807643e+01    0.3050756     0.238664 -76.39  0.001544692    1.467    0.318
       166  -9.3154     19.6883    141.6945   1.2838442442e+02   4.3429155396e+01    0.1508195    0.1163791  67.00 0.0004196078    1.169    0.145
       167 -11.4508     16.6396    139.1745   1.2884584940e+02   4.4194491908e+01    0.2528164    0.2186605  63.61  0.001718422    1.273    0.215
       168 -11.3628     13.0323    137.2798   1.2948398011e+02   4.4870300037e+01    0.2257477    0.1533123  73.54  0.000591681    1.207    0.171
       169 -10.1259    236.1248    145.9816   8.4333225248e+01   7.1116315293e+00    0.2328319    0.1694181  34.52 0.0007117038    1.237    0.192
       170 -10.4417     32.7549    140.3771   1.2542617266e+02   4.2506572731e+01     0.276334    0.1368205  77.72 0.0008997057    2.088    0.521
       171  -9.0187    100.0325    146.0526   1.1113533621e+02   3.2844067276e+01    0.1937626    0.1571746 -23.49  0.001128471    1.842    0.457
       172  -9.9406    249.5341    117.9148   7.6062759458e+01   8.0091126199e+00    0.2704416    0.2167851   4.77 0.0007075873    1.141    0.124
       173 -11.2865     59.9710    136.4324   1.1883904754e+02   4.0373643414e+01    0.2673402    0.2030189  85.04 0.0004507936    1.162    0.140
       174  -8.4831     50.6928    138.2722   1.2118684944e+02   4.1071720846e+01    0.1186643   0.07429913  70.30 0.0002158845    1.543    0.352
       175  -9.6097    108.8752    136.2925   1.0754656138e+02   3.3358361468e+01    0.2889985    0.2199166   3.32  0.001241731    2.202    0.546
       176 -10.5145     44.4872    130.1875   1.2168343882e+02   4.3435074522e+01    0.2479807    0.1439847  77.52 0.0008530617    1.771    0.435
       177 -10.6155     66.8925    127.7739   1.1602659793e+02   4.1331560514e+01     0.290775    0.1864803 -89.43  0.001625563    1.631    0.387
       178 -10.0601     59.0873    128.0361   1.1793979274e+02   4.2242827593e+01    0.1831282    0.1538474  86.32 0.0004100152    1.021    0.020
       179 -10.1937     23.5180    127.0089   1.2626022164e+02   4.6111470806e+01    0.1763922   0.08978167 -78.05  0.001036053    1.608    0.378
       180  -9.8131    209.9926    125.8216   8.4396455085e+01   1.5113236520e+01    0.2265312    0.1944814 -17.62 0.0005096689    1.165    0.142
       181  -8.8694    115.2919    129.3283   1.0480494284e+02   3.3657007433e+01    0.1274795    0.1076138 -13.19 0.0002914242    1.623    0.384
       182  -9.8560     30.4621    126.5172   1.2458313856e+02   4.5595219640e+01    0.1138897   0.09047764 -87.17 8.071472e-05    1.037    0.035
       183 -12.3999     15.8158    121.8496   1.2759063663e+02   4.7822209815e+01    0.5991148    0.1654249 -72.00   0.00276433    2.756    0.637
       184 -11.8766     22.0850    120.5023   1.2596750443e+02   4.7597802788e+01    0.2744957    0.2502493   4.30  0.002134553    1.590    0.371
       185 -11.5183    248.5536    113.0189   7.5080220945e+01   8.8206976554e+00    0.5811836    0.3756495  28.67  0.002996286    1.579    0.367
       186  -9.7662    231.8098    116.3557   7.8478532052e+01   1.1838972212e+01     0.190771    0.1661325 -18.51 0.0006956829    1.131    0.116
       187 -11.3605     11.1952    115.6418   1.2813910689e+02   4.9471953317e+01    0.2119694     0.158962 -88.27  0.001020393    1.010    0.010
       188 -11.4228      9.4973    112.4741   1.2826875034e+02   5.0259765048e+01    0.2472286    0.1554392 -60.67 0.0006823374    1.521    0.342
       189  -9.9018    167.8413    113.0721   8.9559500189e+01   2.6318556209e+01    0.3186353    0.2569782 -86.23  0.001026291    1.630    0.387
       190 -12.1822      3.6223    109.5188   1.2945919918e+02   5.1278018127e+01    0.5561475    0.1987965 -70.31  0.002266995    2.082    0.520
       191 -11.2823      9.3232    107.5619   1.2785701629e+02   5.1309715633e+01    0.2259654    0.1614539  65.43  0.001628345    1.346    0.257
       192  -8.3217    104.5110    153.4407   1.1128327098e+02   3.0699416488e+01    0.1268389    0.1086969  70.35 0.0001643054    1.035    0.034
       193  -8.8281    203.4788    111.5020   8.2197271357e+01   1.8678255573e+01    0.1465267    0.1320967  15.79 4.257057e-05    1.053    0.050
       194 -11.6305     14.6624    104.6981   1.2619969823e+02   5.1540116248e+01    0.2964255    0.1847509  59.80  0.001207589    1.622    0.383
       195  -8.6840     59.7374    104.3455   1.1412704043e+02   4.7276168667e+01    0.1272217   0.08687416  84.19 0.0003224933    1.602    0.376
       196  -8.4155     71.7561    100.0292   1.1005936898e+02   4.6676409458e+01    0.1595902   0.09939985 -61.99 0.0002344179    1.449    0.310
       197 -10.1301     16.9979     99.0060   1.2494670355e+02   5.2591784435e+01    0.1697091    0.1311075 -83.28    0.0012175    1.017    0.017
       198  -9.6707     21.7567     93.0511   1.2288990697e+02   5.3521958646e+01    0.1617499    0.1151993 -40.95  0.001056986    1.687    0.407
       199  -9.2504     89.9581    153.4630   1.1441211974e+02   3.2906709564e+01    0.1767727     0.109896  45.98 -4.624679e-05    1.507    0.337
       200 -10.8533    249.5762    150.9554   8.3214427157e+01   4.0142629479e+00     0.428949    0.2716451 -33.90  0.002401242    1.726    0.421
       201  -8.5536    184.6809     77.6334   7.6774077611e+01   2.8424474795e+01    0.1633695     0.115155  16.25 0.0007038415    1.783    0.439
       202 -11.8438    199.9903    246.7100   1.0660530513e+02   1.9508152555e+00    0.4640843    0.2127765  42.22  0.002924502    1.558    0.358
       203 -11.2693    100.0485    247.7104   1.2212017229e+02   1.6072529678e+01    0.4468328    0.2125219  49.33  0.002809665    1.481    0.325
       204 -12.3065    122.9849    244.9456   1.1835263179e+02   1.3338019308e+01    0.6610909    0.3310668  41.76  0.004368057    1.568    0.362
