#   1 NUMBER                 Running object number                                     
#   2 MAG_AUTO               Kron-like elliptical aperture magnitude                    [mag]
#   3 X_IMAGE                Object position along x                                    [pixel]
#   4 Y_IMAGE                Object position along y                                    [pixel]
#   5 X_WORLD                Barycenter position along world x axis                     [deg]
#   6 Y_WORLD                Barycenter position along world y axis                     [deg]
#   7 A_WORLD                Profile RMS along major axis (world units)                 [deg]
#   8 B_WORLD                Profile RMS along minor axis (world units)                 [deg]
#   9 THETA_WORLD            Position angle (CCW/world-x)                               [deg]
#  10 FWHM_WORLD             FWHM assuming a gaussian core                              [deg]
#  11 ELONGATION             A_IMAGE/B_IMAGE                                           
#  12 ELLIPTICITY            1 - B_IMAGE/A_IMAGE                                       
         1 -16.3113    179.9722     81.9599   7.8063794035e+01   2.8886237651e+01     10.07387     4.716334 -56.86   0.02700761    5.180    0.807
         2 -14.1886    167.9397     61.5020   7.4365623191e+01   3.5126070937e+01     1.154111    0.6217837 -45.20  0.001959659    2.077    0.519
         3 -17.2266    235.6592      4.6791   4.8925547743e+01   2.5071530813e+01     11.21534          nan  64.31   0.02418727   10.534    0.905
         4 -16.8999    242.6451     94.0889   7.0502335762e+01   1.2960717168e+01     12.08142     2.803091 -27.08   0.03451179    4.652    0.785
         5 -15.2480    241.7393     13.9165   5.0720965492e+01   2.2816296367e+01     1.130034    0.5824471  41.12   0.00425389    2.574    0.611
         6 -14.6651    202.3907     51.1919   6.5148017759e+01   2.7924853596e+01     1.492768     1.078018 -24.89  0.007455265    1.367    0.269
         7 -15.8041    219.4211     42.3430   6.0334113750e+01   2.4892271603e+01     4.550658     1.961803 -49.54   0.01730698    2.736    0.634
         8 -11.4883     43.4205     11.4183   9.4059274552e+01   6.9454261842e+01    0.3688636    0.2023839 -55.93  0.001497546    3.769    0.735
         9 -10.9745    100.2170     11.7759   7.1828252439e+01   5.8678902054e+01    0.2095155    0.1493885  23.69   0.00107024    1.355    0.262
        10 -10.8186    146.1881      9.9592   6.0786097097e+01   4.7326755537e+01    0.3256671    0.2018501 -31.19  0.001135295    1.699    0.411
        11 -10.5587    144.6390      5.8775   5.9527831269e+01   4.8105233849e+01    0.3621317    0.2037521  74.88 0.0008637063    1.862    0.463
        12 -11.6557    133.7244      4.0497   6.0740679488e+01   5.1124096374e+01    0.4888686    0.2759569 -35.27  0.002229344    1.928    0.481
        13 -10.0049    139.1658      3.3206   5.9487253086e+01   4.9764379630e+01    0.2878067    0.1691231  55.80   0.00134644    1.486    0.327
        14 -12.1333     58.4615      8.5626   8.5242713847e+01   6.7555318644e+01    0.3238966    0.2099857 -11.51  0.001243278    1.498    0.333
        15 -10.8377    156.7410      7.5292   5.8199305395e+01   4.4753775124e+01    0.3085417    0.2254317 -20.58 0.0007043649    1.460    0.315
        16 -11.2595    106.7929      7.4968   6.8079727664e+01   5.7578483906e+01    0.2538748     0.193821 -12.67 0.0006169911    1.335    0.251
        17 -12.3306     64.1018      3.2680   7.9882438693e+01   6.7228848014e+01    0.4950845    0.3141221   1.37  0.002591489    1.624    0.384
        18 -10.5426    105.2901      2.2362   6.6045860172e+01   5.8436915054e+01    0.2657036    0.1939341  27.59  0.001413495    1.273    0.215
        19 -11.5119     70.0756      2.5900   7.7135442103e+01   6.6165636521e+01    0.3756577    0.1878031  33.66   0.00174438    1.931    0.482
        20  -9.4530    154.0355      1.4850   5.6459805784e+01   4.5987124559e+01    0.2212326    0.1304571  68.73  0.001023239    1.563    0.360
        21 -10.3787    123.3406    101.3204   9.7351890864e+01   3.8118690396e+01    0.1590425    0.1191677   0.25  0.000297089    1.717    0.418
        22 -11.2829    146.2920     97.9097   9.0318807196e+01   3.3908770145e+01    0.3570436    0.2969984   1.56 0.0008481194    1.307    0.235
        23 -13.7999    247.3791     44.8287   5.7789368572e+01   1.8237240493e+01    0.7615227     0.456837 -31.95  0.002687782    1.472    0.320
        24 -10.8699    133.1242     95.0996   9.2962185046e+01   3.7351396575e+01    0.2982663     0.276691 -35.12 0.0005664377    1.099    0.090
        25  -9.2572    113.3669     95.2290   9.8555325397e+01   4.1394566733e+01    0.1506392    0.1146241  10.61 0.0003140482    1.590    0.371
        26 -12.6120    155.1953     90.3710   8.5989937156e+01   3.3308630630e+01    0.6686726    0.4335123  21.09  0.002730389    1.992    0.498
        27 -12.4124    164.9317     86.7908   8.2687856146e+01   3.1667251451e+01    0.6134515    0.3757926  59.92  0.002165533    1.907    0.476
        28 -11.7629    139.6471     87.0077   8.8895464742e+01   3.7505678191e+01    0.3686864    0.3324938 -41.96 0.0009825446    1.163    0.140
        29 -14.9736     18.8847    203.8578   1.3790268624e+02   3.0540319541e+01     0.940356    0.6423244  63.42   0.00377952    1.122    0.108
        30 -11.5210    199.5904     87.1076   7.5720313974e+01   2.3405859078e+01    0.4157391    0.3260439  84.05  0.001960874    1.752    0.429
        31 -11.5306    210.9539     82.2954   7.2431322485e+01   2.1502162041e+01    0.5502691    0.3389708 -29.98  0.001559204    1.542    0.352
        32 -11.2469    218.0396     85.2284   7.2040704998e+01   1.9463179125e+01    0.3124008    0.2220548  36.92  0.001330716    1.458    0.314
        33 -11.9005    215.4366     80.6375   7.1252118263e+01   2.0717189349e+01    0.4880008    0.3438338 -41.84  0.001899635    1.451    0.311
        34 -11.4226    221.0392     79.1252   6.9966906154e+01   1.9662900775e+01    0.5948027    0.3612462  70.55  0.002425467    2.216    0.549
        35 -12.9252    153.2230     79.0500   8.3105511912e+01   3.5825639798e+01    0.4350321    0.3102899 -30.55 0.0008585578    1.415    0.293
        36 -14.7441     49.2111    180.1874   1.3015741127e+02   3.2116623145e+01     1.694337    0.7997725  24.07  0.001799614    2.655    0.623
        37 -15.0802     57.3075    172.2716   1.2759868097e+02   3.2830741211e+01      2.76331     1.545095 -32.92    0.0045908    3.556    0.719
        38 -12.2847    218.0139     70.4000   6.8117572627e+01   2.1575327326e+01    0.4793466    0.4305446 -19.69 0.0008847681    1.048    0.046
        39 -11.0428    220.4279     66.2305   6.6644032773e+01   2.1588871229e+01    0.2242582    0.2046408 -64.69 0.0003812546    1.215    0.177
        40 -11.8630    192.1820     70.0474   7.2282866654e+01   2.7787130232e+01    0.3516788    0.3302918   2.50  0.001388766    1.028    0.027
        41 -13.5306    187.3520     63.3010   7.1178159253e+01   2.9980864966e+01    0.9151354    0.4708473  33.19  0.003377412    2.535    0.605
        42  -9.8166     88.5667     79.0622   1.0174495958e+02   4.9450988831e+01    0.2083135    0.1296444 -71.35 0.0008067298    2.662    0.624
        43 -10.5096    130.6742     65.9796   8.4667008580e+01   4.3487450581e+01    0.3146851    0.2672061 -25.95 0.0007577039    1.171    0.146
        44  -9.7983    202.0667    248.2710   1.0756308185e+02  -1.4185899875e-01    0.1568811    0.1062819  28.31 0.0002720187    1.067    0.063
        45 -10.8151    133.9226    146.6630   1.0505846315e+02   2.6649718127e+01    0.7182594    0.2021234 -54.77  0.001872307    5.910    0.831
        46 -11.8171    218.0548    181.6704   9.3995008589e+01   5.3896077500e+00    0.2374023    0.1763919  20.51  0.001113139    1.110    0.099
        47  -9.5908    189.6444    148.3180   9.2790497840e+01   1.5529850911e+01    0.1355376     0.116994  82.91 0.0007045703    1.750    0.429
        48 -10.6443    175.1688     41.5985   6.6648727368e+01   3.6109431628e+01    0.3583027    0.2064901 -28.09 0.0008186005    1.744    0.426
        49  -9.7517    186.0333     39.8266   6.4289272622e+01   3.3524999253e+01    0.2570244    0.1484576  38.38  0.001080779    1.927    0.481
        50 -10.1188    189.8799     36.3065   6.2622240815e+01   3.2969507792e+01    0.2264092    0.1873963 -38.62 0.0005216332    1.217    0.178
        51 -11.0474    191.2668    192.2243   1.0101138385e+02   8.4577814276e+00     0.696115    0.4055983 -63.64  0.002208877    7.180    0.861
        52 -10.3555    178.9799     26.1193   6.1077530489e+01   3.6988808760e+01    0.2223682    0.1962359  34.08 0.0006542801    1.152    0.132
        53 -12.2733      5.9807    170.3930   1.3886593810e+02   3.8031406895e+01    0.2840166     0.195504  24.10  0.001378593    1.760    0.432
        54 -10.7932     81.7575     22.8409   8.3037114825e+01   6.1238573027e+01    0.2180724    0.1725835   7.05 0.0006876154    1.189    0.159
        55 -10.4484     39.4781     18.5174   9.9698175797e+01   6.8773213165e+01    0.1316735    0.1033679 -18.14 0.0008094576    1.053    0.050
        56  -9.8058    166.0123    134.4758   9.4822686986e+01   2.2701874472e+01    0.2201768    0.1383487  39.98 0.0003506861    1.501    0.334
        57 -10.6554    135.8005    129.3321   1.0091221906e+02   2.9802696171e+01     0.445231    0.1317392 -50.11  0.001315293    3.992    0.750
        58 -10.8986    135.1849    121.6110   9.9283040783e+01   3.1506137955e+01     0.617209    0.1849438 -47.97  0.001875911    3.635    0.725
        59 -11.7552    160.6583    128.2051   9.4596719862e+01   2.4976959869e+01    0.4229417    0.3468809 -52.09  0.001568467    1.411    0.291
        60 -12.5668     67.8842    144.4448   1.2168395596e+02   3.7564326792e+01    0.6835181    0.3560838  58.74  0.002815134    2.284    0.562
        61 -10.5657    108.0131    233.4773   1.2304484407e+02   1.5183546878e+01    0.1752324   0.08830626  38.85 0.0003555891    1.538    0.350
        62 -12.7444    166.8110    113.9654   8.9672943512e+01   2.6315420768e+01    0.8214387    0.5032801 -20.54  0.002714093    2.005    0.501
        63 -11.0671    152.6396    119.8314   9.4484811041e+01   2.8262804919e+01    0.3773443    0.2292976 -19.11  0.001490656    2.302    0.566
        64 -10.6294    135.0000    113.0312   9.7235994562e+01   3.3305375939e+01    0.4471067    0.1605522 -40.22  0.001466451    2.971    0.663
        65 -11.7237    134.6368    105.9799   9.5519293483e+01   3.4823922615e+01    0.8055876     0.327379 -44.70  0.002850627    2.523    0.604
        66 -10.4517    158.8532    105.8541   8.9410066238e+01   2.9587899620e+01    0.2775764    0.2538984 -86.42 0.0003684512    1.351    0.260
        67 -12.3294    156.7920    101.5373   8.8738207077e+01   3.0862088135e+01    0.4465114    0.3997082 -59.44  0.002299417    1.303    0.233
        68 -13.7049    183.7786    134.8989   9.1017363385e+01   1.8964672701e+01     1.047219    0.5422921  58.99  0.003804037    3.061    0.673
        69 -10.7878    140.8538    102.5950   9.2991582944e+01   3.4182169953e+01    0.3004717    0.2362579  -2.76 0.0009505818    1.490    0.329
        70 -11.9050    246.2681    163.7972   8.5527319207e+01   2.9999561410e+00    0.4820811    0.2390853   9.01  0.001963488    3.093    0.677
