#   1 NUMBER                 Running object number                                     
#   2 MAG_AUTO               Kron-like elliptical aperture magnitude                    [mag]
#   3 X_IMAGE                Object position along x                                    [pixel]
#   4 Y_IMAGE                Object position along y                                    [pixel]
#   5 X_WORLD                Barycenter position along world x axis                     [deg]
#   6 Y_WORLD                Barycenter position along world y axis                     [deg]
#   7 A_WORLD                Profile RMS along major axis (world units)                 [deg]
#   8 B_WORLD                Profile RMS along minor axis (world units)                 [deg]
#   9 THETA_WORLD            Position angle (CCW/world-x)                               [deg]
#  10 FWHM_WORLD             FWHM assuming a gaussian core                              [deg]
#  11 ELONGATION             A_IMAGE/B_IMAGE                                           
#  12 ELLIPTICITY            1 - B_IMAGE/A_IMAGE                                       
         1 -14.4292    167.4270     38.2353   7.6928737316e+01   3.8646556170e+01     1.434808     1.029889   2.87  0.004257984    1.512    0.339
         2 -13.9560    182.3378      6.2045   6.3291285836e+01   3.8203248459e+01     1.045762    0.8941193  54.83  0.004169366    1.118    0.106
         3 -12.2104    161.3030    198.7184   1.1700008417e+02   1.4014398120e+01      0.33011    0.1900598  60.42  0.001354139    2.537    0.606
         4 -18.9341     72.8276    239.6064   1.3655101888e+02   2.0386559785e+01     6.083397      4.54672  55.38    0.0432556    1.062    0.059
         5 -11.2747    169.0707    202.6362   1.1612355743e+02   1.2243381036e+01    0.1698011    0.1566143  49.61 0.0002980431    1.276    0.216
         6 -10.0706    100.1497    200.4845   1.2869357621e+02   2.2852632543e+01    0.1562734   0.08804029  45.46 0.0004554729    1.437    0.304
         7 -10.5615    137.7117    198.0988   1.2134056718e+02   1.7805452563e+01    0.4441032    0.1836695  55.82  0.001817391    3.536    0.717
         8  -9.9756     30.7084    204.9858   1.4149327068e+02   3.0034410119e+01    0.1223676    0.1035194  62.21  0.001088338    1.242    0.195
         9 -10.3565    139.9178    249.7005   1.2659894981e+02   1.0692091180e+01    0.1606812    0.1355338  59.93 0.0009368968    1.314    0.239
        10 -13.4146    167.3020    190.8094   1.1471924862e+02   1.4137592761e+01    0.4702719    0.3783323  63.63  0.003034329    1.562    0.360
        11 -12.7620    175.0755    193.8944   1.1373333185e+02   1.2430701215e+01    0.3357742    0.2987987 -81.31  0.001668456    1.654    0.395
        12 -12.6784    180.4083    192.5746   1.1254210086e+02   1.1722795703e+01    0.3187836     0.279302 -83.05  0.001134831    1.765    0.433
        13 -12.5110    176.5131    188.2452   1.1258697809e+02   1.2955753832e+01    0.3049495     0.266706 -55.28  0.001651714    1.559    0.358
        14  -9.4788      8.0331    195.9897   1.4492359112e+02   3.3494721430e+01    0.1157109    0.0955281 -77.77 0.0005304544    1.454    0.312
        15 -18.8200     60.0855    103.1194   1.2508839635e+02   4.7032914660e+01     16.20696     0.715772 -62.22   0.02315986   21.556    0.954
        16  -9.6717    227.9963    232.0003   1.1024783078e+02   6.3949417758e-05     0.129294   0.09321436  20.08 0.0003928367    1.088    0.081
        17 -10.2030    110.1165    223.0634   1.2908710262e+02   1.8115493958e+01    0.1544829    0.1167489  51.30 0.0003883697    1.038    0.036
        18 -10.1305     25.8102    222.9532   1.4310847159e+02   2.7659491018e+01    0.1103461   0.09620494 -62.40  0.000668261    1.722    0.419
        19 -12.2109    112.9732    170.0395   1.2253716399e+02   2.6172173523e+01    0.4072981    0.2939283 -38.07  0.001220504    1.767    0.434
        20 -11.4092    118.6555    181.7182   1.2293496827e+02   2.3298811869e+01    0.5751024    0.2695466  63.46  0.002199438    4.185    0.761
        21 -10.6777    113.2378    177.4286   1.2347301854e+02   2.4838598033e+01    0.2128267    0.1653232  84.64 0.0007304691    1.476    0.323
        22 -10.5629     27.9266    184.0803   1.4087064028e+02   3.3845565669e+01    0.1417219    0.1139913  69.47 0.0004029585    1.096    0.087
        23 -13.0199    205.4964    180.4689   1.0591830324e+02   9.0162077253e+00    0.5254098    0.3041339  39.15  0.002052779    1.448    0.309
        24 -12.8139    208.5195    178.5014   1.0502001145e+02   8.7376073457e+00    0.4171456    0.3138724  27.33  0.001972118    1.066    0.062
        25 -11.5232    196.6839    175.3706   1.0662982115e+02   1.1209984078e+01    0.3444183    0.2654812  73.54 0.0009741602    2.325    0.570
        26 -12.7472    196.4562    171.3957   1.0595201342e+02   1.1780878289e+01    0.4994445    0.3991339 -41.95  0.001766535    1.609    0.379
        27 -11.3812    140.6951    174.3139   1.1742179765e+02   2.1051042709e+01    0.1991053    0.1638486  57.82 0.0006608652    1.242    0.195
        28 -12.8361    137.7084    170.9234   1.1751228689e+02   2.2104236929e+01    0.4878485     0.302182  42.68  0.002078499    1.402    0.287
        29 -11.2646     20.6642    219.4221   1.4377452233e+02   2.8664191046e+01    0.1409355   0.08723646  49.10 0.0002291128    1.282    0.220
        30 -13.1357    144.6744    169.0028   1.1577215427e+02   2.1259217233e+01    0.5590612    0.3848716  89.00  0.002767246    2.609    0.617
        31 -11.5670    125.9212    171.9990   1.2011245805e+02   2.3827371049e+01    0.2615039     0.206773 -57.96  0.001107565    1.441    0.306
        32 -10.3224     22.6627    166.3948   1.4083355949e+02   3.7528594944e+01    0.1622229    0.1207134  -4.39  0.001130619    2.375    0.579
        33  -9.8908    201.6297    165.3182   1.0384436109e+02   1.1665088830e+01    0.1221834    0.1044964  70.91 0.0007035108    1.791    0.442
        34 -10.6018    223.8029    164.0179   9.9554344940e+01   7.8265840160e+00    0.1796332    0.1646616  11.10 0.0005380735    1.295    0.228
        35 -11.5110     16.3373    217.7202   1.4438948063e+02   2.9306948409e+01     0.207086    0.1084648  37.79  0.001581037    1.775    0.437
        36 -10.4710    116.0304    211.6630   1.2692252259e+02   1.8958491487e+01    0.2665589    0.1394828  64.56  0.001412079    2.607    0.616
        37 -11.0067    129.9510    161.1649   1.1760670126e+02   2.5064066385e+01     0.192664    0.1567235  60.75 0.0004514816    1.264    0.209
        38 -10.0804    110.7671    212.3973   1.2794595466e+02   1.9575100031e+01    0.1517559    0.0854409  46.43 0.0009575314    1.397    0.284
        39 -12.3425    163.3333    155.6307   1.0956966840e+02   2.0157813951e+01    0.4368995    0.3513793 -88.81  0.002396505    1.896    0.473
        40  -9.6470     14.1536    157.5739   1.4200396681e+02   3.9889907623e+01     0.117076   0.09973571  12.24 0.0009376901    1.705    0.413
        41 -13.6940    135.7905    125.9804   1.0975353638e+02   3.0549492867e+01     1.606488    0.3029156 -49.42  0.003877489    6.895    0.855
        42 -11.2624    151.2235    149.9873   1.1107187105e+02   2.3321559606e+01    0.2280966    0.1768238  41.08 0.0003243007    1.169    0.145
        43 -11.8017    109.6045    208.2026   1.2773263242e+02   2.0364563458e+01    0.2618238    0.2249334  37.15  0.001119129    1.219    0.180
        44 -11.1405    174.5334    149.0111   1.0596809272e+02   1.9123400188e+01    0.2554429    0.2217608  40.59 0.0009250151    1.143    0.125
        45 -13.3395    144.7218    145.8250   1.1170264084e+02   2.5233687530e+01    0.5576451    0.4400284  83.03  0.003018306    1.755    0.430
        46 -11.7392     13.3271    143.3460   1.4131069084e+02   4.2729946014e+01     0.172831    0.1406979 -74.59 0.0007163038    1.255    0.203
        47 -12.8622      7.0821    139.3164   1.4240752085e+02   4.3976949323e+01    0.4043369    0.2838993  44.66  0.001708108    1.464    0.317
        48 -12.1711     23.7640    140.6799   1.3883483333e+02   4.2457298315e+01    0.2649724    0.1643417  37.60  0.001162864    1.685    0.407
        49 -11.7425    163.5966    210.0230   1.1812741827e+02   1.2138767401e+01    0.2073461    0.1728011  25.59  0.001219347    1.141    0.123
        50 -12.8999      2.6053    126.3349   1.4260898595e+02   4.6894415878e+01    0.6275471     0.146557 -75.68  0.002805442    3.177    0.685
        51 -12.5871     19.0112    127.6587   1.3888468346e+02   4.5508252835e+01    0.3604211    0.1723619 -67.79   0.00198284    1.758    0.431
        52 -12.5305    128.6454    143.4284   1.1486148875e+02   2.8519291339e+01    0.3973426    0.2324269  51.43  0.001916791    1.754    0.430
        53 -11.6509    160.9723    127.8699   1.0438818497e+02   2.5316986718e+01    0.3704809    0.2451828 -41.96  0.001817047    1.618    0.382
        54 -10.8972    168.1788    113.3304   9.9373319257e+01   2.6369970225e+01    0.3871053    0.2796814 -75.54  0.001657095    2.487    0.598
        55 -11.9722      4.2121    112.3618   1.4127010354e+02   4.9709060820e+01    0.2888819    0.1937062  13.53   0.00200743    2.053    0.513
        56 -12.6014     91.3967    109.6110   1.1760393814e+02   4.1458227684e+01    0.3161162    0.2579638  78.11    0.0013725    1.386    0.279
        57 -12.4031    163.4677    203.7905   1.1730835374e+02   1.2980660609e+01    0.3262198    0.2270936  33.21 0.0009450738    1.187    0.157
        58 -11.9319    117.7683    108.2793   1.1029976084e+02   3.7373444182e+01    0.3654685    0.1604961 -39.64  0.001400502    2.547    0.607
        59 -10.9367     15.0985    109.6070   1.3827232530e+02   4.9618073040e+01    0.2108993     0.111395   3.44  0.001126082    3.206    0.688
        60 -13.7160    133.8054    145.5699   1.1408538535e+02   2.7225203054e+01     1.054928    0.3471504 -54.08  0.003638166    3.993    0.750
        61 -11.8110    113.8948    110.3492   1.1177791946e+02   3.7635714139e+01     0.240783    0.1925441 -61.98 0.0007391335    1.334    0.250
        62 -10.4873    205.5543    110.1881   9.0907077005e+01   1.8774445725e+01    0.2657531    0.1978625  40.50 0.0006571391    1.292    0.226
        63 -10.9671     41.6880     91.8307   1.2856429725e+02   5.1461035053e+01    0.1821794    0.1659546 -21.96 0.0005076115    1.317    0.241
        64 -14.0263    155.2884     53.6398   8.4832160603e+01   3.9505397508e+01     1.173867    0.8987538  25.81 0.0009921971    1.332    0.249
        65 -10.5376     13.4848    244.9974   1.4571724328e+02   2.5563951540e+01    0.2024269   0.07128441 -69.24  0.001391232    3.195    0.687
        66 -12.3546    171.1749     30.8536   7.3637277738e+01   3.8602968205e+01    0.4464776    0.3411649   5.40 0.0009369083    1.359    0.264
        67 -10.0205     13.5064     59.8897   1.3249098179e+02   6.0729804272e+01    0.1775279   0.09291302 -69.37 0.0004039144    1.493    0.330
        68 -10.4336    137.9621     31.3747   8.0755930144e+01   4.7083292695e+01    0.3114359    0.2326736  78.79  0.001025275    1.814    0.449
