#   1 NUMBER                 Running object number                                     
#   2 MAG_AUTO               Kron-like elliptical aperture magnitude                    [mag]
#   3 X_IMAGE                Object position along x                                    [pixel]
#   4 Y_IMAGE                Object position along y                                    [pixel]
#   5 X_WORLD                Barycenter position along world x axis                     [deg]
#   6 Y_WORLD                Barycenter position along world y axis                     [deg]
#   7 A_WORLD                Profile RMS along major axis (world units)                 [deg]
#   8 B_WORLD                Profile RMS along minor axis (world units)                 [deg]
#   9 THETA_WORLD            Position angle (CCW/world-x)                               [deg]
#  10 FWHM_WORLD             FWHM assuming a gaussian core                              [deg]
#  11 ELONGATION             A_IMAGE/B_IMAGE                                           
#  12 ELLIPTICITY            1 - B_IMAGE/A_IMAGE                                       
         1 -14.7916    186.0296     42.1012   5.1957094305e+01   3.3414837313e+01     1.349862     1.036995  18.50   0.00402557    1.690    0.408
         2 -14.6202    209.6194     11.2728   4.0562944732e+01   3.1264988621e+01    0.9611855    0.8640771 -73.19  0.003826702    1.056    0.053
         3 -12.5839     53.5487      6.6840   7.1792049266e+01   6.7562835168e+01    0.3291872     0.150297  21.66  0.001410766    2.970    0.663
         4 -12.9865    242.6059      3.4461   3.5919186213e+01   2.4418597611e+01    0.5122243    0.3181545  80.39   0.00297276    1.510    0.338
         5  -9.8403    162.7167    235.3321   1.0090852882e+02   3.2115623669e+00    0.1184915   0.09032726  64.65 0.0002753164    1.614    0.380
         6 -13.5226    247.9724    246.5097   8.7138236995e+01  -1.1158058323e+01    0.5901583    0.3821276 -14.80  0.004022347    1.474    0.322
         7 -13.1546     50.6499    209.6481   1.2017667430e+02   2.4837089721e+01    0.9423737    0.3891524  48.69  0.004814751    2.037    0.509
         8  99.0000     58.4509    227.8706   1.2017115245e+02   2.0273089555e+01     9.350331     7.240174  49.29   0.06585053    1.253    0.202
         9 -13.6468    150.0435    189.3339   9.6350075585e+01   1.3444455657e+01    0.7311764    0.4146128 -70.27  0.002861367    3.114    0.679
        10 -12.5508     99.2966    180.9473   1.0642818954e+02   2.4105621006e+01    0.3395634    0.2938026 -20.43  0.001336893    1.570    0.363
        11 -12.4421     95.6954    189.7190   1.0849067444e+02   2.2768513520e+01    0.4349571    0.3325146  43.51  0.001053763    1.264    0.209
        12 -12.1659     99.1820    186.3980   1.0724468498e+02   2.2932901970e+01    0.4336768    0.2056511  44.45  0.001331765    1.933    0.483
        13 -12.2142     64.3942    193.1401   1.1578073448e+02   2.6558503002e+01    0.3383683     0.230462 -43.79  0.001315874    2.054    0.513
        14 -11.7922     67.4672    206.1701   1.1647831409e+02   2.3396211166e+01    0.2370593    0.2214162   5.07    0.0010466    1.560    0.359
        15 -10.0620     72.0893    202.9627   1.1519411125e+02   2.3433147885e+01    0.2770962    0.1638875  63.77  0.001271546    1.616    0.381
        16 -13.1203    143.7868    177.9628   9.5717804916e+01   1.6891955605e+01    0.4904352    0.3092086 -55.89  0.001681117    1.749    0.428
        17 -12.5961    139.8990    172.0812   9.5521332299e+01   1.8853802905e+01    0.3893119    0.2356132  45.19 0.0009793058    1.567    0.362
        18 -11.4628    187.5346    176.0777   8.5847675762e+01   8.8200215868e+00    0.3355111    0.3082648 -39.88  0.001143456    1.187    0.158
        19 -11.6116    149.5452    177.3183   9.4303398757e+01   1.5931188238e+01    0.2784491    0.2259024  66.85 0.0002580694    1.379    0.275
        20 -10.1391    193.5166    171.0765   8.3599788078e+01   8.5675640693e+00    0.2083697    0.1395158 -39.17 0.0006417787    1.533    0.348
        21 -10.4590    185.5860    169.7716   8.4972283410e+01   1.0362684092e+01     0.193609      0.13832 -51.35 0.0005506974    1.600    0.375
        22 -10.9252    240.3319    169.3061   7.4347905731e+01   1.7902130664e-01    0.1397408   0.09441656   4.38 0.0003669252    1.662    0.398
        23 -18.6053     23.6283     97.8288   1.1368853306e+02   5.3263665418e+01     14.08995     1.545947 -67.00   0.03277986    7.875    0.873
        24 -10.2933      1.2775    163.4678   1.2680059303e+02   3.9690864826e+01      0.11418   0.07856155 -80.73 0.0007617317    1.160    0.138
        25  -9.9238      7.0932    161.1528   1.2536986152e+02   3.9760544810e+01     0.156385     0.126532 -72.98 0.0003160683    1.241    0.194
        26 -11.8498     93.3489    156.4190   1.0396156939e+02   3.0663042053e+01      0.25274    0.2371595 -65.43 0.0003733899    1.117    0.104
        27 -12.9738     98.6589    150.2569   1.0151453083e+02   3.1239437188e+01    0.5693763    0.4312723 -33.17  0.002844844    1.646    0.393
        28 -11.0633    187.3079    151.9198   8.0781960300e+01   1.3404209854e+01    0.2138945    0.1948882 -22.58  0.001005388    1.084    0.078
        29 -12.1124    133.7645    145.5182   9.1660468679e+01   2.5856883809e+01      1.19118    0.2737795 -54.30  0.002620709    6.674    0.850
        30 -11.9789     59.3098    203.0784   1.1784905114e+02   2.5109101301e+01    0.2701479    0.2130142 -45.06  0.001361524    1.778    0.438
        31 -10.5313    174.4442    149.2039   8.2944113851e+01   1.6636258749e+01    0.2104836    0.1448296 -53.63 0.0006256346    1.627    0.385
        32 -10.0301     92.5849    147.2545   1.0253708753e+02   3.2954102350e+01    0.2033891    0.1285493 -50.77 0.0009493261    1.580    0.367
        33 -12.2120    109.2229    136.8600   9.6098857627e+01   3.2553390347e+01    0.4945186     0.285247 -35.88  0.001988758    2.222    0.550
        34 -12.4837     97.8523    136.4249   9.9050272288e+01   3.4661731290e+01    0.3708409    0.2913745 -64.04 0.0003952649    1.232    0.188
        35 -12.0285    105.9894    130.8338   9.5667837752e+01   3.4563016149e+01    0.4129053    0.3326286 -66.11  0.001236899    1.245    0.197
        36 -11.1452    115.8635    128.4787   9.2477637036e+01   3.3276978640e+01    0.2867987    0.2341481 -22.15 0.0008379626    1.474    0.322
        37 -10.9575     13.7542    201.6684   1.2671830704e+02   3.0475761241e+01    0.1005307    0.0732084 -66.19 0.0006915919    1.547    0.353
        38 -11.3715    103.8622    123.8302   9.4686037944e+01   3.6604399180e+01    0.2888705    0.2445692  -1.49 0.0007554293    1.474    0.321
        39 -11.7527    192.8498    194.6512   8.8343910176e+01   4.5768082878e+00    0.9111977    0.4697307 -63.12  0.002486879    7.467    0.866
        40 -10.6741    135.0000    119.9992   8.5395155691e+01   3.1343810448e+01    0.2625788   0.08822836 -46.26 0.0008020641    2.940    0.660
        41 -10.2242    110.9021    117.8598   9.1320749538e+01   3.6700149615e+01    0.2175173    0.2025947 -20.70  0.000328581    1.156    0.135
        42 -10.0957    150.6490    117.3168   8.0786721415e+01   2.8518325095e+01    0.1634389    0.1268297 -89.19 0.0007047268    1.735    0.424
        43 -10.7513    231.1929    113.9045   6.3539595801e+01   1.1074154037e+01    0.2287825    0.2135226  47.06  0.000730478    1.176    0.150
        44 -11.0276    167.5014    112.3472   7.5528306544e+01   2.5718175675e+01    0.3410385    0.2473037 -74.44  0.001159935    1.938    0.484
        45 -12.0680    119.9032    110.4054   8.6953881322e+01   3.6641489603e+01    0.4219211    0.3616781 -75.72  0.002032734    1.302    0.232
        46 -10.6416    205.4865    110.2293   6.7147066895e+01   1.7345894024e+01    0.2703556     0.214881  50.33 0.0006724187    1.319    0.242
        47  -9.9741    223.4110    198.4991   8.3179856087e+01  -1.3668431865e+00     0.130178    0.1105358   6.44 7.529167e-05    1.021    0.020
        48 -11.7482     75.3079    248.6474   1.1876312120e+02   1.4301799439e+01    0.3800835    0.1245754 -60.95  0.001840778    3.394    0.705
        49 -13.8686    171.0182     56.6915   5.8875253706e+01   3.5095774253e+01    0.7360236    0.5752777 -12.05 0.0009750655    1.503    0.335
        50 -11.9457     62.0585    245.4982   1.2086002677e+02   1.6587887159e+01    0.3154942    0.1924272 -78.74   0.00208516    1.679    0.405
        51 -13.4688    191.1662     36.0133   4.9448031083e+01   3.2927664617e+01    0.5925767    0.5218329 -25.42  0.001596416    1.240    0.194
        52 -11.2065     71.5605    242.1136   1.1890959103e+02   1.5944311249e+01    0.1849052    0.1566276 -56.52  0.001342586    1.634    0.388
        53 -10.8104     82.2361    195.0248   1.1213772291e+02   2.3669263775e+01    0.2197171    0.1748301  53.42 0.0008994392    1.148    0.129
