#   1 NUMBER                 Running object number                                     
#   2 MAG_AUTO               Kron-like elliptical aperture magnitude                    [mag]
#   3 X_IMAGE                Object position along x                                    [pixel]
#   4 Y_IMAGE                Object position along y                                    [pixel]
#   5 X_WORLD                Barycenter position along world x axis                     [deg]
#   6 Y_WORLD                Barycenter position along world y axis                     [deg]
#   7 A_WORLD                Profile RMS along major axis (world units)                 [deg]
#   8 B_WORLD                Profile RMS along minor axis (world units)                 [deg]
#   9 THETA_WORLD            Position angle (CCW/world-x)                               [deg]
#  10 FWHM_WORLD             FWHM assuming a gaussian core                              [deg]
#  11 ELONGATION             A_IMAGE/B_IMAGE                                           
#  12 ELLIPTICITY            1 - B_IMAGE/A_IMAGE                                       
         1 -13.2767    122.8610     13.4247   7.7013816010e+01   5.3079522225e+01     2.828239     1.936054  63.40   0.01272905    1.639    0.390
         2 -13.8963    242.1522    118.8256   8.6573721233e+01   9.9797031620e+00     5.899698     1.505982 -24.87   0.01682889    4.178    0.761
         3 -13.9375    141.7146     36.5936   8.1865745809e+01   4.5421201424e+01     4.960897     1.852326  49.36   0.01238182    2.507    0.601
         4 -14.3452    247.2768     24.2181   6.1306538094e+01   1.9984981200e+01    0.9551626    0.5805352 -44.98  0.004745698    1.655    0.396
         5 -15.7569    242.4687     10.2804   5.8009505250e+01   2.2433337371e+01     3.741134    0.7780785  58.81    0.0124458    3.905    0.744
         6 -15.9678    216.5277     47.8488   7.1713026711e+01   2.4807930999e+01     9.064162     4.408362  16.10   0.02881553    3.709    0.730
         7 -10.9082    185.6981     15.8999   6.6118039815e+01   3.6387881381e+01    0.4327711     0.365298 -11.50  0.001332429    1.182    0.154
         8  -9.8583    151.7566     12.7369   7.0534750798e+01   4.5785705115e+01    0.3498045    0.2289555 -21.73 0.0005975792    1.527    0.345
         9  -9.5087    195.7431      7.6693   6.2068371936e+01   3.4485187890e+01    0.3516636    0.2347187   9.58  0.001641336    1.676    0.403
        10 -12.4309    188.2868     47.7681   7.6234028892e+01   3.1976390056e+01     4.495848    0.1426248 -36.46  0.008224051    9.181    0.891
        11  -8.6694    183.6949      4.1973   6.2428809667e+01   3.8013041868e+01    0.4015779    0.1237497 -20.28  0.001325394    3.132    0.681
        12  -9.4464     52.0459      3.8600   9.6422577401e+01   6.8484196987e+01    0.3724229    0.1541933 -37.78  0.001153491    2.143    0.533
        13  -9.9557      2.6816      5.8701   1.2403485849e+02   7.2859233451e+01    0.2022832    0.1008524 -46.49  0.001210002    1.416    0.294
        14  -8.7316    225.5964      2.1487   5.7259961109e+01   2.7248885039e+01    0.2360954    0.1229209 -23.70  0.001008041    1.814    0.449
        15  -8.7646    164.9697      2.2741   6.4348813321e+01   4.3230626542e+01    0.2691551    0.2013885   0.60 0.0007998275    1.378    0.274
        16 -13.0373    169.1969     62.8881   8.4825567221e+01   3.4626082739e+01     2.694108     1.060154 -47.90  0.007801889    3.994    0.750
        17  -8.3946    150.9595      2.2885   6.6586392417e+01   4.6988529360e+01    0.2090265    0.1836634  47.15 0.0005955048    1.069    0.064
        18  -9.2138    210.3051      1.3803   5.8489118517e+01   3.1202603473e+01    0.2167103     0.130678  69.43  0.000507251    1.636    0.389
        19  -8.9612    171.2654      2.3284   6.3455145882e+01   4.1525885843e+01    0.4458199     0.263754 -69.03  0.001814532    2.362    0.577
        20  -8.1237    197.6376    163.3226   1.0421465845e+02   1.2666214362e+01    0.1234397    0.1053919  72.44 0.0007041434    1.782    0.439
        21  -9.2267     56.9298    249.8039   1.3957055299e+02   2.0734394833e+01    0.1371817    0.1017797  67.49 0.0003907228    1.163    0.140
        22  -8.5726    203.7954    161.0259   1.0260810263e+02   1.1846586370e+01    0.1875878    0.1721772  35.89  0.000629397    1.290    0.225
        23  -8.4480    237.2841    249.6234   1.1121377808e+02  -2.7520704610e+00   0.08680391    0.0725643  39.56 0.0007014419    1.717    0.418
        24  -8.7868     34.9489    227.9336   1.4189235183e+02   2.6051137101e+01    0.1417256    0.1014224  63.12 0.0006103738    1.032    0.031
        25  -8.0362    201.4698    222.0059   1.1317795646e+02   4.8887377226e+00    0.1366976    0.1070541 -17.76 0.0004040471    1.521    0.343
        26  -7.7986    119.2960    132.6777   1.1504059463e+02   3.2189909742e+01    0.1342476    0.1036941  78.09 0.0007020113    1.619    0.382
        27  -9.9062    135.6953    128.9502   1.1040204343e+02   3.0000359896e+01    0.4129183    0.1270913 -50.30   0.00135053    3.779    0.735
        28  -8.2372    122.1006    129.9262   1.1383473402e+02   3.2249887555e+01    0.1840321    0.1687154  72.71  0.001098789    1.150    0.130
        29 -11.1626    206.3336    123.2963   9.3960933342e+01   1.6680762541e+01    0.4760531    0.2830137  40.35  0.002249699    1.563    0.360
        30 -10.7930    228.1509    121.4377   8.9548673563e+01   1.2445674343e+01    0.4107563    0.3221467 -29.33  0.001928741    1.362    0.266
        31  -9.6170    223.4003    116.3807   8.9169829417e+01   1.4098526418e+01    0.3562945     0.196999  59.03  0.001380139    2.467    0.595
        32  -9.9524     32.1888    214.8335   1.4172765787e+02   2.8317621566e+01    0.1514874   0.09448496  62.44 0.0007852857    1.186    0.157
        33 -12.3331    205.3673    110.9500   9.1133879631e+01   1.8702293963e+01    0.8904132    0.8144631  72.40  0.004956487    1.450    0.310
        34  -9.3964    220.8500    119.6156   9.0402343205e+01   1.4185496636e+01    0.2442102    0.2133739  78.63 0.0009196948    1.716    0.417
        35 -11.6583    214.5322    116.1852   9.0717570620e+01   1.5983120130e+01    0.6846734    0.5561831 -88.42  0.002691465    2.098    0.523
        36  -9.7063    134.8704    110.3531   1.0644904114e+02   3.3749321201e+01    0.7178501     0.192499 -41.25   0.00214399    4.019    0.751
        37 -10.2860    133.6700    145.5161   1.1410594778e+02   2.7258772033e+01    0.9191586    0.2651044 -54.42  0.002805522    5.104    0.804
        38  -8.2770    221.5692    103.4323   8.6276196162e+01   1.6260124560e+01    0.2915062    0.1253738 -33.12  0.001149642    2.249    0.555
        39  -8.0881    140.8426    103.6641   1.0332717166e+02   3.3854747885e+01    0.2996552    0.1276846  37.34  0.001078865    2.548    0.608
        40  -8.2405      7.3756    154.2739   1.4318600331e+02   4.1028541034e+01   0.09150124   0.07109024 -51.49 0.0007001603    1.691    0.409
        41 -11.5466    143.2946    145.2921   1.1191691431e+02   2.5587335345e+01    0.6167186    0.3537151 -61.47  0.002747253    2.526    0.604
        42  -9.1549    147.1156     99.0450   1.0059719659e+02   3.3429453114e+01    0.2668507    0.2329061 -20.93 0.0007686312    1.146    0.127
        43  -9.6860    227.9431     97.0242   8.3545806040e+01   1.5746155355e+01    0.4310608    0.3701383 -67.24 0.0007164422    1.678    0.404
        44  -8.9274    133.7487     96.0851   1.0314307282e+02   3.6763363121e+01    0.2456646     0.237577 -56.47 0.0008611165    1.124    0.111
        45  -9.6507    156.8231     91.7672   9.6302689751e+01   3.2659984834e+01    0.4931046    0.3226951  14.55  0.002048429    2.062    0.515
        46  -8.1982    202.9741     90.7428   8.6297950280e+01   2.2237367056e+01     0.201145    0.1816711  30.38 0.0003061062    1.109    0.099
        47  -9.1090    124.8987    145.0411   1.1600463663e+02   2.8855556541e+01    0.1903079    0.1760504  47.40 0.0003191171    1.008    0.008
        48  -9.8122    140.6540     88.3032   9.9260790141e+01   3.6826245204e+01    0.2993174    0.2898887  -3.32 0.0007983409    1.050    0.047
        49  -8.9876    192.0079    144.0149   1.0140949436e+02   1.6510717511e+01    0.2074302    0.1844374  18.48  0.000359936    1.062    0.058
        50  -7.9870    124.7610    140.9507   1.1530009808e+02   2.9654429999e+01    0.1657298    0.1120906 -49.39 0.0006596135    1.571    0.364
        51 -11.2053    154.8223     81.3521   9.3781187763e+01   3.4968522624e+01    0.3739963    0.3025378 -13.60 0.0006994999    1.262    0.208
        52 -10.0916      3.8477     81.8451   1.3865243130e+02   5.6335793275e+01    0.1771351    0.1239904 -61.62  0.000786934    1.235    0.190
        53 -13.0663     14.8600    196.9888   1.4381141686e+02   3.2766737596e+01    0.7270475    0.5226249  72.71  0.003902703    1.047    0.045
        54  -8.0612    145.2924     71.6527   9.3132137833e+01   3.8866570624e+01    0.1528146    0.1230944 -67.28 0.0007029141    1.667    0.400
        55  -8.1919    151.6432     69.4508   9.0890662058e+01   3.7783357020e+01    0.3373402    0.1484761  48.99  0.001225755    2.252    0.556
        56  -9.8491    199.7861    133.8993   9.7672305642e+01   1.6467169951e+01     0.258975    0.1952504  72.50  0.001248401    2.177    0.541
        57 -10.9343    189.8376    136.0973   1.0012854201e+02   1.8143009958e+01    0.4424756    0.2889411  15.78  0.001219658    1.760    0.432
        58  -8.3590    146.8571     56.6148   8.7822194626e+01   4.1077925927e+01    0.2086732    0.1508592  64.11 0.0004338575    1.669    0.401
        59  -8.8898    245.9290     52.9018   6.9171516779e+01   1.7231652314e+01    0.2219631    0.1708941  40.73  0.001200754    1.341    0.254
        60 -10.0727    179.0356    199.1770   1.1380250911e+02   1.1087303573e+01     0.174381    0.1555759  25.15 0.0002420204    1.160    0.138
        61 -10.9365    209.7431    135.4191   9.6110909484e+01   1.4245849694e+01    0.5119213     0.406303 -84.80  0.002510422    2.428    0.588
        62  -9.0529    196.7696     43.4720   7.3425375338e+01   3.0346696997e+01    0.4697146    0.1958237 -50.89  0.001380343    4.075    0.755
        63 -10.7645    213.2817    131.2178   9.4499890787e+01   1.4124938065e+01    0.4108705    0.2538571  35.03  0.002029231    1.480    0.324
        64 -10.8230    192.1819     34.7008   7.1359083753e+01   3.2608938305e+01    0.4297552     0.290061  12.87  0.001247207    1.681    0.405
        65  -9.0045    201.5140     33.2426   6.9465578163e+01   3.0346872512e+01     0.355605    0.1356177 -25.76  0.001076919    2.447    0.591
        66  -7.9218    153.9308    158.0201   1.1197297883e+02   2.1470458960e+01    0.1602862    0.1341187  36.94 0.0004064832    1.057    0.054
        67  -8.8062    202.6614     28.1496   6.7698952513e+01   3.0619298177e+01    0.2116809    0.1805605 -32.11   0.00046455    1.177    0.150
        68  -9.1508    191.5509    192.2164   1.1044138155e+02   9.9113070115e+00    0.3567967     0.231821 -68.11  0.001518252    4.696    0.787
        69  -8.0724    152.6736     18.1693   7.2459233613e+01   4.4962586586e+01    0.2084829    0.1370585  -6.43 0.0004610155    1.601    0.375
        70 -10.6957     40.3381    192.5377   1.3910954659e+02   3.1193720264e+01    0.2325774    0.1760755  54.17  0.001874702    1.156    0.135
        71  -8.8329     14.5038     11.5085   1.1950488609e+02   7.1077662236e+01    0.1220313   0.08872088 -41.50 0.0008104665    1.028    0.027
        72 -10.9614     68.3970    144.7595   1.2905271886e+02   3.7136318060e+01    0.6205897    0.3500808  66.73  0.002403906    2.056    0.514
        73 -10.6365     70.6111    158.2955   1.3015265720e+02   3.4172739675e+01     1.269755    0.8513988 -43.60  0.007657488    1.958    0.489
        74 -12.8813     45.4890    175.0026   1.3693016957e+02   3.3796900144e+01     1.207277     0.572789  30.05  0.001876705    2.381    0.580
        75 -13.1230     54.5442    167.2721   1.3446723913e+02   3.4289751190e+01     1.885631     1.171376 -27.85  0.004974938    3.635    0.725
        76 -10.6517    216.2375    189.0685   1.0550774002e+02   6.1663969164e+00    0.7697468     0.345433  53.82  0.001641989    3.816    0.738
        77  -9.5236    221.6381    191.2664   1.0494852904e+02   5.0267825992e+00    0.3110161    0.1724979  51.37  0.001378487    2.299    0.565
        78  -9.1589    222.5997    178.2964   1.0247958415e+02   6.3370521854e+00    0.2527255     0.141388  50.62  0.001280021    2.148    0.534
        79 -10.1529    230.4039    167.0609   9.8996039193e+01   6.2976533240e+00    0.2839663    0.2087138 -19.93  0.001226106    1.404    0.288
        80  -9.4981    218.7396    169.7138   1.0155649719e+02   8.0305355415e+00    0.5295783    0.2731421  59.16  0.001961143    4.381    0.772
        81 -10.4140      7.1163    171.2274   1.4406248587e+02   3.7882624085e+01    0.2125895    0.1309984  32.22  0.001589689    1.818    0.450
