#   1 NUMBER                 Running object number                                     
#   2 MAG_AUTO               Kron-like elliptical aperture magnitude                    [mag]
#   3 X_IMAGE                Object position along x                                    [pixel]
#   4 Y_IMAGE                Object position along y                                    [pixel]
#   5 X_WORLD                Barycenter position along world x axis                     [deg]
#   6 Y_WORLD                Barycenter position along world y axis                     [deg]
#   7 A_WORLD                Profile RMS along major axis (world units)                 [deg]
#   8 B_WORLD                Profile RMS along minor axis (world units)                 [deg]
#   9 THETA_WORLD            Position angle (CCW/world-x)                               [deg]
#  10 FWHM_WORLD             FWHM assuming a gaussian core                              [deg]
#  11 ELONGATION             A_IMAGE/B_IMAGE                                           
#  12 ELLIPTICITY            1 - B_IMAGE/A_IMAGE                                       
         1 -13.3457    189.9278     27.2386   7.3580579274e+01   3.4029821047e+01     1.383653     1.287502  48.55  0.006218853    1.084    0.078
         2 -13.6165    203.6240      8.7097   6.5935855015e+01   3.2392400749e+01     1.686771     1.164183  34.83  0.008191585    1.601    0.376
         3  -9.5368     20.9328    247.1927   1.4498984338e+02   2.5894524185e+01    0.1129641   0.09956778  30.22  0.001104122    2.040    0.510
         4 -10.8764    139.9565    250.2088   1.2790345618e+02   1.1346301900e+01    0.3279411   0.09238531  45.71  0.001729652    2.471    0.595
         5  -9.9916     81.6816    249.1449   1.3641654585e+02   1.9030987462e+01    0.2122464    0.1099844  67.34  0.001198917    1.776    0.437
         6  -9.3956     67.2054    250.4638   1.3859380183e+02   2.0564536158e+01    0.1365978   0.05530327  51.87 0.0008710634    1.662    0.398
         7 -13.9767      5.6497     21.9834   1.2633528028e+02   6.9891831247e+01     8.229318          nan -61.59   0.02037548    8.681    0.885
         8 -14.6224      6.7966    210.5402   1.4577391204e+02   3.2583864557e+01     3.321247    0.7304463 -74.61   0.01788713    3.918    0.745
         9 -14.1605     56.1100    213.2187   1.3807228666e+02   2.7145830082e+01     6.582075          nan  46.65   0.02200303    6.719    0.851
        10 -13.7978     48.0356    226.6667   1.4014067691e+02   2.6021791994e+01     0.934127    0.7547277 -75.59  0.008504192    1.605    0.377
        11 -10.1583     83.4958    244.4636   1.3584924195e+02   1.9417943198e+01    0.2349645   0.09658933  63.91   0.00140307    2.543    0.607
        12 -10.2746     95.0590    242.3807   1.3397719231e+02   1.8248900318e+01    0.2498857    0.1183408 -74.89  0.001648889    2.817    0.645
        13  -8.8884     75.4391    244.2243   1.3702806840e+02   2.0421713524e+01    0.1180408   0.07164215  78.90 0.0006338753    1.600    0.375
        14 -10.8728     99.4635    248.9379   1.3379126963e+02   1.6856985769e+01    0.2960506    0.1288433  39.58  0.001903979    2.020    0.505
        15 -13.7438      3.8993    176.3127   1.4489782693e+02   3.8528617715e+01     2.380965    0.4773583 -78.87   0.01095668    4.098    0.756
        16  -8.5856     52.3388    249.3091   1.4066349514e+02   2.2382097810e+01   0.07463852   0.06550378  44.57 -1.05992e-05    1.685    0.407
        17 -11.0408     20.0497    230.6160   1.4451942004e+02   2.8317541667e+01    0.2748052     0.161489 -71.18  0.002299602    2.000    0.500
        18  -9.3655    177.6610    227.2042   1.1979744667e+02   8.4524512444e+00    0.1401987     0.119604  65.05  0.001130494    1.404    0.288
        19  -9.4734     33.6160    228.9049   1.4243929938e+02   2.7221050872e+01    0.1430606   0.09831107  53.67 0.0005249367    1.239    0.193
        20  -9.8944     46.4260    248.7824   1.4147954559e+02   2.3090737810e+01    0.2126307   0.08782607  61.83  0.001117075    1.828    0.453
        21 -10.4516    172.9881    221.7832   1.1987622937e+02   9.7658640815e+00    0.2371461     0.173553  48.40  0.001363157    1.138    0.121
        22  -8.8067    152.5020    212.9946   1.2211536628e+02   1.3978304783e+01    0.1247872    0.1103735 -55.26 -2.306123e-05    1.452    0.311
        23 -14.9515     13.4687    158.2940   1.4219810397e+02   4.0987122828e+01      4.33022     1.319565  87.56    0.0190257    3.837    0.739
        24 -12.2960     24.9894    202.4790   1.4254094388e+02   3.2171048850e+01    0.4265871    0.1625357  59.77  0.002449993    2.008    0.502
        25 -10.1680    194.7509    198.4322   1.1327038016e+02   8.9941726706e+00    0.3183208    0.1807636 -59.74  0.001545812    3.857    0.741
        26 -11.5526     72.3474    191.8453   1.3370661671e+02   2.8629448418e+01    0.2086414    0.1803885  88.67 0.0004906164    1.267    0.211
        27 -11.2967     66.9411    199.8296   1.3531011713e+02   2.7986777907e+01    0.2452545    0.1988484 -53.44  0.001426519    1.818    0.450
        28  -8.5234    104.9660    181.0035   1.2664527713e+02   2.5971184129e+01    0.1339288    0.1076953  61.37 0.0009407791    1.016    0.016
        29 -13.0788     68.9289    176.8224   1.3297652314e+02   3.1647071081e+01    0.3833073     0.249251 -47.48  0.001946259    2.292    0.564
        30 -10.7338     81.5969    178.9196   1.3079445990e+02   2.9628523157e+01    0.1981246    0.1674436  79.51 0.0004234521    1.120    0.108
        31 -11.5432     88.4182    169.3111   1.2844026833e+02   3.0387261742e+01    0.4948353    0.4165785  67.34  0.003594414    1.063    0.059
        32  -9.0370    230.3223    166.6748   1.0230659715e+02   6.5412854092e+00    0.1072013   0.09772164  89.88 0.0007047576    1.684    0.406
        33 -11.6705     32.8033    157.1608   1.3830489208e+02   3.9391304404e+01    0.4316771    0.1544588 -73.35  0.002294878    2.443    0.591
        34  -9.6842    100.3586    152.8073   1.2391628858e+02   3.1649800199e+01    0.2294388    0.2135743 -58.08 0.0007511599    1.302    0.232
        35  -9.0497    102.7724    148.9535   1.2285403243e+02   3.1996765661e+01    0.2093861    0.1686383 -35.13  0.001141877    1.718    0.418
        36 -11.7588     89.1458    152.4726   1.2620311059e+02   3.3386040602e+01    0.2242165    0.2133799 -60.20 0.0005623584    1.336    0.252
        37  -9.1175    236.3251    150.6769   9.8324605547e+01   7.2764465641e+00    0.1119133    0.1009313 -73.26 0.0004896714    1.686    0.407
        38 -12.3050     66.9702    143.8537   1.2982517189e+02   3.8091664566e+01    0.6652123    0.3813758  67.73  0.003750136    1.796    0.443
        39 -11.4008     57.9430    132.6284   1.3044148154e+02   4.1475843477e+01     1.103796    0.3770611 -80.26  0.003276018    6.565    0.848
        40  -9.8751    193.5442    157.2042   1.0665130118e+02   1.4434383813e+01    0.3115883    0.2378679 -79.41  0.001479633    2.156    0.536
        41  -8.4282    192.0316    144.0302   1.0438608868e+02   1.6579016292e+01     0.152249    0.1407735  18.01 0.0003957514    1.056    0.053
        42  -9.5110    110.8512    137.7221   1.1935115976e+02   3.2822286456e+01    0.2769576    0.1961079 -32.42  0.001474346    2.044    0.511
        43  -9.3806    174.4410    137.8782   1.0638702119e+02   2.0985209837e+01    0.2657367    0.1974154  77.66  0.001051932    1.847    0.459
        44 -10.4854     98.4522    135.2117   1.2165553432e+02   3.5315009804e+01    0.2323325    0.2115184 -45.91   0.00048578    1.334    0.250
        45  -9.1254    167.9645    131.8112   1.0638777110e+02   2.3255287028e+01    0.2046698     0.170877  75.31 0.0007497287    1.390    0.280
        46 -12.4902     42.1566    234.8091   1.4144251591e+02   2.5476814289e+01    0.2810673    0.2211382 -67.61 0.0007711976    1.828    0.453
        47  -9.3918     70.2796    124.4660   1.2644159480e+02   4.1590952390e+01    0.2059183    0.1658967  86.75 0.0002940184    1.099    0.090
        48  -9.2376    107.9139    124.3306   1.1763156613e+02   3.5920475289e+01    0.1720582    0.1526732  57.81 0.0002566833    1.108    0.097
        49  -9.4301    154.7487    120.2347   1.0656619915e+02   2.7897372156e+01    0.3201096     0.218474  78.63  0.001427806    2.154    0.536
        50 -10.2333    168.1606    113.2965   1.0227202505e+02   2.6297960848e+01    0.3185783    0.2676468 -85.80 0.0009306662    1.465    0.317
        51  -9.1353    203.4708    111.5011   9.5253411577e+01   1.8951709179e+01    0.1422233    0.1266578  16.76 0.0001053073    1.074    0.069
        52  -9.3733     32.8390     92.2743   1.3124245929e+02   5.2758798614e+01     0.198353    0.1345086 -84.64 0.0006541979    1.294    0.227
        53  -9.3162    155.4982     75.4862   9.5027521475e+01   3.5627374859e+01    0.1462436    0.1441245 -10.39 5.496952e-05    1.005    0.005
        54  -9.0998     17.7199     66.6037   1.3169685111e+02   5.9631090524e+01    0.1367705    0.1023738  50.89 0.0003795531    1.547    0.354
        55  -9.1500     22.5174     58.4691   1.2853137711e+02   6.1023974826e+01    0.1780814   0.09817608  44.06 0.0008800977    2.166    0.538
        56 -11.5008      9.8702     54.0398   1.3214308533e+02   6.2895931702e+01    0.4570541    0.2305107  42.83 0.0009959615    2.394    0.582
        57  -9.7114    249.3108    249.3631   1.1214678671e+02  -3.7692405107e+00    0.1631103   0.08222145  23.31  0.001137312    1.728    0.421
