#   1 NUMBER                 Running object number                                     
#   2 MAG_AUTO               Kron-like elliptical aperture magnitude                    [mag]
#   3 X_IMAGE                Object position along x                                    [pixel]
#   4 Y_IMAGE                Object position along y                                    [pixel]
#   5 X_WORLD                Barycenter position along world x axis                     [deg]
#   6 Y_WORLD                Barycenter position along world y axis                     [deg]
#   7 A_WORLD                Profile RMS along major axis (world units)                 [deg]
#   8 B_WORLD                Profile RMS along minor axis (world units)                 [deg]
#   9 THETA_WORLD            Position angle (CCW/world-x)                               [deg]
#  10 FWHM_WORLD             FWHM assuming a gaussian core                              [deg]
#  11 ELONGATION             A_IMAGE/B_IMAGE                                           
#  12 ELLIPTICITY            1 - B_IMAGE/A_IMAGE                                       
         1 -14.7850    198.6508     70.0134   1.0848566026e+01   2.6007036530e+01     2.426992    0.8875895  45.06  0.008439546    3.830    0.739
         2 -14.7532    100.8842     49.8212   2.4305764134e+01   5.3410381583e+01     1.618728     1.112248  31.51   0.00582182    1.739    0.425
         3 -15.0458      6.7463     71.5230   7.5010618368e+01   6.3192309227e+01     1.181484    0.8358216 -66.94  0.005207265    1.241    0.194
         4 -12.7890    120.4413     26.1228   9.8231592516e+00   5.1886088299e+01    0.8376859     0.696175  33.43   0.00401694    1.356    0.263
         5 -14.7833    119.5568     54.3923   2.0797473242e+01   4.7912735911e+01     1.281114    0.8732833  45.53  0.001904315    1.497    0.332
         6 -13.3705    135.8308     50.9412   1.5786132432e+01   4.4275565801e+01     1.742231    0.5048576 -34.44  0.005360325    3.402    0.706
         7 -14.5080    122.2659     36.8023   1.3593995705e+01   4.9973641711e+01     1.282028    0.6351138  42.32  0.003404863    2.386    0.581
         8 -14.2538     62.9354     56.1053   4.1345885692e+01   6.0520106603e+01     2.770576     1.060368 -34.77  0.007824761    4.449    0.775
         9 -14.3347     41.3815      5.3294   2.5563275520e+01   7.3675227714e+01     1.070061    0.6919218   7.68  0.004680027    1.914    0.477
        10 -13.0023      7.8667      2.4823   5.1215524907e+01   7.9215987777e+01    0.5542926    0.5141797   7.48  0.003119166    1.235    0.190
        11 -16.0446     11.8149     22.5438   5.8869262191e+01   7.4835091999e+01     2.225152     1.139966 -34.87   0.01086035    1.886    0.470
        12 -14.1738     26.2983     13.2098   4.1558490026e+01   7.5062240144e+01    0.7792731    0.4997844  10.01   0.00390482    1.785    0.440
        13 -15.2733    217.9930     16.7849   3.5553965960e+02   2.8552857009e+01     1.996428    0.9555454 -30.19   0.01015014    1.895    0.472
        14 -14.7305    189.3384     20.7447   3.5872615099e+02   3.4634393713e+01     1.766895    0.7635521 -41.88  0.007994999    1.959    0.490
        15 -13.7394    242.8254     34.8344   3.5803962277e+02   2.1516662764e+01    0.7054264    0.5425733 -81.34  0.003191806    1.345    0.256
        16 -14.5787    166.8315     29.5365   3.6557434250e+00   3.9190560840e+01     1.059388    0.8363965  78.73  0.003581258    1.212    0.175
        17 -14.6860    147.5476     29.6311   6.3459904366e+00   4.4198857428e+01     1.458218    0.7549114  70.68  0.005059724    1.853    0.460
        18 -15.6150     98.4500     12.1764   8.5480724840e+00   5.9346686456e+01     1.949664    0.9630719  59.25  0.004586398    1.754    0.430
        19 -12.0545     71.0904     16.2223   1.8676190950e+01   6.5797124410e+01    0.4364458    0.2871959 -15.18  0.001588045    1.771    0.435
        20 -12.5355     74.5483     10.2888   1.4143976623e+01   6.5663162646e+01    0.4211267    0.2709109 -19.66  0.002083309    1.732    0.422
        21 -12.4552     60.0339     15.7545   2.2915667265e+01   6.8392792772e+01     0.592237    0.3627019  37.24  0.002860919    1.605    0.377
        22 -12.3189    232.4342      2.1979   3.5138402771e+02   2.7023062432e+01    0.4378503    0.2548113  60.45  0.002506796    2.127    0.530
        23 -12.2096     46.6598     12.7636   2.7700821685e+01   7.1617673104e+01    0.3806644    0.3011737  67.73  0.001515217    1.649    0.394
        24 -11.4020    124.1236     11.3320   3.2979383839e+00   5.2538675174e+01    0.2143074    0.1668129  80.76  0.001137586    1.170    0.146
        25 -11.8263    152.5890      8.4811   3.5858048373e+02   4.5186921175e+01    0.2949643    0.2286993  49.43  0.001622654    1.440    0.306
        26 -12.4374    119.8252      2.9233   5.7440895216e-01   5.4467162714e+01    0.5780476    0.2608329 -82.01  0.002127797    2.853    0.650
        27 -11.4418     67.7574      2.7762   1.1999479014e+01   6.8088338164e+01    0.3123408    0.2081419  36.14  0.001615406    1.470    0.320
        28 -12.4865     80.3479      1.7644   7.6823009973e+00   6.5039152405e+01    0.7282647    0.1287915  62.31  0.002191762    3.850    0.740
        29 -11.8672     61.2798      1.5435   1.3514085843e+01   6.9755569239e+01    0.4860108    0.1452887  62.37  0.001682227    3.205    0.688
        30 -15.1640      8.2663    183.2361   8.2669984485e+01   3.4467312412e+01     1.188792     1.032729  59.66  0.008081931    1.100    0.091
        31 -12.9472    108.0557    245.7834   6.3410910184e+01   1.0736113247e+01    0.5790813    0.5030476  83.36  0.004222642    1.527    0.345
        32 -14.7559     95.2576    234.8597   6.5138000842e+01   1.4161476271e+01     1.210983    0.7327554  60.85  0.006758278    2.001    0.500
        33 -12.1285     41.2702    249.7621   7.7881094378e+01   1.7859704251e+01    0.2620461    0.1737158  64.83  0.001797366    1.420    0.296
        34 -13.7115     28.0949    246.5834   8.0492408771e+01   1.9750638398e+01    0.5970184    0.4418164  22.52    0.0042297    1.439    0.305
        35 -12.1536      2.8576    249.6180   8.5704392901e+01   2.1540591053e+01    0.3405762    0.1681731  41.54  0.001757521    1.364    0.267
        36 -14.1460      9.2715    245.5103   8.4330640878e+01   2.1704205393e+01     0.903585    0.3289616  45.63  0.003611097    1.766    0.434
        37 -15.3604     15.5919    175.0671   8.0344959459e+01   3.5761456389e+01     2.398312    0.8761559  53.09   0.01037617    2.322    0.569
        38 -11.3882    212.9894    199.9699   3.6191320625e+01   3.5658752234e+00     0.199819    0.1207225  -1.24  0.001144821    1.723    0.420
        39 -13.3444    164.4569    194.3448   4.4547559636e+01   1.1294582474e+01    0.5866119    0.3894776 -62.48  0.002948584    2.509    0.601
        40 -11.7863    180.2522    197.2393   4.1804831675e+01   8.4813522493e+00    0.1838181    0.1510266  66.23  0.001072794    2.070    0.517
        41 -12.1004    201.0154    191.2875   3.6848515473e+01   6.3949828222e+00    0.2904384    0.2067226   4.91  0.001347768    1.286    0.223
        42 -10.5536    107.6509    192.6893   5.7388011547e+01   2.0356580178e+01    0.1383114    0.1028822  -3.86  0.000704524    1.715    0.417
        43 -10.8427     81.2297    192.6474   6.4101566222e+01   2.4200924815e+01    0.1970711    0.1186594  23.38  0.000899406    1.683    0.406
        44 -12.4946     48.5692    181.3724   7.1685242974e+01   3.0933066730e+01    0.5085595    0.3201122 -51.57  0.002599515    1.897    0.473
        45 -11.6135    109.3929    183.3936   5.5622022870e+01   2.2001811847e+01    0.2804414    0.1264637  20.45 0.0009602614    3.272    0.694
        46 -13.4364    197.2751    179.2514   3.5406113870e+01   8.7263706023e+00    0.6118448    0.4449169 -71.23  0.002936536    3.262    0.693
        47 -11.4351    122.2732    181.0850   5.2030345564e+01   2.0423396462e+01    0.4074061    0.2447313  72.91  0.001504111    3.638    0.725
        48 -12.2582     89.7244    169.5992   5.8813797987e+01   2.8097849884e+01    0.3550858    0.1725147  28.64  0.001343876    2.037    0.509
        49 -13.7876     84.9092    180.0486   6.1583672615e+01   2.6445613002e+01     1.033692    0.3433052  44.22  0.003702936    2.750    0.636
        50 -13.5245    124.2704    166.2275   4.9022854305e+01   2.3165216217e+01    0.6783994    0.4624355 -68.17  0.003203946    1.925    0.480
        51 -12.3138     26.4274    158.4430   7.6171235066e+01   3.8843769800e+01    0.5810929   0.07040482  36.51  0.001813683    3.987    0.749
        52 -12.4905     77.3181    156.9284   6.0505412528e+01   3.2989587621e+01    0.5357402    0.3817883  25.35   0.00137243    1.442    0.307
        53 -13.7497     73.9987    153.3014   6.0961844834e+01   3.4374914756e+01    0.7523769     0.582071  30.86  0.001906622    1.265    0.209
        54 -12.5292    111.7421    155.5381   5.0392290539e+01   2.7681144720e+01    0.5748156    0.3694276  73.48  0.002313307    2.511    0.602
        55 -12.8940    208.5413    154.0529   2.8575536919e+01   1.0854738922e+01    0.6183037    0.4122975  31.20  0.003504486    1.535    0.349
        56 -11.0406    101.9888    160.7663   5.4003991436e+01   2.8160833072e+01    0.2079357    0.1155968  34.68 0.0008882443    1.661    0.398
        57 -12.3075     55.4518    155.5482   6.6969093849e+01   3.6365477478e+01    0.4508965    0.2974071 -15.82  0.001982267    2.361    0.576
        58 -12.3372     14.2585    152.4189   7.9470960743e+01   4.1411150478e+01    0.2869078    0.1698392  44.37  0.001489376    1.498    0.332
        59 -12.7104      7.7327    148.4056   8.1258027198e+01   4.2910822769e+01    0.5979972    0.3558149  64.73  0.003133163    1.499    0.333
        60 -11.9665    103.5791    149.6575   5.1582197296e+01   3.0461764444e+01    0.3843065    0.2954819 -16.11  0.001439093    1.693    0.409
        61 -12.2685     85.6096    152.7634   5.7376672132e+01   3.2724602338e+01    0.5403227    0.3345469 -39.62  0.002356727    1.998    0.499
        62 -10.7711     38.2126    145.7845   7.1312854502e+01   4.0889264654e+01     0.187087    0.1627006 -38.99 0.0005219505    1.354    0.261
        63 -12.1082     42.7136    138.9718   6.9037931818e+01   4.2169749477e+01    0.3098543    0.2150257  -0.85  0.001464415    1.916    0.478
        64 -12.9097    246.4451    132.9280   1.8586634104e+01   8.0710996382e+00     0.446882     0.304549 -38.38  0.002829154    1.348    0.258
        65 -14.6393    232.6613    127.4386   1.9355115493e+01   1.0954739167e+01     1.233197    0.6053771 -41.92  0.006203284    1.905    0.475
        66 -11.5604     47.3545    132.7018   6.6624592333e+01   4.3279850536e+01    0.4835491    0.2121112 -76.56  0.001815693    2.482    0.597
        67 -10.5285     10.9698    134.0132   7.9344818640e+01   4.6378346155e+01    0.1575476    0.1402286  59.67 0.0003497495    1.078    0.072
        68 -12.4450    136.9048    131.8084   3.8797938799e+01   2.8161642103e+01    0.6925116    0.3339435  36.95   0.00264831    2.134    0.531
        69 -11.3338     34.4505    129.5388   7.0750196377e+01   4.5555536437e+01    0.1426468    0.1300762  77.38 1.042883e-06    1.004    0.004
        70 -10.9793      5.4242    128.8319   8.0907664473e+01   4.8091220799e+01    0.2632706    0.1408993 -41.47  0.001212368    2.272    0.560
        71 -14.5960    104.9776    121.7309   4.5334842592e+01   3.6836002361e+01     1.897543     1.276252  36.36  0.008417009    1.474    0.321
        72 -14.9906    105.9411    105.2967   4.0939533829e+01   4.0535041363e+01     1.634915     1.376299  54.61   0.00800349    1.192    0.161
        73 -13.0025      4.9448    118.7211   8.0432495010e+01   5.0771662476e+01     0.732555    0.4561853 -41.36   0.00356123    1.837    0.456
        74 -13.2799     21.3934     86.2531   7.0012555351e+01   5.8381628870e+01    0.8506045    0.6480597   7.34   0.00326167    1.469    0.319
        75 -14.3463     18.3988    110.9677   7.4621969462e+01   5.1961688839e+01    0.9116083    0.7177894 -45.00  0.003431331    1.359    0.264
        76 -14.5146     11.0295    102.3944   7.6700907262e+01   5.4763537221e+01    0.9573946    0.9232171 -38.00  0.004945778    1.150    0.130
        77 -13.8516      2.4149     97.0408   7.9821834190e+01   5.6644856719e+01    0.9630309    0.3672018 -78.83   0.00363488    2.279    0.561
        78 -14.5630     23.5738     95.2993   7.0444736477e+01   5.5780105925e+01     1.767978    0.6725611  13.69  0.006422998    3.170    0.685
        79 -12.8080     29.9029     89.6828   6.6671499673e+01   5.6727965729e+01     0.531195    0.3425398  78.97  0.002023034    1.797    0.443
        80 -12.3870     78.8865    110.2903   5.1227691759e+01   4.4526198203e+01    0.4533945    0.2807376 -65.06  0.001598715    1.737    0.424
        81 -13.1779     84.8730    115.1082   5.0265714235e+01   4.2245155873e+01     1.032001    0.5655383  20.77  0.003574807    2.592    0.614
        82 -12.1445     88.3629    109.4927   4.7743845729e+01   4.3011098261e+01     0.558868    0.3570663 -69.34  0.002305214    1.868    0.465
        83 -11.3852    186.1948    116.1756   2.4336076290e+01   2.1127969209e+01     0.189002    0.1684375 -73.01 0.0005783629    1.334    0.251
        84 -11.8040     42.8430     90.0782   6.0923135067e+01   5.5221397582e+01    0.5029587    0.3877286 -28.70  0.002516643    1.467    0.318
        85 -11.2379    195.3258    113.3169   2.2043722445e+01   1.9803225437e+01    0.1407874    0.1050813   4.28 0.0007044686    1.673    0.402
        86 -12.7586    121.3876    111.9362   3.8116842324e+01   3.5746325910e+01    0.3930861    0.3105043  72.17   0.00115013    1.510    0.338
        87 -11.6031     45.9355    110.2732   6.3614300655e+01   4.9446827920e+01    0.5858319    0.2808188 -37.90  0.002103733    2.876    0.652
        88 -10.5072     42.7037    107.3126   6.4373800170e+01   5.0628787308e+01    0.2458309    0.1228219  37.20 0.0003179557    1.941    0.485
        89 -11.8657     62.8207    110.5883   5.7172499765e+01   4.7062233489e+01    0.9592277    0.3773944 -70.35  0.003011295    3.309    0.698
        90 -11.1690     64.5376    101.5333   5.4508683476e+01   4.9169734111e+01     0.286472    0.2558448   1.13 0.0005407649    1.265    0.209
        91 -12.1626     62.2099     98.2579   5.4650869334e+01   5.0385342691e+01    0.5978299    0.3856208  54.02  0.001786885    1.717    0.418
        92 -11.7519    176.9278    110.3420   2.4672821011e+01   2.4057692361e+01    0.3420999    0.2415202 -12.80  0.001603712    1.782    0.439
        93 -12.9914    223.5748    128.3222   2.0858236399e+01   1.2308953444e+01    0.6813038    0.4477971 -60.07  0.003463983    2.347    0.574
        94 -12.7204    136.0144    102.7722   3.1773913535e+01   3.4515862835e+01    0.6243325    0.3556604  46.43  0.001790189    1.747    0.428
        95 -13.4935    120.3853    102.2852   3.5834208783e+01   3.8113415998e+01    0.6489911    0.3704145  44.82  0.002622119    1.727    0.421
        96 -12.7449     50.0809     98.7626   5.9700003502e+01   5.1997691546e+01    0.8265209    0.5328007   0.50  0.003277658    2.182    0.542
        97 -11.8817     48.8758     92.8031   5.8898002573e+01   5.3734969965e+01    0.4495434    0.3141258  83.90  0.001044981    1.731    0.422
        98 -13.5002    248.4550     95.4759   1.0673285897e+01   1.2840038039e+01    0.8221739    0.2565234 -42.38  0.003463123    2.737    0.635
        99 -12.5412    163.7790     97.5194   2.4007173058e+01   2.9256654760e+01     0.371636    0.3088815  51.21 0.0008159355    1.240    0.194
       100 -13.1417    137.3721     95.1786   2.9329340019e+01   3.5770171224e+01    0.5089079     0.416747  75.59  0.001253863    1.390    0.281
       101 -13.3863     32.4540    112.0585   6.9209460350e+01   5.0450641805e+01    0.6997274    0.3758692 -57.05  0.003103994    1.774    0.436
       102 -13.1109     28.8315    121.7477   7.1859637097e+01   4.8186876337e+01    0.5618901    0.3652071 -57.11  0.002673059    1.527    0.345
       103 -10.8208     59.0054    125.0279   6.1324160159e+01   4.3800322028e+01    0.1850786    0.1644841 -78.08 0.0004841683    1.107    0.096
       104 -10.2139     78.6641     87.2666   4.5277207127e+01   5.0324711646e+01    0.1585859    0.1203503  69.21 0.0002624728    1.590    0.371
       105 -11.0881     35.0767     86.3358   6.3639830639e+01   5.7098917020e+01    0.2518794    0.1868636 -53.90  0.000719133    1.281    0.219
       106 -14.0735    214.2447     77.1390   1.0582527811e+01   2.1672845691e+01    0.9904472    0.8216636 -73.77  0.005996285    1.314    0.239
       107 -13.6283    188.7609     83.9614   1.5903375027e+01   2.6018115426e+01    0.7059129    0.5514913  44.07  0.002307088    1.422    0.297
       108 -11.7448    209.2200    249.6093   4.4294790175e+01  -2.0496206970e+00    0.1564121    0.0759048  19.74 0.0009536204    1.682    0.406
       109 -14.1157    160.3762     80.9328   2.0128560418e+01   3.3048844424e+01     1.456029    0.6653807  38.31  0.002478329    3.163    0.684
       110 -14.3763    169.4966     76.9867   1.7290562712e+01   3.1565415403e+01    0.8869863    0.6296118  41.53  0.002989699    1.593    0.372
       111 -14.1465    164.7943     70.9018   1.6407484180e+01   3.3707246176e+01     1.389283    0.9067021  67.10  0.006410656    1.642    0.391
       112 -12.3124    132.1909     85.8977   2.7935622065e+01   3.8861710001e+01    0.2488157    0.2185856 -78.56 0.0009163696    1.232    0.188
       113 -13.9105    239.6095     81.4638   8.6272446190e+00   1.6242052552e+01     0.709024    0.4487928 -79.82  0.003746329    2.403    0.584
       114 -12.1332    176.8150    121.3871   2.7354338112e+01   2.2089040177e+01    0.3123976    0.2238952  33.53  0.001563091    1.497    0.332
       115 -12.5824     39.6298     67.5619   5.6782207933e+01   6.1436662515e+01     1.121001    0.4032552  25.91  0.003954249    2.952    0.661
       116 -14.6051    170.2665    241.9976   5.0340648822e+01   3.4063386392e+00      1.05318    0.6208111  19.56  0.006559037    1.387    0.279
       117 -12.9532     51.8462     68.5365   5.1001970305e+01   5.9508282286e+01    0.8526184    0.5124248 -77.94  0.003376842    2.452    0.592
       118 -13.0940     70.6943     75.5405   4.4842166416e+01   5.4638458679e+01    0.5743288    0.4693461 -16.53  0.001713206    1.452    0.311
       119 -13.2198     79.0443     71.6526   4.0185523592e+01   5.3927343499e+01    0.9372656    0.6584597   3.13  0.003737071    2.214    0.548
       120 -13.7342     87.3683     65.2577   3.4771215808e+01   5.3573903451e+01    0.9366029    0.6389999 -18.66  0.002777054    2.088    0.521
       121 -13.1228     55.0568     81.1402   5.3260207961e+01   5.5884239645e+01    0.6506544     0.421319 -35.02  0.002742414    1.788    0.441
       122 -13.9130     61.1434     76.0563   4.9081706218e+01   5.6189849836e+01    0.9451551    0.5539121 -37.05  0.001850682    1.983    0.496
       123 -11.9607    114.0867     80.0509   3.1072747683e+01   4.4349353765e+01    0.4944885    0.3608848 -51.91  0.002243455    1.422    0.297
       124 -12.9474    135.2883     79.1856   2.5127456264e+01   3.9434540032e+01    0.8599594    0.4036964  54.54  0.003137704    2.153    0.536
       125 -12.2856    181.0001    120.3129   2.6286650999e+01   2.1441140071e+01    0.2624009    0.2258807  88.75  0.001013412    1.495    0.331
       126 -14.4657     26.1639    226.7134   8.0114562771e+01   2.3624423297e+01     1.101124    0.4186711 -59.93  0.005257991    3.345    0.701
       127 -14.3878      6.6579     63.3780   7.3820167550e+01   6.5309543208e+01    0.8379601    0.6301464  15.69  0.004643663    1.463    0.316
       128 -11.7245     42.5088     79.4783   5.8581687471e+01   5.8039945818e+01    0.3292049    0.2504597 -25.20  0.001397019    1.491    0.329
       129 -11.5150     41.6039     75.6943   5.8040513075e+01   5.9128060148e+01    0.3650979    0.2191846 -60.48  0.001222577    1.583    0.368
       130 -11.6237     27.4920     76.2431   6.5160550816e+01   6.0515866005e+01    0.3784242    0.2432298  75.51  0.001456568    1.927    0.481
       131 -12.6853    241.8479     71.0216   6.1028204349e+00   1.7230529999e+01    0.4295693    0.2278666 -58.44   0.00217523    2.185    0.542
       132 -13.1362    134.0420     65.9755   2.1233288993e+01   4.2197068361e+01    0.8591566    0.6997753  27.96  0.003071406    1.460    0.315
       133 -12.1475    100.4167     64.2629   2.9922164386e+01   5.0803182237e+01    0.4522643    0.3506527 -23.83  0.002107583    1.509    0.337
       134 -13.1462     78.9637     60.1433   3.6062239851e+01   5.6464869183e+01    0.8064036      0.51377 -56.69  0.003466209    1.800    0.445
       135 -12.3316     83.2551     54.7163   3.2286470191e+01   5.6644377898e+01    0.9694214    0.4621716 -24.84   0.00279815    4.372    0.771
       136 -13.8876    177.9393     56.8562   1.0219474511e+01   3.2727831260e+01    0.9138377    0.5628802 -48.07  0.002627441    1.534    0.348
       137 -12.0658     38.9235     59.8541   5.4798767220e+01   6.3428916144e+01    0.5484787    0.2700943  52.74  0.002032307    2.973    0.664
       138 -11.4867     34.3808     60.7826   5.7566282634e+01   6.3752190584e+01     0.346698    0.2556668 -55.13  0.001611532    1.275    0.216
       139 -12.5058     35.4893     54.7753   5.5028013840e+01   6.5082575346e+01    0.3887801    0.2958995 -14.12  0.001129862    1.452    0.311
       140 -12.1573     24.7837     59.4213   6.2577503899e+01   6.5083721748e+01    0.4860063     0.253501 -49.95  0.001688525    1.734    0.423
       141 -12.9782     24.5499    216.9794   8.0063417554e+01   2.5711716366e+01      1.09286    0.2398134  40.92  0.004616006    2.664    0.625
       142 -13.3775    147.9826    239.2560   5.4390500305e+01   6.6065595095e+00    0.4926393    0.3294481  63.42  0.002576185    2.881    0.653
       143 -13.5463     57.4864    201.9836   7.1115487912e+01   2.5269938263e+01     1.422561    0.4366977 -66.99  0.005649794    3.434    0.709
       144 -12.8735    110.1679     41.9367   1.8519797282e+01   5.2376380470e+01    0.5801235    0.2514744  55.18 0.0009432188    2.132    0.531
       145 -13.2426    113.4846     37.8218   1.6036833205e+01   5.2140484392e+01    0.4742097    0.3696875  75.69    0.0013819    1.297    0.229
       146 -14.2153     67.0018    222.5045   7.0485520537e+01   1.9953126495e+01    0.8565208     0.596962  27.07  0.005190607    1.310    0.237
       147 -13.2209    131.4693     33.1798   1.0349208580e+01   4.8022692095e+01     0.560703     0.482758  36.39  0.001849676    1.307    0.235
       148 -13.2134    248.2800     52.2969   1.4459265429e+00   1.8435925604e+01    0.6708136    0.3228491 -31.42   0.00357521    1.736    0.424
       149 -13.9762     20.8268    224.5675   8.1222280868e+01   2.4557164430e+01    0.4895668     0.444059  31.97  0.002153293    1.304    0.233
       150 -11.3908     17.5708     54.9741   6.5674962765e+01   6.6795984080e+01    0.3351503     0.218254 -80.21  0.001680049    1.653    0.395
       151 -12.0703    230.7744     54.9606   3.5463009036e+00   2.1399753782e+01    0.3450988    0.1961943  74.52  0.001853397    2.078    0.519
       152 -11.6992    201.9364     46.6862   4.4165451896e+00   2.8545321102e+01    0.1912009    0.1640471 -73.19 0.0008520025    1.111    0.100
       153 -12.3284    154.5440     46.5151   1.0781587495e+01   4.0088163248e+01     0.459736    0.2671447  60.25  0.001981622    1.675    0.403
       154 -13.1962    158.3199     43.1247   9.0901588248e+00   3.9598793122e+01    0.5978044    0.5256382  57.28  0.002372049    1.199    0.166
       155 -11.3367     38.9293     46.2942   4.9926837005e+01   6.6607890741e+01    0.2024064    0.1813199   6.22  0.001156803    1.106    0.096
       156 -13.2830      6.1467     43.2344   7.0155363760e+01   7.0393296474e+01    0.9616255    0.5707915   2.58   0.00383676    1.820    0.450
       157 -13.5311    237.5212    231.3849   3.7070040046e+01  -3.0845793871e+00    0.5021854    0.3880485 -28.94  0.003932055    1.699    0.411
       158 -13.8331     95.4338    218.3910   6.3450470047e+01   1.7089701560e+01    0.6376967     0.259917  30.12  0.002854339    2.061    0.515
       159 -14.1567     64.0574    214.5217   7.0536779549e+01   2.1878893687e+01    0.5185616    0.4002843  32.85  0.002314997    1.151    0.131
       160 -10.5795      5.4949    219.4962   8.4482439950e+01   2.6936242941e+01    0.1180254   0.08772121  52.64 -9.370635e-05    1.008    0.008
       161 -12.4331     85.6166    215.6101   6.5475798619e+01   1.8925001189e+01    0.2650682    0.1936654  47.37  0.001482316    1.198    0.165
       162 -14.8607    212.5101     40.7960   1.8565786099e+00   2.6964207209e+01     2.117938    0.6911756  77.14  0.007494926    4.187    0.761
       163 -11.9399    181.5037    215.5034   4.4455763183e+01   5.5967593822e+00     0.122809   0.09664986  11.04  0.000383022    1.001    0.001
       164 -12.2605     40.4589     40.2866   4.6499032363e+01   6.7707534587e+01    0.5163814    0.2897679  31.74  0.002378689    1.788    0.441
       165 -13.1120     32.8467     40.1089   5.1100477998e+01   6.8796513746e+01    0.4216442    0.3185747   7.31 0.0007969037    1.395    0.283
       166 -12.9845     75.9985     37.1040   2.7477817366e+01   6.1534959059e+01    0.5753828    0.3837825  46.42  0.001274146    1.424    0.298
       167 -12.0149     70.9769     36.2256   2.9102109420e+01   6.2805961666e+01    0.4081776    0.2723361  53.01  0.001139043    1.504    0.335
       168 -11.0261     50.4749     38.9617   4.0216745344e+01   6.6361248405e+01    0.2024684    0.1862665  24.81 0.0004051313    1.068    0.064
       169 -13.3633     59.4727    212.5410   7.1483905695e+01   2.2831878026e+01    0.4461916     0.298499 -21.12  0.001439585    2.453    0.592
       170 -13.0579    140.3021     21.2623   4.5351645819e+00   4.7124940840e+01    0.6853584    0.3609254  71.18  0.001187013    1.766    0.434
       171 -11.3475    136.4564    210.7904   5.3126086091e+01   1.2681826383e+01    0.2079616    0.1321591 -55.84  0.001125932    2.014    0.504
       172 -10.3827    169.6463     42.7144   7.2842069347e+00   3.6777154293e+01    0.1429134    0.1075831  36.48 0.0005532237    1.666    0.400
       173 -13.4511     56.3926     27.1981   3.1171136136e+01   6.7420331899e+01    0.8718616    0.3462592  46.26  0.001983867    2.421    0.587
       174 -11.9535     64.5795     24.7795   2.6026263512e+01   6.6085224250e+01    0.3615266    0.2702629 -25.47  0.001552103    1.422    0.297
       175 -10.8517     87.7714     27.9860   1.8969550331e+01   6.0157765885e+01    0.2198533    0.1898571 -71.58 0.0006414143    1.317    0.241
       176 -13.1733     46.9011    209.0851   7.4289239970e+01   2.5001620398e+01    0.5684555      0.21717  62.33  0.002290385    3.114    0.679
       177 -11.5247     98.1842     26.8541   1.5371653902e+01   5.7672807910e+01    0.2890943    0.2365253  80.58  0.001021156    1.270    0.213
       178 -12.5274     30.8373     25.2621   4.5378983838e+01   7.2173418451e+01    0.4129748    0.2653844  14.87  0.001468636    1.708    0.414
       179 -11.8823     36.0611     23.0625   4.0585296128e+01   7.1817826154e+01    0.3546417    0.2364881 -23.38  0.001682952    1.639    0.390
       180 -11.7918     40.5251    210.9698   7.5962630300e+01   2.5310585652e+01    0.1862714    0.1454241 -33.03  0.001134105    1.817    0.450
       181 -12.6928     48.4463     19.8122   3.1132894721e+01   7.0199114781e+01    0.7651291    0.2499844  47.08   0.00274147    3.010    0.668
       182 -12.1590      5.3650    209.4538   8.4242019384e+01   2.8986808698e+01    0.2346146    0.1779061 -27.90  0.001496729    2.000    0.500
       183 -11.9688     80.6111    208.5746   6.5974043550e+01   2.0971368640e+01     0.295213    0.1762956  54.05  0.001386965    1.641    0.391
       184 -12.0210     13.6043    205.5975   8.2178713241e+01   2.9086731149e+01    0.3334171    0.1610027 -54.98  0.001559233    2.770    0.639
       185 -11.7815     14.4839    200.4875   8.1770881475e+01   3.0101145351e+01    0.2252652     0.194154  50.41  0.001086109    1.133    0.117
       186 -12.8332     16.9143    195.9420   8.0980682135e+01   3.0875245429e+01    0.3987693     0.272669 -62.37  0.001731461    1.727    0.421
       187 -11.0704    151.4859    206.1597   4.9169275738e+01   1.1269612971e+01      0.24805    0.1372604  13.46  0.001139603    2.255    0.557
       188 -13.1854     57.1350    246.7760   7.4372723961e+01   1.6666664754e+01    0.5038876    0.2960563  25.76  0.002847502    1.521    0.342
       189 -12.5297    105.4563     33.6710   1.6384437515e+01   5.4840596459e+01    0.8291548    0.4227061 -20.75   0.00315779    2.581    0.613
       190 -12.9591     46.2005     33.0970   3.9736319251e+01   6.8255612260e+01    0.6131107    0.4375257 -22.12  0.003110249    1.554    0.357
       191 -13.8041     39.2172    194.7487   7.5231461186e+01   2.8935810068e+01     0.968616    0.3300331  47.31  0.004078331    2.375    0.579
       192 -14.7820     30.1858    168.9740   7.5852643222e+01   3.5880165175e+01     1.748838     1.106785 -36.42   0.00388861    2.215    0.549
       193 -12.7733     36.5301     34.2848   4.6152107575e+01   6.9545131694e+01    0.6144741    0.3226476   5.97  0.002124499    3.807    0.737
       194 -13.9354     22.3002    180.9612   7.8833657862e+01   3.3779004012e+01    0.8645011    0.4908421 -53.86  0.003956474    2.138    0.532
