#   1 NUMBER                 Running object number                                     
#   2 MAG_AUTO               Kron-like elliptical aperture magnitude                    [mag]
#   3 X_IMAGE                Object position along x                                    [pixel]
#   4 Y_IMAGE                Object position along y                                    [pixel]
#   5 X_WORLD                Barycenter position along world x axis                     [deg]
#   6 Y_WORLD                Barycenter position along world y axis                     [deg]
#   7 A_WORLD                Profile RMS along major axis (world units)                 [deg]
#   8 B_WORLD                Profile RMS along minor axis (world units)                 [deg]
#   9 THETA_WORLD            Position angle (CCW/world-x)                               [deg]
#  10 FWHM_WORLD             FWHM assuming a gaussian core                              [deg]
#  11 ELONGATION             A_IMAGE/B_IMAGE                                           
#  12 ELLIPTICITY            1 - B_IMAGE/A_IMAGE                                       
         1 -12.6620    161.0810     54.8559   7.2247424187e+01   3.7620455896e+01     1.494275     1.012483  43.77  0.005681246    1.598    0.374
         2 -12.8697    174.4176     40.1008   6.6277816692e+01   3.6540324655e+01    0.9702875    0.8261841  65.00  0.003750063    1.133    0.117
         3 -12.9344    191.1246     10.8624   5.7329408530e+01   3.6129704651e+01    0.9827483    0.6278467 -66.72  0.004927113    1.519    0.342
         4 -10.8144    222.4005      2.7907   5.2820518742e+01   3.0225998969e+01    0.3637892    0.1829007  75.91  0.002117326    1.670    0.401
         5 -10.7270    209.9588      2.5601   5.3800877168e+01   3.2873323756e+01     0.345196    0.1533507  85.12  0.001750396    2.113    0.527
         6 -12.3076    195.9191      6.3472   5.5867761554e+01   3.5532040075e+01    0.8276429    0.4349982 -69.15  0.004429664    1.986    0.497
         7  -9.5983    130.7421    214.6080   1.1592274591e+02   1.0339597603e+01    0.2685487    0.2169427  88.26 0.0005339007    1.424    0.298
         8 -11.6957    231.9641    250.4230   1.0113905655e+02  -1.2559493756e+01    0.2014215    0.1438349  25.95  0.001284947    1.306    0.234
         9 -10.5872    188.0242    245.5312   1.0878179071e+02  -5.3915261804e+00    0.4194655    0.1941173 -45.37  0.001283643    2.360    0.576
        10  -9.7554    120.6764    249.3483   1.2321032453e+02   4.8764872088e+00    0.3535525    0.2231005  66.19  0.001538091    1.913    0.477
        11 -10.3046    118.4984    245.4971   1.2315471448e+02   5.9830413563e+00    0.4192791    0.2832668  59.44   0.00151075    1.500    0.334
        12 -18.6152     48.2286    238.2695   1.3672611549e+02   1.7979037879e+01     5.012437     4.450365  65.17    0.0191511    1.213    0.175
        13  -8.4095    175.9736    187.4621   1.0078999739e+02   7.8479664972e+00     0.264832     0.223109  42.27 0.0006978355    1.206    0.171
        14  -8.5767     13.7533    188.5375   1.3927322381e+02   3.3248206134e+01    0.3334559    0.1865186 -12.98  0.001308176    5.007    0.800
        15 -13.8038     11.9810    245.5343   1.4405634075e+02   2.0758088260e+01    0.5471501     0.412418 -50.80  0.003697072    1.954    0.488
        16  -8.6630    169.2133    182.6130   1.0129970864e+02   1.0194899697e+01    0.2902557    0.1414148  45.32  0.001128266    2.105    0.525
        17  -9.3513    249.9401    178.6105   8.4770546413e+01  -3.4124602525e+00    0.2858104    0.2007091 -61.45  0.001517684    1.890    0.471
        18 -10.2455    207.3085    162.0032   8.9027972260e+01   7.1470686852e+00    0.2415823    0.2321083 -55.00  0.000294293    1.078    0.073
        19  -9.9550    201.4151    170.2007   9.1914855348e+01   6.6004622635e+00    0.6838945    0.3201261 -57.33  0.002389595    3.024    0.669
        20 -10.1845    204.2187    165.9602   9.0467522831e+01   6.9327758342e+00     1.373459    0.3632763 -47.47  0.004035905    3.811    0.738
        21 -10.1472    144.8281    175.1005   1.0537903447e+02   1.6681202974e+01     0.401904    0.2068337 -66.60  0.001338621    3.041    0.671
        22  -8.5088    152.2791    211.9848   1.1064790908e+02   7.0414498394e+00    0.1933046    0.1809155 -58.03 0.0003070368    1.124    0.111
        23  -9.7815    238.6552    174.0259   8.5776772807e+01  -7.8220672968e-01    0.3225091    0.1965154  43.81 0.0008672696    1.878    0.467
        24 -10.0174    137.5786    172.9645   1.0668340300e+02   1.8606056103e+01    0.3023333    0.2132166  59.91  0.000826582    1.609    0.378
        25  -9.8704    157.6329    199.7012   1.0722531611e+02   8.6824310383e+00    0.3489613    0.2338952  29.44  0.001350539    1.609    0.378
        26  -9.6726     10.5270    169.7232   1.3813340939e+02   3.8020411635e+01    0.3392157    0.2006476 -31.61  0.001547316    2.573    0.611
        27  -9.7544    190.3483    156.4928   9.1223381254e+01   1.1638095454e+01    0.4535505    0.3301677 -49.85  0.002187189    1.326    0.246
        28 -10.7333    194.2520    168.2606   9.2953552248e+01   8.3813284118e+00     0.422753    0.3742614 -64.79 0.0008595361    1.219    0.180
        29  -9.6554    191.1753    161.9265   9.2232390312e+01   1.0320111773e+01    0.4401833    0.3242625 -64.41  0.001517926    1.584    0.369
        30  -9.2259    113.5043    170.4835   1.1216167644e+02   2.3791958967e+01    0.2703883    0.1359346  49.71  0.001025678    2.147    0.534
        31  -9.3043    239.0515    169.0369   8.4711215768e+01   7.3245797599e-02    0.2023467    0.1746136 -35.69  0.001214114    1.017    0.016
        32  -8.8313     18.6600    168.6248   1.3606660695e+02   3.7559579504e+01    0.2481647    0.1487864  40.64  0.001364212    1.825    0.452
        33  -9.6386    229.0105    166.9514   8.6037542234e+01   2.1853797982e+00    0.2210309    0.1991761 -33.59  0.001313003    1.018    0.018
        34  -9.7930     26.0602    166.1725   1.3395668595e+02   3.7446567384e+01    0.4198091     0.215846  21.36    0.0019981    2.603    0.616
        35  -8.3222      2.0712    167.4416   1.3988678914e+02   3.9253594822e+01    0.1588153   0.09406462 -27.03 0.0008072633    2.709    0.631
        36  -8.9113    160.0374    165.2388   9.9747978921e+01   1.5900186741e+01    0.2615146    0.2148061 -48.76 0.0005812208    1.192    0.161
        37  -9.2346    119.8468    164.4335   1.0933998599e+02   2.4083576280e+01    0.2744718     0.222415 -88.64 0.0005541911    1.401    0.286
        38  -9.1937    239.1736    164.1594   8.3709341349e+01   9.5848056765e-01     0.198146      0.16849 -23.48 0.0003586669    1.146    0.127
        39  -9.2639     54.0394    160.8605   1.2599690550e+02   3.5598917677e+01    0.2155206    0.1753258  82.78 0.0003991868    1.239    0.193
        40 -11.8585     24.4997    157.6460   1.3326322265e+02   3.9685795409e+01    0.6418685    0.4392129  26.83  0.001903909    1.774    0.436
        41 -10.0906    100.6648    158.7892   1.1317150931e+02   2.8996543524e+01    0.2625958    0.2512707 -78.66 0.0003217589    1.018    0.018
        42 -11.5100    104.7603    152.4595   1.1078235201e+02   2.9829781641e+01    0.7513977     0.651719  -3.77  0.001401919    1.413    0.292
        43  -9.1287    120.4451    157.1098   1.0765761069e+02   2.5751305503e+01    0.2933101    0.2185231  50.41  0.000745738    1.385    0.278
        44 -10.0722     26.6277    151.4010   1.3186188191e+02   4.1011363254e+01    0.2943096    0.2721664  35.19   0.00158225    1.296    0.229
        45 -10.5516     13.0319    155.4684   1.3591772259e+02   4.1239150293e+01    0.3322364    0.1801435 -84.88 0.0009997371    1.784    0.439
        46  -9.5700      8.0918    154.0690   1.3699984803e+02   4.1974395350e+01    0.5342012    0.2723596 -35.26   0.00253288    2.746    0.636
        47 -10.4434    134.0549    147.4798   1.0207478754e+02   2.5360172935e+01     1.114094    0.4045746 -57.06  0.003216566    3.575    0.720
        48 -12.2012     90.5356    152.7685   1.1467851371e+02   3.2238229564e+01    0.4648198    0.3767033  -5.02 0.0008516173    1.629    0.386
        49  -9.2947    143.7159    146.4785   9.9454305870e+01   2.3599706328e+01    0.3496881    0.1912481 -61.35  0.001283112    2.253    0.556
        50 -10.2124     27.3996    145.1982   1.3076256324e+02   4.2454854902e+01     0.455456    0.2438347 -61.93  0.002286406    1.527    0.345
        51 -10.8981     31.5771    143.1952   1.2930981177e+02   4.2537463045e+01    0.4094447    0.2859629 -71.11  0.002282257    1.248    0.198
        52 -10.2208     34.9976    141.4998   1.2808756129e+02   4.2605808349e+01    0.2292007    0.2054253 -52.35  0.000989103    1.126    0.112
        53 -10.0159     11.4339    132.7278   1.3337042019e+02   4.6818384109e+01    0.3325247    0.2118921  -7.81  0.001820777    2.214    0.548
        54 -10.7160      8.1403    145.2411   1.3592798104e+02   4.4083802483e+01    0.3333174    0.2441786  53.68  0.001756089    1.546    0.353
        55 -11.5225      4.8952    138.0302   1.3588087606e+02   4.6034427110e+01     0.765704    0.3945892 -75.99  0.003983886    1.673    0.402
        56  -8.4978    226.9432    144.6459   8.1765186580e+01   6.8601011803e+00     0.177071    0.1746616 -84.12 0.0004305472    1.126    0.112
        57 -10.3855     85.7877    144.4814   1.1429312477e+02   3.5083113124e+01    0.3361677    0.3221744  -3.70   0.00187493    1.161    0.139
        58  -8.1115    154.8574    142.6329   9.5900938306e+01   2.2130961934e+01     0.210968    0.1465154  56.84 0.0004510162    1.574    0.365
        59 -10.7813    113.2591    138.7117   1.0547560402e+02   3.1588078229e+01    0.5585377    0.3181715 -42.47  0.002180576    1.808    0.447
        60 -10.8149    102.9438    137.9335   1.0810401368e+02   3.3712562991e+01    0.2887807    0.2812196 -42.75 0.0003831263    1.053    0.050
        61  -7.6393    159.2885    138.3051   9.3861092183e+01   2.2155211732e+01    0.1531612    0.1256863  -7.13 0.0003766385    1.569    0.363
        62  -9.0429    140.9996    199.0563   1.1089426524e+02   1.1925297330e+01    0.2975008    0.2169692 -68.28 0.0007003259    1.569    0.362
        63  -9.1152    153.7812    194.0285   1.0702539748e+02   1.0647132981e+01    0.2498597    0.1711041 -22.90  0.001083317    1.985    0.496
        64  -9.2971    160.3396    128.6455   9.1322755291e+01   2.4062573036e+01    0.4217747    0.2596335 -62.18  0.001691684    1.965    0.491
        65  -9.9530    118.3711    129.7427   1.0199105249e+02   3.2709712721e+01    0.2885058    0.2597335 -16.56 0.0006910825    1.237    0.192
        66 -11.3613      2.9832    121.5058   1.3417192808e+02   5.0031512163e+01     0.622378    0.3013075 -57.53  0.003320181    1.573    0.364
        67 -10.1371    134.7855    123.3099   9.6140453442e+01   3.0794826366e+01    0.6146167    0.1911749 -46.94  0.001852708    3.158    0.683
        68  -9.8406    106.9594    125.2537   1.0401299970e+02   3.5979173252e+01    0.3158345    0.2641578 -25.77 0.0007374223    1.321    0.243
        69 -10.7193     35.5799    119.4375   1.2402638679e+02   4.7862004045e+01    0.2685004    0.2088602 -44.19  0.001161361    1.176    0.150
        70  -9.1324     22.9301    120.3049   1.2805498082e+02   4.8835675150e+01    0.1718129    0.1564639 -37.81 0.0008861485    1.159    0.137
        71  -8.8906    112.9484    118.9188   1.0078918732e+02   3.6276723620e+01    0.2271292    0.2247602 -56.22 0.0004606494    1.017    0.017
        72  -9.6185     83.6476    116.5339   1.0861181263e+02   4.2153015455e+01    0.3137897    0.2161307 -26.86  0.001444934    1.734    0.423
        73 -10.3024     66.5143    116.6208   1.1384222186e+02   4.4766566864e+01    0.2460514    0.2293684  46.75 0.0007950305    1.187    0.157
        74  -9.0256    168.1568    113.8416   8.5985812466e+01   2.5468511894e+01    0.4021862    0.2729721 -89.50  0.001560202    2.205    0.547
        75  -9.8863     43.1174    114.0797   1.2059449086e+02   4.8319475307e+01    0.2177297    0.1646846 -36.54 0.0007006566    1.280    0.219
        76 -11.0821     70.8340    111.9315   1.1139680507e+02   4.5222048189e+01    0.4209691    0.2969359  46.55  0.002115664    1.605    0.377
        77  -9.4792     23.7191    126.8190   1.2892752638e+02   4.7227836811e+01    0.1959834    0.1707004 -26.96 0.0006417383    1.277    0.217
        78 -11.4015     60.6826    109.4747   1.1399224186e+02   4.7224173703e+01     0.493283     0.358125  -5.55  0.002512338    1.726    0.421
        79 -10.7802     54.9942    110.3110   1.1599511633e+02   4.7778650373e+01    0.3660046    0.2773795 -43.03  0.001453238    1.194    0.163
        80  -9.9372    110.4514    212.3111   1.2017362442e+02   1.4385186246e+01    0.2868167    0.2292351 -85.70 0.0007688996    1.326    0.246
        81  -9.9813     88.4365    109.4410   1.0540240629e+02   4.2958340525e+01    0.3228946    0.2747011  -3.91 0.0009825202    1.316    0.240
        82  -9.0137    163.3388    203.5382   1.0667013311e+02   6.8045485109e+00    0.2886243    0.2399532  69.53 0.0007989723    1.428    0.300
        83  -8.6906    168.8471     96.8785   8.1611648888e+01   2.8687996120e+01     0.202022    0.1992824 -11.02            0    1.137    0.121
        84  -7.9982    113.4489     95.4512   9.4436946648e+01   4.1227292139e+01    0.1457334    0.1429304  -5.64 0.0001040577    1.007    0.007
        85  -9.2663    225.0245     89.6027   7.0276698196e+01   1.7501783769e+01    0.2186056    0.1795156 -44.43 0.0003912119    1.221    0.181
        86  -8.2269     74.9447     86.7529   1.0346276800e+02   5.0021990598e+01    0.1730452    0.1166008  32.28 0.0004047846    1.534    0.348
        87  -9.3214    111.0904     77.2123   8.9864897128e+01   4.5196611917e+01    0.4578845    0.3063583  78.65  0.001902584    2.634    0.620
        88  -7.9419    168.9881     69.9879   7.4733374863e+01   3.3434259848e+01    0.1686979    0.1567512 -75.86 0.0003499592    1.049    0.047
        89  -9.4658    172.6201    189.2222   1.0187319963e+02   8.1107217533e+00    0.2517891     0.188353 -43.30  0.000497371    1.327    0.246
        90  -8.7541    140.4780    242.3236   1.1809424302e+02   2.9675097315e+00     0.274784    0.2526724 -63.05  0.001715685    1.210    0.173
        91 -11.8628    178.5659     32.6942   6.3874147984e+01   3.6514980084e+01    0.4744986    0.3983056  46.32  0.001204047    1.386    0.279
        92 -10.4278    125.2895     55.8620   7.9908531173e+01   4.5653931695e+01    0.2335843    0.2047733  47.22  0.000234837    1.060    0.056
        93  -8.7596    220.9647     41.1357   6.0539868470e+01   2.5915047263e+01    0.2611356    0.1649496 -39.33  0.000902471    1.675    0.403
        94  -8.8080    249.7478    240.0761   9.6170283412e+01  -1.3375132092e+01    0.1686196    0.1420318 -21.26 0.0004905836    1.220    0.180
        95  -9.7317    167.9357    231.8739   1.1065893251e+02   3.2261189589e-01    0.2554748    0.1944706 -42.11  0.000473218    1.401    0.286
        96 -10.3435      3.9516    229.0715   1.4443541847e+02   2.5043654125e+01    0.2161094    0.1264995 -72.45 0.0007469305    1.514    0.339
