#   1 NUMBER                 Running object number                                     
#   2 MAG_AUTO               Kron-like elliptical aperture magnitude                    [mag]
#   3 X_IMAGE                Object position along x                                    [pixel]
#   4 Y_IMAGE                Object position along y                                    [pixel]
#   5 X_WORLD                Barycenter position along world x axis                     [deg]
#   6 Y_WORLD                Barycenter position along world y axis                     [deg]
#   7 A_WORLD                Profile RMS along major axis (world units)                 [deg]
#   8 B_WORLD                Profile RMS along minor axis (world units)                 [deg]
#   9 THETA_WORLD            Position angle (CCW/world-x)                               [deg]
#  10 FWHM_WORLD             FWHM assuming a gaussian core                              [deg]
#  11 ELONGATION             A_IMAGE/B_IMAGE                                           
#  12 ELLIPTICITY            1 - B_IMAGE/A_IMAGE                                       
         1 -15.3517    133.5569    145.8870   1.1336369122e+02   2.6488822086e+01     1.776186     1.018701 -56.45   0.00556705    1.862    0.463
         2 -14.8703    162.3732     44.0222   7.8351805760e+01   3.9516161282e+01     1.352523     1.127909 -10.97  0.003393844    1.361    0.265
         3 -14.9305    176.0066     11.6086   6.6004794040e+01   3.9873504952e+01     1.983914     1.202257  63.47   0.00722972    1.482    0.325
         4 -13.5707    190.2593     13.5918   6.4832116049e+01   3.5963463883e+01    0.6410589    0.4590114  18.76  0.002867696    1.911    0.477
         5 -10.1890    160.4671    240.9539   1.2338974589e+02   3.8827724315e+00    0.1539466      0.12228 -45.89  0.001030176    1.592    0.372
         6 -20.0928     76.0517    174.1457   1.3196645064e+02   3.0147239058e+01     17.01669     6.799406 -67.10   0.07206581    2.504    0.601
         7 -10.2780    139.6891    250.2293   1.2829531222e+02   5.8634053704e+00    0.2442546    0.1524491 -71.93  0.001436905    2.343    0.573
         8 -11.9952    187.8917    174.5747   1.0722598692e+02   9.6948318726e+00    0.2818125    0.1915507 -60.41  0.001331344    2.017    0.504
         9 -11.6247     26.0902    173.1188   1.4302169561e+02   3.6471030722e+01    0.2817691    0.1874303  83.42 0.0008693803    1.222    0.182
        10 -11.0903    218.2383    219.6445   1.0964691465e+02  -2.7101227398e+00    0.1986855    0.1482511 -42.47 0.0007608719    1.710    0.415
        11 -12.0803    230.4881    167.4961   9.7697219787e+01   2.6323183559e+00    0.4310817    0.1988297 -48.23  0.001710578    2.987    0.665
        12  99.0000    136.1420    243.1244   1.2812923774e+02   7.4966682797e+00    0.5338107    0.3895701  22.47  0.003030355    1.720    0.418
        13 -11.7583    167.6083    175.3596   1.1157400438e+02   1.3580594606e+01    0.2147255    0.1709421  79.48 0.0006334921    1.609    0.378
        14  -8.2856     16.3942    208.8431   1.4737405988e+02   3.0040588661e+01     0.179225    0.1215499 -67.51  0.001260345    1.655    0.396
        15 -13.0409     11.4685    206.0621   1.4811468647e+02   3.1066980688e+01    0.3868489    0.2391094  34.26  0.002158458    1.919    0.479
        16  -9.4142     22.4233    205.3605   1.4606227301e+02   3.0115434270e+01    0.1068669   0.08350845  76.74 0.0003472935    1.114    0.102
        17 -11.9513    188.8902    158.4268   1.0370673179e+02   1.2397189380e+01    0.4303345    0.3123713   9.51  0.001381699    1.783    0.439
        18 -10.6046     17.6747    158.7185   1.4367399250e+02   4.0437909352e+01    0.3058089    0.1891304  15.56  0.001485261    2.506    0.601
        19 -11.3417     17.8960    155.1101   1.4331402073e+02   4.1223369764e+01    0.3003363    0.1931589 -81.45  0.001074796    1.241    0.194
        20 -11.2067    139.5363    199.9610   1.2172438855e+02   1.4272035419e+01      0.40426     0.241024  43.48  0.001590531    1.469    0.319
        21 -12.4315    143.3247    156.3936   1.1322081192e+02   2.2255707954e+01    0.3902517    0.2270992  48.73      0.00171    1.656    0.396
        22 -15.1149    143.8542    143.4821   1.1038539651e+02   2.4895462979e+01     1.584579    0.7700116 -56.09  0.005960094    2.394    0.582
        23 -10.6185    160.5149    247.5062   1.2421498600e+02   2.9397726824e+00    0.3064815    0.1727734  27.57  0.001010116    1.985    0.496
        24 -10.3471    176.9701    154.9764   1.0544924222e+02   1.5543890640e+01    0.2179675    0.1795395  86.86 0.0004353822    1.557    0.358
        25 -13.6075    161.4460    152.8070   1.0836038564e+02   1.9250406270e+01    0.4778866    0.4686368  74.82  0.002057058    1.042    0.040
        26 -12.4631    174.1594    148.5719   1.0465429105e+02   1.7385355156e+01    0.4206076    0.3363357 -51.41  0.001362698    1.333    0.250
        27 -11.2656    126.9926    250.5570   1.3061133670e+02   7.7982261917e+00    0.1564302   0.09085691  43.80 0.0002494209    1.336    0.251
        28 -11.7894     27.3229    145.7596   1.4017074582e+02   4.2486757738e+01    0.2784755    0.2538888 -35.70 0.0009102309    1.475    0.322
        29  -9.7589    151.3121    240.7298   1.2504715451e+02   5.4105354895e+00    0.1188306   0.07991778  59.62 0.0003428484    1.549    0.354
        30 -11.1552    171.7137    137.9925   1.0278683379e+02   2.0012891751e+01    0.2092322    0.2036709 -47.64 0.0004765219    1.052    0.049
        31 -11.0634     28.3762    238.8508   1.4691990573e+02   2.3176677869e+01    0.1388474   0.09179857  83.62  0.000574159    1.239    0.193
        32 -10.6558     22.9684    156.0539   1.4222837013e+02   4.0553703041e+01    0.1794659    0.1424128 -88.67 0.0004350457    1.045    0.043
        33 -12.9679    160.5001    127.9550   1.0291156592e+02   2.4558189666e+01    0.5029957    0.3976655 -63.85  0.001826442    1.421    0.296
        34 -11.8565    153.3434    193.8398   1.1787263599e+02   1.2882043644e+01    0.3160167     0.267309  60.60 0.0006990568    1.174    0.148
        35 -13.9235    194.3543    168.2015   1.0464696971e+02   9.5273284604e+00     1.025322     0.536546 -55.07  0.003737285    2.793    0.642
        36 -14.0817    204.5757    176.6503   1.0434939373e+02   6.0811204399e+00     1.097364    0.6446096 -59.05  0.004149229    2.906    0.656
        37 -13.1094    203.5766    167.1399   1.0261505102e+02   7.8699627516e+00     0.650642    0.5256636 -20.98  0.002524437    1.276    0.216
        38 -10.9490    167.3908    112.5356   9.7469563015e+01   2.6115914424e+01    0.3456492    0.2507266 -87.04     0.001252    1.988    0.497
        39 -11.9313     21.5496    237.1919   1.4796384120e+02   2.4212317467e+01    0.1598566    0.1111507  76.66  0.001196841    1.100    0.091
        40 -10.7948    205.3543    110.2228   8.9158068185e+01   1.7602811709e+01    0.3126663    0.2113616  46.39  0.001003028    1.521    0.343
        41 -10.4454     24.9868    185.4666   1.4421884162e+02   3.3931601495e+01    0.1691943    0.1194118 -88.04 0.0005035654    1.155    0.134
        42 -12.3375    131.0638    234.7463   1.2809280544e+02   9.6406731490e+00    0.2028304    0.1697533 -71.41 0.0007976157    1.423    0.297
        43 -14.4121    135.6217    124.9450   1.0813968977e+02   3.0667813884e+01      3.09788    0.4856817 -48.91   0.00641149    7.164    0.860
        44 -11.1175     30.6930    182.7141   1.4283173369e+02   3.3926061362e+01    0.2309064    0.1836765  33.83  0.001497572    1.589    0.371
        45 -10.4972    144.0136     81.0211   9.4049836765e+01   3.7934152865e+01     0.237081    0.2331388 -82.63 0.0004454215    1.024    0.023
        46 -11.4211     27.5451    179.7993   1.4325537156e+02   3.4878030254e+01    0.2870412    0.2261048 -35.05  0.001877974    2.035    0.509
        47 -14.4709    151.3228     58.6207   8.5313279667e+01   4.0120000233e+01     1.383923     1.202519  34.45  0.001023634    1.200    0.167
        48 -12.7470    125.1694    240.9740   1.2990586594e+02   9.5781002707e+00    0.4989294    0.1656794 -55.11  0.002235588    3.676    0.728
        49 -13.0670    166.5284     35.8688   7.4996817933e+01   3.9547000450e+01     0.436579    0.4011705  -1.54  0.000872264    1.215    0.177
        50 -11.2155     13.5615     59.8242   1.3101439291e+02   6.3120280417e+01    0.1914451     0.176006 -86.55 0.0004705715    1.281    0.219
        51 -10.2003    143.8990     33.6799   7.8519667033e+01   4.5679160459e+01      0.20597    0.1745801  65.82 0.0004440382    1.150    0.131
        52 -11.7997     12.6406    241.7080   1.4961008733e+02   2.4346076548e+01    0.1695736    0.1298607  81.77  0.001117564    1.262    0.208
