#   1 NUMBER                 Running object number                                     
#   2 MAG_AUTO               Kron-like elliptical aperture magnitude                    [mag]
#   3 X_IMAGE                Object position along x                                    [pixel]
#   4 Y_IMAGE                Object position along y                                    [pixel]
#   5 X_WORLD                Barycenter position along world x axis                     [deg]
#   6 Y_WORLD                Barycenter position along world y axis                     [deg]
#   7 A_WORLD                Profile RMS along major axis (world units)                 [deg]
#   8 B_WORLD                Profile RMS along minor axis (world units)                 [deg]
#   9 THETA_WORLD            Position angle (CCW/world-x)                               [deg]
#  10 FWHM_WORLD             FWHM assuming a gaussian core                              [deg]
#  11 ELONGATION             A_IMAGE/B_IMAGE                                           
#  12 ELLIPTICITY            1 - B_IMAGE/A_IMAGE                                       
         1 -17.3597    236.0378     11.5751   4.3705439893e+01   2.3783422481e+01     2.819757     1.672571 -67.05   0.01453864    1.817    0.450
         2 -16.6887     66.4875     25.1253   8.0093324700e+01   6.4307526935e+01    0.8282897    0.5284844 -54.50  0.003883864    1.959    0.490
         3 -17.1721     79.8935      7.4327   6.5688990276e+01   6.4110385081e+01     1.965938     1.020821  49.38  0.008872541    1.847    0.459
         4 -14.8466    241.6070    222.8436   8.8925619969e+01  -6.5323433848e-01    0.3062727    0.1653446  27.22  0.002099565    1.395    0.283
         5 -16.6298    236.2240    244.3367   9.2723256245e+01  -1.7839676147e+00     1.611974    0.5521006  34.76  0.009452548    2.141    0.533
         6 -15.7211    181.0959    246.4145   1.0156540174e+02   5.0513510595e+00     1.158156    0.4151329  39.54  0.006479689    2.058    0.514
         7 -14.7676    161.8683    247.4538   1.0485270901e+02   7.4848968548e+00    0.4844266    0.3680746  48.66  0.003849039    1.423    0.297
         8 -14.8454    171.3760    243.7136   1.0285504039e+02   6.6248668734e+00    0.8132135    0.4533645  15.33  0.004932872    2.262    0.558
         9 -16.7980    129.2237    245.5247   1.1020313334e+02   1.2023275189e+01     2.631047    0.5180252  41.00    0.0110943    3.436    0.709
        10 -17.3553    119.2707    215.3454   1.0897383224e+02   1.7468825294e+01     2.959195     1.057885  45.80   0.01434694    2.316    0.568
        11 -18.4676    120.4247    188.8829   1.0559926581e+02   2.1457866664e+01     4.374043     3.089526  46.16   0.02727355    1.198    0.166
        12 -13.9260     23.5261    196.9000   1.2651436713e+02   3.2229419301e+01    0.4119268     0.214986  31.70  0.002607882    1.864    0.464
        13 -13.6620     15.0747    192.9077   1.2803856322e+02   3.3740939763e+01    0.5135748    0.2888082  35.60   0.00341633    1.627    0.385
        14 -15.9794     93.6795    205.5333   1.1296066183e+02   2.2544878258e+01     1.062181    0.7013605  27.09  0.005863067    1.638    0.390
        15 -14.3647    176.3160    192.0118   9.5074833603e+01   1.2141196496e+01    0.4952363    0.3754098  31.67  0.002826639    1.079    0.073
        16 -14.6795    169.4144    191.8988   9.6340027222e+01   1.3257526936e+01    0.5290545    0.4043916  21.35   0.00346319    1.192    0.161
        17 -12.8517     31.8748    193.0753   1.2462079025e+02   3.2111806281e+01    0.2791214   0.09948146  42.66   0.00151122    2.054    0.513
        18 -12.8381      4.0617    191.1691   1.3018476806e+02   3.5007708456e+01    0.2788177    0.1564856 -49.49  0.001702302    2.901    0.655
        19 -17.6578    216.0047    168.1093   8.3943420693e+01   8.7555153475e+00     2.243645     1.797743 -63.73   0.01325622    2.327    0.570
        20 -14.6446     70.0746    168.7974   1.1425604846e+02   3.2400174819e+01    0.5702262    0.4019013  78.86   0.00306068    1.428    0.300
        21 -12.7614      6.3516    182.4780   1.2941798409e+02   3.6444491116e+01    0.2281323    0.1299779  58.07  0.001559856    1.321    0.243
        22 -15.8937     46.3433    149.3091   1.1798287756e+02   3.9360876159e+01     1.615718     0.693512  70.22  0.006665365    3.148    0.682
        23 -13.0301     22.5193    213.1609   1.2741984378e+02   2.9468204022e+01    0.2297067    0.1867615 -85.01  0.001918515    1.412    0.292
        24 -16.4668     76.7035    141.4345   1.0915728979e+02   3.7194038969e+01    0.9216586    0.7325929  67.13  0.005185897    1.192    0.161
        25 -16.4905    237.9195    131.7408   7.3155754726e+01   9.4747585030e+00     1.023206    0.7262518  28.27  0.006158144    1.341    0.254
        26 -15.6578    187.1616    124.4665   8.0075535176e+01   2.0110449502e+01    0.7208647    0.4630985 -18.14  0.003488218    1.747    0.428
        27 -17.5603    211.2993    121.5612   7.5108644280e+01   1.5722466900e+01      1.51362     1.144762  52.29   0.00848475    1.489    0.329
        28 -17.9415     94.9282    160.2787   1.0734863808e+02   3.0585327431e+01     3.199992     1.619154  40.47   0.01574093    1.757    0.431
        29 -16.6440     67.8515     95.1684   1.0342578907e+02   4.9018393828e+01      1.63496    0.9909385  70.03  0.007120276    2.321    0.569
        30 -15.6025      7.2399    122.0499   1.2616434065e+02   4.9051957499e+01     1.035519    0.5062855  44.46  0.005265529    1.887    0.470
        31 -16.4580     18.6236    111.8285   1.2195289870e+02   5.0561791498e+01     1.413729    0.8678506  30.04  0.006744139    1.780    0.438
        32 -17.7260     46.5351    111.6067   1.1328191664e+02   4.7906194698e+01     2.443337     1.872527  40.67   0.01421317    1.353    0.261
        33 -14.3889    146.0454    109.6635   8.5126040639e+01   3.1262557147e+01    0.6443529    0.4895712  63.42  0.003186432    1.511    0.338
        34 -15.8974     32.0257    102.9226   1.1665019300e+02   5.1498762074e+01    0.9665003    0.8007306  33.48  0.005267574    1.358    0.264
        35 -15.8259    172.4839     96.3147   7.5956630351e+01   2.7804631209e+01     0.606007    0.4503946 -32.46   0.00302835    1.330    0.248
        36 -16.2987    191.3947     89.7246   7.0649368183e+01   2.4569365724e+01     1.235607    0.8538069 -56.36   0.00579896    1.841    0.457
        37 -16.2994     69.5679     82.1644   9.9742756706e+01   5.1797671603e+01    0.6670828    0.4745934 -83.38  0.003269339    1.707    0.414
        38 -17.1812     72.2811     62.2846   9.2960393036e+01   5.5863162885e+01     1.050133    0.8566042 -53.86  0.005698961    1.165    0.142
        39 -14.8652     53.8343    229.9823   1.2245829074e+02   2.3491432756e+01     2.052808     1.095719  43.00   0.01260684    1.369    0.270
        40 -17.7174    149.9080    165.8803   9.5967258939e+01   2.0458970911e+01     4.123387     2.505506  57.09   0.02045309    1.995    0.499
