#   1 NUMBER                 Running object number                                     
#   2 MAG_AUTO               Kron-like elliptical aperture magnitude                    [mag]
#   3 X_IMAGE                Object position along x                                    [pixel]
#   4 Y_IMAGE                Object position along y                                    [pixel]
#   5 X_WORLD                Barycenter position along world x axis                     [deg]
#   6 Y_WORLD                Barycenter position along world y axis                     [deg]
#   7 A_WORLD                Profile RMS along major axis (world units)                 [deg]
#   8 B_WORLD                Profile RMS along minor axis (world units)                 [deg]
#   9 THETA_WORLD            Position angle (CCW/world-x)                               [deg]
#  10 FWHM_WORLD             FWHM assuming a gaussian core                              [deg]
#  11 ELONGATION             A_IMAGE/B_IMAGE                                           
#  12 ELLIPTICITY            1 - B_IMAGE/A_IMAGE                                       
         1 -11.8877     19.7413     25.8767   1.0622400975e+02   6.8963136286e+01     1.395552    0.7561964 -16.65  0.007069737    2.606    0.616
         2 -11.3987     23.0894     14.2411   9.9883641667e+01   7.0893210004e+01      1.18476    0.4446771 -44.14  0.003497049    2.055    0.513
         3 -11.5970      2.9201      7.3928   1.0787931193e+02   7.3706007485e+01    0.4274156    0.1741401 -43.95  0.001244431    1.803    0.445
         4 -11.1968      4.3018     26.5878   1.1388316830e+02   6.9857571989e+01    0.8493003    0.4354456 -69.31  0.003007113    1.770    0.435
         5  -9.7555     11.0039      5.9695   1.0259767856e+02   7.3414898514e+01    0.3775555    0.1543804 -38.13 0.0003255434    2.038    0.509
         6 -10.5208     10.7463     10.3450   1.0471570754e+02   7.2635041861e+01    0.3404962    0.1790659 -39.27 0.0004115533    1.516    0.340
         7 -12.2857     36.6897      4.4187   8.8105587267e+01   7.1057854985e+01      1.26576    0.7823028 -37.53  0.006836997    1.385    0.278
         8 -10.2476     31.4439      5.5698   9.1339692298e+01   7.1513676000e+01    0.2690181     0.217758 -20.65 0.0002550802    1.050    0.048
         9 -11.5581      9.5364     17.6434   1.0829093992e+02   7.1330467215e+01    0.8133656    0.3260331  32.92  0.004274687    3.137    0.681
        10 -12.1031     15.9324     11.4421   1.0237676808e+02   7.2031335104e+01     1.129657    0.2565949 -50.90  0.003485377    3.150    0.683
        11 -10.4906     72.6635     13.6116   7.7950759599e+01   6.4150000251e+01    0.3781516    0.3268628  14.28  0.001821136    1.126    0.112
        12 -11.2493     66.5895     22.6291   8.4502130298e+01   6.3816426138e+01    0.5561256     0.446561  -6.78  0.003341861    1.230    0.187
        13 -10.8077     73.6587      5.3612   7.3380654769e+01   6.5066040658e+01    0.5422909    0.3293082  51.53  0.002857094    1.808    0.447
        14 -10.0157     92.8074     17.2491   7.3134004381e+01   5.9729585018e+01    0.3688164    0.2788653 -42.85  0.001354648    1.435    0.303
        15 -10.7785    247.5883     16.4474   4.7625328563e+01   2.0889698340e+01    0.5332576     0.281974  63.51  0.002551782    1.975    0.494
        16 -10.3107    249.0308      4.3907   4.4415816765e+01   2.1792440360e+01    0.4051939    0.2837955 -38.40   0.00228011    1.254    0.203
        17  -9.1759     56.2075     15.3328   8.5098848468e+01   6.6632449379e+01    0.3940678    0.1453167 -47.10  0.001506831    3.290    0.696
        18  -9.4834     67.8544      8.8648   7.7272471867e+01   6.5668607469e+01    0.2026053    0.1737227  -8.99 0.0004766549    1.014    0.014
        19 -10.3488     61.3219      9.2871   7.9966436128e+01   6.6727666031e+01    0.3426935    0.2562038 -34.81  0.001860778    1.295    0.228
        20  -9.2502     64.2221      5.1512   7.6651398338e+01   6.6800108454e+01    0.2469043    0.2433068  21.88 0.0007388223    1.321    0.243
        21  -8.6744     57.3567     10.2977   8.2073121767e+01   6.7223495601e+01    0.1806748    0.1128018 -18.86 0.0002873841    1.572    0.364
        22  -9.3312     50.4917     13.5298   8.6597242448e+01   6.7764095744e+01    0.2314975    0.1760142 -20.87 0.0005061183    1.141    0.124
        23  -9.2120     59.1656      3.3873   7.7630742289e+01   6.7892597636e+01    0.2472998    0.1603319 -17.37 0.0005518188    1.417    0.294
        24  -9.4899     62.7709      1.3583   7.5111946817e+01   6.7535560585e+01    0.2870113    0.1598338  38.90 0.0002500802    1.827    0.453
        25 -10.8640     53.6632      5.2695   8.0902681385e+01   6.8526758455e+01    0.6068633    0.3931476 -11.81  0.001837535    1.558    0.358
        26  -8.6792     49.7478      3.9755   8.1850171572e+01   6.9309287847e+01    0.1930334     0.127515 -20.13 0.0003944573    1.346    0.257
        27 -10.3752     94.7845      5.7789   6.7108803290e+01   6.0734159787e+01    0.5413033    0.3014336 -20.73  0.002589817    1.740    0.425
        28  -8.1105     79.4069     10.7487   7.4213933759e+01   6.3282841047e+01    0.1808906    0.1167767 -15.02 0.0005475812    1.534    0.348
        29 -10.2166    232.8484      6.3885   4.6176456207e+01   2.5476197563e+01    0.3226869    0.2140082 -50.23  0.001071557    1.398    0.285
        30  -8.1846     89.3015      8.3066   6.9909352441e+01   6.1605509092e+01     0.140193   0.09483075  17.59  0.000444393    1.597    0.374
        31  -8.5534    143.9806      8.0194   5.7341119653e+01   4.8634094519e+01     0.324871    0.1273205  32.10  0.000961023    4.150    0.759
        32  -9.9853     83.0699      8.9765   7.2145422141e+01   6.2792657985e+01    0.6164203    0.2401174 -20.56  0.002317286    2.966    0.663
        33  -8.0505    108.7000      1.6838   6.1654931190e+01   5.8022413441e+01    0.1466051   0.09436464  26.76 0.0004781556    1.614    0.381
        34  -8.2040     89.5018      1.4686   6.6436350867e+01   6.2335720588e+01    0.1356594    0.1173946  12.25 6.321766e-05    1.031    0.031
        35  -8.2809     68.4673      1.5319   7.3127568969e+01   6.6495888974e+01    0.1303833    0.1089694   0.51 5.803966e-05    1.030    0.029
        36  -8.5867    150.8918    215.7656   1.0833903493e+02   1.1872417382e+01    0.1622512    0.1525408  22.37 0.0006254066    1.265    0.210
        37 -11.9005    204.6344    231.8286   1.0144208884e+02   1.3833649726e+00    0.2918946    0.2321985  33.63 0.0004540154    1.085    0.078
        38 -12.8067    208.5135    244.6567   1.0251992396e+02  -5.0739907694e-01    0.8553994    0.5138054  41.29  0.003600084    1.283    0.221
        39 -12.6492    178.3570    230.0856   1.0547756828e+02   5.6448467498e+00     1.076127    0.7749627  38.90  0.005972411    1.068    0.064
        40 -10.8718    206.4800    223.2457   9.9954709306e+01   2.0284547180e+00    0.2923334    0.2279473  19.63 0.0004847553    1.176    0.150
        41 -13.1953    197.1634    197.1497   9.7574452119e+01   6.6897085786e+00     1.955789     1.242947 -21.76   0.01014952    1.970    0.492
        42 -14.0795    243.3324    118.6986   7.4142888909e+01   8.6739603871e+00     5.756292     2.715299 -19.07   0.02370059    2.425    0.588
        43 -12.1992    225.6257    240.2097   9.9304666790e+01  -2.5735532231e+00    0.8500001    0.2363725 -29.47  0.003811283    5.038    0.801
        44 -12.1587    210.6812    213.8381   9.7892822460e+01   2.4156223000e+00     1.072106    0.2704364 -40.78  0.004232274    5.141    0.805
        45 -12.0634    202.2119    214.0099   9.9315074914e+01   3.7602963251e+00    0.5226659    0.4074409 -30.14  0.001767229    1.545    0.353
        46 -12.3773    208.2672    200.3304   9.6189949182e+01   4.4034328220e+00     1.198197    0.4693478 -25.89  0.004686439    4.039    0.752
        47 -12.9022    231.3234    148.0456   8.2567885722e+01   7.0363107083e+00     2.732736     1.360986   5.02  0.007926309    6.082    0.836
        48 -11.6505    244.4747    136.8165   7.8043731316e+01   6.0264299241e+00     1.010428    0.4350317  27.91  0.003362586    3.631    0.725
        49 -12.0226    216.3801    230.5269   9.9401500473e+01  -2.6595171045e-01    0.3207321    0.2493131  20.98 0.0005398125    1.117    0.105
        50 -11.9751    231.3018    162.0578   8.5432797065e+01   5.1911659565e+00    0.9126829    0.6352161   9.22   0.00249485    1.499    0.333
        51 -12.8867    243.3038    148.3730   8.0697919000e+01   4.7494663267e+00     1.671878     0.906261   0.98   0.00714279    2.787    0.641
        52 -12.0014    235.9215    226.6566   9.5805525927e+01  -2.8045742241e+00    0.3568133    0.2603131   4.92 0.0004465457    1.303    0.233
        53 -12.9788    243.9772    240.5150   9.6587053194e+01  -5.2039348831e+00    0.8773248    0.6903318 -23.50  0.007165288    1.639    0.390
        54 -12.2961    229.5843    230.9677   9.7407576764e+01  -2.2808925599e+00    0.6734141    0.3070997 -36.61  0.002092946    2.808    0.644
        55 -12.3398    219.7450    202.0026   9.4551452005e+01   2.2987269517e+00    0.9313524    0.6029624  20.06  0.003083197    1.512    0.338
        56 -11.7273    229.4240    197.9264   9.2300351597e+01   1.1780297022e+00     0.421073    0.3811811   7.24  0.001548662    1.232    0.188
        57 -14.1053    222.3973    186.1393   9.1425026335e+01   3.7378322538e+00     1.608034     1.453199  54.03   0.01107846    1.418    0.295
        58 -11.5236    225.5204    171.0331   8.8136952893e+01   5.0818415718e+00    0.4214372    0.2781559  23.82 0.0003486647    1.469    0.319
        59 -11.6427    249.4431    232.0167   9.4554609946e+01  -5.2378171631e+00    0.2962753    0.2507472  -2.40   0.00148071    1.369    0.269
        60 -11.9885    238.3998    217.3750   9.4018406091e+01  -2.2773456248e+00    0.4124138    0.2836787   1.70 0.0006445826    1.437    0.304
        61 -13.1422    234.1332    174.6044   8.7388030281e+01   3.1151928102e+00     1.363978    0.7416249 -18.90  0.007069962    2.053    0.513
        62 -11.6448    233.7835    210.5442   9.3666833278e+01  -8.8043734279e-01     0.373551    0.2414026   7.60 0.0004847646    1.607    0.378
        63 -12.3475    248.0649    175.0904   8.5254443813e+01   6.8133436616e-01    0.9159794    0.5008119  12.91  0.002332872    2.272    0.560
        64 -12.8178    245.5957    165.2999   8.3763031503e+01   2.2451744385e+00     1.244973    0.5729635 -14.85  0.004776445    2.906    0.656
        65 -12.0852    248.2110    156.3175   8.1562616663e+01   2.8716298420e+00    0.5381655    0.4501782  31.24   0.00325562    1.192    0.161
        66 -12.5622    220.0020    221.8675   9.7585097164e+01   7.4595249829e-02    0.7377324    0.5980968  48.10  0.003451909    1.439    0.305
        67 -12.3241    227.8251    218.1095   9.5783558570e+01  -7.4070862904e-01    0.4911784    0.3603105 -32.49  0.002651243    1.702    0.412
        68 -13.6228    239.9681    201.4104   9.1203532093e+01  -8.9298295802e-01      1.20639    0.6565934 -28.33  0.007185099    1.991    0.498
        69 -12.7055    248.5961    202.6116   9.0063273645e+01  -2.3591031614e+00    0.8555762    0.3906567  -9.09  0.003894219    3.447    0.710
        70 -11.8473    246.3552    191.3374   8.8476753710e+01  -8.3594684748e-01    0.4023805    0.2619931  14.85 0.0004759287    1.431    0.301
        71 -12.2361    247.8015    184.3101   8.6997804604e+01  -3.0666789801e-01    0.8595007    0.3495622  30.15  0.003893738    2.644    0.622
        72 -11.9689    247.6287    224.2549   9.3665568406e+01  -4.2897746650e+00    0.4045886    0.2414743  23.40  0.000472027    1.367    0.268
        73 -12.6385    248.1001    214.3529   9.2055141684e+01  -3.4358593615e+00     0.529272     0.299657 -11.71  0.001497278    1.934    0.483
        74  -8.8771    184.1497    250.0023   1.0695899777e+02   2.5243323945e+00    0.1774661    0.1194953  44.75  0.000498722    1.178    0.151
        75 -10.4505    133.0786    245.3923   1.1458868834e+02   1.0560954821e+01    0.2483067    0.2218205 -11.62 0.0003734175    1.698    0.411
        76  -9.6771    152.8234    233.1572   1.1007782316e+02   9.2109356117e+00     0.184517    0.1531111  36.02 0.0003294084    1.191    0.160
        77  -9.8089    165.7836    232.4861   1.0784992855e+02   7.3039551397e+00    0.2026094    0.1578645  34.17 0.0003508652    1.163    0.140
        78 -10.9923    169.8533    240.6608   1.0814724815e+02   5.6954054253e+00    0.2599658    0.2016865  25.48 0.0004333347    1.324    0.245
        79 -10.4767    148.7973    238.1926   1.1129948118e+02   9.1726821868e+00    0.2577658    0.1994676  28.55 0.0003320214    1.405    0.288
        80 -12.1157    140.4188    246.5766   1.1352456033e+02   9.3465797324e+00    0.4670662     0.293875  25.99 0.0004463633    2.071    0.517
        81  -9.9733    158.3824    229.3504   1.0870887519e+02   8.8477811666e+00    0.2232878    0.1848879  21.53  0.000423535    1.375    0.273
        82 -10.7766    163.5473    245.0038   1.0965191474e+02   6.1309659705e+00    0.2311364    0.2157557  15.08 0.0004193806    1.336    0.252
        83 -11.5281    159.2757    235.7037   1.0930037987e+02   7.9018008095e+00    0.3169928    0.1990177  32.68 0.0007638142    1.510    0.338
        84 -11.4102    166.6856    250.4553   1.0974908443e+02   5.0395526399e+00    0.3265022    0.1106363  40.88 0.0003056654    2.207    0.547
        85 -11.8415    176.4541    243.9734   1.0747333699e+02   4.3224853272e+00    0.4293164    0.2294832  30.37 0.0005916894    1.857    0.462
        86 -10.7855    163.4859    225.2932   1.0735871765e+02   8.5757854705e+00     0.294548    0.2278392  60.14 0.0003387968    1.342    0.255
        87  -9.3305    165.8203    220.4409   1.0635018898e+02   8.8399697974e+00    0.2107943    0.1610628  28.08 0.0003287455    1.312    0.238
        88 -10.6564    151.8585    250.0343   1.1204779110e+02   7.2574541730e+00    0.4330365    0.1702516  50.63 0.0009075431    2.151    0.535
        89 -10.7555    157.0262    245.9789   1.1080158286e+02   6.9829974715e+00    0.2500415    0.1841641  36.75 0.0003821279    1.186    0.157
        90 -10.1265    151.8848    244.6933   1.1149042437e+02   7.8989566407e+00    0.2794921    0.1921433  35.00  0.001314067    1.325    0.245
        91  -9.6339    155.0736    241.1477   1.1059536482e+02   7.8604443608e+00    0.1957292    0.1757897  28.35  0.000364875    1.287    0.223
        92  -9.2615    101.5129    250.5186   1.2005610259e+02   1.4276705232e+01    0.1933212   0.08886331  43.28 0.0005098356    1.659    0.397
        93  -9.9342     87.5888    249.7582   1.2217845974e+02   1.6211843744e+01    0.2115146    0.1425596  43.18 0.0005457717    1.375    0.273
        94 -10.6955     93.2129    244.5599   1.2091308325e+02   1.6210556024e+01    0.3616337    0.2096294  31.15 0.0007056409    2.295    0.564
        95 -10.5638    104.6035    241.5993   1.1884876255e+02   1.5094207309e+01    0.2324104    0.2110337  33.77  0.000696396    1.512    0.339
        96  -9.1827    101.4176    238.8019   1.1913383906e+02   1.5930075723e+01    0.1823164    0.1247471  40.69  0.000402246    1.403    0.287
        97  -9.4313     72.6457    250.4840   1.2453917419e+02   1.7991992248e+01    0.1942569    0.1010599  40.45 0.0006170728    1.737    0.424
        98  -8.7891     75.5357    246.4803   1.2383663619e+02   1.8208887074e+01     0.142518    0.1219352  63.93 0.0005453757    1.329    0.247
        99 -10.5895     80.3434    244.3386   1.2293827054e+02   1.7913313049e+01     0.379911    0.1904089  40.45 0.0004721665    1.770    0.435
       100 -10.2028     61.4324    248.7794   1.2615463913e+02   1.9591042826e+01    0.2116605    0.1734928  45.11  0.000841167    1.521    0.342
       101 -10.3179     46.9706    250.3607   1.2842136884e+02   2.1026350694e+01    0.2194229    0.1084583  39.08 0.0008217539    1.961    0.490
       102 -10.0885     16.2517    249.0728   1.3286178523e+02   2.4442515892e+01    0.2435457    0.1621905  40.24  0.001473989    1.727    0.421
       103  -9.0978     24.0257    249.4647   1.3175664154e+02   2.3608225006e+01    0.1638035   0.07811499  49.74  0.000588721    1.471    0.320
       104  -9.9503      8.5039    248.5710   1.3394837993e+02   2.5263384566e+01    0.1802291    0.1470109  60.75 0.0006296433    1.477    0.323
       105  -8.7358      1.8805    250.3700   1.3492843181e+02   2.5615115453e+01    0.1238163   0.07825303  57.48  0.001117511    1.180    0.152
       106 -10.1643    148.4653    220.6909   1.0936392769e+02   1.1564274441e+01    0.2225458    0.1970057  -0.11 0.0006008464    1.502    0.334
       107 -10.1390    145.4014    231.0497   1.1108117789e+02   1.0621659200e+01    0.2284162    0.1751248  40.75 0.0004188767    1.144    0.126
       108  -9.6567    143.9577    226.2654   1.1078791574e+02   1.1493229475e+01    0.2769656    0.1851374  29.96 0.0006124926    1.640    0.390
       109  -9.5764    133.9734    230.3764   1.1293041647e+02   1.2443654164e+01    0.2031342    0.1802664  31.13  0.000599732    1.344    0.256
       110  -8.5699    130.1328    229.0754   1.1344265495e+02   1.3201913417e+01    0.1558447    0.1281355  40.05 0.0004449539    1.241    0.194
       111  -9.0465    138.8972    227.0956   1.1174216264e+02   1.2154694798e+01    0.1864265    0.1347385  38.65 0.0004530361    1.258    0.205
       112 -10.0162    123.3328    230.9386   1.1478106408e+02   1.3945852051e+01    0.2575428    0.1864469  28.81 0.0005664024    1.685    0.406
       113 -10.0256    100.2906    230.6290   1.1862584545e+02   1.7287077529e+01    0.2215348    0.1832175  36.07 0.0005672521    1.479    0.324
       114 -10.7559     54.7130    231.0733   1.2617295393e+02   2.3069592027e+01    0.2483566    0.1707225  39.23 0.0007065947    1.630    0.386
       115  -9.3862      9.8154    231.3950   1.3320177727e+02   2.7770893557e+01    0.1723704    0.1211346  40.44  0.001256174    1.689    0.408
       116  -9.2525    106.9854    228.0409   1.1726540547e+02   1.6735180121e+01    0.2014212    0.1294596  42.36 0.0004163051    1.367    0.268
       117 -10.4109    113.2245    228.1425   1.1621669021e+02   1.5825787784e+01    0.2349521    0.1810436  51.76 0.0003357506    1.081    0.075
       118  -9.3065    109.7253    224.0554   1.1642173019e+02   1.6944416668e+01    0.2248093    0.1510898  47.88 0.0004878456    1.188    0.158
       119  -9.1106     44.6760    229.5988   1.2770101332e+02   2.4456210551e+01    0.1582675     0.149985 -80.44 0.0006982836    1.690    0.408
       120  -9.5596     92.7445    227.9531   1.1966538829e+02   1.8731311299e+01    0.1773361     0.158015  53.64 0.0004251715    1.338    0.253
       121  -9.3808     78.8832    228.4410   1.2202837262e+02   2.0498617832e+01     0.164845    0.1463809  76.75 0.0003927668    1.332    0.249
       122  -8.7186     29.5271    229.0307   1.3007445491e+02   2.6188618852e+01    0.1516532    0.1219643  45.95 0.0007121709    1.545    0.353
       123  -9.3218    152.8252    227.6663   1.0944558532e+02   9.9314166040e+00     0.209046    0.1606948  34.06 0.0004502232    1.250    0.200
       124  -9.3505    155.3355    223.4499   1.0851692598e+02   1.0103640707e+01    0.2061603    0.1652092  37.91 0.0004750746    1.137    0.121
       125  -9.7598     67.8144    227.0522   1.2376866071e+02   2.2124489195e+01    0.2000262    0.1458933  51.96 0.0004364742    1.215    0.177
       126  -9.4982     19.8940    227.1613   1.3149844173e+02   2.7471326217e+01     0.182636    0.1560071  87.52 0.0008279919    1.497    0.332
       127  -9.3962      1.7419    227.2668   1.3428204454e+02   2.9173970761e+01     0.156573    0.1082977  76.18  0.001391905    1.154    0.134
       128  -9.1914    120.5256    224.9160   1.1465133236e+02   1.5234686404e+01    0.1837108    0.1601846  29.61 0.0006852461    1.438    0.305
       129  -9.6434      8.1894    225.2595   1.3323528144e+02   2.8906246585e+01    0.2442982    0.1326886  40.70  0.001193009    1.793    0.442
       130  -9.2276    104.3084    223.9477   1.1734237977e+02   1.7737459475e+01    0.1834786    0.1600585  47.74 0.0004667275    1.296    0.229
       131  -8.1964     89.4952    225.0015   1.1996757293e+02   1.9631107654e+01    0.1339103   0.09868597 -78.21 0.0004838392    1.489    0.328
       132  -9.4835    129.4231    223.8459   1.1300930256e+02   1.4058511766e+01    0.2061264    0.1443301  39.88  0.000549033    1.296    0.228
       133 -10.2585     49.6720    222.4005   1.2647249617e+02   2.5054121689e+01     0.216878    0.1662171  73.74  0.000526514    1.141    0.124
       134  -9.2980     47.2843    217.9339   1.2659827483e+02   2.6069397110e+01    0.2013913    0.1083435  76.74 0.0009841059    1.628    0.386
       135  -8.8281    135.8021    222.9497   1.1181179348e+02   1.3214963279e+01      0.16125    0.1324776  36.53 0.0005416092    1.263    0.208
       136  -9.6927     97.6951    222.1693   1.1831701979e+02   1.8946644804e+01    0.1842028    0.1701238  54.07 0.0004344976    1.359    0.264
       137  -8.7010     82.5983    222.9222   1.2097061240e+02   2.0884329147e+01    0.1616115    0.1233855  49.45 0.0005278336    1.242    0.195
       138  -9.1071     74.1487    222.2152   1.2235318601e+02   2.2100462594e+01    0.1694595      0.12976  63.66 0.0003605366    1.068    0.063
       139  -9.3577     15.4692    221.3633   1.3195526775e+02   2.8851507313e+01    0.1971728    0.1420066 -67.43   0.00096447    1.849    0.459
       140  -8.8487    114.9025    221.6855   1.1529387039e+02   1.6549728313e+01    0.1554761     0.145376  58.35 0.0005409305    1.290    0.225
       141  -8.3484     92.2443    221.7340   1.1921755105e+02   1.9771166771e+01    0.1318856    0.1150857  48.13 0.0005572478    1.343    0.255
       142  -9.5336     39.9909    221.1128   1.2799354228e+02   2.6357764999e+01    0.2117758    0.1880066  20.38   0.00105172    1.955    0.488
       143  -8.9422     28.6780    221.8965   1.2987324897e+02   2.7438394124e+01    0.1495151    0.1110259  53.68  0.000452634    1.309    0.236
       144  -9.2265    140.6614    220.3139   1.1067076637e+02   1.2840846867e+01    0.1944306    0.1580192  41.96 0.0003500896    1.143    0.125
       145  -7.9385    124.6214    221.2195   1.1355816711e+02   1.5170915711e+01    0.1246425    0.1066373 -50.25 0.0004171494    1.553    0.356
       146  -8.4328     68.0995    221.1344   1.2329954020e+02   2.3043822032e+01    0.1418563    0.1231507  60.77 0.0003859594    1.325    0.245
       147  -9.5494     58.5924    220.5770   1.2486714583e+02   2.4303405199e+01    0.3429629     0.137828  45.07  0.002034412    1.926    0.481
       148 -10.2256     56.0068    216.6095   1.2503846315e+02   2.5273425404e+01    0.2068088    0.1261763 -83.18 0.0006157313    1.580    0.367
       149  -8.9718    101.6092    214.5970   1.1692085174e+02   1.9596114575e+01    0.1800704    0.1656342 -19.45 0.0007743567    1.716    0.417
       150  -9.3005    109.0318    219.2798   1.1607529643e+02   1.7779698912e+01    0.1778449    0.1604098  53.92 0.0003998427    1.262    0.208
       151  -8.7790    104.0693    218.7041   1.1688643305e+02   1.8587788772e+01    0.2142785    0.1251882  59.42  0.001349791    1.473    0.321
       152  -8.5233    107.1295    215.5955   1.1604222061e+02   1.8636627441e+01     0.163638    0.1418202  38.26 0.0003829221    1.376    0.273
       153  -8.0988     87.8827    220.1422   1.1983223684e+02   2.0620971906e+01     0.133763     0.113485  51.23 0.0003804482    1.289    0.224
       154  -9.7301    158.9053    217.8101   1.0720251144e+02   1.0302039826e+01    0.2328192    0.1675717  27.65 0.0004225724    1.475    0.322
       155  -8.2802    154.4785    218.4907   1.0805460403e+02   1.0916903276e+01     0.156078   0.09239063  37.92 9.592799e-05    1.463    0.316
       156  -8.7629    128.8279    218.9456   1.1257755493e+02   1.4870361107e+01    0.1615904    0.1328202  40.41 0.0004277574    1.230    0.187
       157  -8.6334    136.0681    218.1208   1.1121742079e+02   1.3874481615e+01    0.1671181    0.1310973  36.35 0.0004016965    1.281    0.219
       158  -9.1916    119.7830    217.0141   1.1395512698e+02   1.6537137087e+01    0.1808689    0.1507313  48.13 0.0005306593    1.162    0.140
       159  -8.1255     95.4951    217.9496   1.1831468598e+02   1.9923843601e+01    0.1393377    0.1024297 -76.90 0.0004117572    1.490    0.329
       160  -9.9293      7.8737    216.3690   1.3296324738e+02   3.0399322475e+01    0.2173548    0.1790577 -54.19  0.001397791    2.086    0.521
       161 -10.4653    171.0226    213.8580   1.0458541225e+02   8.8718850407e+00    0.2389929    0.2332559  38.27 0.0004151836    1.227    0.185
       162  -8.5048     77.0215    217.2989   1.2147588521e+02   2.2531181582e+01    0.1520259     0.108285  56.93 0.0003396292    1.090    0.082
       163  -8.3472     72.2033    216.7854   1.2226962359e+02   2.3239875898e+01    0.1303654    0.1124584  57.83 0.0003567929    1.306    0.234
       164  -8.4534     21.8966    216.9928   1.3073945321e+02   2.8946713104e+01    0.1281239    0.1121575 -66.65  0.001020797    1.763    0.433
       165  -9.8920    179.7842    215.4956   1.0330512668e+02   7.2264225820e+00    0.2218628    0.1672463  27.05 0.0002788064    1.267    0.210
       166  -8.4910    124.0365    215.4841   1.1303752672e+02   1.6126617008e+01     0.159594    0.1372391  64.84 0.0004436121    1.122    0.109
       167  -8.1874     90.4859    215.7052   1.1898896973e+02   2.0983400995e+01    0.1229549    0.1016823 -66.38 0.0006834693    1.504    0.335
       168  -9.3927     82.9075    215.4931   1.2030053986e+02   2.2049622806e+01    0.1857641    0.1690282  46.38 0.0006167198    1.434    0.303
       169  -9.6915     30.9756    214.6783   1.2913663090e+02   2.8407269117e+01    0.2164363    0.1562467 -67.94 0.0009034065    1.737    0.424
       170  -9.4852    165.6849    214.0610   1.0553812407e+02   9.7165449199e+00    0.2045529    0.1490683  34.29 0.0003822161    1.236    0.191
       171  -9.5579    143.3540    214.4768   1.0950441201e+02   1.3261666595e+01    0.2124872    0.1697741  31.02 0.0006673118    1.337    0.252
       172  -9.3957     62.9394    213.3587   1.2361685437e+02   2.4980920171e+01    0.2077401    0.1961821   0.62 0.0007911532    1.824    0.452
       173  -9.2503    132.0047    213.6539   1.1141629812e+02   1.5174320000e+01    0.2056872    0.1623938  36.67 0.0004378168    1.292    0.226
       174  -9.0176     51.2156    213.0800   1.2562294675e+02   2.6436352426e+01    0.1644873    0.1495282 -51.22 0.0008564105    1.798    0.444
       175  -9.4255    154.5698    212.3433   1.0725774203e+02   1.1765993039e+01    0.2031586    0.1679233  35.46 0.0003382351    1.167    0.143
       176  -8.4926    117.3995    212.6630   1.1390889644e+02   1.7574660470e+01    0.1686091    0.1224506  32.65 0.0005540322    1.565    0.361
       177  -8.5983    111.1225    213.1779   1.1508503470e+02   1.8433754586e+01    0.1595329    0.1364822  45.72 0.0004756905    1.248    0.199
       178  -9.2233     96.8230    212.4194   1.1756094102e+02   2.0634276925e+01    0.1779892    0.1621899  77.31 0.0005872794    1.266    0.210
       179  -8.6788     40.9509    212.8221   1.2735907044e+02   2.7647874496e+01    0.1408097    0.1187025  69.37 0.0005676463    1.299    0.230
       180  -8.3106     74.1165    212.4861   1.2159406960e+02   2.3712608295e+01    0.1529734   0.08922144  44.78  0.000766141    1.481    0.325
       181  -9.1546     25.2090    210.7225   1.2989554511e+02   2.9679602419e+01    0.1811842    0.1350268 -72.79 0.0007666991    1.603    0.376
       182  -9.2743     17.6608    211.2136   1.3117063544e+02   3.0345357436e+01    0.1682484    0.1660381 -27.38 0.0009786222    1.840    0.456
       183  -8.9022    106.6432    210.2970   1.1558803308e+02   1.9560783265e+01    0.1771965    0.1414165  57.26 0.0003387686    1.048    0.046
       184  -8.7155    125.0202    211.0161   1.1235949476e+02   1.6666714065e+01    0.1719431    0.1410879  47.30 0.0003262543    1.131    0.116
       185 -10.2297    176.9207    208.4569   1.0280841711e+02   8.6210040939e+00    0.2265047    0.1814829  30.44 5.475005e-05    1.146    0.127
       186 -10.0901    161.2794    208.7321   1.0559361342e+02   1.1180131349e+01    0.2097478    0.1823639  18.00 0.0003849352    1.300    0.231
       187  -8.7017    149.1251    210.2955   1.0795809333e+02   1.2946199826e+01    0.1687524    0.1370704  39.11  0.000418126    1.142    0.125
       188  -8.6703    146.0598    207.7197   1.0817501836e+02   1.3825981149e+01    0.1755792    0.1464977  48.45 0.0003663888    1.037    0.036
       189  -9.2484    149.6354    205.1527   1.0719479906e+02   1.3624745296e+01    0.3071682    0.1973399 -41.69  0.001849939    1.987    0.497
       190  -7.6649     56.3275    210.2949   1.2454770815e+02   2.6309380265e+01   0.08566036   0.08473766  82.89 0.0004213068    1.628    0.386
       191  -8.0256    140.4186    209.5306   1.0941725107e+02   1.4465601199e+01    0.1172012   0.09544391  50.59 0.0001016343    1.015    0.015
       192  -8.5094     93.7774    208.8345   1.1776199337e+02   2.1660384813e+01    0.1582982    0.1360186  52.58 0.0006473571    1.243    0.195
       193  -8.6458     78.3206    208.8818   1.2054574267e+02   2.3772200707e+01    0.1436059    0.1191106  77.54 0.0005291419    1.159    0.137
       194  -8.3900    167.5596    207.9831   1.0438140259e+02   1.0244204729e+01    0.1545965    0.1401208  35.94 0.0004662907    1.126    0.112
       195  -9.0247    171.2716    206.1754   1.0347246412e+02   9.8755369691e+00    0.1926146    0.1587152  38.02 0.0004902965    1.044    0.042
       196  -8.8287    173.0535    202.3022   1.0259741547e+02   1.0114426748e+01    0.1745934    0.1654423  32.18  0.000401011    1.158    0.136
       197  -8.4648    134.7456    208.0771   1.1025923978e+02   1.5594962232e+01    0.1538162    0.1342857  53.13 0.0003661359    1.097    0.089
       198  -8.4220    131.4479    208.0811   1.1085596764e+02   1.6118154772e+01    0.1492923    0.1154953 -61.59  0.000516396    1.540    0.351
       199  -9.5956    113.7098    207.0902   1.1396372925e+02   1.9027438825e+01     0.372425    0.1854331  32.35  0.001822045    2.548    0.608
       200  -8.5572     72.8179    207.7906   1.2143833641e+02   2.4682263014e+01    0.1526654    0.1259486  62.51 0.0004663282    1.170    0.145
       201 -10.0149    124.5605    205.9227   1.1185037305e+02   1.7543586463e+01    0.2726654    0.1488064  42.13 0.0004467269    1.571    0.363
       202  -9.3690    120.2084    206.1558   1.1267245510e+02   1.8183626784e+01    0.1895467    0.1546275  55.21 0.0004347265    1.038    0.037
       203  -8.1913     66.0504    206.9365   1.2257917473e+02   2.5695825766e+01    0.1366996    0.1313969 -55.39 0.0005584106    1.622    0.384
       204  -9.8690     46.5905    206.4616   1.2598896951e+02   2.8116116726e+01    0.1836971    0.1574752  60.51  0.000487505    1.338    0.253
       205  -8.6431     31.8555    206.8589   1.2856720848e+02   2.9663300487e+01    0.1414634    0.1181374  79.56 0.0006705885    1.298    0.229
       206  -9.4787    183.4177    205.6733   1.0127332110e+02   7.9049587013e+00     0.218937    0.1692658  23.04 0.0004770184    1.286    0.222
       207  -9.9991    186.7852    201.2115   1.0001514466e+02   7.9284561328e+00    0.2110926    0.1764543  34.75  0.000272386    1.022    0.021
       208  -9.1345    156.5219    205.1703   1.0595707367e+02   1.2482064498e+01    0.2056319     0.155874  36.50 0.0003857334    1.204    0.169
       209  -8.8803    104.0301    205.4361   1.1555354369e+02   2.0748854556e+01    0.1698044    0.1579325 -57.73 0.0003512339    1.442    0.306
       210  -9.5412     86.4355    205.0711   1.1873521178e+02   2.3325753774e+01    0.2130376    0.1675531  66.90  0.000917025    1.031    0.030
       211  -8.5830    140.5042    195.5462   1.0758034653e+02   1.6631424436e+01    0.1798787    0.1538589  52.59 0.0004775461    1.029    0.029
       212  -9.5126    139.8310    203.0152   1.0869713037e+02   1.5560033193e+01    0.2881117    0.2224658  89.13  0.001873558    1.566    0.361
       213  -9.1215    139.0047    199.0603   1.0833171098e+02   1.6318005000e+01     0.182519    0.1463252  56.19  0.001213881    1.080    0.074
       214  -7.9047     76.5282    204.4496   1.2048320415e+02   2.4774613526e+01     0.110047   0.08886356  64.77 0.0001551021    1.098    0.089
       215  -9.7790      6.5067    203.9623   1.3270769284e+02   3.2645835637e+01    0.2110455    0.1398592  29.63 0.0005732434    2.105    0.525
       216  -9.3764    179.0229    202.3245   1.0154480610e+02   9.0981095550e+00    0.1856345    0.1658447   7.16 0.0003795568    1.234    0.189
       217  -9.0878    109.9662    202.8258   1.1417730864e+02   2.0299121581e+01    0.1660629     0.145449  40.48 0.0006020655    1.312    0.238
       218  -8.1120     92.7610    203.2171   1.1739573714e+02   2.2758117690e+01    0.1382181    0.1251773  48.27 0.0005672778    1.338    0.252
       219  -9.5075     55.8038    202.1901   1.2405210679e+02   2.7792329104e+01    0.1777402    0.1514537  76.57 0.0003934057    1.238    0.192
       220  -8.8014     20.9919    202.3029   1.3018879925e+02   3.1573133094e+01    0.1496853    0.1212202 -78.62  0.000510006    1.484    0.326
       221 -10.2572    164.6109    199.7709   1.0374041565e+02   1.1911385057e+01    0.3390884    0.2625317  65.68  0.001295809    1.450    0.310
       222  -8.9170    144.6142    200.8260   1.0753191655e+02   1.5114219801e+01    0.1915406    0.1414101  40.17 0.0005308321    1.214    0.176
       223 -10.1495    132.0648    199.7481   1.0970895202e+02   1.7341284254e+01    0.2814704    0.2115778  23.25   0.00173713    1.723    0.420
       224 -10.1111     98.1730    200.2921   1.1609231641e+02   2.2483036815e+01    0.2303087    0.1796111  89.28 0.0009400156    1.270    0.213
       225  -9.5130     69.3512    200.3264   1.2143774338e+02   2.6439269020e+01    0.1916601    0.1612557  65.51 0.0003775686    1.181    0.153
       226  -8.0332     33.7929    201.4081   1.2791757372e+02   3.0422692034e+01     0.120844   0.09130128  41.15 0.0004313971    1.554    0.357
       227  -8.0673    155.0262    200.4839   1.0558059556e+02   1.3428029796e+01    0.1746688    0.1011924  42.79 0.0003314762    1.439    0.305
       228  -8.6630     41.3121    199.7869   1.2648416464e+02   2.9897140317e+01    0.1489595    0.1380829  -2.47 0.0006567322    1.914    0.477
       229  -8.8013     80.5359    199.0638   1.1925586773e+02   2.5184272545e+01    0.1753991    0.1424531  42.51 0.0004819391    1.388    0.279
       230  -8.3852     74.9140    198.8927   1.2028460603e+02   2.5968779039e+01    0.1522755    0.1337831  65.51 0.0003014304    1.239    0.193
       231  -8.4093    103.9584    198.2905   1.1479239396e+02   2.1974201842e+01    0.1601541    0.1244068  53.46 0.0003822072    1.100    0.091
       232  -8.3316      6.9783    197.9787   1.3238389464e+02   3.3659780180e+01    0.1218626   0.08319932  69.40 0.0003693299    1.043    0.041
       233  -8.7360    149.1420    196.7469   1.0613842002e+02   1.4991975782e+01    0.1769419    0.1419929  53.76 0.0004718433    1.093    0.085
       234  -8.8695    124.6855    196.7742   1.1071151376e+02   1.9018150135e+01    0.1988128     0.142941  38.36 0.0006507543    1.370    0.270
       235  -7.6949     27.5093    197.4745   1.2879660887e+02   3.1784920405e+01    0.1046712   0.07671394  73.10 0.0001805681    1.051    0.049
       236  -9.6126    176.2298    195.1908   1.0096009852e+02   1.0575343062e+01     0.264053    0.1997156 -38.14  0.001078405    1.570    0.363
       237  -9.1036    169.8498    195.9333   1.0222499840e+02   1.1573190698e+01    0.2530926    0.1473474  42.24 0.0004939606    1.441    0.306
       238  -8.1416    156.8801    196.3942   1.0466061852e+02   1.3732994007e+01    0.1661577    0.1000809  35.98 0.0003487323    1.570    0.363
       239  -8.9464     88.9049    195.9299   1.1737800253e+02   2.4581140770e+01    0.1579033    0.1481947  60.53  0.000501113    1.326    0.246
       240  -8.4985     60.8363    195.9858   1.2264673792e+02   2.8296665660e+01    0.1494823    0.1317678  80.40 0.0004572273    1.275    0.215
       241 -10.0318    184.0603    194.4508   9.9443687769e+01   9.3182799634e+00    0.3127228    0.1836082  41.06  0.001118217    1.431    0.301
       242  -8.6402     16.8490    194.9996   1.3054190620e+02   3.3284774276e+01    0.1389414    0.1128512  89.76 0.0004559964    1.324    0.245
       243  -9.5202    132.8761    193.3272   1.0871694529e+02   1.8259376452e+01    0.2014793    0.1769384  46.00 0.0003416516    1.133    0.117
       244  -9.3408    112.4728    193.5523   1.1262975561e+02   2.1495432250e+01    0.2469075    0.1967107 -88.45  0.001057604    1.299    0.230
       245  -8.8576     49.1245    198.6597   1.2500061829e+02   2.9214311148e+01      0.15272    0.1362222 -79.27 0.0007667689    1.455    0.313
       246  -8.0534     54.5048    194.5542   1.2370668159e+02   2.9328665699e+01    0.1093173   0.08606718  71.22 0.0001793141    1.077    0.072
       247  -8.8076     36.0160    193.3869   1.2702239290e+02   3.1641009621e+01    0.1712619     0.126036 -71.54 0.0005768844    1.514    0.339
       248  -7.7148    157.4543    192.5079   1.0398625871e+02   1.4230844505e+01    0.1241356    0.1052785  43.42 0.0002669269    1.036    0.034
       249  -8.2633    152.1342    192.2215   1.0493532775e+02   1.5191928666e+01    0.1731185    0.1494261  29.55 0.0004973384    1.222    0.181
       250  -7.9948    124.8117    192.3878   1.1012698661e+02   1.9735683384e+01    0.1633137    0.1029982  37.09 0.0003393994    1.586    0.369
       251  -8.8163    105.0006    191.9187   1.1386744321e+02   2.2931092685e+01    0.1597064    0.1446698   7.13 0.0004534546    1.619    0.382
       252  -8.2133     26.7438    192.1599   1.2862764604e+02   3.2833543963e+01    0.1280008    0.1076647 -83.66 0.0006118688    1.391    0.281
       253  -9.4743    161.9714    190.2674   1.0281061450e+02   1.3791428039e+01    0.1887693    0.1784604 -12.81 0.0002519047    1.242    0.195
       254  -8.7131    146.0960    191.0802   1.0590437390e+02   1.6407526656e+01    0.1846013    0.1563445  55.55 0.0003881902    1.055    0.052
       255  -7.7623    128.3152    191.3059   1.0931538773e+02   1.9348057440e+01    0.1130098   0.09454578  14.96 0.0004700443    1.625    0.384
       256  -9.1242     63.9476    190.1316   1.2156427286e+02   2.8985909650e+01    0.1707902    0.1464096 -89.34 0.0004279853    1.246    0.198
       257  -8.6826     14.3975    190.7808   1.3076424943e+02   3.4286093501e+01     0.132766   0.07644365 -74.61 0.0004357868    1.648    0.393
       258  -7.8437      9.3163    191.2509   1.3168442875e+02   3.4664807974e+01   0.08226142   0.07186724 -79.33 0.0002587425    1.525    0.344
       259  -9.3149    172.6572    189.1865   1.0067030841e+02   1.2076307485e+01    0.2138865    0.1809314  30.48 0.0004022327    1.121    0.108
       260  -8.5816    139.9293    189.8348   1.0689624540e+02   1.7658629765e+01    0.1768946    0.1530812  31.59 0.0003850768    1.259    0.206
       261  -7.5279     42.6428    190.6781   1.2561924783e+02   3.1417420917e+01   0.09415375   0.08277778 -49.92 0.0001263977    1.765    0.434
       262  -7.9867     31.2983    190.2919   1.2768649469e+02   3.2712301098e+01   0.08928247   0.07744925 -68.80 0.0002745751    1.562    0.360
       263  -7.8240     77.3777    189.2799   1.1890898018e+02   2.7387239715e+01    0.1002114   0.09248898   4.37 0.0007008935    1.710    0.415
       264  -9.4417    178.8967    187.6380   9.9281617424e+01   1.1198337741e+01    0.2319355    0.2115285 -81.09 0.0004197804    1.382    0.276
       265  -9.1530    134.2698    187.3293   1.0762828111e+02   1.9032448906e+01    0.2404126     0.213522 -85.78  0.001288226    1.216    0.178
       266  -8.3585    134.4766    183.4416   1.0703504160e+02   1.9661235702e+01    0.1621955    0.1392451  51.29 8.992471e-05    1.050    0.047
       267  -8.3445     89.9373    188.3225   1.1637489892e+02   2.5809981880e+01    0.1577978    0.1275733  56.83 0.0003417789    1.118    0.105
       268  -8.1092      1.4188    187.8248   1.3292143487e+02   3.5981050018e+01    0.1286183   0.07338821 -77.08 0.0005678572    1.600    0.375
       269  -9.0253    157.0179    186.5221   1.0316465079e+02   1.5245255995e+01    0.1997472    0.1721265  -5.00 0.0005465958    1.461    0.315
       270  -8.7164     20.5568    186.4558   1.2942453357e+02   3.4505116300e+01    0.1495791    0.1230097 -65.32  0.000547571    1.625    0.385
       271  -8.6570    150.8654    185.6343   1.0419645158e+02   1.6466301698e+01    0.1770884    0.1668262  15.68 0.0003812852    1.222    0.181
       272  -8.9796    128.4177    185.7603   1.0854377073e+02   2.0279966437e+01    0.2132405    0.1759717  35.59  0.000427514    1.297    0.229
       273  -8.9198    166.6430    184.1292   1.0097823981e+02   1.3914038489e+01    0.2092167    0.1697284   8.38 0.0004296229    1.502    0.334
       274  -8.6016     34.3169    184.7945   1.2676679550e+02   3.3428621413e+01    0.1585852    0.1419038 -17.47 0.0008984258    1.994    0.498
       275  -8.7493    173.3353    183.8318   9.9682721448e+01   1.2759662776e+01    0.1960468    0.1512112  47.44 0.0003897816    1.155    0.134
       276  -8.0453    146.3827    184.1371   1.0482926177e+02   1.7494139256e+01    0.1577555    0.1175651 -71.34 0.0003562666    1.655    0.396
       277  -8.0149    109.4672    184.0274   1.1203318714e+02   2.3655272295e+01    0.1450254    0.1043744 -32.67 0.0004414198    2.253    0.556
       278  -8.1309    103.9835    183.9987   1.1311421071e+02   2.4512815263e+01    0.1439995     0.119333  65.19 0.0009566468    1.002    0.002
       279  -7.7892     80.6545    184.7283   1.1780607924e+02   2.7787936677e+01    0.1004319   0.09406764   7.54 0.0004770794    1.619    0.382
       280  -8.0434     26.9426    184.5355   1.2813156478e+02   3.4237803861e+01    0.1132056    0.0946774 -13.22 0.0008052738    2.325    0.570
       281  -8.3210    140.1169    183.2231   1.0590467755e+02   1.8733043068e+01    0.1801776    0.1561376  30.16 0.0004861795    1.270    0.212
       282  -8.1727     95.3018    182.6363   1.1467282253e+02   2.6077662954e+01    0.1807892    0.1384854 -46.50 0.0009718899    1.747    0.428
       283  -8.2796     67.0822    182.9429   1.2029720242e+02   2.9941074832e+01    0.1473814    0.1399337 -40.05 0.0005399637    1.593    0.372
       284  -8.0988      8.8127    182.3764   1.3135439639e+02   3.6354823392e+01    0.1165783   0.09442129  33.86 0.0006760922    1.700    0.412
       285  -9.0511    197.4722    180.9024   9.4796520499e+01   8.8255524010e+00    0.2228968    0.1556021  33.78 0.0004533208    1.270    0.213
       286  -9.2956    183.7231    180.8405   9.7267638296e+01   1.1328644482e+01    0.2192228     0.176687  38.67 0.0004039779    1.073    0.068
       287  -8.9682    172.2481    180.2797   9.9297905962e+01   1.3499957106e+01    0.4522257    0.1802772  32.68   0.00163633    3.570    0.720
       288  -9.0643    176.8893    179.0874   9.8230483207e+01   1.2837450185e+01      0.22086    0.1880511   8.91 0.0004464419    1.296    0.228
       289  -8.0296     77.3649    180.7947   1.1804326315e+02   2.8986054045e+01    0.1475511    0.1009453 -63.47 0.0003732526    1.571    0.363
       290  -8.5004     54.9287    180.4193   1.2245671972e+02   3.1941161039e+01     0.208294     0.126581 -56.73  0.001274303    1.992    0.498
       291  -8.2433     46.7951    181.2529   1.2411700291e+02   3.2734291324e+01    0.1354833    0.1180156 -80.02 0.0005250291    1.356    0.263
       292  -8.0124     14.4597    180.4656   1.3021744592e+02   3.6208779197e+01     0.105602   0.07653709  77.25 0.0002559384    1.038    0.037
       293  -8.5471    145.8152    179.0848   1.0416716174e+02   1.8441286359e+01    0.1870512    0.1554954  62.97 0.0004908338    1.161    0.139
       294  -7.8366     82.7437    179.3109   1.1680441868e+02   2.8524107099e+01    0.1203091    0.0768576  73.27 0.0002080596    1.524    0.344
       295  -7.7111     42.3089    179.2992   1.2483562047e+02   3.3617324961e+01   0.09545521   0.08285475 -58.74 0.0003431018    1.598    0.374
       296  -8.2342     34.8581    179.3927   1.2628723497e+02   3.4406018874e+01    0.1261771    0.1010411  33.46 0.0005048554    1.660    0.398
       297  -9.3932    134.2325    177.2335   1.0616876144e+02   2.0784828211e+01     0.265819    0.2006477  75.05 0.0009676443    1.457    0.314
       298  -8.1663     26.1901    177.8990   1.2785173032e+02   3.5582527791e+01     0.136594    0.1093786 -79.70 0.0005648702    1.338    0.253
       299  -9.8223    190.6057    176.8080   9.5310136134e+01   1.0661446079e+01    0.2729011    0.1930958  41.09 0.0004065009    1.237    0.192
       300  -8.7153    169.5257    176.4920   9.9173731796e+01   1.4589784848e+01    0.2026509    0.1560238  14.83 0.0005380113    1.564    0.361
       301  -9.2626    101.0705    176.0675   1.1270038402e+02   2.6439502194e+01    0.2049924    0.1499586  70.38  0.001253798    1.278    0.217
       302  -8.2812    154.8858    181.8479   1.0284351959e+02   1.6374652027e+01    0.1821295    0.1558422  29.19 0.0002824331    1.218    0.179
       303  -7.7115     64.7239    177.6525   1.2025368400e+02   3.1263964457e+01    0.1031293   0.08748041 -51.09 0.0004489942    1.632    0.387
       304  -8.4714      6.7310    177.2136   1.3148393298e+02   3.7513105109e+01    0.1290985    0.1045384 -80.65 0.0008735037    1.387    0.279
       305  -9.6109    182.6324    173.9468   9.6269034443e+01   1.2562493416e+01    0.2936033     0.227895  25.99 0.0007712262    1.282    0.220
       306  -9.1306    187.6787    171.0174   9.4807123807e+01   1.2064089965e+01    0.2543064    0.1744134  42.11 0.0003898507    1.294    0.227
       307  -9.1629    183.9666    169.7049   9.5257898050e+01   1.2962030393e+01    0.2438317    0.1974547 -49.20 0.0005201406    1.450    0.310
       308 -10.5189    175.7268    172.0137   9.7222304276e+01   1.4148989438e+01    0.4950657    0.4424067  -2.50  0.003145052    1.235    0.190
       309  -9.7067    178.9779    166.4873   9.5608903556e+01   1.4409846626e+01    0.2882788    0.2703002  26.20 0.0004714968    1.061    0.057
       310  -8.8622    150.1326    175.3867   1.0273580984e+02   1.8300094110e+01    0.1863554    0.1786683  -5.92 0.0004136211    1.220    0.180
       311  -9.4674    197.7859    174.9369   9.3678077794e+01   9.6094008919e+00    0.2288897    0.1634262  32.62 0.0004929468    1.268    0.211
       312  -8.4769    139.8710    174.9927   1.0470257885e+02   2.0195283765e+01    0.1796368    0.1617945  27.54 0.0003414557    1.249    0.199
       313  -7.7336    112.3244    175.3152   1.1030633582e+02   2.4803118419e+01    0.1148504    0.1007465   1.84 0.0007042655    1.666    0.400
       314  -7.7569     93.5596    175.4828   1.1416063631e+02   2.7690551790e+01    0.1212883    0.1043147  70.37 0.0001039153    1.058    0.055
       315  -8.6491    160.1185    179.7001   1.0149861175e+02   1.5787145518e+01    0.1775066    0.1444108  40.72 0.0004142653    1.099    0.090
       316  -8.0395     37.7869    174.8064   1.2537581487e+02   3.4987905306e+01     0.156733    0.1042394 -41.31 0.0008146386    2.677    0.626
       317  -7.9255    155.6469    174.7092   1.0154608925e+02   1.7417410048e+01     0.128989   0.09762755  17.74 0.0003697885    1.676    0.404
       318  -9.0347    128.9419    172.7069   1.0654787693e+02   2.2508209669e+01    0.1811601    0.1764747 -39.23 0.0003245797    1.249    0.199
       319  -7.6426     51.2910    173.3291   1.2255386517e+02   3.3761225681e+01    0.1016389   0.08469031 -54.52 0.0003210852    1.623    0.384
       320  -8.6236     23.9251    172.3718   1.2792791296e+02   3.6881766710e+01     0.167113    0.1281708 -66.00 0.0007209922    1.543    0.352
       321  -8.6513      2.7999    173.3925   1.3203157845e+02   3.8574552358e+01    0.1143283   0.09575608  37.26 0.0008476879    1.618    0.382
       322  -9.6132    193.0043    171.3777   9.3894949893e+01   1.1012941275e+01    0.2203911    0.1872643 -18.22 0.0003476024    1.272    0.214
       323  -8.4099     89.7813    171.8859   1.1449418566e+02   2.8947035269e+01    0.1667766    0.1548817 -77.33 0.0005792547    1.266    0.210
       324  -8.0594    107.4840    171.4811   1.1077106088e+02   2.6305032736e+01    0.1240268    0.1109351  64.08  0.000218565    1.093    0.085
       325  -7.6494    102.3379    171.3445   1.1181872213e+02   2.7145014772e+01    0.1162645    0.1009736 -11.55 0.0007048823    1.775    0.436
       326  -7.8195     76.4912    171.5044   1.1720519294e+02   3.0913104131e+01    0.1191949    0.1015867  75.63 0.0008093899    1.079    0.073
       327  -8.7455    197.1582    168.2351   9.2556695574e+01   1.0695279721e+01    0.2000507    0.1705615  -3.49 0.0005263251    1.224    0.183
       328  -9.6959    199.6142    162.8816   9.1091426430e+01   1.1017031709e+01    0.3037675    0.2294312 -27.73  0.000454202    1.418    0.295
       329  -8.8357    201.0766    169.9977   9.2179938553e+01   9.7049166505e+00    0.2686493    0.1793241 -28.87 0.0008067654    1.644    0.392
       330  -9.7149    205.0868    167.1948   9.0935525050e+01   9.3543724584e+00    0.2593395    0.1890071  20.97 0.0003536562    1.392    0.282
       331  -8.2256    143.1083    169.6987   1.0320730686e+02   2.0551484911e+01    0.1818746    0.1512959  47.36 0.0004488771    1.086    0.079
       332  -8.0557    119.2463    170.0458   1.0813335747e+02   2.4648927097e+01    0.1691232    0.1521902  72.46 0.0003725085    1.053    0.050
       333  -7.7025     62.4692    170.5382   1.2000307093e+02   3.2953595165e+01     0.116074    0.0972257  79.12 0.0002457261    1.091    0.084
       334  -7.7504     44.6157    170.7147   1.2367656035e+02   3.5048184264e+01    0.0994341   0.08686008 -42.97 0.0007010353    1.739    0.425
       335  -8.1422    158.4694    169.0147   1.0003140805e+02   1.7857615087e+01    0.1736225    0.1312689 -41.52 0.0004634519    1.498    0.332
       336  -7.9911     94.6161    169.5089   1.1318499896e+02   2.8689976772e+01     0.124085    0.1040787  75.49 3.503243e-05    1.033    0.032
       337  -8.5676    134.8340    167.9093   1.0459672056e+02   2.2352466053e+01    0.1849149    0.1697886  24.10 0.0003492009    1.267    0.211
       338  -7.9291     37.4613    168.5153   1.2494627520e+02   3.6271024952e+01    0.1122526    0.0882177  81.49 8.818314e-05    1.067    0.063
       339  -8.0611     24.3832    168.2904   1.2756219582e+02   3.7644157019e+01   0.09688814   0.07927109 -51.94 0.0007015379    1.750    0.429
       340  -9.5447      8.6820    167.8145   1.3062427186e+02   3.9164457633e+01    0.1582879    0.1062372 -74.95 0.0009152081    1.422    0.297
       341  -8.7985    169.8591    166.6173   9.7382527537e+01   1.6120643942e+01    0.1931536    0.1758925  -5.67  0.000360498    1.221    0.181
       342  -8.2799    150.2097    166.8923   1.0130941391e+02   1.9751683286e+01    0.1674615    0.1492577  15.60 0.0004074651    1.297    0.229
       343  -8.2729     84.9698    167.5171   1.1495913347e+02   3.0510660825e+01    0.1689988    0.1117974  43.41 0.0004673913    1.473    0.321
       344  -8.2968    164.8843    166.1678   9.8271038857e+01   1.7135815390e+01    0.1760048    0.1492687  19.21 0.0004061442    1.293    0.226
       345  -8.3244    127.7625    166.0629   1.0575923699e+02   2.3937165505e+01    0.1667685    0.1584841  82.42  0.000260453    1.110    0.099
       346  -7.7898     90.5360    166.4865   1.1365121656e+02   2.9899050331e+01    0.1238929    0.1070646  73.82 0.0001107241    1.047    0.045
       347  -9.5986    161.3863    173.8435   1.0028597852e+02   1.6512456342e+01     0.231749    0.1784144  34.43 0.0003913737    1.258    0.205
       348  -9.6191    192.0480    162.9619   9.2493889186e+01   1.2456523425e+01    0.2470695    0.2003995 -15.59 0.0005200686    1.349    0.259
       349  -8.8274    183.7982    158.2232   9.3128416241e+01   1.4797608542e+01    0.3059667    0.2099178 -53.48  0.001387019    1.799    0.444
       350  -9.1456    184.8613    163.6562   9.3968098339e+01   1.3730915843e+01    0.2310497    0.1977759  38.13 0.0004954874    1.051    0.048
       351  -7.9779    181.4948    161.5214   9.4201332837e+01   1.4717955368e+01     0.194152    0.1205688  53.23 0.0006850141    1.629    0.386
       352  -9.0609    120.2500    163.3217   1.0689969876e+02   2.5754147982e+01    0.1963346    0.1840207  44.46 0.0004618425    1.189    0.159
       353  -7.6549     95.5419    164.4596   1.1231715367e+02   2.9545560566e+01    0.1246045    0.1096305  72.81 0.0002012656    1.060    0.056
       354  -8.2609    159.4718    163.1373   9.8797443147e+01   1.8673622283e+01    0.1777552    0.1333672 -43.29 0.0006597115    1.480    0.324
       355  -8.0104    111.2808    163.3224   1.0879994885e+02   2.7262354938e+01    0.1162049    0.1035383 -14.43 0.0002476986    1.589    0.371
       356  -8.0750     80.5036    163.5552   1.1541700172e+02   3.1945223049e+01    0.1224784    0.1048974  76.05 0.0001155658    1.053    0.050
       357  -8.3409    172.6962    162.4275   9.6064637822e+01   1.6268462953e+01    0.1795045    0.1173064  36.70 0.0004155093    1.470    0.320
       358  -8.9051    163.5033    160.1655   9.7452445572e+01   1.8416017918e+01    0.2296678    0.1898694  19.96 0.0002724231    1.352    0.261
       359  -7.7625    146.5800    161.4315   1.0110079713e+02   2.1394569776e+01    0.1314097    0.1201401  48.16 0.0001136378    1.048    0.046
       360  -8.7587      9.0619    161.4659   1.3018937327e+02   4.0389746570e+01    0.1354547   0.09682088  42.96 0.0005851439    1.537    0.350
       361  -7.7031      5.6681    161.7177   1.3088027320e+02   4.0620759300e+01     0.093296    0.0724199 -62.37 0.0004224715    1.611    0.379
       362  -8.4074    211.7082    154.0440   8.7167117085e+01   9.9760924829e+00    0.1806414    0.1600815  -4.47 0.0003013569    1.103    0.094
       363 -10.1100    205.4621    159.3389   8.9343157469e+01   1.0415022024e+01    0.2736332    0.2091412  28.63 0.0003509033    1.221    0.181
       364  -8.0411    208.7086    156.3170   8.8159677215e+01   1.0228389341e+01    0.1878488    0.1138148  36.72  0.000248145    1.551    0.355
       365  -9.1309    211.8585    150.1926   8.6347090497e+01   1.0505832231e+01    0.2664567    0.2043226  -3.91 0.0003096903    1.390    0.281
       366  -8.2132    153.1190    160.0970   9.9528945087e+01   2.0407512183e+01    0.1892102    0.1697478  22.62 0.0002932801    1.218    0.179
       367 -10.4602    213.1509    160.3369   8.8179457856e+01   8.8022108209e+00    0.2890227     0.229612 -25.13 0.0003823962    1.306    0.234
       368  -7.9685     31.4022    160.2904   1.2553197102e+02   3.8565578169e+01    0.1018464   0.08201967 -46.58 0.0006993515    1.801    0.445
       369  -9.9466     18.0021    155.2259   1.2795536426e+02   4.0878449562e+01    0.3091491    0.1435466  70.21  0.001746334    1.959    0.490
       370 -10.2045     24.6911    155.8795   1.2659536958e+02   4.0128046345e+01    0.2140907    0.1823222  82.85  0.001191178    1.201    0.167
       371  -8.9864    192.2115    158.0032   9.1500509373e+01   1.3187115289e+01    0.2654024    0.1872806  50.79  0.001083302    1.400    0.286
       372  -8.6255    168.0440    157.6922   9.6087449396e+01   1.7961283862e+01    0.1916736    0.1611249  40.38 0.0004777206    1.097    0.088
       373  -8.5353    159.0101    158.1864   9.7986580734e+01   1.9622120410e+01    0.1986713    0.1704333  22.55 0.0004249605    1.271    0.213
       374  -9.0172    136.0437    157.7557   1.0264836852e+02   2.4015219676e+01    0.2160718    0.1766686  88.94 0.0004110376    1.352    0.260
       375  -7.5869     78.6607    158.6866   1.1520296141e+02   3.3199512733e+01     0.112996   0.09856997 -29.86 0.0007046791    1.697    0.411
       376  -8.0004     55.2889    158.3737   1.2026120261e+02   3.6318783220e+01    0.1120184   0.08574767 -49.45 0.0007020803    1.722    0.419
       377  -9.5546    176.6717    156.8391   9.4230816434e+01   1.6418982192e+01    0.2350126     0.207976  35.52  0.000323428    1.043    0.042
       378  -7.8049    105.3957    157.2299   1.0914660476e+02   2.9433553336e+01    0.1200128    0.1006233  17.44 0.0006895129    1.648    0.393
       379  -8.5109    128.0860    155.7451   1.0399234429e+02   2.5839055971e+01    0.1813498    0.1607379  56.07 0.0002822515    1.052    0.049
       380  -8.4496     99.1296    156.1910   1.1036329112e+02   3.0649667238e+01    0.1744195    0.1672395  65.39 0.0004981729    1.208    0.172
       381  -9.4458    216.1290    154.4112   8.6467447261e+01   9.0687922422e+00    0.2258288    0.1918067  -4.04 0.0003237796    1.143    0.125
       382  -9.7904    197.2428    154.6386   8.9897858378e+01   1.2718705633e+01    0.2375547    0.2116971  14.31 0.0003540299    1.076    0.070
       383  -9.5734    165.5134    153.8640   9.5859210736e+01   1.9113985213e+01    0.3827341    0.2669225  37.10  0.002009062    1.401    0.286
       384  -8.2488      5.0913    155.1392   1.3062463574e+02   4.1986627725e+01     0.147009    0.1093369 -45.81 0.0008880198    2.010    0.502
       385  -9.0793    187.8633    153.2973   9.1381904986e+01   1.4784719945e+01    0.2480245    0.1907549 -24.40 0.0006489707    1.423    0.298
       386  -9.3029    206.0959    152.4964   8.7850185565e+01   1.1299460719e+01    0.2298454    0.1838549  -9.82 0.0003970917    1.308    0.235
       387  -8.2696    192.4639    152.7382   9.0401963990e+01   1.3959251920e+01    0.1693922    0.1296577 -17.64 0.0004043961    1.454    0.312
       388  -8.2205    113.4566    155.0724   1.0704732965e+02   2.8524912928e+01    0.1856619    0.1259567 -56.43 0.0005747153    1.539    0.350
       389  -9.6151    144.9087    151.2308   9.9602489276e+01   2.3583760117e+01    0.2451793    0.2257639  71.35 0.0004012132    1.066    0.062
       390  -9.2262    143.3349    147.2348   9.9181638268e+01   2.4637896891e+01    0.2783588     0.204282 -48.19 0.0007395375    1.452    0.311
       391  -9.1852    157.0954    150.9443   9.7006524563e+01   2.1281032430e+01    0.2017915    0.1638502   8.78 0.0004313872    1.559    0.359
       392  -8.3957    151.9710    151.0751   9.8092581894e+01   2.2255082869e+01    0.1999289    0.1626976  11.49 0.0003293375    1.561    0.359
       393 -10.7437    133.0762    146.8643   1.0132925365e+02   2.6651483558e+01    0.5796699    0.3580265 -64.77  0.002186825    1.923    0.480
       394 -10.3970    131.9956    140.1109   1.0028479798e+02   2.8186250213e+01    0.4611066    0.2967588 -66.08  0.001655918    1.832    0.454
       395  -7.6974    117.6354    151.6843   1.0557163967e+02   2.8482889174e+01    0.1290813    0.1078204  -0.34 0.0007040036    1.768    0.434
       396  -8.4798    107.9441    151.3036   1.0765380145e+02   3.0211209784e+01    0.1801233    0.1546028  53.30  0.000356027    1.134    0.118
       397  -8.4925    202.7835    149.8353   8.7900669042e+01   1.2354618326e+01    0.2060343    0.1669688  12.05   0.00056763    1.267    0.211
       398  -8.1944    176.2490    150.3385   9.3030004136e+01   1.7588787947e+01    0.1863502    0.1207808  51.92  0.000464521    1.514    0.340
       399  -9.5625      7.7463    149.7547   1.2974592813e+02   4.2872060460e+01    0.2583451   0.08556917  41.97  0.001391911    2.626    0.619
       400  -8.7274      1.7683    150.4334   1.3103921717e+02   4.3200007289e+01    0.1127861    0.1048322  29.31 0.0009389645    1.591    0.372
       401  -9.2231    181.9755    148.1653   9.1469383082e+01   1.6800992055e+01    0.2235191     0.194634 -16.14 0.0003029462    1.232    0.188
       402  -8.6389    122.0498    148.3687   1.0402554763e+02   2.8367005947e+01    0.1972066    0.1858958 -43.54  0.000407518    1.234    0.189
       403  -9.6407     67.9485    149.0562   1.1636232162e+02   3.6678564983e+01    0.2073656    0.1698495  -9.83 0.0008094516    2.069    0.517
       404  -8.9035     55.6478    145.0789   1.1868846467e+02   3.9085460109e+01    0.2770523    0.1174753 -58.90  0.001198622    2.249    0.555
       405  -8.9619     54.0826    149.1501   1.1951895735e+02   3.8402467711e+01    0.1922644    0.1575267  88.25 0.0008852736    1.049    0.047
       406  -9.4417     50.5261    147.4825   1.2013722172e+02   3.9176758578e+01    0.1992833     0.171675  43.98 0.0006743909    1.378    0.274
       407  -9.8273    214.8837    146.9398   8.5133027649e+01   1.0383362725e+01    0.2490677    0.2159936  25.71 0.0003937861    1.054    0.052
       408  -8.3477    172.5069    148.4743   9.3394577696e+01   1.8656959221e+01    0.1376502     0.128323  45.33 2.338274e-05    1.032    0.031
       409  -8.8386    161.9482    147.3095   9.5294767811e+01   2.0975698872e+01    0.2315235    0.2003483 -28.46 0.0003824777    1.282    0.220
       410  -8.5325    149.9611    146.8940   9.7707592587e+01   2.3418596469e+01    0.2005159    0.1783905  20.51 0.0003331773    1.259    0.206
       411  -7.8138     98.2859    146.3742   1.0903848401e+02   3.2807925944e+01    0.1255912    0.1029459 -29.92 0.0006304882    1.716    0.417
       412 -10.0783     61.1198    145.1529   1.1743461543e+02   3.8394641716e+01    0.3041522    0.1419811 -66.89  0.001525743    1.942    0.485
       413  -8.2165     38.8120    146.1807   1.2265366844e+02   4.0751457270e+01    0.1505188    0.1241104 -69.82 0.0006486371    1.301    0.231
       414  -9.0213    197.0603    148.1465   8.8601383701e+01   1.3760187980e+01    0.2111448    0.1872578  -9.34 0.0003172988    1.146    0.127
       415  -8.7764    176.1848    144.3747   9.1822065724e+01   1.8616410236e+01    0.2134107    0.1860552 -16.10  0.000472748    1.249    0.199
       416  -8.2953     29.0056    145.0246   1.2475198971e+02   4.1987264937e+01    0.1428507    0.1078225  86.97 0.0005006302    1.027    0.026
       417  -9.4168    208.4259    143.1381   8.5467422725e+01   1.2237157176e+01    0.2508545    0.2007317  29.11 0.0004406186    1.183    0.155
       418  -9.6847    190.8008    146.4271   8.9416141481e+01   1.5297969049e+01    0.2780264    0.2215731  37.29  0.001064013    1.173    0.148
       419  -7.9067    105.7253    144.6893   1.0706126335e+02   3.1941304834e+01    0.1214067    0.1062832 -23.43 0.0002337138    1.554    0.357
       420  -7.7150     81.2914    144.3544   1.1264668360e+02   3.5832018733e+01      0.12161   0.09821777 -37.95 0.0007028653    1.681    0.405
       421  -7.8665     20.5111    144.4527   1.2659902706e+02   4.2896921584e+01    0.1133721   0.08695107  86.98 0.0001688714    1.040    0.039
       422  -8.5299    218.7841    142.9169   8.3596500654e+01   1.0193009393e+01    0.2023247    0.1625037  11.63 0.0004211342    1.228    0.185
       423  -8.9204    200.1502    143.0702   8.6957348027e+01   1.3927937995e+01    0.1997715    0.1861416  14.30 0.0003953773    1.025    0.025
       424  -8.7065    171.9021    143.0568   9.2403025722e+01   1.9718816450e+01    0.2073256     0.193146  31.58  0.000402013    1.039    0.037
       425  -8.1295    120.0420    143.0793   1.0352622897e+02   2.9791390744e+01    0.1573261    0.1455316  83.76 0.0003333855    1.031    0.030
       426 -10.2368     73.8614    142.3354   1.1409012137e+02   3.7318768381e+01    0.3268189    0.2484553 -21.08  0.001784723    2.292    0.564
       427  -9.6939     65.4940    143.0005   1.1614109783e+02   3.8298396941e+01     0.192286    0.1100124 -69.03 0.0007807136    1.596    0.374
       428  -8.3455    194.5114    141.9708   8.7771236755e+01   1.5256628576e+01    0.1964115    0.1364128 -32.76 0.0003859997    1.502    0.334
       429  -9.5872    138.9942    141.1228   9.8935363534e+01   2.6649817155e+01    0.2809467    0.2425573  27.27 0.0004135687    1.304    0.233
       430  -9.4336    137.5880    135.7892   9.8177430395e+01   2.7970467730e+01    0.3314486    0.2441436 -29.10  0.001112293    1.725    0.420
       431  -9.7811    129.5384    114.3055   9.5355153244e+01   3.3924715211e+01    0.3882143    0.3308986  85.59  0.001671572    1.270    0.212
       432  -9.3347    129.5464    106.6775   9.3524151140e+01   3.5503966641e+01    0.2904185    0.2147848  61.22 0.0003354186    1.454    0.312
       433  -9.6448    136.4557    130.2528   9.7282951063e+01   2.9295189146e+01     0.361071    0.2310435 -47.24  0.001208326    1.610    0.379
       434 -11.5210    134.7184    122.8275   9.6073052595e+01   3.1139003422e+01     1.444936    0.3773244 -47.32  0.004401174    3.881    0.742
       435  -9.9812    133.7752    107.0280   9.2588402517e+01   3.4561262482e+01    0.5236132    0.2836557 -34.11 0.0008073493    2.262    0.558
       436  -8.9034    214.0866    140.7536   8.3947464161e+01   1.1450504385e+01    0.2155924    0.1840607 -11.44 0.0004791619    1.146    0.127
       437  -9.1670    155.5214    140.8617   9.5325233798e+01   2.3439339488e+01    0.2449907     0.206528  15.15 0.0004104249    1.400    0.286
       438  -8.3562    147.7471    141.4167   9.7093941741e+01   2.4884406134e+01    0.1904982    0.1280213  36.76 0.0006050291    1.553    0.356
       439  -7.6838     17.6504    141.7370   1.2701881396e+02   4.3722011212e+01     0.100163   0.07823302 -54.22 0.0003792092    1.611    0.379
       440  -8.5781      4.6314    141.6906   1.2989602926e+02   4.4784464568e+01    0.1029545   0.07125314 -55.26 0.0007036133    1.762    0.432
       441  -8.5752    203.6283    139.9382   8.5642981794e+01   1.3704062309e+01    0.1865691    0.1647254 -18.26 0.0003914684    1.138    0.121
       442  -8.2595    160.4045    139.7560   9.4070790157e+01   2.2655537909e+01     0.258075    0.1634691  56.99 0.0008680336    1.669    0.401
       443  -9.2353    224.4206    138.4155   8.1655008655e+01   9.7164546893e+00    0.2271021    0.1989096  10.97 0.0002585484    1.036    0.035
       444  -8.5914    186.9510    138.9587   8.8561391471e+01   1.7312719534e+01    0.2070606    0.1955138  19.44 0.0003917249    1.020    0.020
       445  -8.2671    181.4777    139.4487   8.9733392780e+01   1.8367918561e+01    0.2042043    0.1269885  35.95 0.0005987278    1.650    0.394
       446  -8.2517    183.5026    136.4469   8.8683725790e+01   1.8455167327e+01    0.2046478    0.1377522 -25.46 0.0006032899    1.694    0.410
       447  -8.9236    166.2938    138.5227   9.2589600933e+01   2.1673768467e+01    0.2245057    0.2136014  10.48 0.0003455337    1.095    0.087
       448  -8.0547    116.0017    138.9282   1.0368488779e+02   3.1363347032e+01    0.1616458    0.1453974 -77.47  0.000355111    1.086    0.079
       449  -9.4355     62.3911    139.1573   1.1636180339e+02   3.9531780011e+01    0.1845902    0.1045826 -81.56 0.0009524946    1.755    0.430
       450  -8.5495    152.0157    137.6550   9.5407331689e+01   2.4746314581e+01    0.1944699    0.1714086  47.83  0.000466977    1.083    0.076
       451  -7.7217    109.4492    138.5061   1.0512356483e+02   3.2598605555e+01    0.1316704     0.126578  87.59 0.0002311752    1.117    0.105
       452  -7.7413     99.2977    138.7336   1.0753788806e+02   3.4254909187e+01    0.1333261   0.09484546  74.73 0.0002130679    1.516    0.340
       453 -11.0410     68.8537    136.0953   1.1438803942e+02   3.9357293490e+01    0.4232596    0.2842869  77.75  0.002028284    1.515    0.340
       454  -8.8136    146.9742    136.8869   9.6336251867e+01   2.5904091385e+01    0.2039924    0.1960956  51.07 0.0003783255    1.041    0.040
       455  -8.6915      5.6118    137.1966   1.2937772486e+02   4.5652398972e+01    0.1563753   0.07724201 -71.44 0.0009434134    1.660    0.398
       456  -9.7128    208.1762    135.7948   8.3908045251e+01   1.3406593520e+01    0.2919714    0.2069289  38.65 0.0004051726    1.352    0.261
       457  -8.3575    143.1497    135.8246   9.6952964805e+01   2.6870393699e+01    0.1831095    0.1668547  -3.64 0.0004036687    1.302    0.232
       458  -9.1979    198.2199    134.2880   8.5393466898e+01   1.5719661738e+01    0.3138673    0.2590999  71.44  0.001061817    1.501    0.334
       459  -9.7034    192.8633    134.7277   8.6498902908e+01   1.6774758137e+01     0.245158    0.2360815  14.37   0.00034732    1.042    0.040
       460  -9.1953    171.4490    134.9688   9.0767273561e+01   2.1239600919e+01    0.3804414    0.2000528  53.36  0.001252446    1.962    0.490
       461  -8.3090    127.1234    134.8456   1.0034959508e+02   3.0165438769e+01    0.1792976    0.1670015   6.53 0.0003694236    1.298    0.230
       462  -8.0621     48.4822    135.4350   1.1921158763e+02   4.2020704148e+01    0.1237935   0.09883386  84.89 5.398304e-05    1.039    0.038
       463  -8.1849     21.8479    134.6252   1.2545339589e+02   4.4877106207e+01    0.1565678    0.1165306 -77.25 0.0006316146    1.176    0.150
       464  -9.0601    187.9914    133.3942   8.7134366322e+01   1.8024339009e+01    0.2912106    0.1954277 -25.68 0.0009769297    1.657    0.396
       465  -9.2011    163.6096    133.4105   9.2044863635e+01   2.3159524164e+01    0.2574605     0.232488   6.94  0.000629058    1.222    0.182
       466  -9.9745    160.8337    129.7758   9.1828021709e+01   2.4412411746e+01    0.3529174    0.2200994 -35.95  0.001549408    1.750    0.429
       467  -8.6395    155.7337    134.0841   9.3855977804e+01   2.4663866006e+01    0.1944035    0.1848553 -45.44 0.0004872986    1.100    0.091
       468  -7.5719     75.2714    134.3224   1.1256885397e+02   3.8865238033e+01    0.1205665   0.09667884 -42.50  0.000231918    1.571    0.364
       469  -8.5726    149.8609    133.2014   9.4933105698e+01   2.6031106475e+01    0.2109905    0.1877173  78.92 0.0005358088    1.188    0.158
       470  -8.2476    119.8702    133.2177   1.0170094080e+02   3.1847522058e+01    0.1822636    0.1677793 -14.57 0.0006645501    1.354    0.261
       471  -8.1462    212.4580    132.4666   8.2400262345e+01   1.3027345540e+01    0.1409163     0.126122  11.78 0.0004333168    1.045    0.043
       472  -7.8919      7.2955    132.3649   1.2864823356e+02   4.6549907850e+01    0.1094321   0.06862644 -58.26 0.0007030722    1.716    0.417
       473  -9.7691    179.4385    129.8698   8.8019923721e+01   2.0447285025e+01    0.2581935    0.2370179  17.13  0.000367639    1.099    0.090
       474  -8.6023    114.3373    130.9870   1.0256287260e+02   3.3317454662e+01    0.1901473    0.1689873 -63.58 0.0004629149    1.125    0.111
       475  -8.0118     32.4689    131.4925   1.2261962106e+02   4.4573900595e+01    0.1181047    0.0950018 -81.80 9.355966e-05    1.104    0.095
       476  -8.2812    121.4105    126.8497   1.0005469644e+02   3.2887443336e+01    0.2309944    0.1993915  32.96 0.0005546939    1.300    0.231
       477  -8.2991    125.6607    130.1651   9.9741759831e+01   3.1399563932e+01     0.214252     0.194668 -29.46 0.0004826301    1.287    0.223
       478  -9.5630    124.7010    125.3160   9.8955762101e+01   3.2584632186e+01    0.4456332    0.2841478 -73.96  0.001976181    2.103    0.525
       479  -9.9570    154.7689    128.3195   9.2803218134e+01   2.5955103097e+01    0.2652321     0.239523 -31.09 0.0007980322    1.184    0.156
       480  -9.6437    151.9837    124.3690   9.2522351086e+01   2.7294792842e+01    0.2685528    0.2431566 -41.02 0.0006303008    1.145    0.126
       481  -8.0313    142.5284    129.4538   9.5745529540e+01   2.8244209037e+01    0.1405054    0.1360486  44.59 0.0001575073    1.068    0.064
       482 -10.4049     64.1625    130.1290   1.1466521386e+02   4.1290614808e+01    0.2078369    0.2019251 -66.50 0.0009225224    1.291    0.225
       483  -8.8769    186.4763    127.3412   8.6053533123e+01   1.9371183821e+01    0.2472299    0.2138621  28.49 0.0002734869    1.145    0.127
       484  -8.1664     73.4527    128.4506   1.1209411983e+02   4.0414996636e+01    0.1287494    0.1136322 -82.32  0.000402196    1.067    0.063
       485  -8.9428    192.4661    127.0709   8.4836638903e+01   1.8124675568e+01     0.253061    0.1867829  30.73 0.0004589598    1.407    0.290
       486  -9.1707    171.7660    127.1865   8.8961523528e+01   2.2566252285e+01    0.2798232    0.1859882  35.86 0.0004786549    1.583    0.368
       487  -8.7549    165.4364    126.7716   9.0180445955e+01   2.3995565102e+01    0.1892531    0.1399035 -26.77 0.0004303859    1.540    0.351
       488  -9.0644    199.9957    124.9297   8.2923864586e+01   1.6851015901e+01    0.2138761    0.1948485  14.43 0.0003063766    1.060    0.057
       489  -8.8308     62.4477    125.4772   1.1439957231e+02   4.2547361588e+01    0.1277293     0.108907 -82.83 0.0001098793    1.041    0.039
       490  -9.5284     31.0040    125.4737   1.2232228166e+02   4.6040857879e+01    0.1665009    0.1484156 -51.00 0.0005383358    1.428    0.300
       491  -9.2925    179.6117    122.0585   8.6175948927e+01   2.1778335719e+01    0.3160938    0.2321883 -15.58  0.001032152    1.636    0.389
       492  -8.5353    107.8850    123.9018   1.0270973285e+02   3.5973570545e+01    0.1937781    0.1837927 -29.75 0.0002801967    1.253    0.202
       493  -8.6610      5.2271    124.5527   1.2853871725e+02   4.8375920110e+01    0.1177643    0.1082689 -25.83 0.0004736944    1.605    0.377
       494  -8.4402    169.9820    123.0274   8.8367328829e+01   2.3704103801e+01    0.2259973    0.1750491   7.77 0.0004203842    1.651    0.394
       495  -8.2086    146.5139    123.5044   9.3538985983e+01   2.8602457484e+01    0.1426755    0.1393589  41.37 6.065253e-06    1.056    0.053
       496  -9.2521     21.5676    122.6819   1.2437504745e+02   4.7508207358e+01    0.2645109    0.1392145 -38.56   0.00130673    3.215    0.689
       497  -9.3640    187.9729    121.0955   8.4298224156e+01   2.0109914877e+01    0.2301506    0.2068514 -24.60 0.0003129492    1.122    0.108
       498  -7.6064    164.6523    122.7196   8.9411133406e+01   2.4912990117e+01     0.148098    0.1134876  16.31 0.0003036207    1.642    0.391
       499  -8.1144    128.1479    121.8434   9.7392494548e+01   3.2638967365e+01    0.1839419    0.1682644 -18.01 0.0003743522    1.293    0.227
       500  -9.4057      2.4366    121.5393   1.2897752610e+02   4.9219472958e+01    0.3093386    0.1564703 -42.40  0.001679961    2.984    0.665
       501 -10.9338      6.8891    114.3157   1.2727377597e+02   5.0484747075e+01    0.3485396    0.2227526 -82.97   0.00232907    1.186    0.157
       502  -8.8047    117.0150    120.9953   9.9876332860e+01   3.4940538002e+01    0.2151065     0.177507 -10.41 0.0007060859    1.696    0.410
       503  -9.2588     12.0888    121.1233   1.2658012834e+02   4.8615350337e+01     0.174456    0.1125828 -42.13  0.001080653    2.120    0.528
       504  -8.9072    202.6700    119.3438   8.1109815500e+01   1.7171527376e+01    0.2848289    0.2143933  58.78 0.0005469554    1.461    0.316
       505  -8.3088    152.3218    120.2936   9.1509326204e+01   2.8011807349e+01    0.1450559    0.1161175  10.32 0.0002364838    1.613    0.380
       506  -7.7343    104.5412    120.4432   1.0283364692e+02   3.7306755854e+01    0.1367922    0.1290594 -81.88 0.0001546651    1.057    0.054
       507  -8.8865    220.2406    118.9936   7.7932051505e+01   1.3422706449e+01    0.1950902    0.1700616  -9.98 0.0003542677    1.090    0.083
       508  -8.8372    194.0061    118.9600   8.2629925211e+01   1.9140608722e+01    0.2159021    0.1994547  13.11 0.0003228329    1.061    0.058
       509  -8.8502    170.1425    118.8985   8.7356386945e+01   2.4422108158e+01    0.1991352    0.1731516   9.92 0.0004343298    1.282    0.220
       510 -10.3564    157.5622    116.8295   8.9538950727e+01   2.7554606031e+01    0.6055775    0.2738925 -33.23  0.002053556    2.764    0.638
       511  -8.2249    146.6572    119.7035   9.2635190486e+01   2.9320853003e+01    0.1463075    0.1164776   9.95 0.0006706016    1.666    0.400
       512  -8.9414     66.2523    117.1842   1.1208414143e+02   4.3917476962e+01    0.3148018    0.2493665 -22.15  0.001795254    1.881    0.468
       513  -8.0669    184.0162    117.7109   8.4259371234e+01   2.1566872582e+01    0.2013032    0.1820848  39.51 0.0002825465    1.081    0.075
       514  -8.6321    173.8693    117.7817   8.6317960689e+01   2.3803856471e+01    0.2207502    0.1946119  18.65 0.0004813577    1.206    0.171
       515  -8.0663    209.4906    117.4430   7.9425250025e+01   1.5981769545e+01    0.1426221    0.1341647   7.27 0.0001178957    1.010    0.010
       516  -7.6287     89.2952    120.3925   1.0667483274e+02   3.9850561537e+01    0.1363053    0.1030228 -32.00 0.0007008209    1.788    0.441
       517  -9.0778    147.7959    115.9319   9.1490693847e+01   2.9823971837e+01    0.2208247    0.2020923   2.83 0.0006024087    1.241    0.194
       518  -7.7137    110.3232    116.3111   1.0051761064e+02   3.7172909081e+01    0.1368049    0.1140334 -12.30 0.0003824182    1.654    0.395
       519  -8.9653    181.1739    114.3390   8.3999458218e+01   2.2790428278e+01    0.2547028    0.2180556  17.44 0.0005743322    1.257    0.204
       520  -9.1829    185.7540    113.0679   8.2780110577e+01   2.1982785230e+01     0.260905    0.2051274  38.05 0.0003033853    1.275    0.216
       521  -8.3233    163.1969    114.8119   8.7833122315e+01   2.6705693491e+01    0.1970735    0.1716188   5.60 0.0002736613    1.312    0.238
       522  -8.9303     21.2790    114.7918   1.2361352101e+02   4.9281653199e+01    0.1959261    0.1346676 -38.38  0.001168784    2.000    0.500
       523  -9.4275    212.5134    120.5254   7.9628358464e+01   1.4846129529e+01    0.2611146    0.2185842  12.76 0.0001321105    1.210    0.173
       524  -8.3633    219.0389    113.4921   7.6815919613e+01   1.4510180672e+01    0.3631771    0.2062381  28.48  0.001524098    2.217    0.549
       525  -7.8007    212.2805    114.3161   7.8177825451e+01   1.5859558911e+01    0.1458285    0.1075091  10.86 0.0003124122    1.575    0.365
       526  -9.0635    202.8864    113.3625   7.9618794014e+01   1.8089116620e+01    0.2888234    0.2514429 -66.35 0.0009011328    1.385    0.278
       527  -8.7206    153.4747    114.0069   8.9755921175e+01   2.8982486827e+01    0.2134634    0.1453154 -41.71 0.0004038144    1.492    0.330
       528  -9.8806    122.1149    113.3649   9.6936431837e+01   3.5585576736e+01    0.2819092    0.2128882  80.13  0.001033316    1.598    0.374
       529  -7.7875     36.6707    114.7156   1.1955563515e+02   4.7896503481e+01     0.115471   0.08465604 -46.72 0.0003300403    1.610    0.379
       530  -9.3296    194.0992    111.6864   8.0832432026e+01   2.0336104605e+01    0.4307997    0.2717892  24.91  0.001414157    2.062    0.515
       531  -8.8211    114.0871    112.9129   9.8823222854e+01   3.7210911458e+01    0.2133147    0.1749915 -16.69 0.0005318438    1.639    0.390
       532  -7.5048     79.3562    113.3007   1.0790822527e+02   4.2956640779e+01    0.1301986     0.104354 -26.88 0.0007037507    1.708    0.414
       533  -7.9778     41.3116    113.3409   1.1812918721e+02   4.7735768152e+01    0.1230434   0.08375602 -46.87 0.0007045873    1.696    0.410
       534  -8.2164    223.2466    110.7977   7.5457153542e+01   1.4001331404e+01    0.1908235    0.1538579   9.68 0.0003039219    1.290    0.225
       535  -9.1426    208.8672    111.1315   7.7996854436e+01   1.7113149712e+01    0.2440807    0.1714095  14.66  0.001134915    1.752    0.429
       536 -10.1258    134.0000    113.5586   9.4116798294e+01   3.3176421255e+01      0.53808     0.207714 -42.55  0.001769695    2.721    0.633
       537  -8.1996     61.0053    111.5103   1.1251872858e+02   4.5883227203e+01    0.1602539    0.1155166  -9.86 0.0006070469    2.453    0.592
       538  -8.1956     56.6166    111.7403   1.1374940699e+02   4.6375185539e+01    0.1203163   0.09556053 -32.75 0.0006974164    1.678    0.404
       539  -9.5300     16.9538    110.3984   1.2426944697e+02   5.0609709621e+01    0.2503208    0.1069709 -59.59  0.001313845    2.023    0.506
       540  -8.8970    168.1704    109.8491   8.5546155521e+01   2.6522144828e+01    0.1994374    0.1743116   3.44 0.0003789914    1.284    0.221
       541  -8.6733    143.8837    110.1507   9.0981659877e+01   3.1802066260e+01    0.1948591    0.1749726  14.71  0.000411937    1.272    0.214
       542  -8.3465     66.5219    109.9159   1.1073356906e+02   4.5528917582e+01    0.1974399    0.1147318 -61.67 0.0005859704    1.522    0.343
       543  -8.8222    176.6468    108.3000   8.3400149779e+01   2.4884875276e+01    0.2534092    0.1909115 -24.17 0.0006316851    1.436    0.303
       544 -10.3145    123.0916    108.0011   9.5432423344e+01   3.6524463060e+01    0.3839985    0.3034072  49.54  0.001265793    1.281    0.219
       545 -10.3049    119.4653    101.9306   9.4853412757e+01   3.8522102879e+01    0.4701699    0.2574057 -49.30  0.001345738    1.777    0.437
       546  -7.9945    155.3334    108.2973   8.7928613056e+01   2.9678579230e+01    0.1507997    0.1183728  12.01  0.000703003    1.646    0.392
       547  -8.3716     36.9037    108.0914   1.1857958414e+02   4.9373082114e+01    0.1864246    0.1305692 -43.61 0.0007537693    1.713    0.416
       548  -8.2514    201.2071    107.4042   7.8440521880e+01   1.9434152410e+01    0.1894717    0.1430997  61.91 0.0005615526    1.479    0.324
       549  -8.7104    190.0464    107.0812   8.0444155256e+01   2.2034897889e+01    0.2212612    0.2125066   5.85 0.0004166221    1.014    0.014
       550  -8.2705    182.9507    106.7318   8.1736189922e+01   2.3721505337e+01    0.2029198    0.1922979  38.66 0.0003780671    1.048    0.046
       551  -8.0661     59.7465    106.8421   1.1204504115e+02   4.7105073181e+01    0.2038396    0.1210107 -33.57 0.0007937586    2.672    0.626
       552  -8.2370     29.4154    106.7121   1.2045164880e+02   5.0392338898e+01    0.1746764   0.08869725 -62.36 0.0009423133    1.637    0.389
       553  -9.3561    235.4189    105.9546   7.2330611821e+01   1.2087690377e+01    0.3286095    0.2124089  62.36   0.00102316    1.881    0.468
       554  -9.2253    160.9311    105.9879   8.6112231814e+01   2.8871263765e+01    0.2193883    0.2129471  -2.60            0    1.059    0.056
       555  -9.3804    112.8607    105.8618   9.7499440518e+01   3.8955941078e+01    0.2462297    0.2097265  66.33 0.0006291486    1.210    0.173
       556  -7.5216     49.3378    106.3056   1.1485483172e+02   4.8466634523e+01    0.1243081   0.08981685 -41.10 0.0007040749    1.675    0.403
       557  -9.6733     11.9887    105.8458   1.2510903240e+02   5.1996454813e+01     0.236165    0.1381199  43.92  0.001475865    1.854    0.461
       558  -9.2784    166.2635    105.0550   8.4726420057e+01   2.7840018571e+01    0.3080089    0.2232165  63.77  0.001442192    1.546    0.353
       559  -7.8363     71.3160    105.3402   1.0854414644e+02   4.5914648999e+01    0.1332164   0.09877733 -35.17 0.0007048275    1.705    0.414
       560  -9.4973    219.1155    103.1340   7.4244535719e+01   1.6064224248e+01    0.2847698    0.2316549  13.72 0.0006671259    1.299    0.230
       561  -8.9577     65.4814    103.8600   1.0988695506e+02   4.7045822439e+01    0.2298454    0.1805419   4.21 0.0007673473    1.897    0.473
       562  -8.1987      1.3402    104.3058   1.2781880769e+02   5.3046771843e+01    0.1110438   0.06855831 -54.07 0.0003969405    1.681    0.405
       563  -8.3318    205.6889    103.0102   7.6518502169e+01   1.9122051835e+01    0.2063731    0.1803217 -23.39 0.0003751352    1.111    0.100
       564  -9.4304     18.0118    101.2247   1.2292161582e+02   5.2583298128e+01    0.3923273    0.1731978 -58.18   0.00207903    1.945    0.486
       565  -9.8155      5.9927    102.6933   1.2641010961e+02   5.3108221237e+01    0.1588563    0.1252622 -80.83 0.0008345929    1.078    0.072
       566  -8.2451    195.2099    101.7712   7.8103076592e+01   2.1738836408e+01    0.2027372    0.1687692   3.26 0.0004846085    1.318    0.241
       567  -9.7845    128.8920    100.8802   9.2225807334e+01   3.6838804251e+01    0.4428372    0.2983841  18.11  0.001389874    2.388    0.581
       568  -7.6168    185.3463    101.2488   7.9845606685e+01   2.4120741862e+01    0.1519429    0.1128614  23.57 0.0002914749    1.580    0.367
       569  -8.2170    140.8555    100.3633   8.9201338596e+01   3.4410007338e+01    0.2075694    0.1376674  38.53 0.0005183413    1.637    0.389
       570  -8.2205     34.7783     99.8397   1.1795731511e+02   5.1457395484e+01    0.2903756   0.05695568 -61.26  0.001044563    3.431    0.709
       571  -8.4816     24.2548     99.8129   1.2097241680e+02   5.2402201752e+01      0.20155    0.1353547 -34.61  0.001186789    2.022    0.505
       572  -8.8682     89.9917     98.1064   1.0177731041e+02   4.4704750010e+01    0.2447584    0.1921904 -77.04 0.0007881217    1.312    0.238
       573 -10.1818      7.0964     96.9428   1.2550205909e+02   5.4314895824e+01    0.2845551    0.1617495 -60.31   0.00112019    1.530    0.347
       574  -8.9069      4.3211     93.6852   1.2593877814e+02   5.5214853812e+01    0.1823042    0.1301279  86.61 0.0006699754    1.185    0.156
       575  -9.6295      2.5996     89.8447   1.2601870923e+02   5.6171839866e+01    0.2728977    0.1625448  82.49   0.00170196    1.530    0.347
       576  -8.2539    225.4525     97.9575   7.1906907151e+01   1.5423475852e+01    0.2171185    0.1349592 -27.56 0.0004559163    1.534    0.348
       577  -7.7014    217.0093     97.9997   7.3290383509e+01   1.7321201482e+01    0.1729622    0.1588033 -15.75 0.0003193404    1.030    0.029
       578  -8.8221    190.1308    102.3640   7.9214224142e+01   2.2817372153e+01    0.3335073    0.2299485  -4.61  0.001455311    1.941    0.485
       579  -7.8319    167.3111     98.3313   8.2734312731e+01   2.8840897518e+01    0.1557136    0.1196396  10.34 0.0005435881    1.672    0.402
       580  -8.3853    160.0000     97.9809   8.4212023234e+01   3.0593210131e+01    0.2467843   0.08561701 -39.24 0.0006510664    2.871    0.652
       581  -8.0348     44.0527     98.4532   1.1504444686e+02   5.0840778411e+01    0.1550739    0.1056476 -19.75 0.0008069221    2.406    0.584
       582  -8.1225    189.0299     97.0049   7.8013675024e+01   2.3984815195e+01    0.1779999    0.1721651 -10.61 0.0003582925    1.009    0.009
       583  -8.5140      1.6437    108.9882   1.2815397861e+02   5.2000228276e+01      0.18228    0.1010459 -65.41   0.00114261    1.520    0.342
       584  -8.1196    203.1804     95.9128   7.5121415564e+01   2.0841146653e+01     0.200703    0.1671745   4.66 0.0003766795    1.299    0.230
       585  -7.8297     56.6900     96.6655   1.1101999781e+02   4.9808910425e+01    0.1308928   0.09166087 -39.65 0.0007043351    1.677    0.404
       586 -12.5632    190.0336    215.5681   1.0157793945e+02   5.5486998397e+00     1.035823     0.598366  35.00  0.005913155    1.462    0.316
       587  -7.9830    195.2713     95.0298   7.6317059868e+01   2.2843967872e+01    0.1866127    0.1293771 -31.23 0.0004075574    1.420    0.296
       588  -8.2586    200.5923    101.5479   7.7056392653e+01   2.0529893743e+01    0.1457958    0.1398936 -20.76 7.925988e-05    1.038    0.036
       589  -8.5710     21.2489     94.7166   1.2114590727e+02   5.3800495972e+01    0.1979695   0.06271458 -60.78 0.0008867718    2.368    0.578
       590 -11.6250    233.7269    244.5403   9.8668254577e+01  -4.1181396751e+00    0.3967465      0.22346  -9.05  0.002613052    2.233    0.552
       591  -8.0736    183.5138     94.0064   7.8271487890e+01   2.5802719422e+01    0.2075982    0.1341594  -4.49 0.0007862693    2.346    0.574
       592  -7.9674    112.6008     93.8063   9.4554251336e+01   4.1589949926e+01    0.2075714    0.1322487 -59.70 0.0005388308    1.666    0.400
       593  -8.1883     94.5313     94.2128   9.9575511427e+01   4.4804517521e+01    0.1858666    0.1261889 -42.18 0.0004401256    1.519    0.342
       594  -8.2141     75.9435     93.6651   1.0474862633e+02   4.7896887723e+01    0.1808214    0.1699574  82.82 0.0005071491    1.105    0.095
       595  -9.5488    224.6953     90.8039   7.0194732588e+01   1.6651443943e+01    0.2972659    0.2324699 -40.80 0.0008124163    1.276    0.216
       596  -7.7118    220.2863     92.6908   7.1384194653e+01   1.7377593982e+01    0.1441909    0.1108479 -59.27 0.0002481372    1.573    0.364
       597  -8.2700    164.5782     92.3107   8.1675342790e+01   3.0585541857e+01     0.199683    0.1470681 -24.73 0.0004326426    1.482    0.325
       598  -8.0281     11.4818    100.4659   1.2466020086e+02   5.3233039597e+01    0.1171667    0.0893089 -78.27 0.0001413856    1.047    0.045
       599  -8.7347    127.9649     91.2920   8.9909269601e+01   3.9006948090e+01    0.1935163    0.1859755  43.51 0.0001699032    1.086    0.079
       600  -8.7425     13.6576     91.0384   1.2289493282e+02   5.5196680809e+01    0.1730016    0.1210001 -71.92  0.001031315    1.115    0.103
       601  -8.0041    196.9848     89.9608   7.4639622936e+01   2.3270621397e+01    0.1779426    0.1659298 -22.69 0.0003094618    1.041    0.040
       602  -7.7997    188.4753     90.5607   7.6378387768e+01   2.5207162293e+01    0.1509917    0.1444779   7.18 7.463642e-05    1.043    0.041
       603  -8.2493    121.0602     90.0448   9.1328393612e+01   4.0698290528e+01     0.218578    0.1785704  -5.46 0.0003156997    1.598    0.374
       604  -9.4605    236.8174     88.2476   6.7707695335e+01   1.4293909400e+01    0.2468245     0.210812   5.05 0.0004173158    1.188    0.158
       605  -9.2246    234.5161     85.5314   6.7348145989e+01   1.5191114476e+01    0.2652216      0.18942  61.01  0.001145849    1.567    0.362
       606  -8.1166    203.5294     88.9907   7.3214419790e+01   2.1866850352e+01     0.220286    0.1437583 -30.20 0.0003724117    1.492    0.330
       607  -8.6286    158.1132     88.5736   8.2031401661e+01   3.2794236704e+01    0.2276122    0.1986423 -33.88 0.0003866349    1.143    0.125
       608  -8.0504    183.4877     88.4508   7.6751358738e+01   2.6763533869e+01    0.1502893    0.1474931  -9.48 6.641068e-05    1.006    0.005
       609  -8.8451     29.5147     88.4946   1.1772232782e+02   5.4526172973e+01    0.1240192   0.09854646 -69.47  0.000809995    1.049    0.047
       610  -7.9481    103.5175     91.5121   9.6402226178e+01   4.3797231720e+01     0.143329    0.1347465 -50.35 0.0008094254    1.066    0.062
       611  -9.2654    241.7675     91.0158   6.7691930459e+01   1.2821358583e+01    0.2936919    0.2018391 -27.70 0.0006397811    1.327    0.247
       612 -10.5165      9.7649     85.9290   1.2340276485e+02   5.6607311460e+01    0.2965706    0.1983306  54.91  0.001033173    1.653    0.395
       613  -7.9219    226.2879     86.3096   6.8779612430e+01   1.6947172264e+01    0.1465463    0.1085071  13.86 0.0002401418    1.577    0.366
       614  -8.2104    150.8743     86.4035   8.3033969740e+01   3.4889522697e+01    0.2114279    0.1400037  38.32 0.0004874178    1.656    0.396
       615  -7.7755    188.4457     85.5186   7.4989279889e+01   2.6060522243e+01    0.1512502    0.1458646  -8.30 8.539123e-05    1.020    0.020
       616  -8.6830     28.3560     84.7832   1.1746153340e+02   5.5471796958e+01    0.1816367    0.0859841 -60.02 0.0004628283    1.674    0.403
       617 -10.3296      2.5563     82.2828   1.2515732211e+02   5.7857445227e+01    0.3014474    0.1980701  86.50   0.00199058    1.348    0.258
       618  -9.3281      9.5032     79.4845   1.2261072628e+02   5.8070144750e+01    0.1463223    0.1093148 -18.76 0.0006816706    1.844    0.458
       619  -9.1362    217.1786     83.4816   6.9454426925e+01   1.9484173684e+01    0.3257694    0.1286633  50.39 0.0009046894    2.535    0.606
       620  -8.4461    205.9852     82.8439   7.1120358863e+01   2.2248429004e+01    0.2247456     0.190654  17.84 0.0003983976    1.268    0.211
       621  -8.1406    234.7905     81.4307   6.6249092034e+01   1.5708114332e+01    0.1844072    0.1315509  41.90 0.0004735784    1.490    0.329
       622  -8.1907    185.5282     81.4676   7.4395477343e+01   2.7448440965e+01    0.1519795    0.1471613  -3.56 5.602472e-05    1.026    0.025
       623  -8.1891    126.6183     81.1710   8.7370258368e+01   4.1346595157e+01    0.2006052    0.1392847 -32.72 0.0003111914    1.524    0.344
       624  -8.1950    159.1598     79.8480   7.9275361821e+01   3.4152097309e+01    0.2079627    0.1803083   9.69 0.0003985936    1.302    0.232
       625  -8.6630     19.4596     80.4873   1.1957646915e+02   5.7160323082e+01    0.1214935   0.09379011 -69.09 0.0008087677    1.044    0.042
       626  -8.0841    215.0380     78.4766   6.8442302202e+01   2.0743183227e+01    0.2069537    0.1459101  54.17  0.000424191    1.472    0.321
       627  -8.5070    183.7706     76.7476   7.3368309722e+01   2.8666891135e+01    0.4048361    0.1545707 -41.27  0.001373056    2.576    0.612
       628  -9.1945     85.3219     77.3745   9.7831021551e+01   5.0050297786e+01    0.3261916    0.2505096   5.66  0.001663891    1.841    0.457
       629  -8.2338    206.3099     77.0518   6.9465018850e+01   2.3067179852e+01    0.2053383    0.1804227 -32.09 0.0002809237    1.093    0.085
       630  -8.4452    150.8338     77.1779   8.0325943089e+01   3.6627233747e+01    0.2072142    0.1788713  17.05 0.0003834935    1.306    0.234
       631  -7.9208     93.7607     76.9648   9.5190441768e+01   4.8693281203e+01    0.1809617     0.112242 -48.20 0.0002972954    1.486    0.327
       632  -8.6827     17.7741     77.1959   1.1958892656e+02   5.8027279468e+01    0.1633079    0.1138914 -52.71 0.0005696375    1.336    0.252
       633  -8.1415    194.1354     75.8220   7.1205169742e+01   2.6250507160e+01    0.2040441    0.1740698  15.24 0.0002957537    1.283    0.221
       634  -8.1844    174.5032     75.9534   7.4928899490e+01   3.1094415710e+01    0.2254261     0.150552 -32.11 0.0004087721    1.483    0.326
       635  -8.4532    239.1464     75.1304   6.4003853399e+01   1.5597234146e+01    0.2040581    0.1803496   5.93 0.0003296002    1.162    0.140
       636 -10.4893      7.5296     74.5200   1.2253762722e+02   5.9302757929e+01    0.2254504    0.1715807  74.42 0.0007943633    1.366    0.268
       637  -9.1736    233.9343     74.2462   6.4491493659e+01   1.6910016659e+01    0.2727477    0.1748153 -86.06   0.00115087    2.490    0.598
       638  -8.4245    206.2689     72.5741   6.8216307892e+01   2.3761381913e+01    0.2088544    0.1878382  43.19 0.0003920993    1.146    0.128
       639  -8.2058    203.6228     70.1676   6.7966644364e+01   2.4780194070e+01     0.206358    0.1744103  15.81  0.000256928    1.300    0.231
       640  -7.9186    157.4716     73.5373   7.7743193970e+01   3.5695551376e+01    0.1534653    0.1487541   0.34  0.000143837    1.050    0.048
       641  -7.9031     28.6834     73.6387   1.1531897740e+02   5.7971693711e+01    0.1303917    0.0753765 -44.09 0.0006127281    1.762    0.432
       642  -8.1963    227.9859     72.7685   6.4941725195e+01   1.8501743469e+01    0.1794903    0.1223965  58.58 0.0003582283    1.568    0.362
       643  -8.1311    140.0466     72.0812   8.1272984580e+01   4.0106307092e+01    0.1760807    0.1749738  -4.44 0.0003520162    1.025    0.024
       644 -10.3855     92.7181     69.5198   9.3286424890e+01   5.0453348110e+01    0.4523625    0.3601329 -39.39  0.001516999    1.200    0.167
       645 -10.5313      1.8197     68.5258   1.2357796916e+02   6.0955857068e+01    0.5221909    0.1247967 -69.20    0.0014324    2.790    0.642
       646  -7.5858    195.3151     71.3205   6.9701003142e+01   2.6669359098e+01    0.1580879    0.1166112  19.23 0.0007040141    1.657    0.396
       647 -10.0174    238.6286     69.8331   6.2690059277e+01   1.6438848296e+01    0.3484449    0.2313157 -64.67  0.001368096    1.984    0.496
       648  -8.1742    116.0479     69.7084   8.6650710409e+01   4.5876426137e+01    0.2158103    0.1575277 -19.67 0.0005838699    1.668    0.400
       649  -8.8427    170.3247     68.1272   7.3398916894e+01   3.3457630204e+01    0.2886337    0.2505253  86.11  0.001183477    1.295    0.228
       650  -7.8369    163.3110     69.2953   7.5191576188e+01   3.5006836827e+01    0.1566164    0.1200646  18.42 0.0003253366    1.594    0.373
       651  -9.3948    243.8117     65.0242   6.0760995827e+01   1.5901600635e+01    0.2659005    0.1902653  -4.19  0.001144332    1.571    0.363
       652  -7.9871    138.6444     65.1905   7.9410004701e+01   4.1704796197e+01    0.2109372    0.1420325 -26.03 0.0004276272    1.607    0.378
       653  -7.9866     86.4804     65.5270   9.3963996145e+01   5.2380888188e+01    0.1423064    0.1272377 -34.15 0.0006349696    1.098    0.089
       654  -9.9229     68.3254     63.7910   9.9326156938e+01   5.5625843924e+01    0.3753424    0.3374617 -76.27  0.002246566    1.187    0.158
       655  -7.6664    152.6590     64.6927   7.6025036981e+01   3.8428664109e+01    0.1605177    0.1196987  18.69 0.0007042903    1.686    0.407
       656  -8.2546    145.9764     63.9772   7.7295785682e+01   4.0178094134e+01     0.246805    0.1851231  16.28 0.0007516881    1.697    0.411
       657  -8.0677    208.4383     62.5305   6.5010717822e+01   2.4717616255e+01    0.1491128    0.1418371 -29.41 0.0001053114    1.006    0.006
       658  -7.7319    197.3031     62.7294   6.6848955319e+01   2.7489543176e+01    0.1509221    0.1152212 -65.53 0.0002160943    1.533    0.348
       659  -9.5409    120.0078    248.7029   1.1698373260e+02   1.1987025067e+01    0.2146331    0.1762822 -89.75 0.0004391531    1.427    0.299
       660 -10.7680    124.1624    246.8368   1.1615474716e+02   1.1647650447e+01    0.2484529    0.1756586  50.56 0.0004034354    1.026    0.025
       661 -10.1931    118.1663    238.4812   1.1636340814e+02   1.3631548085e+01    0.2688591    0.2294043   2.82 0.0009868444    1.918    0.478
       662  -9.3623    108.4081    249.0332   1.1885185060e+02   1.3546431754e+01    0.2197497     0.122295  41.60 0.0005085369    1.485    0.327
       663 -11.2599      2.4243     53.9543   1.2101101886e+02   6.4135851073e+01    0.8648983    0.3488731 -83.08  0.003992239    2.741    0.635
       664 -11.9771      9.9772     48.6480   1.1699550499e+02   6.4876215876e+01     1.092268    0.4611405 -63.35  0.005071139    1.737    0.424
       665 -11.1661     12.5131     39.6176   1.1376166798e+02   6.6656078211e+01    0.6318138     0.489576  18.14  0.002632329    1.639    0.390
       666 -10.3258    113.4866    244.2360   1.1763860406e+02   1.3497948662e+01    0.2254511    0.2106591   3.05 0.0006913241    1.660    0.398
       667  -9.9127      1.9952     45.9111   1.1964064175e+02   6.5904306533e+01    0.2488249    0.1390025 -60.01 0.0003579279    1.308    0.235
       668 -10.1976      4.7420     41.6035   1.1757280541e+02   6.6689237398e+01    0.2287504    0.1724904 -68.70 0.0002864783    1.111    0.100
       669 -10.2562     31.9918    247.2516   1.3050356991e+02   2.3112230333e+01     0.263145    0.1738711  38.86 0.0004491271    1.752    0.429
       670 -12.2497    191.5930    244.5852   1.0514943627e+02   1.9968997690e+00    0.2680832    0.1937822  27.10 0.0004953381    1.230    0.187
       671  -9.1694    186.5271    245.4975   1.0605687953e+02   2.6527262342e+00    0.1852299    0.1291473  38.50 0.0005089146    1.049    0.047
       672  -9.9058     41.3641    244.6445   1.2898647437e+02   2.2494000149e+01     0.204471    0.1644982  35.28 0.0009429448    1.813    0.449
       673 -10.3174    125.2909    240.0802   1.1534540475e+02   1.2388922347e+01    0.2214565    0.1974829  35.56 0.0003907644    1.369    0.270
       674  -8.0589    217.0637     61.0597   6.3301502108e+01   2.2788896392e+01       0.1769    0.1637231 -26.73 0.0004136671    1.028    0.027
       675  -8.0939    157.5389     59.4786   7.3284520515e+01   3.8108080853e+01    0.1534693    0.1488348  -1.06 7.510012e-05    1.039    0.037
       676 -11.0947     78.4818     53.0091   9.2423680320e+01   5.6290086912e+01    0.7402018     0.594236 -67.86  0.004097783    1.449    0.310
       677  -8.0975    164.9934     57.9502   7.1256331341e+01   3.6478765652e+01    0.2393359    0.1821743  12.54 0.0005055599    1.618    0.382
       678  -8.4076     31.2690     58.5338   1.1107421302e+02   6.1119618735e+01    0.1482735    0.1162931 -12.05 0.0009387592    1.607    0.378
       679  -9.1106    125.0767     56.7955   7.9965825096e+01   4.6355790693e+01    0.2391054    0.2078625 -37.74 0.0003168701    1.108    0.098
       680 -10.1316     75.4863     51.4925   9.2907197480e+01   5.7083021103e+01     0.272906    0.2316621 -15.39  0.000733185    1.262    0.208
       681  -8.2205     38.4221     56.7857   1.0795275994e+02   6.0821056173e+01    0.1838539   0.09226502 -49.48 0.0009289354    1.650    0.394
       682  -8.9136    250.2567     54.5515   5.7270305844e+01   1.5796987764e+01    0.2432934    0.1717316 -27.01 0.0005588026    1.279    0.218
       683  -8.3492     17.2158     54.8383   1.1552499337e+02   6.3054578679e+01    0.1720909    0.1060046 -50.02 0.0004517227    1.371    0.271
       684  -8.5798    146.8846     56.7535   7.4700529068e+01   4.1206880300e+01    0.2263805    0.2029446  19.38 0.0003691546    1.186    0.157
       685  -8.6171     63.0832     52.9323   9.7730146918e+01   5.8665858668e+01     0.214818    0.1486206 -23.95 0.0008163832    1.719    0.418
       686  -9.8974     19.4195     50.9582   1.1377007257e+02   6.3744709236e+01    0.4028765    0.3120841  78.49  0.002665375    1.548    0.354
       687  -7.5956    163.3283     51.2603   6.9396177955e+01   3.7964345131e+01      0.15607    0.1154579  28.16 0.0003791162    1.563    0.360
       688  -9.4605    249.1647     49.7369   5.6145138428e+01   1.6649237603e+01     0.357649    0.2193771   9.08  0.001551214    2.399    0.583
       689 -10.4088    248.9155     41.8815   5.4127024215e+01   1.7672530575e+01    0.5543177    0.3251931 -39.05  0.002706191    1.508    0.337
       690  -9.0223    172.0696     49.9590   6.7299066330e+01   3.5907736615e+01    0.2146539    0.2088622  11.08            0    1.042    0.040
       691  -7.8625     42.4570     49.4460   1.0430412341e+02   6.1976215333e+01    0.1284347    0.1044168 -46.67 0.0002617397    1.044    0.043
       692  -8.0835     48.1358     59.6259   1.0516299464e+02   5.9153456064e+01      0.15624    0.1223938   4.33 0.0003415992    1.641    0.391
       693  -7.5988    150.6686     45.6567   7.0069176985e+01   4.2060012237e+01    0.1635596    0.1161082  20.80 0.0007050813    1.753    0.430
       694  -8.5836     38.1381     41.0159   1.0333242001e+02   6.4198575633e+01    0.1998698    0.1437307 -35.55 0.0007512318    1.295    0.228
       695  -8.0692     65.5314     39.4559   9.2017766800e+01   6.0992966889e+01     0.135005    0.1151304 -29.40 9.323261e-05    1.057    0.054
       696  -8.2501     29.4333     37.7331   1.0590425510e+02   6.5731344677e+01     0.170795   0.09009615 -47.73 0.0005656587    1.505    0.336
       697  -8.6757     23.9660     38.3249   1.0844400108e+02   6.6085892189e+01     0.155839    0.1334597 -43.75 0.0003337734    1.106    0.096
       698  -8.5618     53.6346     36.7937   9.5544393883e+01   6.3199097636e+01    0.1838958    0.1087116 -54.76 0.0006036112    1.692    0.409
       699 -10.3269    247.4189     34.9534   5.2469239220e+01   1.8847424810e+01    0.5240227    0.3208928  25.47  0.002357077    2.343    0.573
       700 -10.3063    245.1899     31.7296   5.1842492208e+01   1.9746705713e+01    0.4576764    0.2507235  36.78   0.00197372    2.476    0.596
       701  -9.0060     69.4919     34.9647   8.8777279330e+01   6.1210567745e+01    0.2051872     0.118168 -38.76 0.0005205032    1.540    0.351
       702  -8.0316    173.9167     33.9603   6.1669577274e+01   3.7685250981e+01     0.169425    0.1682861  -9.89 0.0009298669    1.011    0.011
       703  -9.1018     25.9097     34.1069   1.0624267073e+02   6.6790258098e+01    0.1811584    0.1414048 -44.41 0.0003733895    1.049    0.047
       704  -9.3054     58.5501     31.4206   9.1459120606e+01   6.3529877385e+01    0.4082945    0.2119735 -58.68  0.001720795    2.834    0.647
       705  -8.0628     60.3463     28.3168   8.9441577169e+01   6.3825573127e+01    0.1353433   0.09362627 -10.27 0.0007048329    1.723    0.420
       706  -9.0810     30.1403     31.5992   1.0349343129e+02   6.6909507540e+01     0.233532    0.1409523 -45.87 0.0006467197    1.317    0.241
       707  -9.1895     12.6202     27.4404   1.1015377169e+02   6.9176200065e+01    0.2265896    0.1604111 -56.76 0.0004297951    1.131    0.116
       708  -9.6448    129.5895    235.2162   1.1416210603e+02   1.2426504187e+01    0.2222133    0.1860458  23.56  0.000413913    1.539    0.350
       709 -10.5201     68.3867    240.2830   1.2455968790e+02   2.0007550553e+01    0.2061929    0.1694242  50.87 0.0004525504    1.377    0.274
       710  -9.9738     51.4287    240.5815   1.2723731518e+02   2.1977385003e+01    0.1860303    0.1604286  71.58 0.0006969275    1.401    0.286
       711 -10.1969     69.7443     29.3811   8.6339852577e+01   6.2160496979e+01    0.4164868    0.2179468 -23.73  0.001784727    2.394    0.582
       712  -9.4801     66.5057     28.5388   8.7177233069e+01   6.2832465688e+01    0.2378303    0.1811059 -38.92 0.0008014422    1.192    0.161
       713  -9.7702    250.0565     23.9240   4.9349784465e+01   1.9497876540e+01    0.3805078    0.1481589 -26.47  0.001542878    2.297    0.565
       714  -9.2758     78.6824     22.1168   7.9917067266e+01   6.1791574472e+01    0.2705308    0.2251456 -42.17  0.001259481    1.276    0.216
       715  -7.5186    222.2610     22.2743   5.1582401993e+01   2.6435284063e+01    0.1334554    0.1065513  28.14 0.0006851553    1.467    0.318
       716 -10.3586     25.1037    239.7401   1.3121762388e+02   2.4963592775e+01    0.2229608    0.1912872 -76.05  0.001063996    1.728    0.421
       717  -9.0307     47.5804     18.4262   9.0241909305e+01   6.7361453339e+01     0.263615    0.1693986 -15.94 0.0008495527    1.755    0.430
       718  -9.3394     35.3010    240.4697   1.2970946456e+02   2.3784340757e+01    0.1975066    0.1488012  36.53 0.0008272362    1.787    0.440
       719 -10.0900     10.7095    239.5031   1.3334351918e+02   2.6421530913e+01    0.3198368    0.1546839  37.49   0.00231556    2.144    0.534
       720  -9.2277    126.4911     17.0366   6.4393161695e+01   5.2076390199e+01    0.3466395    0.1694563  53.58  0.001447333    1.936    0.484
       721 -10.2440    219.9178    238.5741   9.9958128655e+01  -1.5881987303e+00    0.2060628    0.1519372  17.46 0.0005246112    1.215    0.177
       722 -10.0389    135.0532    238.9877   1.1363873027e+02   1.1112693041e+01    0.2259943    0.1630234  40.98 0.0004122317    1.206    0.171
       723 -10.2239    139.5147    234.8048   1.1247069135e+02   1.1008213724e+01    0.2265042    0.1737723  35.60 0.0004308517    1.296    0.228
       724  -9.2259     62.0246    239.2154   1.2549914988e+02   2.0940821127e+01    0.1583039    0.1424235  80.91 0.0005415603    1.471    0.320
       725 -10.9894    198.8824    224.9903   1.0143412408e+02   3.0242567840e+00    0.3491764    0.2281104  34.28 0.0009583901    1.210    0.173
       726 -10.8356    191.0395    223.5853   1.0252813662e+02   4.4229358756e+00    0.2276764    0.1814272  17.94 0.0004002081    1.264    0.209
       727 -10.1501    190.2720    231.6492   1.0372969196e+02   3.6117407115e+00    0.3564155    0.2537415 -17.83  0.001679925    1.839    0.456
       728 -11.3757    183.8955    236.9621   1.0543722976e+02   3.9893167634e+00    0.2440549    0.1917272  18.29 0.0003884516    1.340    0.254
       729  -9.1110    186.0336    231.6494   1.0441906826e+02   4.2677019498e+00    0.2013787    0.1389697  39.28 0.0007159574    1.101    0.092
       730  -9.2999    112.3157    237.6832   1.1725226121e+02   1.4574231302e+01    0.1839278      0.14881  46.41 0.0004785753    1.229    0.186
       731  -9.7713     63.6544     13.1477   8.1047766477e+01   6.5780525753e+01    0.3208975    0.1498557  30.62  0.001382235    2.754    0.637
       732 -10.3716     91.0140    235.9514   1.2060377886e+02   1.7754728769e+01    0.2088479     0.198075  33.82 0.0005024218    1.578    0.366
       733  -9.9586     42.6421    237.1095   1.2841877448e+02   2.3501710185e+01    0.4529695    0.1364956  44.47  0.002626947    2.321    0.569
       734 -10.0617     77.7639    235.7368   1.2274839324e+02   1.9518755676e+01    0.2075911    0.1553894  60.79 0.0005076796    1.072    0.067
       735  -9.6202      3.3248    235.8669   1.3431028788e+02   2.7673333825e+01    0.1807187    0.1362482 -79.27  0.001094271    1.652    0.395
       736  -9.6025    108.3100    233.2686   1.1751905995e+02   1.5774184498e+01    0.1943015     0.154618  43.53 0.0004946362    1.283    0.221
       737  -8.7503     64.7333    234.0121   1.2474003528e+02   2.1410721204e+01     0.139399    0.1025717  67.11 0.0004346279    1.074    0.069
       738  -9.7339     84.9393    231.6998   1.2127180874e+02   1.9202252570e+01    0.1913113    0.1788553  72.38 0.0005675955    1.429    0.300
       739  -9.9593     35.4176    230.9798   1.2924173060e+02   2.5253030313e+01    0.2389153    0.1924841 -49.39  0.001544995    2.255    0.556
