#   1 NUMBER                 Running object number                                     
#   2 MAG_AUTO               Kron-like elliptical aperture magnitude                    [mag]
#   3 X_IMAGE                Object position along x                                    [pixel]
#   4 Y_IMAGE                Object position along y                                    [pixel]
#   5 X_WORLD                Barycenter position along world x axis                     [deg]
#   6 Y_WORLD                Barycenter position along world y axis                     [deg]
#   7 A_WORLD                Profile RMS along major axis (world units)                 [deg]
#   8 B_WORLD                Profile RMS along minor axis (world units)                 [deg]
#   9 THETA_WORLD            Position angle (CCW/world-x)                               [deg]
#  10 FWHM_WORLD             FWHM assuming a gaussian core                              [deg]
#  11 ELONGATION             A_IMAGE/B_IMAGE                                           
#  12 ELLIPTICITY            1 - B_IMAGE/A_IMAGE                                       
         1 -12.5773     52.5453     91.6808   8.2503355313e+01   5.2785827170e+01     3.726744    0.4061476 -60.48  0.007754945    7.571    0.868
         2 -13.3953     68.2450    143.8535   8.7026958230e+01   3.7666626390e+01     2.785614     1.333601  74.95  0.002966947    5.112    0.804
         3 -12.9785    213.7288     50.9329   3.1959290000e+01   2.6486319727e+01     1.137953    0.9320515  44.97  0.006251677    1.447    0.309
         4 -13.6546    231.6905     37.9981   2.7057692823e+01   2.4374251796e+01     1.324197     0.940999  41.40  0.007990829    1.809    0.447
         5 -13.0815      2.6500     10.9699   8.3536714391e+01   7.7550017156e+01     2.051817    0.4481028 -60.01  0.007016455    3.914    0.745
         6 -11.7350     20.6405      4.9266   6.3332128948e+01   7.6665177904e+01    0.3768475    0.3167305   6.55   0.00204491    1.142    0.124
         7  -8.7674    197.5596    223.4726   7.0546742070e+01   5.5208810035e+00    0.1087389   0.08243918   8.51 0.0001796088    1.022    0.022
         8 -10.3482    134.6147    249.7309   8.4952896382e+01   9.6440407563e+00    0.2001876    0.1516838  62.09  0.001448803    1.937    0.484
         9 -10.0491     81.6165    250.1737   9.4958421217e+01   1.5490579346e+01    0.2082219    0.1237618  28.78  0.001009366    1.363    0.266
        10 -15.2446     19.4071    241.2046   1.0650144013e+02   2.2993572516e+01     7.931079     2.519821  18.79   0.03206706    4.914    0.797
        11 -12.4110     43.6361    174.4739   9.7368675102e+01   3.3567293010e+01    0.8351152    0.5380128  -7.08  0.001071954    2.501    0.600
        12 -11.8681     50.9261    168.8507   9.4941847500e+01   3.4021886056e+01    0.4879638    0.3164854  62.23 0.0004739747    1.516    0.340
        13 -15.4539     27.1580    183.8833   1.0221074578e+02   3.3153107902e+01     8.616443     2.662847  81.19   0.02738371    5.698    0.825
        14  -9.4882    195.7756    199.1424   6.7173017498e+01   8.7528689395e+00    0.2207155    0.1864481 -69.46  0.001424095    2.368    0.578
        15  -9.0758    192.4810    193.9567   6.6907164093e+01   9.8754158780e+00    0.1458753    0.1028624 -57.91 0.0008097973    2.666    0.625
        16 -10.0767    231.3825    170.1649   5.6390789857e+01   7.7317210663e+00    0.1602044   0.09196349 -35.31 0.0009532149    1.714    0.417
        17  -9.4209    110.6380    167.3669   7.9482290725e+01   2.6352947978e+01    0.2123713    0.1975898 -79.42 0.0005611801    1.195    0.163
        18  -9.7247    139.7480    249.5844   8.4001461641e+01   9.0773015522e+00    0.1565178   0.07573926  37.22 0.0009542462    1.687    0.407
        19  -9.6461    249.6172    248.2034   6.5974999039e+01  -2.4685814477e+00    0.1315208   0.06614725 -14.62  0.000953069    1.703    0.413
        20 -12.0527     76.7536    138.8326   8.3750052565e+01   3.7665541045e+01    0.4362496    0.3275891 -70.82  0.000309941    1.365    0.267
        21 -12.9506      9.4162    199.6576   1.0713869470e+02   3.1424568318e+01     0.484969      0.34446  23.50 0.0007555753    1.496    0.331
        22 -11.1115     63.5058    159.8111   9.0551086461e+01   3.4572873299e+01    0.2763251    0.2632352  14.95 0.0006479225    1.182    0.154
        23 -14.4725     18.0433    193.0270   1.0488738270e+02   3.2049448957e+01     2.078561     1.095101  56.93  0.006345048    1.593    0.372
        24 -10.3980    105.1569    130.4008   7.4104328869e+01   3.5087643226e+01    0.4003469     0.320879  30.42  0.001202378    1.283    0.221
        25 -13.2722     48.9424    155.2076   9.4045245300e+01   3.7371464902e+01    0.6008952      0.42035 -50.31  0.001915865    1.599    0.375
        26 -11.2695    240.9275    143.4192   4.9918703004e+01   9.7451723049e+00    0.2893824     0.141721 -31.61  0.001595534    1.693    0.409
        27 -10.0729     90.5058    126.2429   7.7373011246e+01   3.8500481357e+01    0.2849587    0.2479478 -18.24 0.0008153712    1.327    0.246
        28 -10.3746     89.6242    141.0844   8.0477053654e+01   3.5216762131e+01    0.3189136    0.2785588  -2.99 0.0008420541    1.334    0.250
        29 -10.8383    244.7048    122.1209   4.5080275778e+01   1.1861826818e+01    0.1978967    0.1264787 -37.83  0.001199454    1.480    0.324
        30  -9.2475    204.4173    110.8663   4.8246841338e+01   2.0082614447e+01    0.2721899    0.1627862  29.76  0.001339275    2.031    0.508
        31 -10.2782     46.3672    109.5727   8.8462550040e+01   4.8984451460e+01    0.3303422    0.2200874  75.55 0.0002187628    1.724    0.420
        32  -9.3735    102.9307    118.8799   7.2188912691e+01   3.8059472212e+01    0.2076961    0.2044462 -30.52 0.0003310343    1.028    0.028
        33  -9.6815     93.0439    138.2494   7.9005366178e+01   3.5326808354e+01    0.3249355    0.2244578 -13.06  0.001457398    2.217    0.549
        34 -11.0178     25.3302    119.6637   9.7341157510e+01   4.8566574413e+01    0.3836702    0.1956763  62.58  0.001384054    2.141    0.533
        35  -9.8314     41.6642     92.0907   8.6879734218e+01   5.4060673374e+01    0.2375189    0.2136765   7.27 0.0004317467    1.277    0.217
        36  -9.8195    250.0000     87.9811   3.7094544777e+01   1.5254726932e+01    0.2090671   0.05509083 -29.35 0.0008037389    2.951    0.661
        37 -10.4792    165.6377     85.8687   4.8450608668e+01   3.1806134025e+01    0.2431412    0.2003817  33.56 0.0008128527    1.324    0.245
        38 -10.8543    241.1508     83.2436   3.6969248725e+01   1.7311386427e+01    0.2676368    0.1419207  49.63  0.001447196    2.265    0.559
        39  -9.0142    184.6780     77.0758   4.2745194553e+01   2.9082961312e+01    0.2028586    0.1671612 -29.16 0.0004828199    1.095    0.087
        40 -12.7360     72.6137    153.4209   8.7196117941e+01   3.4850538937e+01    0.9003007    0.8042683  29.69  0.004046337    1.157    0.136
        41 -10.4134     13.4503     59.9952   9.2938772977e+01   6.5081718865e+01    0.2734791    0.2156983 -66.71 0.0004209713    1.102    0.092
        42 -10.3609     80.9823    211.7795   9.1914621434e+01   2.1836214522e+01    0.2862796    0.1894247  71.49 0.0009943431    1.830    0.454
        43 -11.6230    101.5953    238.4277   9.0122588893e+01   1.5028886796e+01    0.3279968    0.2181487 -69.67  0.002224502    2.035    0.509
        44  -8.1575     73.4981     57.4412   6.3617944036e+01   5.7458384681e+01    0.1474102     0.141548 -52.95 0.0002703035    1.049    0.047
        45 -10.9598     11.0938     54.1010   9.2890942290e+01   6.6749874270e+01    0.4149269    0.0978218 -53.76  0.001452345    3.058    0.673
        46  -8.3894     94.5429     46.4972   5.1905474662e+01   5.5092419812e+01    0.1485829    0.1431806 -44.50 6.647329e-05    1.034    0.033
        47 -13.6636     10.3679    206.6225   1.0717527283e+02   2.9977562417e+01    0.9827967    0.7610961  14.12  0.003192609    1.563    0.360
        48  -8.6340    115.4959     31.5101   4.0134692861e+01   5.2342311904e+01    0.1449859    0.1413769 -54.49 0.0002974851    1.015    0.015
        49 -11.0468    115.5487     23.6433   3.6804940374e+01   5.3338523133e+01    0.3579266    0.2642967 -55.34  0.000672923    1.446    0.308
        50  -8.4721    189.4855     15.4929   2.4355073938e+01   3.5749932530e+01    0.1349093    0.1136722 -49.74 -1.432951e-05    1.042    0.040
        51  -9.0795    118.1777     15.3586   3.2762899419e+01   5.3598117306e+01     0.310874    0.1594309 -76.07  0.001131892    2.990    0.666
