#   1 NUMBER                 Running object number                                     
#   2 MAG_AUTO               Kron-like elliptical aperture magnitude                    [mag]
#   3 X_IMAGE                Object position along x                                    [pixel]
#   4 Y_IMAGE                Object position along y                                    [pixel]
#   5 X_WORLD                Barycenter position along world x axis                     [deg]
#   6 Y_WORLD                Barycenter position along world y axis                     [deg]
#   7 A_WORLD                Profile RMS along major axis (world units)                 [deg]
#   8 B_WORLD                Profile RMS along minor axis (world units)                 [deg]
#   9 THETA_WORLD            Position angle (CCW/world-x)                               [deg]
#  10 FWHM_WORLD             FWHM assuming a gaussian core                              [deg]
#  11 ELONGATION             A_IMAGE/B_IMAGE                                           
#  12 ELLIPTICITY            1 - B_IMAGE/A_IMAGE                                       
         1 -14.6281    233.0598    105.2931   4.7792345550e+01   1.4359621840e+01     5.205141     2.008755 -44.76  0.008427541    2.213    0.548
         2 -13.4962    247.8858     11.0953   2.7462643542e+01   2.4726304521e+01    0.5617303    0.2699042 -33.68  0.001580188    2.204    0.546
         3 -14.9800    178.8242     79.3787   5.0263827236e+01   2.9981745805e+01     5.462379     3.030889 -56.40  0.005157501    2.075    0.518
         4 -12.7823    212.3884     25.5336   3.3024793459e+01   3.0152285436e+01     1.855195     1.028291 -75.95  0.008508723    1.872    0.466
         5 -14.7535    242.1438     59.4029   3.7181948960e+01   1.9778433870e+01     3.208897    0.7294283  54.92   0.01152636    5.008    0.800
         6 -11.8288     66.4987    142.6886   9.5898139053e+01   3.8385807877e+01     1.978674     1.168426  45.34  0.007132763    1.852    0.460
         7 -10.9430    134.0288     28.1263   4.4037615805e+01   4.7698826403e+01    0.3318445    0.2045387 -24.59  0.001354665    1.886    0.470
         8 -10.9950    150.1133     18.6485   3.8589392350e+01   4.4926300014e+01    0.3360808    0.2727548  72.21  0.002104393    1.072    0.067
         9 -14.4625    232.7021     31.4890   3.2455842050e+01   2.5288473328e+01     2.672942     2.003432 -50.01   0.01422406    1.209    0.173
        10 -14.5224    216.1411     77.2234   4.3991942377e+01   2.2259379695e+01      5.05441     3.149101 -60.73   0.02598507    1.655    0.396
        11 -10.0380    139.6828      9.9856   3.7632211384e+01   4.8176057186e+01    0.1670414    0.1583719  81.52 0.0006535341    1.121    0.108
        12 -10.0217    128.2125      9.5165   3.9283247671e+01   5.0878778259e+01    0.2599348    0.1703322 -15.69   0.00115877    1.886    0.470
        13  -8.2679    215.9543      9.3152   2.9321598581e+01   3.1189056554e+01    0.1531142     0.122619  89.35 0.0004912845    1.126    0.112
        14  -8.9956    119.9555      7.4847   4.0043186852e+01   5.2950711647e+01    0.1802751   0.09975242 -87.27 0.0008097535    2.602    0.616
        15  -7.8254    176.4852      6.4998   3.2175817280e+01   4.0019644555e+01    0.1207478    0.1014162  82.17 -0.0001509451    1.066    0.062
        16  -9.2655    158.5195      2.9514   3.3219193689e+01   4.4423557880e+01    0.2285237    0.2121987 -56.66 0.0008895713    1.218    0.179
        17  -9.6637    180.8045      2.1977   3.0727549258e+01   3.9444690868e+01    0.3732157    0.1559631 -79.36  0.001547941    3.217    0.689
        18  -9.8891    128.7372      2.0064   3.6874286964e+01   5.1367076981e+01     0.220222    0.1881735  67.58 0.0007520066    1.026    0.025
        19  -9.2650    239.6238      1.5098   2.6218497226e+01   2.7292231779e+01    0.3201435   0.08499966  68.46  0.001495135    3.336    0.700
        20  -9.4294    113.0161      2.4859   3.9623234617e+01   5.4924143047e+01    0.2009681    0.1034705  64.35  0.001040839    1.615    0.381
        21  -8.5138     29.6484    183.0783   1.1209697590e+02   3.2329254388e+01    0.1776552    0.1442027 -74.77 0.0003570907    1.119    0.106
        22  -9.8911    210.9392    180.5453   6.7299620152e+01   4.6138760687e+00    0.3235243    0.2145597  49.16  0.001629448    1.938    0.484
        23 -10.1991    235.2401    179.4140   6.2664805934e+01   1.0878266682e+00    0.2478942     0.231084  63.24 0.0004135747    1.546    0.353
        24 -12.0557    228.1677    171.4696   6.2327731596e+01   3.5342291368e+00     1.016865    0.5186839 -23.29   0.00433021    2.443    0.591
        25 -11.1634    230.4627    167.2793   6.1091657613e+01   3.9182438033e+00    0.6450062    0.2777852 -45.39  0.002417432    2.203    0.546
        26  -9.3079    174.6670    176.2986   7.3915836237e+01   1.1615020698e+01    0.2834771     0.239955 -88.28 0.0009108623    1.675    0.403
        27  -9.5368    237.0507    172.5677   6.1019205160e+01   1.9945615766e+00    0.2538997    0.1632247 -48.30 0.0008689407    1.643    0.391
        28  -9.3143    250.5439    171.9982   5.8708907740e+01   1.4369215266e-01    0.1945071    0.1031931 -36.61 0.0003429688    1.538    0.350
        29  -8.2388    194.4685    171.4970   6.8715505259e+01   9.0879600247e+00    0.1435701    0.1300814 -21.97 0.0003833654    1.037    0.035
        30 -12.2256      3.2364    163.8151   1.1709144584e+02   3.9324587892e+01    0.8750084    0.3607416 -74.93   0.00403374    1.995    0.499
        31 -12.1674    159.2140     91.2271   5.7178885856e+01   3.2327524379e+01     1.151516    0.4658066 -45.00 0.0005614033    2.469    0.595
        32  -9.4861    248.8882    248.6967   7.2680680952e+01  -1.1186896566e+01    0.1891672    0.1146953   5.12  0.001202777    1.455    0.313
        33  -8.3248    117.0291    148.2477   8.2177765385e+01   2.8719256805e+01     0.200364    0.1930813  42.08 0.0001992949    1.068    0.063
        34  -9.2784    222.3479    144.6290   5.7822773455e+01   9.3334488452e+00    0.3361775    0.2308388 -71.66  0.001378991    2.388    0.581
        35 -10.3280    192.1848    143.4948   6.3143915340e+01   1.5070524005e+01    0.4237182     0.229006 -41.34 0.0006048919    1.705    0.414
        36  -9.1731    158.5400    143.0375   7.0341978854e+01   2.1812119378e+01    0.2924858    0.2183684  58.81 0.0009607991    1.597    0.374
        37  -8.9634    203.4782    139.5298   6.0084412610e+01   1.3702621066e+01    0.1441433    0.1297893 -35.64 3.173833e-05    1.017    0.016
        38 -10.7122    155.8005    137.4796   6.9686016025e+01   2.3584432487e+01    0.6498976    0.3626798  38.68  0.002647778    1.888    0.470
        39  -9.6814    209.9343    137.7361   5.8510151806e+01   1.2839981716e+01    0.1951303    0.1853943 -37.46  0.001057721    1.083    0.077
        40  -8.7213    137.0000    136.4246   7.4098281651e+01   2.7641878152e+01    0.3484165   0.08795077 -47.25 0.0009268711    3.871    0.742
        41  -8.7005    228.6358    135.8709   5.4934323894e+01   9.8257992092e+00    0.2100213    0.1842707   9.36 0.0006347523    1.302    0.232
        42  -9.7082    205.2921    136.0472   5.8978524176e+01   1.4028640730e+01    0.2068165    0.1712031 -39.58 0.0004346757    1.087    0.080
        43 -10.2354    187.6053    135.2511   6.2193581864e+01   1.7612878342e+01    0.2652213    0.2589686 -42.98  0.001215238    1.074    0.069
        44 -10.1334    191.0133    132.6953   6.0929698870e+01   1.7445978543e+01    0.3097547    0.2722127  64.24  0.001685969    1.310    0.236
        45  -9.5141    165.9870    133.4926   6.6383507666e+01   2.2354760002e+01    0.2584257    0.2159008 -68.13  0.001280057    1.383    0.277
        46 -10.7462    160.9657    128.4250   6.6305270628e+01   2.4472515335e+01    0.5288331    0.3531937 -64.44  0.002229088    1.955    0.488
        47 -10.9349    173.5789    151.7302   6.8895858880e+01   1.6970483943e+01    0.6095122    0.2982103 -40.08 0.0005768548    1.977    0.494
        48 -12.9015    198.4908     84.8226   4.8319456591e+01   2.4732877697e+01     1.971517    0.7176822  41.85  0.006140064    4.680    0.786
        49  -9.1170    185.4191    240.3603   8.3270023405e+01  -2.0797097378e+00    0.2578533    0.2204257 -84.25  0.001238319    2.067    0.516
        50  -9.8206    202.9624    130.9688   5.8271648125e+01   1.5443348440e+01     0.226952    0.1740291 -73.25 0.0007938335    1.705    0.414
        51  -9.2102    136.2744    128.7045   7.2410185630e+01   2.9546683874e+01    0.4412858    0.1367822 -47.74  0.001305399    3.211    0.689
        52 -10.0126    208.9012    127.5965   5.6453564221e+01   1.4940523732e+01    0.3138096    0.2521253 -56.22  0.001549926    1.275    0.216
        53  -9.9082    170.3730    121.8540   6.2610367427e+01   2.3865221726e+01    0.3531508    0.2512378 -77.91  0.001512033    2.095    0.523
        54  -9.4063    214.0391    121.4292   5.4204367769e+01   1.5099297802e+01    0.2679589    0.1810215 -26.57 0.0009844212    1.601    0.376
        55  -9.1605    135.2336    119.9446   7.0476983358e+01   3.1722305053e+01    0.3814996     0.203255 -47.85  0.001045554    1.867    0.465
        56  -8.4177     30.4393    119.9481   1.0344164842e+02   4.8321729219e+01    0.2066391    0.1224283 -66.24 0.0006200413    1.514    0.339
        57 -10.3650    206.1918    235.0620   7.8250718096e+01  -4.0753244615e+00    0.2090576    0.1753397  -3.87            0    1.087    0.080
        58 -11.1920    204.3222    111.8754   5.3689645722e+01   1.8753104050e+01    0.7399646    0.5450166  -8.97  0.003081904    1.884    0.469
        59 -10.9011    167.9017    115.3970   6.1551385769e+01   2.5704300341e+01    0.5456821    0.3868533  24.04  0.002455016    1.823    0.451
        60  -8.3075     66.4802    115.5187   9.0180441594e+01   4.5262109081e+01    0.1485429    0.1380731 -40.80 0.0001307621    1.011    0.011
        61  -9.7383    134.8716    110.5981   6.8132954111e+01   3.3834895329e+01    0.6900613    0.2004595 -43.71  0.002021963    3.395    0.705
        62 -10.7133    135.3273    100.7860   6.5365384729e+01   3.5793357942e+01     0.679622     0.307965 -37.35   0.00198164    2.349    0.574
        63  -9.2432    173.1759    234.8036   8.4917373889e+01   6.0620746214e-01      0.18326     0.162954  18.58 0.0003891838    1.134    0.118
        64  -8.1076    108.8232    110.2059   7.5257066678e+01   3.9285346139e+01    0.2147917    0.1797088 -10.70 0.0005825502    1.331    0.249
        65 -12.1836    122.5722     96.5957   6.7564506275e+01   3.9408588046e+01     1.612745    0.7988899  28.54  0.005347985    3.148    0.682
        66  -8.6111    180.8216    105.6946   5.6498594358e+01   2.4817833270e+01    0.2557202    0.1960687 -29.92  0.001209385    1.364    0.267
        67  -9.6301    149.7404    104.1194   6.2739043663e+01   3.1948257250e+01    0.3124215    0.2865849   1.96 0.0005518291    1.187    0.158
        68 -12.3726     47.7905    145.4889   1.0215084519e+02   4.0004456324e+01    0.8680123    0.6234773 -80.62  0.002169737    1.430    0.300
        69 -10.9690    160.4852    100.0233   5.9231411760e+01   3.0373756612e+01    0.6295965    0.3459494  43.66  0.002569565    1.921    0.479
        70 -11.3494    192.0933    155.4135   6.5788556930e+01   1.2705186546e+01    0.7728899     0.530273 -83.27   0.00150689    3.070    0.674
        71  -9.1049    173.3809    101.7381   5.6979624159e+01   2.7189216103e+01    0.3039944     0.241142  77.63  0.001085469    1.481    0.325
        72 -10.3719    168.0637    100.1766   5.7665240840e+01   2.8659979251e+01    0.3694173    0.2959526  43.88  0.001883764    1.311    0.237
        73 -12.3686     33.8721    150.5531   1.0709893841e+02   4.0161222198e+01    0.6306943    0.5247574  52.99  0.001155105    1.282    0.220
        74 -10.3990     85.1168     97.9941   7.9351972185e+01   4.6444673070e+01    0.2379349    0.2109538  22.30  0.001265535    1.137    0.121
        75 -12.5791     41.2941    147.6390   1.0446213013e+02   4.0160278182e+01    0.9393324    0.7400663 -89.73  0.003174833    1.294    0.227
        76 -10.2223    133.9741    145.2926   7.6961492333e+01   2.6191314851e+01     1.271605    0.3568876 -54.78  0.003019995    5.338    0.813
        77 -10.4949    143.5154     94.5829   6.1635752631e+01   3.5224102867e+01    0.3675249    0.3475699 -78.50  0.001274492    1.112    0.101
        78 -14.1287    231.4569     72.0478   4.0945738290e+01   1.9990036530e+01      1.97196     1.059117  78.99  0.001525454    2.448    0.592
        79 -12.9766    250.1660     63.4742   3.7198006259e+01   1.7712071242e+01     0.590905    0.2806806 -36.17 0.0008341537    1.985    0.496
        80 -10.8841    127.4668    105.7904   6.8792358804e+01   3.6439474725e+01    0.5881966    0.3491961 -43.64  0.002477577    1.666    0.400
        81 -11.4193    122.6451    102.8524   6.9296878620e+01   3.8083976527e+01     1.632814    0.4089283  40.14  0.004231808    4.583    0.782
        82 -11.0007    130.5712     86.4656   6.2540355761e+01   3.9676581606e+01    0.3621529    0.2957948 -14.88  0.001077807    1.398    0.285
        83 -10.0950    151.0533     71.4054   5.3460655461e+01   3.7692764092e+01    0.2696607    0.2362877 -47.79  0.001086609    1.156    0.135
        84  -8.7713    134.6366     63.7139   5.4812459358e+01   4.2748204567e+01    0.1496201    0.1080407  25.91 0.0007021563    1.690    0.408
        85  -9.4909    125.6057     62.3036   5.6521846543e+01   4.5040815791e+01    0.2450738    0.2401542  38.15 0.0004629252    1.031    0.031
        86  -9.5201      2.0000     60.9918   1.0257957753e+02   6.4101644142e+01     0.200909   0.05873981 -62.40 0.0005234705    2.925    0.658
        87 -12.2117     16.1211    152.5328   1.1248850527e+02   4.1207550205e+01    0.7415112    0.4795825  89.22  0.003945556    1.500    0.333
        88 -11.6302    176.7995    141.3689   6.5847514407e+01   1.8511048684e+01    0.6891626    0.4121003 -45.68  0.003026366    1.600    0.375
        89 -10.7155    178.4438    149.1762   6.7264870182e+01   1.6563461786e+01    0.4356751    0.2744748  42.80  0.001305575    1.680    0.405
        90  -9.8666      9.4140     49.7946   9.5957193013e+01   6.5966474000e+01    0.1853826   0.08553367 -44.65 0.0009553913    1.697    0.411
        91  -9.9212    192.1342     47.2556   4.0223012784e+01   3.1841669638e+01    0.2723865    0.2375454  69.41 0.0005397077    1.169    0.144
        92 -10.1624    118.6798     41.8824   5.1645011787e+01   4.9593708574e+01    0.2833444    0.2372597 -16.24  0.000491278    1.323    0.244
        93  -9.4804      2.0000     42.9676   9.7640249188e+01   6.7757058573e+01    0.1919573    0.0571922 -57.64 0.0008021347    2.940    0.660
        94  -8.5476    204.5763     42.1972   3.7517357893e+01   2.9772412756e+01    0.1763422    0.1475692 -50.41  0.000430372    1.172    0.147
        95  -9.8622    205.2122     37.4139   3.6363396981e+01   3.0247258508e+01    0.2456897    0.2200838 -58.39 0.0006332233    1.153    0.132
        96  -9.1134    174.9610    230.1934   8.3791673129e+01   1.1489737815e+00    0.2030212    0.1754628 -18.07  0.000286821    1.142    0.124
        97 -10.4482    122.8236     37.6119   4.9306182801e+01   4.9190332872e+01    0.2883046    0.2027925  19.19  0.001472554    1.794    0.443
        98  -8.9809    176.1101    225.3838   8.2748631750e+01   1.8309817191e+00    0.2163527    0.1660688 -20.87 0.0003942905    1.279    0.218
        99  -9.6074    190.0316     35.3404   3.7625287435e+01   3.3849852372e+01    0.2159739    0.1766919 -45.36 0.0002632591    1.248    0.199
       100  -8.6993    166.1216     33.6700   4.0368799341e+01   3.9531462348e+01      0.20764    0.1644501 -54.90 0.0004300888    1.275    0.215
       101 -11.6434    145.0647     31.5912   4.3111866636e+01   4.4716605864e+01    0.4387223    0.3291016 -30.41  0.002514173    1.488    0.328
       102  -9.9416    188.0108     29.4507   3.6453373082e+01   3.5011296468e+01    0.2766313    0.1731888 -35.10 0.0008767192    1.683    0.406
       103  -9.4330    159.7326     28.1495   3.9814243997e+01   4.1664332712e+01    0.2402474    0.2041489 -30.32 0.0007083408    1.343    0.256
       104 -10.1602    142.8280    218.9170   8.9020830956e+01   8.2161051272e+00    0.2562392    0.2244865 -38.76 0.0004760546    1.210    0.173
       105 -10.1895    179.6834     23.9064   3.6083828779e+01   3.7526590854e+01    0.4417188    0.3370031  82.13  0.002042054    1.162    0.139
       106  -8.9318      3.3408     21.6619   8.9248774839e+01   7.1479256518e+01   0.09770692   0.08968242  40.87 0.0007050302    1.764    0.433
       107  -9.9704    241.0066    218.9191   6.8996496244e+01  -6.0746843889e+00    0.2638801    0.2036249  48.50  0.001618881    2.120    0.528
       108  -9.6234     37.3077    214.0673   1.1316118479e+02   2.4131893682e+01    0.3196592    0.2026187  69.52  0.001753232    1.529    0.346
       109  -8.0972    167.3439     16.4654   3.5692895696e+01   4.1140871081e+01    0.1202897    0.1065923 -88.91 0.0001866996    1.051    0.048
       110  -8.1702    189.9984     14.9698   3.2822998690e+01   3.6165425415e+01    0.1486827    0.1207793 -88.93 0.0004957696    1.038    0.036
       111  -8.1836     94.6826    213.1127   9.9506197192e+01   1.6913910991e+01    0.1796752    0.1704304 -69.67 0.0003773927    1.110    0.099
       112 -10.1766    134.0038     13.5007   3.9562601498e+01   4.9181754982e+01    0.1903095    0.1545613  65.28 0.0005446153    1.054    0.052
       113  -7.9928     79.4974     12.4625   5.1051056990e+01   6.1390878542e+01    0.1264353    0.1043205  36.55  0.000239035    1.006    0.006
       114  -7.8605    207.6297     11.7608   3.0498739574e+01   3.2675986418e+01    0.1108632   0.07938416  56.43 0.0006923537    1.612    0.380
       115  -8.6688     21.2086    211.8438   1.1659478642e+02   2.6307772420e+01    0.2904195   0.09452467  23.64  0.001123102    3.814    0.738
       116  -9.6775    244.0194    208.5202   6.6615496025e+01  -4.8595331502e+00    0.2065186    0.1968902  15.53  0.000784351    1.503    0.335
       117  -9.6651    250.1157    203.5829   6.4689512579e+01  -4.8622353025e+00    0.3068285    0.1614967 -45.57  0.001591323    2.090    0.521
       118  -7.8686    221.5120    205.5188   7.0095334303e+01  -1.3696296084e+00    0.1292019    0.1101707 -13.84  0.000808718    1.089    0.082
       119  -8.7206    165.7157    205.0453   8.1462272862e+01   7.2982974729e+00    0.1881707    0.1680269 -20.80 0.0002374926    1.090    0.083
       120 -10.2433    241.6679    199.5108   6.5371581945e+01  -3.1362696399e+00    0.4202886    0.3047238  52.44  0.002403147    2.258    0.557
       121 -10.4999    192.2334    193.5196   7.3582936221e+01   5.2067663769e+00    0.9453145    0.4915915 -63.28   0.00275911    5.897    0.830
       122  -9.5920     26.4424    198.7376   1.1434719538e+02   2.8847227444e+01    0.2549812    0.2188274  66.37 0.0004911443    1.083    0.077
       123  -9.6879    143.9570    145.0019   7.4340567553e+01   2.4290389471e+01    0.3394025    0.2270806 -59.71  0.001450758    1.721    0.419
       124  -9.4094    210.7824    187.9733   6.8795435114e+01   3.2821483730e+00    0.2106749    0.1608843 -65.20  0.001085166    2.017    0.504
