#   1 NUMBER                 Running object number                                     
#   2 MAG_AUTO               Kron-like elliptical aperture magnitude                    [mag]
#   3 X_IMAGE                Object position along x                                    [pixel]
#   4 Y_IMAGE                Object position along y                                    [pixel]
#   5 X_WORLD                Barycenter position along world x axis                     [deg]
#   6 Y_WORLD                Barycenter position along world y axis                     [deg]
#   7 A_WORLD                Profile RMS along major axis (world units)                 [deg]
#   8 B_WORLD                Profile RMS along minor axis (world units)                 [deg]
#   9 THETA_WORLD            Position angle (CCW/world-x)                               [deg]
#  10 FWHM_WORLD             FWHM assuming a gaussian core                              [deg]
#  11 ELONGATION             A_IMAGE/B_IMAGE                                           
#  12 ELLIPTICITY            1 - B_IMAGE/A_IMAGE                                       
         1  -7.7073     17.3446     13.7365   5.0343873595e+01   7.4850917141e+01    0.1059041   0.09867811  52.24 0.0003566763    1.602    0.376
         2  -8.0483     83.5037     10.9759   1.7101124743e+01   6.3165760971e+01    0.1843807    0.1000094 -47.44 0.0005293023    2.340    0.573
         3  -8.7139     55.9005      9.8301   2.5891567907e+01   6.9264300796e+01    0.2198931    0.1838094 -36.62 0.0007394429    1.372    0.271
         4  -7.7043     47.7618      9.9795   2.9610628847e+01   7.0811330536e+01    0.1633541    0.1011626 -24.54 0.0004948133    1.558    0.358
         5  -8.4266     91.0196      9.0280   1.4162820833e+01   6.1587541090e+01    0.2105626    0.1563017 -61.47 0.0006066561    1.668    0.400
         6  -7.7443     28.2974      9.6503   4.0166693261e+01   7.4097614246e+01    0.1119421    0.1004211 -58.34 0.0003345673    1.684    0.406
         7  -7.9302    101.4844      7.9837   1.1309477454e+01   5.9150912755e+01    0.1874075     0.096263 -47.28 0.0004004159    2.310    0.567
         8  -8.1775     70.4369      6.1497   1.8381667776e+01   6.6591405836e+01    0.1774187    0.1145147 -35.51 0.0006481014    1.691    0.409
         9  -8.4580     33.2326      4.7140   3.3685141155e+01   7.4011492734e+01     0.279157    0.1506888 -43.53  0.001378911    2.367    0.578
        10  -7.7532    115.6145      2.3020   6.2540126591e+00   5.6112520211e+01    0.1439384   0.09301533 -64.62 0.0007018423    1.788    0.441
        11  -7.8557     44.3612      2.6758   2.6365900449e+01   7.2288880927e+01    0.1180753    0.1002797 -63.36 0.0007042139    1.783    0.439
        12  -7.8935     15.9882      2.5231   4.3653123400e+01   7.6824031667e+01    0.1408754    0.1049023  54.17  0.000577073    2.356    0.576
        13  -8.1809    248.3324      1.3500   3.5490166842e+02   2.5318281173e+01    0.1016399   0.08764976  26.98 0.0006813404    1.774    0.436
        14  -8.1639     62.7374      1.5239   1.8192224290e+01   6.8690005486e+01    0.1651331     0.123502  71.33 0.0007856681    1.585    0.369
        15  -8.5661     79.3057      3.7583   1.4454905556e+01   6.4803837612e+01    0.2343219     0.142946 -31.50  0.001205706    1.735    0.423
        16  -9.1255    169.3415    242.9441   5.8241732881e+01   1.7669232899e+00    0.2455916    0.2087296 -41.61 0.0009545704    1.483    0.326
        17  -9.4109    242.9842    246.0319   4.5800956361e+01  -7.2566456097e+00    0.3429476    0.1484724 -27.18  0.001893461    2.082    0.520
        18  -9.5806    246.8612    228.1775   4.2414746465e+01  -5.6347060299e+00    0.5187507    0.1647579 -30.57  0.002352648    2.841    0.648
        19 -10.4033    248.7972    241.3609   4.4176884113e+01  -7.3425052208e+00    0.5407737    0.1862851 -35.20  0.002655806    2.792    0.642
        20  -8.7575    247.6314    234.2192   4.3252755388e+01  -6.4188167756e+00     0.223332    0.1253259  -5.96  0.001101363    1.589    0.371
        21  -9.1905    232.6882    246.6615   4.7553783455e+01  -6.2411069495e+00    0.3928804    0.1983736 -37.74  0.001850455    2.251    0.556
        22  -8.1508    235.3375    242.6783   4.6525592263e+01  -6.0725109841e+00    0.1681309   0.09073357  27.55 0.0009400115    1.670    0.401
        23  -9.6693    211.4023    247.3227   5.1226318070e+01  -3.9513310103e+00    0.3652626    0.2274062 -52.37  0.001809784    3.202    0.688
        24  -8.8183    139.4045    244.1992   6.4207322082e+01   5.4770893528e+00    0.1440505    0.1155944 -74.05 0.0009503426    1.780    0.438
        25  -8.5506    201.8428    242.6471   5.2222896071e+01  -2.2446994500e+00    0.1832926    0.1443375 -45.76 0.0007747928    1.871    0.465
        26  -8.7050     77.7501    242.9256   7.6496802680e+01   1.3584024099e+01     0.194483    0.1079162  64.40  0.001067039    2.013    0.503
        27  -9.1207    183.3693    240.1080   5.5214996866e+01   3.7498624659e-01    0.3576244    0.3028227  69.55  0.002368042    2.152    0.535
        28  -8.6666    153.3359    241.8461   6.1179236343e+01   4.0093166408e+00    0.1959154    0.1134417 -58.99  0.001067556    2.561    0.609
        29  -8.4232     88.2177    241.8180   7.4275811524e+01   1.2493917300e+01    0.1787455    0.1422207 -82.14 0.0006350382    1.447    0.309
        30  -8.3219    214.2759    241.3285   4.9852834608e+01  -3.5494128128e+00    0.1143228   0.06884129  -2.78  0.000206174    1.592    0.372
        31  -9.3095    159.7941    239.9126   5.9669589382e+01   3.4515620726e+00    0.2156808     0.205893 -86.25 0.0009935739    1.490    0.329
        32  -9.3223    241.6989    237.9368   4.4774129361e+01  -6.2127220163e+00    0.4145313    0.1707696 -15.30   0.00192285    3.337    0.700
        33  -8.7621    193.9404    239.3216   5.3159521500e+01  -8.4376218376e-01    0.1626009     0.121712  16.11 0.0004906002    1.086    0.079
        34  -9.4861    135.5682    238.7597   6.4315714757e+01   6.8483821773e+00    0.2136056    0.1626742  62.07 0.0009696243    1.689    0.408
        35  -9.4674    230.9646    236.2138   4.6255317534e+01  -4.8345457426e+00    0.3277175    0.2085794 -31.91  0.001454887    1.621    0.383
        36  -8.2356    209.1039    238.1586   5.0279252528e+01  -2.5402437690e+00    0.1396906    0.1226136  -0.79 0.0005042309    1.336    0.251
        37  -8.8860    128.9736    238.2814   6.5590458270e+01   7.8072482210e+00    0.1733533    0.1347021  34.29 0.0007551883    1.087    0.080
        38  -8.9440    217.2995    235.6684   4.8477926132e+01  -3.1969642644e+00    0.2065413    0.1838501   8.72 0.0009315999    1.441    0.306
        39  -9.6030    213.6522    231.6553   4.8491664874e+01  -2.2487087337e+00    0.2586866    0.2462313  87.51  0.001295752    2.055    0.513
        40  -8.2403     14.0153    237.7728   8.8830453030e+01   2.1443338781e+01    0.1442083   0.07543329  35.18 0.0008820299    1.672    0.402
        41  -9.0411    203.2867    234.8807   5.0816626991e+01  -1.4072339625e+00    0.2337169    0.1892898 -58.84  0.001142244    2.259    0.557
        42  -9.8113    175.6223    233.2223   5.5691541759e+01   2.3587702415e+00    0.4101428    0.2424356 -55.81  0.002204704    2.644    0.622
        43  -8.2517    170.3249    235.2385   5.6994585829e+01   2.7600925187e+00    0.1437988    0.1097497 -48.34 0.0006203259    1.668    0.401
        44  -9.6963    108.7757    234.2902   6.9289967638e+01   1.1183433955e+01    0.3158343     0.187971  60.88  0.001391416    2.103    0.524
        45  -8.6571     78.4325    234.6118   7.5655513963e+01   1.5024180979e+01    0.1998382    0.1158153 -78.52  0.001117187    2.053    0.513
        46  -8.1786    122.8021    233.9553   6.6342674612e+01   9.3647790792e+00    0.1884396    0.1326843  70.03  0.001076874    1.974    0.493
        47  -8.3687     99.7928    234.2147   7.1155754961e+01   1.2378950641e+01    0.2116827    0.1045212  60.04 0.0009536904    2.795    0.642
        48  -8.8524    132.5913    232.4320   6.4141596343e+01   8.2961333905e+00    0.2017985     0.143484  77.71  0.001114141    2.275    0.560
        49  -8.6454     92.4426    231.7035   7.2445462758e+01   1.3794223153e+01    0.2707008    0.1657568  75.07     0.001114    2.178    0.541
        50  -9.4888     68.0656    231.8047   7.7586966457e+01   1.6820358588e+01    0.4264008    0.1647152  59.00  0.001766515    3.233    0.691
        51  -9.6984    236.1727    229.8960   4.4407910314e+01  -4.6581184341e+00    0.4016936    0.1488505 -33.46  0.001475796    2.479    0.597
        52  -8.4613    194.3978    232.3132   5.2039398672e+01   5.3602646719e-02    0.1389311    0.1074351 -37.58 0.0005139833    1.539    0.350
        53  -9.3619    186.4237    230.4692   5.3241511662e+01   1.3414760997e+00    0.2871122    0.2321487 -70.86  0.001480807    2.341    0.573
        54  -8.5846    157.9239    231.9237   5.8955690572e+01   4.9255068011e+00    0.1787156    0.1412147  57.07 0.0007916959    1.706    0.414
        55  -8.2143      1.5856    230.7658   9.0975007993e+01   2.3912004165e+01    0.1523913   0.07811867  74.50 0.0006390277    1.601    0.375
        56  -9.1952    151.3820    229.1531   5.9883079538e+01   6.2615407833e+00    0.2304516    0.1817305  68.03  0.001182065    1.882    0.469
        57  -9.7226    148.4972    224.4219   5.9815185747e+01   7.4430279687e+00     0.341887    0.2537972  77.63  0.001744188    2.330    0.571
        58  -9.2618    140.2181    230.1442   6.2285346565e+01   7.6354186156e+00    0.2458216    0.1432423  42.33 0.0009932115    1.616    0.381
        59  -9.0289    229.8344    228.5507   4.5240481347e+01  -3.7692425292e+00    0.1950232    0.1374746 -40.49  0.001059657    1.896    0.473
        60  -9.0409    162.2932    227.6756   5.7491466676e+01   4.9982935845e+00    0.2782623    0.1896058  54.35  0.001557934    2.063    0.515
        61  -9.1751    127.8175    227.0617   6.4458343587e+01   9.8768716770e+00     0.313759    0.1887183  57.04  0.001389215    2.156    0.536
        62  -8.0907    223.2406    226.9586   4.6098182975e+01  -2.7931236815e+00    0.1377903   0.08342317 -29.62 0.0004597365    1.547    0.353
        63  -7.9128    120.3064    227.6466   6.6109824553e+01   1.0809547696e+01    0.1258401   0.08795583  60.83 0.0007042011    1.715    0.417
        64  -8.9669    206.0079    225.4384   4.8870469193e+01  -4.7209180061e-01    0.2354096    0.1501042 -41.21 0.0009297809    1.830    0.453
        65  -8.3451    199.9692    225.8145   5.0022022700e+01   2.4630001821e-01    0.1806662    0.1467653 -41.30 0.0007056462    1.604    0.377
        66  -9.1477     94.2040    224.1396   7.1294069848e+01   1.4992871958e+01    0.3820488    0.1756095  59.06  0.001600188    3.031    0.670
        67  -8.9834    216.3958    223.1450   4.6665763440e+01  -1.4616711033e+00    0.2431615    0.1797834 -35.02  0.001027754    1.543    0.352
        68  -8.7621    180.4359    224.0133   5.3401805028e+01   3.0893767448e+00    0.2110434     0.152322  41.21  0.000719499    1.557    0.358
        69  -8.7188    173.0955    222.7617   5.4635926581e+01   4.2844265173e+00    0.2355227    0.1752275 -60.29 0.0007364746    2.023    0.506
        70  -8.0881    113.9563    223.9883   6.7018859046e+01   1.2347855919e+01    0.1954252    0.1351703  60.08 0.0004630616    1.657    0.396
        71  -8.7496    104.8210    223.4506   6.8922023134e+01   1.3699214289e+01    0.3027842    0.1879869  75.06  0.001513555    2.381    0.580
        72  -9.3381    225.7255    221.6750   4.4821950449e+01  -2.4071626026e+00    0.2565313    0.2149921 -11.74  0.001305409    1.279    0.218
        73  -9.7482    239.1039    220.9085   4.2475251582e+01  -3.8855288432e+00     0.296352     0.196621 -23.60  0.001270365    1.304    0.233
        74  -9.4758    192.3013    221.0647   5.0690682725e+01   1.9333271559e+00    0.2675627    0.2236763 -50.17  0.000594217    1.692    0.409
        75  -9.3232    160.3421    220.9273   5.6899960898e+01   6.3568219737e+00    0.4962393    0.2019489  48.45  0.001886553    3.775    0.735
        76  -9.2335    120.4417    219.1973   6.5028577424e+01   1.2331129195e+01    0.4422425    0.2289001  57.85  0.001910885    2.863    0.651
        77  -8.1012    202.6106    219.8038   4.8583813130e+01   7.5395730361e-01     0.149225    0.1075057 -39.96 0.0004725297    1.615    0.381
        78  -8.2029     82.6602    220.2758   7.3413935323e+01   1.7261453334e+01    0.2077564    0.1216542  61.37  0.001079758    1.841    0.457
        79  -7.6967     73.3105    220.6472   7.5500285215e+01   1.8375519409e+01    0.1344231   0.07925558  61.34 0.0007044348    1.723    0.420
        80  -8.3877    210.2705    219.0575   4.7081727385e+01  -1.3207196418e-01    0.1624328    0.1297152 -15.39 0.0005198074    1.164    0.141
        81  -9.4267    248.6945    217.7182   4.0413832251e+01  -4.5796857781e+00    0.2547664    0.1925424  56.70  0.001466737    3.526    0.716
        82  -8.6114    247.3175    213.0214   3.9840896109e+01  -3.8411392598e+00    0.3007579     0.118132 -20.90  0.001359441    2.981    0.665
        83  -9.2132    133.1870    216.0546   6.1862692877e+01   1.1089751310e+01     0.504472    0.2942854  69.79  0.001958441    4.059    0.754
        84  -8.8182     51.3505    217.0602   8.0012260555e+01   2.1741150343e+01    0.2640943    0.1553762  72.25  0.001023576    1.701    0.412
        85  -7.9919    179.4118    217.2066   5.2542197779e+01   4.2782594418e+00    0.1538067     0.117728 -49.63 0.0005506778    1.667    0.400
        86  -8.6846    142.9295    216.4277   5.9841465254e+01   9.6145332662e+00    0.2188239    0.1827514 -82.71 0.0009690697    1.659    0.397
        87  -8.2508     61.7930    216.9207   7.7704083838e+01   2.0549079622e+01    0.2110531    0.1156203  68.46 0.0009804871    1.986    0.497
        88  -8.8636    169.2419    215.3842   5.4265230911e+01   6.0038587704e+00    0.2788427    0.1996292 -47.66  0.001075535    1.636    0.389
        89  -9.0377    243.4667    215.4948   4.0870596857e+01  -3.7092084235e+00    0.1513883     0.092903 -34.44 0.0006402148    1.647    0.393
        90  -8.7945    232.2670    214.6214   4.2551434932e+01  -2.2736336150e+00    0.1960955    0.1831852 -23.94 0.0008639793    1.653    0.395
        91  -7.9421    140.4017    222.2593   6.1191124779e+01   8.9529197319e+00    0.1543518    0.1232317 -68.13 0.0008106007    1.645    0.392
        92  -9.4376    214.2480    212.1590   4.5228189059e+01   3.2353511943e-01    0.3457496    0.2747448  56.00  0.001675294    2.273    0.560
        93  -8.1988    185.4708    213.9647   5.0848957830e+01   3.9403756695e+00    0.1726795    0.1166051 -38.95 0.0007598615    1.563    0.360
        94  -9.0867     93.1013    213.8477   7.0411779002e+01   1.7171149435e+01    0.3622476    0.1535372  51.70  0.001518001    2.599    0.615
        95  -9.0268     72.3540    211.1011   7.4807589508e+01   2.0466084296e+01    0.4131266     0.183067  61.43  0.001692947    2.923    0.658
        96  -7.8931    197.4959    213.5371   4.8500964368e+01   2.3505161498e+00    0.1259023   0.09909273   0.95  0.000135101    1.062    0.058
        97  -8.1485    224.8676    211.7383   4.3310580733e+01  -9.7545945434e-01    0.2119766     0.120574 -39.69 0.0009130025    1.897    0.473
        98  -9.4857    175.4364    209.8925   5.2151467689e+01   6.0156651437e+00    0.3776886    0.2748813  68.14  0.001610168    2.705    0.630
        99  -8.5871    161.6334    212.1023   5.5295619238e+01   7.6488171525e+00    0.2056918    0.1630796  41.10 0.0007587482    1.335    0.251
       100  -9.1062    204.2019    210.3781   4.6734550682e+01   1.9123562891e+00    0.2771305    0.1776209 -42.96 0.0008747734    1.794    0.443
       101  -8.4182    192.1431    210.2233   4.8956409892e+01   3.5906160136e+00    0.1916309    0.1624784 -65.29 0.0006742197    1.920    0.479
       102  -8.7275    147.7009    209.9604   5.7875601142e+01   1.0071867621e+01    0.2527023    0.1998027  83.53 0.0009502494    1.953    0.488
       103  -8.8965    116.2206    210.1633   6.4775960942e+01   1.4661331199e+01    0.3076883      0.20862  71.80  0.001115335    2.057    0.514
       104  -9.4463    236.6433    208.1957   4.0731835217e+01  -1.9559442474e+00    0.2824987    0.2209778 -49.32  0.001378402    2.115    0.527
       105  -8.1760    229.6360    209.3060   4.2086513583e+01  -1.2412385980e+00   0.09783846   0.09660625  12.39 0.0007037882    1.741    0.426
       106  -9.4215    100.3430    206.7691   6.7929228184e+01   1.7616021972e+01    0.5436524    0.2576241  61.19  0.002037512    3.482    0.713
       107  -8.2960     85.5732    209.2677   7.1604457838e+01   1.9128584321e+01    0.2089017    0.1336037  65.57  0.001088505    1.733    0.423
       108  -7.6332     46.3008    209.6258   8.0569606622e+01   2.3891517496e+01    0.1380842   0.07468428  62.85 0.0001325698    1.754    0.430
       109  -9.2476    246.5518    206.9375   3.8919104003e+01  -2.9781319969e+00    0.2975536    0.1595611 -23.41  0.001058355    1.558    0.358
       110  -9.4160    250.1531    201.6718   3.7434730374e+01  -2.7213778281e+00    0.3457469    0.1376583 -31.49  0.001680665    2.101    0.524
       111  -8.3024    139.1978    207.7284   5.9365554048e+01   1.1745035678e+01    0.2541495    0.1790302  64.29  0.001222145    2.011    0.503
       112  -7.9914    126.3993    208.2141   6.2244154497e+01   1.3553299451e+01    0.1671093    0.1274075 -73.42 0.0005600975    1.656    0.396
       113  -8.5386    109.1328    205.7289   6.5786512828e+01   1.6573022279e+01    0.2165352    0.1774981 -84.10  0.001212475    1.406    0.289
       114  -8.3580     56.4379    205.3042   7.7910582077e+01   2.3668068114e+01    0.3072605    0.1283039  57.40  0.001132595    2.550    0.608
       115  -8.2623     11.7004    206.6642   8.8023883143e+01   2.8003904557e+01    0.1084177   0.08475032 -54.45 0.0003873337    1.657    0.396
       116  -9.1111    183.7540    203.8981   4.9507901026e+01   5.7923153393e+00    0.2803926    0.2408961  69.22  0.001087991    1.860    0.462
       117  -8.8021    131.2891    203.8315   6.0522372676e+01   1.3672725275e+01     0.301239    0.2125657  75.31  0.001400584    2.187    0.543
       118  -9.3402    194.7999    203.3057   4.7275428715e+01   4.2961851799e+00    0.3551764    0.2685562 -37.24  0.001462362    1.403    0.287
       119  -9.4584    192.3347    197.0101   4.6640612726e+01   5.6621380051e+00    0.5229077    0.2273861 -38.51    0.0020068    2.232    0.552
       120  -9.6840    163.8297    202.9562   5.3373042382e+01   8.9085352722e+00    0.4323963    0.2440412  49.90  0.001075591    2.297    0.565
       121  -8.2006    227.4859    203.0215   4.1355461521e+01  -1.0281876325e-01    0.1762686   0.08482908 -16.77 0.0008101136    2.523    0.604
       122  -8.0359    218.6602    203.7004   4.2994639632e+01   9.5343572917e-01    0.1280331   0.07951773  -1.77 0.0005366586    1.666    0.400
       123  -9.0181    243.3699    200.9608   3.8377798353e+01  -1.8130167796e+00    0.2480628    0.1599572 -29.09 0.0007975887    1.356    0.262
       124  -8.5159    211.0885    201.8976   4.4020166735e+01   2.2372586240e+00     0.209884    0.1856183 -88.62 0.0009199257    2.190    0.543
       125  -8.7969    140.3654    200.9483   5.8072461009e+01   1.2850427865e+01    0.3071392    0.2241632  87.12  0.001147851    2.260    0.558
       126  -7.8507     48.6718    202.3635   7.9456006019e+01   2.5219453312e+01    0.1432008   0.07711452  62.15 0.0007039054    1.801    0.445
       127  -8.2141    221.8877    201.0882   4.1972194360e+01   9.0256748974e-01    0.1734527    0.1345093 -51.17 0.0005856538    1.979    0.495
       128  -8.3018     79.7373    200.7663   7.2010992512e+01   2.1729254509e+01    0.2650018    0.1471097  80.00  0.001158954    2.534    0.605
       129  -9.2977    237.1459    197.5861   3.8780857923e+01  -5.8102045268e-01    0.4176981    0.1450127 -36.29  0.001920634    2.543    0.607
       130  -9.3245    149.5345    198.3775   5.5655084743e+01   1.1927197192e+01    0.3860077    0.2808885  89.79  0.001446705    2.468    0.595
       131  -8.7358    123.9032    198.9121   6.1454266811e+01   1.5765731099e+01     0.278619     0.195304 -78.57  0.001109425    1.961    0.490
       132  -9.1914    112.6848    198.0018   6.3908082917e+01   1.7644196134e+01    0.4263493    0.2869198  77.56  0.001682111    2.142    0.533
       133  -8.5326    177.0805    198.6911   4.9939212842e+01   7.6521862544e+00    0.2063317    0.1703219 -42.14 0.0004332223    1.354    0.261
       134  -8.9992     89.0135    198.4675   6.9543087493e+01   2.0967821782e+01    0.3399995    0.2051111  67.78  0.001607188    2.059    0.514
       135  -8.2282    202.3216    197.8426   4.4902069426e+01   4.0824903035e+00    0.1785706    0.1504617 -43.44 0.0006098882    1.493    0.330
       136  -8.6121     60.8298    196.7189   7.6081656415e+01   2.5055075502e+01    0.2580776    0.1414336  73.57   0.00103081    2.120    0.528
       137  -8.7012     12.5529    196.7289   8.7365077686e+01   3.0129393910e+01    0.3322921    0.1264037  81.60  0.001463979    2.607    0.616
       138  -8.8097    215.9648    195.3677   4.1981979683e+01   2.5455721805e+00    0.2565179     0.185375 -51.17  0.001072254    2.007    0.502
       139  -8.0817    133.0433    195.9441   5.8920857932e+01   1.4958446798e+01    0.2064196    0.1593218  67.29 0.0006683603    1.662    0.398
       140  -9.5130    245.7077    193.2163   3.6618713708e+01  -1.0576990378e+00    0.2797634    0.2142679 -43.66   0.00128009    1.799    0.444
       141  -8.9651    224.5275    193.4922   4.0149366290e+01   1.6538399211e+00    0.3360264    0.1060214 -39.25  0.001263984    2.961    0.662
       142  -7.6541    209.2839    195.6004   4.3220949626e+01   3.4429660898e+00    0.1133433    0.1002515 -60.22 0.0006993696    1.776    0.437
       143  -9.0296    185.0103    194.5643   4.7630875808e+01   7.1589500976e+00    0.2163616    0.1780534 -48.85 0.0006395199    1.489    0.329
       144  -8.2532    230.9806    193.7940   3.9112910349e+01   7.4892611082e-01    0.2046222    0.1359754 -38.40 0.0007609418    1.584    0.369
       145  -8.8826    160.5698    193.7209   5.2497754374e+01   1.1076672632e+01    0.2389287    0.2221673  89.50 0.0007761161    1.416    0.294
       146  -8.6504     76.9332    193.7702   7.1881172999e+01   2.3661115316e+01    0.2167179    0.1826157  88.94 0.0005689166    1.172    0.147
       147  -8.9205     44.1034    193.3312   7.9783068909e+01   2.7783407734e+01    0.4463396    0.1686314  58.53  0.001757525    2.926    0.658
       148  -8.3028    198.8980    191.5575   4.4404851709e+01   5.5824189631e+00    0.2280566    0.1623222 -51.66 0.0006773791    1.867    0.464
       149  -8.4442    172.5698    191.7424   4.9635704593e+01   9.5589619020e+00    0.2312576    0.2031742 -83.31 0.0009428973    1.684    0.406
       150  -9.0710    139.4514    190.3378   5.6560325771e+01   1.5073166461e+01      0.35557    0.2591043  79.53  0.001344258    2.187    0.543
       151  -7.8999    205.0219    191.3533   4.3225124558e+01   4.7176687166e+00     0.172447    0.1480009   0.23 0.0006138158    1.087    0.080
       152  -8.3098    179.3711    191.2957   4.8168639833e+01   8.5818054241e+00    0.1701991    0.1217599 -47.50 0.0003232382    1.576    0.365
       153 -10.2654     92.9328    189.0916   6.7386922525e+01   2.2491256741e+01       1.0139    0.2145184  43.20  0.002984962    4.376    0.771
       154  -8.9573    216.6070    187.9083   4.0494240213e+01   3.5910487346e+00     0.264126    0.1949124 -45.47  0.001030179    1.666    0.400
       155  -8.7771    148.5732    188.8943   5.4270526180e+01   1.3900316578e+01    0.2461241    0.1727027 -65.03  0.001011729    1.890    0.471
       156  -8.7741    129.1309    188.4447   5.8615726850e+01   1.7102270940e+01    0.2648081    0.2075672  84.96 0.0008483079    1.712    0.416
       157  -8.3263    237.3070    188.1606   3.7034279375e+01   7.2121670248e-01    0.1738518    0.1247088 -24.49 0.0009009918    1.169    0.145
       158  -8.8990    191.3470    186.9931   4.5005912846e+01   7.4777175802e+00     0.292935    0.2209318 -64.84  0.001331065    2.177    0.541
       159  -9.3154    155.8161    187.1576   5.2372048705e+01   1.3071605025e+01    0.3483275    0.2290642 -60.26  0.001132743    1.977    0.494
       160  -9.3670    120.4901    185.8746   6.0234014340e+01   1.9015875158e+01    0.4345545    0.2510135 -71.92  0.001842377    2.493    0.599
       161  -8.6355     55.0891    187.0427   7.6521250706e+01   2.7990392057e+01    0.3300667    0.1628343  67.97  0.001357915    2.417    0.586
       162  -8.3519     34.3901    187.9332   8.1693466050e+01   3.0083270564e+01    0.2858326    0.1402988  70.06  0.001327783    2.090    0.521
       163  -9.4685    249.5593    185.6360   3.4628038551e+01  -5.0305069233e-01    0.2790812    0.1775254 -38.43  0.001014207    1.622    0.383
       164  -8.3641    230.4898    187.0635   3.7952405375e+01   1.7900346918e+00    0.1850903    0.1038434 -33.58 0.0007525683    1.559    0.358
       165  -8.5637    164.8128    186.5134   5.0318145123e+01   1.1744149412e+01    0.2442136    0.1814883 -64.23 0.0008491673    1.867    0.464
       166  -8.9139    109.5601    185.9635   6.2877404920e+01   2.0703502332e+01    0.3523352    0.2345294  70.88  0.001275733    2.036    0.509
       167  -8.8739    210.1071    183.9426   4.0908677689e+01   5.1545393361e+00    0.2598701    0.1583019 -30.71 0.0005750943    1.471    0.320
       168  -8.6264    202.8754    184.4493   4.2333212623e+01   6.1498819868e+00    0.2283177    0.1727515 -46.64  0.000709017    1.577    0.366
       169  -8.7438    183.0248    184.5647   4.6194394769e+01   9.1934653842e+00     0.240201    0.1825641 -52.66 0.0007531359    1.621    0.383
       170  -8.7660     66.5950    184.5648   7.3374143543e+01   2.7149820740e+01    0.3053301     0.160647  64.48 0.0007570543    2.247    0.555
       171  -8.4850    224.1547    183.5650   3.8363936228e+01   3.1877627417e+00    0.2074792    0.1474471 -34.87 0.0006527314    1.359    0.264
       172  -8.3312    197.1488    183.2796   4.3189792497e+01   7.2146720765e+00     0.225996    0.1688883 -60.40 0.0006306599    2.058    0.514
       173  -8.9019    174.2615    183.5807   4.7795431758e+01   1.0766774420e+01     0.248731    0.2186619 -82.59 0.0007970913    1.656    0.396
       174  -8.7792     44.3996    182.5287   7.8760447290e+01   3.0299670852e+01    0.3073507    0.1616593  66.05  0.001073611    1.977    0.494
       175  -8.1491      2.3854    183.6148   8.9078601377e+01   3.3982652384e+01    0.2412479   0.04655584  39.77 0.0009538007    3.308    0.698
       176  -8.3493    235.3498    181.1784   3.6041084683e+01   1.9936108881e+00    0.1744238   0.09799351 -39.56 0.0007626973    1.736    0.424
       177  -9.1123    147.5892    180.4595   5.2996521459e+01   1.5741709005e+01    0.3331688     0.260968  71.06  0.001152547    1.783    0.439
       178  -9.2627     25.8841    179.2075   8.3132050935e+01   3.3012664733e+01    0.6094016    0.2106872  72.36  0.002044855    4.076    0.755
       179  -8.5842    137.5501    179.1861   5.5072953068e+01   1.7670943581e+01    0.2855583    0.2087902  70.64  0.001050345    1.959    0.489
       180  -9.4015    191.4410    178.1614   4.3305777904e+01   8.9843702892e+00    0.2674472    0.2482386 -42.85  0.000569644    1.316    0.240
       181  -9.3341    249.0412    177.1582   3.3114810457e+01   7.4615890138e-01     0.286405    0.1976035 -35.11   0.00122504    1.393    0.282
       182  -8.6851    250.4412    172.6757   3.2044307001e+01   1.1983710756e+00    0.2296259    0.1213274 -34.26 0.0006135922    1.563    0.360
       183  -8.7565    247.4917    173.5333   3.2657673643e+01   1.4671785749e+00    0.1963835    0.1435961   8.45 0.0005712397    1.343    0.255
       184  -8.7869    205.0285    177.3976   4.0576382010e+01   6.9873018335e+00      0.24036    0.1740942 -47.67 0.0007733234    1.633    0.388
       185  -8.2091    169.3870    178.2830   4.7814803373e+01   1.2547950226e+01    0.1868367    0.1287999 -52.50 0.0004930399    1.666    0.400
       186  -8.6052    129.2608    177.2503   5.6687631083e+01   1.9457763911e+01    0.2713002    0.1966109  74.36 0.0007521802    1.971    0.493
       187  -8.9560     35.8461    176.4941   8.0392320602e+01   3.2684311425e+01    0.5024412    0.1847247  73.39  0.001590819    4.421    0.774
       188  -8.5186    231.1140    176.7190   3.5880289984e+01   3.2447708652e+00    0.2169513    0.1449825 -35.76  0.000629093    1.395    0.283
       189  -8.6679    217.4493    176.9968   3.8261625674e+01   5.1767651408e+00    0.1989363    0.1843914  42.32 0.0006886071    1.492    0.330
       190  -9.1929    183.1777    176.1805   4.4558324390e+01   1.0668946008e+01    0.2685947    0.2111972 -47.51 0.0007038697    1.419    0.295
       191  -8.1496     97.4590    177.4682   6.4586266181e+01   2.4484941222e+01    0.1372362    0.1354007  56.87 0.0001214689    1.064    0.060
       192  -8.3598     88.8221    176.5685   6.6660707181e+01   2.5986942066e+01    0.2641836    0.1786108  88.39 0.0008297123    1.791    0.442
       193  -9.0244     58.3242    174.9828   7.4400192940e+01   3.0505923757e+01    0.4298799    0.2066312  72.57  0.001629986    2.935    0.659
       194  -8.9600     55.8111    170.4250   7.4538217858e+01   3.1943224305e+01    0.9405004    0.3689807  69.69  0.002421448    6.396    0.844
       195  -7.6279    211.7026    176.3097   3.9147386031e+01   6.1476163265e+00    0.1157635    0.1039425 -58.09 0.0007008325    1.595    0.373
       196  -9.2641    158.9342    174.8483   4.9414289082e+01   1.4964508093e+01    0.3872513    0.2864354  86.90  0.001043622    2.436    0.590
       197  -9.1574    104.0402    174.4618   6.2442442367e+01   2.4167900378e+01    0.4568892    0.2476911  60.22  0.001791543    2.577    0.612
       198  -8.5279     12.8490    176.2644   8.6178955383e+01   3.4890352727e+01    0.2368808   0.08170926  59.28 0.0009527173    2.802    0.643
       199  -8.4739    224.3865    174.2484   3.6526056370e+01   4.5893899599e+00      0.21758    0.1389417 -38.09 0.0005951962    1.482    0.325
       200 -10.3563     76.0546    171.0427   6.9213521993e+01   2.9148566029e+01      1.00149    0.4221067 -81.86   0.00303544    4.426    0.774
       201  -9.5346    175.7284    172.1350   4.5286799228e+01   1.2651485500e+01    0.3562171    0.2673675 -50.65  0.000858505    1.494    0.330
       202  -8.2944    143.1367    172.3156   5.2509900363e+01   1.8175062008e+01    0.2571948    0.1898563 -82.52 0.0007744944    2.055    0.513
       203  -8.3119    134.6651    171.5629   5.4366637600e+01   1.9782412023e+01    0.2278678    0.1770795 -78.06 0.0007333347    1.666    0.400
       204  -9.6560    121.1778    169.9789   5.7364610853e+01   2.2413162764e+01     0.513328    0.3027837 -72.99  0.001026531    2.498    0.600
       205  -8.8074     45.1096    171.0329   7.7456855499e+01   3.3039699738e+01    0.3327656    0.1853059  74.50  0.001437157    1.935    0.483
       206  -8.4328    237.3197    169.4116   3.3443580943e+01   3.4710681813e+00    0.2008139    0.1302087 -43.57 0.0006873527    1.696    0.410
       207  -8.9640    230.7066    169.7315   3.4577957764e+01   4.3700240254e+00    0.2259842    0.1542639 -28.31 0.0007992347    1.218    0.179
       208  -8.5689    205.8457    169.9306   3.8944495605e+01   8.1131450946e+00    0.2370495    0.1642635 -39.81 0.0007277195    1.408    0.290
       209  -8.3877    198.2032    169.8974   4.0365941396e+01   9.3417875163e+00     0.195036    0.1734207 -36.90  0.000465992    1.247    0.198
       210  -8.2805    244.3410    169.0193   3.2264905359e+01   2.5497171809e+00    0.1800252    0.1277532 -26.68 0.0005271761    1.139    0.122
       211  -9.3147    166.9353    168.1857   4.6360209885e+01   1.4911953894e+01    0.3115307    0.2655716 -86.36 0.0009904666    1.666    0.400
       212  -8.7323    149.5636    169.0624   5.0400157184e+01   1.7749049915e+01     0.253727    0.1994848  56.10 0.0007172929    1.504    0.335
       213  -8.6169    218.8777    167.9954   3.6227898336e+01   6.4063730769e+00    0.2267969    0.1594699 -37.16 0.0006610472    1.343    0.255
       214  -8.0310    211.3889    168.1346   3.7575730351e+01   7.5420366881e+00    0.1881053    0.1121966 -45.70 0.0005580405    1.814    0.449
       215  -7.9459     88.7566    168.5746   6.5477066124e+01   2.7917097871e+01     0.206067    0.1239036  46.89 0.0009352489    1.648    0.393
       216  -8.7393     13.4400    168.2207   8.5527965401e+01   3.6809763101e+01    0.1849507    0.1025052  83.92 0.0009448357    1.582    0.368
       217  -8.9083    191.8702    166.6223   4.0919405582e+01   1.0961864708e+01    0.2544025    0.1849718 -42.10 0.0006249527    1.375    0.273
       218  -8.8355    184.9816    166.2844   4.2214004761e+01   1.2181184222e+01    0.2928094    0.1789371 -47.55 0.0007696016    1.735    0.424
       219  -8.4829    111.4011    167.0267   5.9305685569e+01   2.4716770521e+01    0.2623904    0.1938156  63.96 0.0009356805    1.578    0.366
       220  -9.0988     21.0011    166.4734   8.3434322669e+01   3.6599500494e+01    0.3679952    0.1266936  47.88  0.001514252    2.626    0.619
       221  -9.3048    137.3991    164.6564   5.2394461157e+01   2.0815391389e+01    0.5787571     0.265108  53.73  0.001962513    3.308    0.698
       222  -9.9124     94.7583    162.4390   6.2881358124e+01   2.8495247336e+01    0.8346203    0.4373609  74.38  0.002479748    4.613    0.783
       223  -8.4505    234.0485    164.6922   3.3028306820e+01   4.6606583880e+00    0.2181396    0.1483288 -37.05 0.0006195282    1.366    0.268
       224  -8.8436    212.9055    163.5294   3.6365903500e+01   8.0718651051e+00    0.2459388    0.1720696 -39.20 0.0005949668    1.369    0.269
       225  -8.7927    159.4348    164.1249   4.7182245668e+01   1.7036982328e+01    0.2652297    0.2107213  48.87 0.0008474272    1.407    0.290
       226  -9.2537     33.8516    163.2057   7.9707514031e+01   3.6210974246e+01     0.581867    0.1485363  47.93   0.00192992    3.811    0.738
       227  -9.1239    246.2004    162.5623   3.0705378260e+01   3.2446851510e+00    0.2301331    0.1391148 -30.48 0.0005616593    1.323    0.244
       228  -9.3678      3.7060    162.3804   8.7692737685e+01   3.9008181389e+01    0.4264058    0.1564014  50.89  0.001716363    2.429    0.588
       229  -9.2053    177.4080    160.2703   4.2511581920e+01   1.4625670843e+01    0.2910205    0.2401074 -57.72 0.0006404404    1.455    0.313
       230  -8.6326    151.7074    160.7220   4.8235089166e+01   1.9120258482e+01    0.2736277    0.2099217  89.81 0.0008375146    2.009    0.502
       231 -10.0711    249.6466    157.1444   2.9107163395e+01   3.5635562834e+00    0.3582414    0.2783898 -51.09  0.001381178    1.733    0.423
       232  -8.9014    242.2545    160.0111   3.0795847844e+01   4.1860676375e+00    0.1880942   0.09943007 -24.78 0.0003738536    1.693    0.409
       233  -8.5085    204.7896    162.5083   3.7621341087e+01   9.5537629253e+00     0.244802    0.1667985 -35.18 0.0005496394    1.319    0.242
       234  -8.3539     60.4695    160.1286   7.1975400141e+01   3.3970428246e+01     0.281908    0.1509922  63.47  0.001164888    2.226    0.551
       235  -8.5308    237.0433    158.6928   3.1338168069e+01   5.1467812474e+00     0.175036    0.1457053  -9.96 0.0004330104    1.094    0.086
       236  -8.7157    227.2711    158.6054   3.2892926539e+01   6.6330797950e+00    0.2628872    0.1756556 -43.92  0.001037757    1.568    0.362
       237  -8.2888    128.0595    158.9631   5.3563916967e+01   2.3734135953e+01    0.2335353    0.1812418  76.79 0.0005886796    1.690    0.408
       238  -9.4280    105.7557    157.7645   5.9107301148e+01   2.7856441874e+01    0.4686013    0.2962767  70.54  0.001072744    2.330    0.571
       239  -8.4223    196.4646    157.7587   3.8183512583e+01   1.1784623690e+01    0.2386113    0.2108034 -60.99 0.0008535656    1.463    0.316
       240  -9.3069    167.4545    156.9680   4.3924693118e+01   1.7053524950e+01    0.3230475    0.2429097 -70.58  0.000856262    1.920    0.479
       241  -8.7074    218.0407    156.4942   3.4006947338e+01   8.4273510956e+00    0.2623733    0.1615869 -45.67 0.0008454286    1.717    0.417
       242  -8.2137    188.0481    157.3651   3.9735878131e+01   1.3310099810e+01    0.1921429    0.1755369  -6.18 0.0005239467    1.060    0.057
       243  -8.7540    157.6404    155.6578   4.5819414329e+01   1.9108584865e+01    0.3305397     0.215793 -47.67 0.0009812658    1.523    0.343
       244  -9.1643    119.5891    155.0661   5.4947775476e+01   2.6131457188e+01    0.3789802    0.2640145  87.15  0.001382642    2.165    0.538
       245  -9.1276     81.6733    154.7583   6.5195252939e+01   3.2416177110e+01    0.4199799    0.2490316  68.33  0.001376483    2.264    0.558
       246  -9.7259    241.6208    154.2147   2.9714562823e+01   5.1603551926e+00    0.3196919    0.2192197  49.47  0.001849038    2.016    0.504
       247  -8.2756    204.5499    155.0792   3.6101268903e+01   1.0889512205e+01    0.2108887    0.1211836 -37.17 0.0007045594    1.548    0.354
       248  -8.4944    144.5970    154.6467   4.8633871369e+01   2.1717032680e+01    0.2802039    0.2119304  82.40 0.0008191547    1.987    0.497
       249  -8.6913     49.2476    154.7765   7.4464330234e+01   3.6720585449e+01    0.3129468    0.1856754  72.12  0.001078477    1.864    0.463
       250  -8.3739    232.7417    153.7181   3.0994466484e+01   6.5721950158e+00     0.184608    0.1410885 -58.75  0.001032152    1.927    0.481
       251  -9.5383    132.9514    152.8542   5.1096668789e+01   2.4248782580e+01    0.4517924    0.3008446  66.89  0.001286325    2.222    0.550
       252  -8.8808    133.8229    147.7508   4.9792857721e+01   2.5253238699e+01    0.3782082    0.2389377 -27.51  0.001342087    2.025    0.506
       253  -8.9680     67.7749    153.5512   6.8962990029e+01   3.4705900133e+01    0.3885679    0.2156672  69.23  0.001201424    2.409    0.585
       254  -7.9798    151.7970    152.6018   4.6503008962e+01   2.0831947293e+01    0.2055348    0.1392552  50.79 0.0006186543    1.677    0.404
       255  -9.5212     29.7076    150.7509   7.9642611731e+01   3.9833334058e+01    0.4560862    0.1934229  65.95   0.00172047    2.900    0.655
       256  -8.3010    182.3455    150.8854   3.9476103439e+01   1.5552332782e+01    0.2239366     0.168745 -53.17 0.0007177056    1.499    0.333
       257  -8.5666     98.3061    150.5936   5.9793580150e+01   3.0854594878e+01     0.321849    0.2136474 -88.20 0.0009643279    2.054    0.513
       258  -9.5431    248.9275    149.1369   2.7586351724e+01   4.8614374167e+00    0.3044948    0.1496633 -33.70 0.0007328791    1.612    0.380
       259  -9.7306    242.8347    149.4892   2.8557457071e+01   5.7054728652e+00    0.2964883    0.2445819  45.46  0.001906947    1.611    0.379
       260  -8.4684    213.0497    149.6626   3.3416960152e+01   1.0401142428e+01    0.2222793    0.1667889 -39.39 0.0003928947    1.265    0.209
       261  -8.9318    189.3614    149.7440   3.7823712056e+01   1.4503830364e+01    0.2662971    0.2175748 -64.58 0.0007279949    1.615    0.381
       262  -8.5225    162.5815    150.3555   4.3561789463e+01   1.9299187974e+01    0.2118954    0.1783458 -79.45 0.0007228673    1.575    0.365
       263  -8.6155    198.8615    148.7836   3.5790733184e+01   1.2993405481e+01     0.241281      0.19018 -46.44 0.0005280511    1.339    0.253
       264  -9.7630     89.3143    146.1243   6.1492140528e+01   3.3441474703e+01    0.6904048    0.3781152 -88.80  0.002255318    3.508    0.715
       265  -9.4601     39.8070    147.6720   7.6344154650e+01   3.9633081731e+01    0.5357711     0.247551  64.88   0.00198442    2.722    0.633
       266  -8.7702    233.4359    147.4170   2.9563589059e+01   7.4665810583e+00    0.2991905    0.1320213 -32.31 0.0008316229    1.927    0.481
       267 -10.3261    148.9592    145.2001   4.5539268073e+01   2.2968371580e+01    0.5802684    0.4075027 -85.81  0.001827053    2.495    0.599
       268  -8.5896    149.5570    136.8562   4.3478480266e+01   2.4681423296e+01    0.6098443    0.3401507 -10.95  0.001453959    6.771    0.852
       269 -10.2132     54.8215    144.2603   7.1391005543e+01   3.8822929464e+01    0.8994339    0.4233332  71.24  0.002968911    3.581    0.721
       270  -9.5195     56.4292    135.2653   6.9499585179e+01   4.1025369922e+01    0.4281978    0.2238335   4.81  0.001446673    3.872    0.742
       271  -8.2845    223.1498    146.8187   3.1089366024e+01   9.2091950842e+00    0.1918276     0.161282 -33.26 0.0003563589    1.154    0.134
       272 -10.0245    106.6704    144.3640   5.6242669123e+01   3.0983114326e+01    0.6929862    0.4029604  71.18  0.002087004    3.244    0.692
       273  -8.6166     77.9455    146.9539   6.4939562851e+01   3.4975056303e+01    0.2443797    0.1701229  71.85 0.0007103515    1.675    0.403
       274  -9.3040     13.6192    146.0635   8.3867580184e+01   4.2433283808e+01    0.3628441    0.1795805  63.39  0.001368382    2.011    0.503
       275  -7.5790    206.5025    146.4753   3.3881507830e+01   1.2072552468e+01    0.1405869    0.1209475 -24.24 -2.014919e-05    1.030    0.029
       276  -8.2024    175.4969    145.9941   3.9799924213e+01   1.7770615432e+01    0.2213461    0.1360589 -44.38 0.0006608043    1.555    0.357
       277  -9.6445    138.9691    144.8024   4.7865110888e+01   2.4957151355e+01    0.4187016    0.3073502 -87.58  0.001475309    2.070    0.517
       278  -9.8439    241.1594    144.5421   2.7775692443e+01   6.7240316642e+00    0.3048778    0.1888214  -0.62  0.001396026    2.161    0.537
       279  -9.7113    124.9480    142.5329   5.0926415308e+01   2.8121072032e+01    0.5299569     0.347987 -78.96  0.001623579    2.372    0.578
       280  -8.9030    247.1184    143.6562   2.6714740069e+01   5.9586677632e+00    0.2481297    0.1469729 -29.39 0.0006137296    1.350    0.259
       281  -8.8927    165.5729    143.8941   4.1453047396e+01   2.0071819132e+01    0.2928697    0.2417323  74.75 0.0009468169    1.636    0.389
       282  -7.9368    194.4270    143.5282   3.5458891238e+01   1.4750167911e+01    0.1434661    0.1263819 -29.44 0.0001028071    1.058    0.055
       283  -8.6868    181.9918    141.4702   3.7433084801e+01   1.7442184546e+01    0.2770208    0.1925829 -53.38  0.000700555    1.612    0.380
       284 -10.1244     69.2090    140.0059   6.6339023691e+01   3.8056647286e+01    0.7205771    0.3509963 -79.62  0.002445657    2.770    0.639
       285  -9.1756      2.7020    141.6657   8.6698498367e+01   4.4338604671e+01     0.310143     0.126502  65.85  0.001251781    2.487    0.598
       286  -8.0012    250.4858    140.5050   2.5577526058e+01   5.9345846167e+00    0.1292984    0.1001939 -28.09 0.0008099609    1.052    0.049
       287  -9.4823    242.8322    139.2753   2.6415617740e+01   7.2864081094e+00    0.3425897     0.201594 -57.07   0.00156506    2.824    0.646
       288  -9.7661     23.5587    138.0241   8.0156451526e+01   4.3750560579e+01    0.5361243    0.2201644  60.36  0.002039309    2.899    0.655
       289  -7.9528    218.5170    138.4784   3.0033733751e+01   1.1387215307e+01    0.1390896    0.1163992 -27.12 0.0001272247    1.029    0.028
       290  -8.3458    207.6420    137.7204   3.1724779332e+01   1.3423033757e+01    0.2642616     0.146749 -52.28 0.0009421116    2.226    0.551
       291  -8.7711    197.4770    137.1601   3.3435982357e+01   1.5370302856e+01    0.3060811    0.2008352 -54.39  0.000999338    1.826    0.452
       292  -8.6332    172.1109    137.7543   3.8620760384e+01   2.0069967187e+01    0.2612392    0.1919402 -51.47 0.0007239038    1.422    0.297
       293  -9.2657    140.2686    136.7033   4.5694625172e+01   2.6539815569e+01    0.3016618     0.190959  15.95  0.001159654    2.425    0.588
       294  -8.3661    246.9907    129.7351   2.3785496025e+01   8.1169242515e+00    0.2417419    0.1296312 -42.60 0.0006928699    1.665    0.399
       295  -9.0139    248.5339    134.8428   2.4660586855e+01   7.0916652224e+00    0.3216213    0.1331629 -36.17 0.0009847082    1.898    0.473
       296  -8.9897    250.7784    129.8272   2.3285684424e+01   7.5123611672e+00    0.4663819   0.09733843 -33.18  0.001409809    4.449    0.775
       297  -8.7188     38.9917    136.0124   7.5111116640e+01   4.2829626396e+01    0.2875234    0.1839115  66.96 0.0008159415    1.659    0.397
       298  -8.0810    187.8575    135.3611   3.4850979079e+01   1.7511633236e+01    0.2066878    0.1685792 -43.94 0.0005637106    1.196    0.164
       299  -8.1852     95.5201    135.0736   5.7481156931e+01   3.5244444371e+01    0.2346002    0.1476021 -58.44 0.0004454671    1.530    0.346
       300 -10.1568     83.5014    133.1620   6.0684219521e+01   3.7718697983e+01    0.5335749    0.3359631 -78.66  0.001521604    1.919    0.479
       301  -8.9381    179.4686    133.7957   3.6155324555e+01   1.9431434301e+01    0.2868121    0.1916763 -56.38 0.0008488379    1.772    0.436
       302  -8.7066    112.7382    133.0376   5.2094090561e+01   3.2685449951e+01    0.3538778    0.2555293  75.15 0.0009460344    1.888    0.470
       303  -8.1216    237.4269    133.2142   2.5907307331e+01   9.0982301827e+00    0.1903974    0.1027247 -42.46 0.0005430244    1.670    0.401
       304  -8.1365    231.4716    133.5455   2.6875406650e+01   1.0021745516e+01     0.136258    0.1100267 -24.84 -2.434514e-05    1.025    0.025
       305  -9.9348    132.5342    131.3675   4.6383437068e+01   2.9284288232e+01    0.5718742    0.3960111  81.44  0.001684001    2.391    0.582
       306  -9.1793    143.1071    131.5622   4.3770784102e+01   2.7137701686e+01    0.3133028    0.2335724 -71.95 0.0007958584    1.735    0.423
       307 -10.2270     13.0977    129.2626   8.2538967432e+01   4.6905291236e+01     0.533713    0.2353038  67.11  0.002172185    2.578    0.612
       308  -8.1109    204.5143    130.0174   3.0506676241e+01   1.5369801431e+01    0.2195718     0.124334 -39.66 0.0008931363    1.548    0.354
       309  -8.3024    192.7084    130.1167   3.2684093772e+01   1.7579847794e+01    0.2328821    0.1629865 -49.40 0.0005147989    1.469    0.319
       310  -9.1983    168.3348    129.4238   3.7436480000e+01   2.2517502271e+01    0.3064169    0.2431627 -70.82 0.0006174147    1.619    0.382
       311  -9.7190    152.8471    128.8925   4.0784878623e+01   2.5763509143e+01    0.5528419    0.2727556 -51.44  0.001063521    2.137    0.532
       312 -10.0227     99.2690    127.7263   5.4755431956e+01   3.6463547974e+01    0.5988712    0.3825703  88.53  0.001585355    2.611    0.617
       313  -9.4225     73.1653    129.3864   6.3140415781e+01   4.0302604088e+01    0.3623433    0.2427715  82.54 0.0009787191    1.899    0.473
       314  -8.1290      1.5050    129.9708   8.6230117970e+01   4.7461970655e+01    0.2022959    0.1081245 -82.66 0.0006445571    1.515    0.340
       315  -8.1722    211.5780    128.8664   2.9019376832e+01   1.4276089482e+01    0.2036964    0.1148929 -45.93 0.0006364511    1.725    0.420
       316  -7.9455    186.6273    129.3106   3.3657626573e+01   1.8909911480e+01     0.147179    0.1164204 -75.49 0.0001813427    1.777    0.437
       317  -8.9177     50.3402    128.6772   7.0372559376e+01   4.3547436609e+01    0.3312303     0.208435  69.68   0.00147492    1.864    0.464
       318 -10.4230     44.4925    123.3413   7.1435691713e+01   4.5667690937e+01    0.9650209    0.4762986  84.57   0.00305238    3.034    0.670
       319  -8.3596     25.9812    129.4988   7.8432844402e+01   4.5827329927e+01    0.1886232    0.1090156 -24.96 0.0008103079    2.585    0.613
       320 -10.2746     60.1843    125.0881   6.6507745132e+01   4.3279009496e+01    0.7234229     0.405882  75.75  0.002687136    2.717    0.632
       321  -9.8863    117.9437    125.3372   4.8822318059e+01   3.3575753033e+01    0.5589547    0.3796806  80.67   0.00149867    2.399    0.583
       322  -7.7434    228.5099    125.5081   2.5536660528e+01   1.1841689459e+01     0.138256    0.1129171 -29.95 5.217176e-05    1.014    0.014
       323  -9.0620    179.2841    124.5058   3.3944742930e+01   2.1303041979e+01    0.2912636    0.2326531 -62.63 0.0007216755    1.476    0.323
       324 -10.0789     29.0193    122.7712   7.6570513386e+01   4.7378508405e+01    0.6490995     0.294529  68.51  0.002358794    3.088    0.676
       325  -8.4891    162.6163    136.1514   4.0308290242e+01   2.2257800850e+01    0.2374183    0.1798377 -54.17 0.0006373413    1.399    0.285
       326  -8.1554    188.5695    123.7609   3.1939842268e+01   1.9591125566e+01    0.2039133    0.1283792 -47.27 0.0004480072    1.551    0.355
       327  -7.9809    203.0319    121.9518   2.8860327344e+01   1.7105075570e+01    0.1775185    0.1500126 -31.95 0.0004191952    1.023    0.023
       328  -8.0634    195.0794    121.9859   3.0290372854e+01   1.8641569846e+01    0.2245858    0.1696653 -63.90  0.000614505    1.678    0.404
       329  -8.7521    171.9907    121.3793   3.4663867559e+01   2.3414342202e+01    0.2832606    0.1978824 -53.75 0.0005833183    1.525    0.344
       330  -9.3349    158.5961    121.3279   3.7565439652e+01   2.6204347957e+01    0.3503514    0.2739599 -78.37  0.001079485    1.717    0.418
       331  -8.3546     83.8315    122.2181   5.8243092675e+01   4.0527026084e+01    0.2091554    0.1814799 -24.00 0.0006138803    1.315    0.240
       332  -9.3088     71.3951    119.9351   6.1769846406e+01   4.3079698434e+01    0.3756984    0.2501469  83.20  0.001063982    1.991    0.498
       333  -9.8402    141.5122    117.7737   4.0693364424e+01   3.0559134500e+01    0.7048382    0.3171806 -52.48  0.001590427    2.421    0.587
       334  -9.8169    131.1775    118.5655   4.3537121731e+01   3.2529256149e+01    0.5344193    0.3566779  86.19  0.001645916    2.782    0.641
       335  -9.8510      2.9693    117.1376   8.4714495195e+01   5.0771999737e+01    0.5399773    0.2174786  67.21  0.002122551    2.886    0.654
       336  -8.7272    109.9548    107.0222   4.6354861970e+01   3.9588376511e+01    0.3982718    0.2128792  19.22  0.001139469    4.248    0.765
       337  -8.4020    185.9333    115.9727   3.0511044504e+01   2.1610328731e+01    0.2330001    0.1726142 -64.06 0.0004953113    1.681    0.405
       338  -9.0754    250.0121    114.6909   2.0117339053e+01   9.9473604948e+00    0.2309445    0.1779589 -60.94   0.00138899    1.624    0.384
       339  -8.4372    193.0065    115.0044   2.8949619977e+01   2.0354375263e+01    0.2288069    0.1680744 -61.17 0.0005519814    1.638    0.389
       340 -10.0308     92.8171    112.5059   5.3067788124e+01   4.1489961365e+01    0.6365696    0.3540941 -67.13  0.001387509    2.215    0.549
       341  -8.5577     93.3520    104.3188   5.0743355191e+01   4.3457415990e+01    0.3259673    0.2038828 -10.98  0.001083645    3.288    0.696
       342  -8.4408    167.4697    114.0370   3.3734001418e+01   2.5850852322e+01    0.2358863    0.1421726 -41.45 0.0005305532    1.523    0.343
       343  -9.7912     79.1376    112.4642   5.7503379693e+01   4.3844128362e+01    0.5299937    0.3581484  81.65  0.001636343    2.115    0.527
       344  -8.9119    175.0712    112.0355   3.1635320845e+01   2.4639377690e+01    0.3807831    0.2197345 -51.77 0.0009828076    1.848    0.459
       345  -8.8970    159.1427    111.6613   3.4919764735e+01   2.8122941192e+01    0.2808417     0.196537 -50.12 0.0006088043    1.407    0.289
       346  -9.5683     14.3557    111.1549   8.0148865463e+01   5.1679732614e+01    0.3706281    0.1771086  71.97  0.001121611    2.523    0.604
       347  -9.8439    133.4457    108.9542   4.0371810660e+01   3.4252125181e+01    0.4884639    0.2667949 -51.19  0.001246332    1.836    0.455
       348  -9.2978     66.4801    110.2517   6.1297500137e+01   4.6381567818e+01    0.3910039     0.268568  78.31  0.001219579    1.912    0.477
       349  -8.1310    149.8367    110.0153   3.6608854966e+01   3.0483437540e+01    0.2587589     0.173963 -64.68 0.0006414276    1.913    0.477
       350  -9.8453    109.5066    113.9947   4.8359435053e+01   3.7983060926e+01    0.6476226    0.3915829 -73.78  0.001610448    2.614    0.617
       351 -10.5144    248.1619    107.9699   1.8871378930e+01   1.1282324310e+01    0.4305548    0.2557547 -49.79  0.002274332    1.705    0.413
       352  -9.8293    250.0000    104.0148   1.7765014123e+01   1.1576827255e+01    0.4311882    0.1374193 -34.13  0.001711558    2.488    0.598
       353 -10.5645    247.6509    100.1879   1.7197494031e+01   1.2557938302e+01    0.4101878    0.2101846 -23.02  0.001888095    2.128    0.530
       354  -8.2658    189.3955    107.7872   2.7780725759e+01   2.2441686950e+01    0.2836646    0.1267223 -41.68 0.0006930521    1.986    0.496
       355 -10.7669     22.5404    102.4569   7.5925278079e+01   5.3431587651e+01    0.6883036    0.3763197  70.90  0.001789802    2.281    0.562
       356  -9.4006    139.8148    104.3854   3.7478485467e+01   3.3889275065e+01    0.3972449    0.2874522 -73.00  0.001000254    1.850    0.460
       357 -10.2858     45.7143    102.0282   6.7027159414e+01   5.1304083469e+01    0.8056924    0.4125884  68.04  0.002737102    3.515    0.715
       358  -8.7659    166.7506    103.8605   3.1169771839e+01   2.8060741647e+01    0.3073347    0.1957951 -48.05 0.0007006814    1.514    0.340
       359  -9.5983    150.5215    102.8563   3.4471990215e+01   3.1855257115e+01    0.4591773      0.27245 -58.21  0.001182393    2.048    0.512
       360  -8.4494     78.4766    104.5065   5.5745664027e+01   4.6020260701e+01    0.2653438     0.157092  18.63 0.0009505505    2.398    0.583
       361  -8.8207      7.2548    103.2637   8.1782289233e+01   5.4237626309e+01    0.2831965    0.1529319  64.03 0.0009740607    2.071    0.517
       362  -9.9409    128.7761    101.9293   3.9622250608e+01   3.6841202107e+01     0.438075    0.3118598 -89.63  0.001271802    2.186    0.543
       363  -7.9796    175.5702    101.7704   2.8814118819e+01   2.6538170614e+01     0.221381     0.131509 -48.18 0.0005218675    1.636    0.389
       364 -10.7285    109.2530     98.8833   4.4254176607e+01   4.1672981197e+01    0.9159254     0.495452  65.04  0.001815958    3.519    0.716
       365  -8.9437    107.6021     92.6078   4.2878158553e+01   4.3481705013e+01    0.6247889    0.3384182  23.18  0.001999884    3.388    0.705
       366  -8.5317    159.8542    100.7895   3.1794495823e+01   3.0205603381e+01    0.2862008    0.1871573 -61.48 0.0005931137    1.892    0.471
       367  -9.0165     82.2190     99.8652   5.3228065995e+01   4.6573905611e+01    0.3758244    0.2509605 -81.79 0.0008890867    2.130    0.531
       368  -9.3134     95.0244     96.7298   4.8062993616e+01   4.5015775124e+01    0.4319232    0.2366746 -56.03 0.0006115079    1.851    0.460
       369  -9.8476     64.0399     95.8441   5.8657134648e+01   5.0529555850e+01    0.5554296    0.3509226  80.11  0.001490483    2.617    0.618
       370  -8.4355    129.9973     97.4934   3.8007541418e+01   3.7563136847e+01    0.2267025    0.1402699  22.13 0.0008105477    2.586    0.613
       371  -8.4589    151.0017     95.4899   3.2259566764e+01   3.3278300991e+01    0.3198058    0.1987515  -4.90  0.001034554    3.460    0.711
       372  -9.7364    121.8940    112.2954   4.4377951108e+01   3.5905370525e+01    0.3616723    0.2612053 -61.30 0.0006925937    1.492    0.330
       373  -8.1053    164.8738     94.1374   2.8857402663e+01   3.0401303434e+01     0.240525    0.1981117 -59.30 0.0005312582    1.261    0.207
       374 -10.1136    123.9387     91.0800   3.7702689711e+01   4.0313297661e+01    0.5636416    0.4885992  24.35  0.001396275    1.294    0.227
       375  -8.0995    176.1725     92.9397   2.6282536799e+01   2.8085497311e+01    0.2529596    0.1545145 -58.91 0.0005451555    1.991    0.498
       376  -9.1261    139.1589     92.0832   3.4061491936e+01   3.6677132312e+01    0.3674428     0.254336 -64.46 0.0007020342    1.777    0.437
       377  -8.0214    157.6392     91.7457   2.9698516879e+01   3.2519294431e+01    0.2216053    0.1357512 -46.37 0.0007176467    1.550    0.355
       378  -8.9919     47.3902     91.7899   6.4057851967e+01   5.3829945559e+01    0.4415863    0.1831285  19.37  0.001538584    3.364    0.703
       379  -9.4604     35.0871     89.9124   6.8606292559e+01   5.5683767640e+01    0.5102924    0.2764153  87.64  0.001620623    2.748    0.636
       380  -9.5620      5.1470     91.7863   8.1174590400e+01   5.7405086003e+01    0.2982827    0.1710386  51.89  0.001085392    2.005    0.501
       381  -8.7705     23.0696     90.0580   7.3593210763e+01   5.6716587121e+01    0.3412618     0.225842  -8.75  0.001704894    1.934    0.483
       382  -8.1116    151.1451     89.1157   3.0354491478e+01   3.4536122766e+01    0.2221308    0.1763419 -59.45 0.0004936454    1.326    0.246
       383  -9.9274     86.5662     86.4279   4.7789723608e+01   4.9105968068e+01    0.5248736    0.3700123 -89.81  0.001109147    2.240    0.554
       384  -8.0456     78.3061     87.2814   5.0976708992e+01   5.0394113346e+01     0.153541    0.1182861 -19.06 0.0001957595    1.558    0.358
       385  -9.7813     48.5075     84.2298   6.1676059204e+01   5.5659798717e+01    0.5433477    0.3399276  72.75  0.001770429    2.565    0.610
       386  -7.4570    179.0000     84.9860   2.3538676575e+01   2.8910664132e+01    0.2533263   0.07963191 -36.49 0.0004243017    2.878    0.653
       387  -8.2402    157.9054     83.6496   2.7255137108e+01   3.4031814206e+01    0.2671802    0.1979406 -30.89 0.0005290779    1.342    0.255
       388  -9.7487    104.7445     82.9304   4.0699360558e+01   4.6283668206e+01    0.4627855    0.3113209 -62.82 0.0009996082    1.788    0.441
       389  -9.0040    140.9042     82.2186   3.0613588582e+01   3.8295337825e+01    0.3964863    0.2025899 -48.58  0.001255393    1.985    0.496
       390  -9.5139     24.6400     80.5636   7.1009371010e+01   5.9094326462e+01    0.4605891    0.2587946  86.24  0.001285924    2.411    0.585
       391  -9.5726      9.9366     80.9284   7.7551561251e+01   6.0013507805e+01    0.3978921    0.1851883  61.21  0.001576069    3.113    0.679
       392  -8.4174    150.3436     80.4174   2.7897055369e+01   3.6427732922e+01    0.2743482    0.1695913 -53.92 0.0006426515    1.744    0.427
       393  -8.8189     74.5345     80.2352   5.0163915043e+01   5.2757865095e+01    0.3843486    0.2330122 -67.90   0.00101563    2.175    0.540
       394  -8.4341    249.6667     80.3433   1.2487470616e+01   1.5165835552e+01    0.1376385   0.08026648 -55.05  0.000705056    1.758    0.431
       395  -8.6875    119.1767     79.7874   3.5423154242e+01   4.3805068277e+01    0.2864716    0.2039472 -52.32 0.0007625925    1.425    0.298
       396  -8.3410    166.8673     79.3131   2.4163333902e+01   3.2739875697e+01    0.2075024    0.1908478 -36.05 0.0004433305    1.055    0.052
       397  -7.7024    184.4435     77.5129   2.0493005448e+01   2.8985867763e+01    0.1502937    0.1337872 -44.02 0.0001895608    1.008    0.008
       398  -8.2321    157.2048     76.2403   2.5156100498e+01   3.5585297123e+01    0.2188672    0.1700172 -60.50 0.0005271491    1.360    0.265
       399  -9.3484    128.0706     75.1186   3.1495019337e+01   4.2713976759e+01    0.3707117    0.2566367 -60.50 0.0005654533    1.685    0.407
       400  -8.4886    140.4981     75.0009   2.8414414184e+01   3.9801591899e+01    0.2431989    0.1469317 -40.92 0.0006543945    1.560    0.359
       401  -9.8624     63.0049     73.5613   5.2496173120e+01   5.6261784834e+01    0.4479638    0.2807706 -63.78  0.001138723    1.794    0.443
       402  -9.6852     82.4865     72.5044   4.4623223909e+01   5.3108186176e+01    0.4476596     0.311754 -70.26  0.001328885    1.949    0.487
       403  -8.3827    163.4281     72.8405   2.2884319294e+01   3.4715424612e+01    0.2961501    0.1328196 -40.64  0.001040445    2.026    0.506
       404  -8.3786    151.3949     73.1905   2.5417120848e+01   3.7533978252e+01    0.2273651    0.1333796 -46.78 0.0004437765    1.655    0.396
       405  -8.4891    115.6836     72.7808   3.4042103634e+01   4.6044488370e+01      0.27182    0.1850132 -38.12 0.0006373654    1.420    0.296
       406  -8.1238     42.9678     72.9644   6.0883391969e+01   5.9192490130e+01     0.219541    0.1714464  79.18  0.000711918    1.657    0.396
       407  -8.7447    105.6807     71.2354   3.6438196158e+01   4.8601442630e+01    0.3338943    0.1797692 -51.83 0.0007547841    2.021    0.505
       408  -8.9723     95.2468     71.1414   3.9718670380e+01   5.0858430620e+01    0.3762351    0.2440577 -58.44 0.0009025048    1.797    0.444
       409  -9.3131     51.5230     69.6947   5.6076619814e+01   5.8888983287e+01    0.4663571    0.2806032 -77.71  0.001376038    2.661    0.624
       410  -8.9422     16.6835     69.7220   7.2255789360e+01   6.2492113124e+01     0.270063    0.1881081 -87.52 0.0008644866    1.565    0.361
       411  -7.8427    157.2719     69.6476   2.3100448219e+01   3.6756951779e+01    0.1607022    0.1112202 -61.46 0.0002588066    1.634    0.388
       412  -8.9446    147.1160     67.6744   2.4562141998e+01   3.9565991674e+01    0.4405264    0.1952732 -39.45  0.001369798    2.094    0.522
       413  -8.8452    121.6947     65.9422   3.0016168974e+01   4.5993675328e+01    0.3352983    0.2241125 -62.70 0.0008603982    1.897    0.473
       414  -8.6215    138.7581     65.8699   2.5809144820e+01   4.1918364506e+01    0.2971039    0.1930358 -52.66 0.0007264594    1.626    0.385
       415  -8.9298    110.2902     63.6124   3.2326115737e+01   4.9090455811e+01    0.3066716    0.2379273 -70.53 0.0005707999    1.605    0.377
       416  -8.4237     37.3235     64.1616   6.0793613951e+01   6.2010601242e+01    0.2458401    0.1747462  61.27  0.001201821    1.955    0.489
       417  -8.2796     64.2027     62.9422   4.8270322424e+01   5.8520813627e+01    0.2554775    0.1558506 -26.23 0.0009665324    2.015    0.504
       418  -8.1067    158.2200     61.7360   2.0422940904e+01   3.7884003844e+01    0.1960321    0.1758801   2.60 0.0003580308    1.290    0.225
       419  -9.1097     97.6046     60.3974   3.4979914120e+01   5.2554084829e+01    0.2795543    0.2494656  74.73 0.0007226001    1.290    0.225
       420  -9.6957     73.3816     59.6103   4.3282136969e+01   5.7626934639e+01    0.4272117     0.256662 -53.94  0.001203476    1.812    0.448
       421  -8.4860    130.6965     57.3560   2.4733004686e+01   4.5382240539e+01    0.2761155    0.1701501 -45.88 0.0005301306    1.616    0.381
       422  -9.6625     23.5959     56.3853   6.5231979039e+01   6.5261232059e+01    0.4711038    0.2828951  85.01  0.001976646    2.927    0.658
       423  -9.5158      7.6489     57.1110   7.3885450133e+01   6.6203217939e+01    0.3261923    0.2060631  71.53  0.001391052    2.153    0.535
       424  -8.4774    139.8775     56.0991   2.2236464720e+01   4.3337917936e+01    0.2365185    0.1939876 -59.77 0.0003592797    1.261    0.207
       425  -8.7236    119.1793     55.6644   2.6955412560e+01   4.8464480007e+01    0.3231431    0.2165015 -59.18  0.000842583    1.802    0.445
       426  -8.8074     44.0262     55.3205   5.4493113822e+01   6.3259614787e+01    0.2992145     0.187487 -60.14   0.00103577    1.690    0.408
       427  -8.0918    168.5426     55.4678   1.6637274083e+01   3.6370980195e+01    0.1483627    0.1359626 -53.99 7.893326e-05    1.002    0.002
       428  -9.1427     62.8457     54.0625   4.5382938222e+01   6.0669056927e+01    0.4382655    0.1999615 -52.39  0.001416366    2.387    0.581
       429  -9.0235    250.0822     53.6287   6.3855626419e+00   1.8829876495e+01    0.1721389    0.1429678 -49.19  0.001143295    1.085    0.078
       430  -8.7400     53.9905     53.3714   4.9027366439e+01   6.2257905820e+01    0.3197148    0.1997415 -62.70  0.001244366    2.051    0.513
       431  -8.6161    105.8162     53.0892   2.9637153490e+01   5.2067190434e+01    0.2372303    0.2015206 -64.47 0.0006546302    1.330    0.248
       432  -9.3891     92.5370     50.5466   3.2712098063e+01   5.5514244867e+01     0.396255    0.2449385 -52.04 0.0009024229    1.867    0.464
       433  -8.3286    144.8551     48.8048   1.8706206153e+01   4.3265405113e+01    0.2114372    0.1645637 -57.27 0.0007853039    1.316    0.240
       434  -8.1416    130.1441     49.1452   2.1903505557e+01   4.6876498231e+01    0.2150655    0.1703435 -58.73 0.0006137034    1.345    0.257
       435  -8.0643    120.9794     47.2135   2.3323821952e+01   4.9439605331e+01    0.2275196    0.1586867 -55.10  0.001003341    1.599    0.375
       436  -8.3346    112.1663     46.8503   2.5418854676e+01   5.1631857561e+01    0.2286855    0.1964726 -65.35 0.0006184558    1.292    0.226
       437  -9.0131     82.0777     46.3425   3.4521139992e+01   5.8506952363e+01    0.2719119    0.2049398 -44.71 0.0005462673    1.356    0.262
       438  -9.0456     16.8721     44.6357   6.5116561987e+01   6.8576547149e+01    0.2453793    0.1734654 -65.03 0.0005712167    1.397    0.284
       439  -8.4021     44.9677     44.1964   4.9510301147e+01   6.5535231164e+01    0.2013874     0.185419 -64.74 0.0007100211    1.317    0.241
       440  -8.1847    132.9446     42.9773   1.9039327193e+01   4.7125097866e+01    0.1773283    0.1666579 -40.15 0.0003746229    1.052    0.050
       441  -8.7298     58.1960     42.5404   4.2449716756e+01   6.3773394385e+01    0.2827792     0.213661 -64.34  0.001073693    1.808    0.447
       442  -9.6177      5.3007     42.1858   7.1249304791e+01   6.9904139300e+01    0.2969641    0.2021328 -86.43  0.001044789    1.777    0.437
       443  -8.5221    105.9851     41.4310   2.4896753297e+01   5.3967242698e+01    0.2814726    0.1949499 -47.73 0.0006300929    1.541    0.351
       444  -8.7049     92.4096     42.7723   2.9477403504e+01   5.6887651466e+01    0.2110902    0.1384326 -21.07 0.0009230832    1.692    0.409
       445  -8.2519     36.7736     40.7393   5.2267843037e+01   6.7365720811e+01    0.1684035     0.159971 -70.43 0.0006064036    1.322    0.243
       446  -7.5763    160.7096     39.3985   1.2796636951e+01   4.0655802761e+01     0.160886   0.09725925 -58.15 0.0006998733    1.791    0.442
       447  -8.6685     95.8066     38.1413   2.6417582299e+01   5.6855969991e+01    0.2210765    0.1919365 -59.65 0.0005440966    1.307    0.235
       448  -9.3192     69.7029     41.4006   3.7016689052e+01   6.1879545554e+01    0.3733047     0.255934 -60.94  0.001101611    2.074    0.518
       449  -7.8679     80.8487     36.6020   3.0587840359e+01   6.0420596254e+01    0.1886322     0.138135  63.04 0.0004137457    1.638    0.389
       450  -9.0713     26.2986     35.4828   5.5886380452e+01   6.9701133698e+01    0.2469649    0.2138849 -82.70 0.0008012489    1.599    0.374
       451  -8.1458    125.9982     35.3469   1.7635091051e+01   4.9950839693e+01    0.1967314    0.1854452  68.52 0.0004309345    1.052    0.049
       452  -8.6611    111.6947     34.1688   2.0415387544e+01   5.3657791183e+01    0.2349501    0.1711066 -48.82 0.0006874984    1.470    0.320
       453  -7.6107     88.6911     34.3214   2.6910235345e+01   5.9054208129e+01    0.1425056    0.1127634 -67.29 0.0006447328    1.645    0.392
       454  -8.8809     48.7454     33.2107   4.2439751300e+01   6.7084669526e+01    0.2578717    0.2008761 -53.59 0.0007702443    1.543    0.352
       455  -8.4022    119.4004     33.1908   1.8220767414e+01   5.1890457994e+01    0.2078424    0.1263183 -41.63 0.0006455372    1.665    0.399
       456  -8.4534     60.5616     32.3278   3.6477012670e+01   6.5179864071e+01    0.2285939    0.1915018 -51.25 0.0006794518    1.417    0.294
       457  -8.6736     72.4084     31.2640   3.1114395732e+01   6.3029125940e+01    0.2110064    0.1780333  81.95 0.0005501004    1.616    0.381
       458  -8.9327     12.9535     30.0668   6.1946187002e+01   7.2099449369e+01    0.3410118    0.1788467 -68.33  0.001576151    2.448    0.592
       459  -8.3677    101.8534     29.2045   2.0794802091e+01   5.6714014577e+01    0.2169138    0.1920975 -71.64 0.0005377016    1.283    0.221
       460  -8.7949     81.6045     27.3000   2.5895997472e+01   6.1646309064e+01    0.2759443    0.2152539 -62.69 0.0008167428    1.684    0.406
       461  -9.0699      3.9078     27.4625   6.7103242936e+01   7.3282792829e+01    0.2194463    0.1639555 -75.53 0.0008492582    1.584    0.369
       462  -8.6919     91.9589     26.3774   2.2243991295e+01   5.9422424875e+01    0.2626082    0.1853705 -46.09 0.0006616639    1.573    0.364
       463  -8.5328    120.9903     21.5190   1.3204528945e+01   5.2933083851e+01      0.21369    0.1853174 -27.56 0.0005654348    1.190    0.160
       464  -8.2953    104.4724     22.5296   1.7194854954e+01   5.6916388199e+01    0.1384235    0.1335253  42.60 0.0003307766    1.010    0.010
       465  -8.3055     90.9582     21.6535   2.0301462949e+01   6.0250600447e+01    0.1947698    0.1779607  56.78 0.0006677835    1.114    0.103
       466  -8.9563     63.7359     20.9497   2.9133178783e+01   6.6295084660e+01    0.2982826     0.192076 -44.63 0.0009415374    1.813    0.448
       467  -8.7483     48.4475     21.4079   3.6222616099e+01   6.9104492776e+01    0.2393758    0.2126404 -65.01 0.0008103099    1.597    0.374
       468  -7.8814     34.3692     22.7228   4.4578406426e+01   7.1125442326e+01    0.1165607    0.1060141  73.87 0.0007008367    1.683    0.406
       469  -7.9620     19.6939     21.3141   5.3097401889e+01   7.3220106221e+01    0.1104263    0.1023131  86.65 0.0004399561    1.623    0.384
       470  -8.9861     74.1281     19.3751   2.4407377467e+01   6.4327484875e+01    0.2622919    0.1855981 -37.74 0.0007494853    1.505    0.335
       471  -8.6216     87.9247     17.5420   1.9164940272e+01   6.1439355774e+01    0.2703547    0.1600273 -43.52 0.0007022183    1.911    0.477
       472  -7.8742    112.5826     16.5448   1.2812153575e+01   5.5579010941e+01    0.1351032    0.1306327  59.10  9.84402e-05    1.013    0.013
       473  -8.0444     30.1864     15.7687   4.2964702443e+01   7.2880220719e+01    0.1806378    0.1439855 -86.39 0.0008220287    2.705    0.630
       474  -8.1584     97.2044     15.1237   1.5581107827e+01   5.9502419894e+01    0.1885532    0.1549706 -52.52 0.0005504367    1.368    0.269
       475  -8.2287      7.4341     15.2127   5.8722558229e+01   7.5537235288e+01    0.1635696    0.1096727 -60.47 0.0009451196    1.721    0.419
       476  -8.0636    191.4937    249.5096   5.5042394988e+01  -1.8808914577e+00    0.1120278   0.08783507  13.92 0.0008093008    1.081    0.075
       477  -9.1905    175.5719    247.6013   5.7695182657e+01   3.2621058471e-01    0.2478563    0.2107155  64.15  0.001353159    1.940    0.485
       478  -9.3391    147.0656    245.9257   6.2913544085e+01   4.2123876806e+00    0.4673979    0.2705808  63.44  0.002044562    4.135    0.758
       479  -9.9281    146.8840    240.1355   6.2228907398e+01   5.1233134605e+00      0.33588    0.2386246 -89.12  0.001492524    2.794    0.642
       480  -8.9114    132.4112    247.9460   6.6022451026e+01   5.8048705024e+00    0.2960227    0.1829213  60.80  0.001190882    2.402    0.584
       481  -8.6161    113.0093    248.4417   6.9916312284e+01   8.2246312735e+00    0.2020321    0.1546489  81.15 0.0009664733    1.713    0.416
       482  -9.2546    103.9217    246.8869   7.1575655964e+01   9.6394683867e+00    0.3924876    0.2213803  88.19  0.001925731    3.264    0.694
       483  -7.6688    119.7231     11.3291   9.3022684530e+00   5.4304380280e+01    0.1403688   0.09771802 -58.31 0.0004123934    1.595    0.373
       484  -8.6045     93.8346    249.2442   7.3808880721e+01   1.0508046875e+01    0.2018484   0.09249709  57.99 0.0009481853    2.789    0.641
       485  -8.7716    218.5219    246.6955   4.9917592068e+01  -4.6862807825e+00    0.3139758   0.09598798 -37.09  0.001507536    3.333    0.700
       486  -8.9479    156.2592    247.9899   6.1392845568e+01   2.7200160049e+00    0.2038584    0.1380763  45.60 0.0007122814    1.626    0.385
       487 -10.1483    223.9292    243.8000   4.8578692568e+01  -4.9500151429e+00    0.3867733    0.2033872 -41.80  0.002310554    2.456    0.593
       488  -9.6452    120.2389    245.2362   6.8137691870e+01   7.8157416548e+00    0.3312821    0.2185331  74.42  0.001661813    2.398    0.583
       489  -7.8069     75.3210    247.3257   7.7334809630e+01   1.3093899798e+01    0.1050655   0.08729183  -8.09 0.0007047104    1.682    0.406
       490  -8.5028     67.4739    244.9393   7.8719646875e+01   1.4446322182e+01    0.1520535    0.1092505 -81.43 0.0005990444    1.548    0.354
