#   1 NUMBER                 Running object number                                     
#   2 MAG_AUTO               Kron-like elliptical aperture magnitude                    [mag]
#   3 X_IMAGE                Object position along x                                    [pixel]
#   4 Y_IMAGE                Object position along y                                    [pixel]
#   5 X_WORLD                Barycenter position along world x axis                     [deg]
#   6 Y_WORLD                Barycenter position along world y axis                     [deg]
#   7 A_WORLD                Profile RMS along major axis (world units)                 [deg]
#   8 B_WORLD                Profile RMS along minor axis (world units)                 [deg]
#   9 THETA_WORLD            Position angle (CCW/world-x)                               [deg]
#  10 FWHM_WORLD             FWHM assuming a gaussian core                              [deg]
#  11 ELONGATION             A_IMAGE/B_IMAGE                                           
#  12 ELLIPTICITY            1 - B_IMAGE/A_IMAGE                                       
         1 -12.6295     52.1711     92.0488   1.1464999578e+02   5.2541048881e+01     2.560262    0.8638439 -38.13  0.008622353    3.671    0.728
         2 -12.1243    118.3295     49.4522   8.1245169119e+01   4.8583704010e+01     1.335771     1.170421  -0.85  0.007263747    1.236    0.191
         3 -11.5053     58.8647     49.5158   9.9360846255e+01   5.9599249050e+01     1.698839    0.6070023 -38.16  0.007222567    2.726    0.633
         4 -12.8894     81.2016     55.7645   9.3853200151e+01   5.5022834243e+01     1.934976     1.570415  52.02   0.01136303    1.447    0.309
         5 -11.3022     88.1376     35.7751   8.4821540678e+01   5.6572902073e+01      1.27098    0.4870214 -25.75  0.005126077    3.243    0.692
         6 -10.7371     89.6369     21.4818   7.9319486575e+01   5.7906679831e+01    0.3356838    0.2167303  16.27 0.0008521523    1.738    0.424
         7 -13.1358     16.6399     58.7092   1.1881495919e+02   6.2708551919e+01     1.262787    0.7875636  29.00  0.003163076    1.875    0.467
         8 -13.0501     16.7523     98.4959   1.2816635163e+02   5.4563785362e+01     2.777831    0.9150112 -51.43   0.01234629    2.238    0.553
         9 -12.7147     71.5646     31.1221   8.8279482784e+01   6.0147415632e+01     1.672611     0.665637  45.53  0.007695548    2.348    0.574
        10 -10.9733     69.4315     19.4327   8.4537291103e+01   6.1844330252e+01    0.9431493    0.4899835  29.72  0.005016041    1.867    0.464
        11 -11.9868     42.1675     48.2678   1.0524783323e+02   6.2021833314e+01    0.8957902    0.7770008 -76.30  0.005749724    1.965    0.491
        12 -11.3974     38.4467     87.2051   1.1818295687e+02   5.5117985231e+01     1.930199    0.7995464 -33.66  0.007713852    2.940    0.660
        13 -13.0150    120.0771     74.2327   8.8385499236e+01   4.4297088498e+01     2.763185     2.315361  21.48   0.01486258    1.280    0.219
        14 -10.3207    167.1673     25.3529   6.4871229852e+01   4.0315742981e+01    0.7058603    0.5122145  47.19  0.003061098    1.462    0.316
        15 -11.0560    178.7633      4.8227   5.8345891777e+01   3.9728947828e+01     1.412731    0.4376404  74.26  0.005556538    3.051    0.672
        16 -10.9874    185.8760     16.0466   6.0140109060e+01   3.6970210483e+01    0.7038031    0.4781179 -36.45  0.002941433    1.672    0.402
        17 -12.4628    150.9433     17.3874   6.5226228131e+01   4.4949623037e+01     1.360779     1.011855  48.41  0.003978631    1.317    0.241
        18 -10.9428    166.2510     11.9096   6.1589255534e+01   4.1935067993e+01    0.6247616    0.3703566  80.77  0.003393477    1.569    0.363
        19 -11.2208    163.7624      4.8872   6.0152634309e+01   4.3164541538e+01    0.5260713    0.4146033 -72.70  0.003450564    1.283    0.220
        20 -11.6512    200.8411      5.5217   5.6209367362e+01   3.4664792823e+01    0.7627585     0.425954  77.33   0.00318313    1.485    0.327
        21 -11.0319    210.0442      4.1716   5.5080482622e+01   3.2765605454e+01    0.4740652     0.308446  87.08  0.001525323    1.250    0.200
        22 -11.5479    179.9112     27.5214   6.3621309455e+01   3.7075089433e+01    0.9332163    0.4205789  58.02  0.004373626    1.966    0.491
        23 -11.3025    175.9254     17.0120   6.1590310118e+01   3.9172220004e+01    0.7295431    0.2489291 -40.09   0.00316155    2.942    0.660
        24 -10.3490     69.3569      3.9366   7.8486129874e+01   6.3299489846e+01    0.6164477     0.271691  35.80  0.003246442    1.990    0.497
        25  -9.7901     51.6638     23.1512   9.2172925734e+01   6.4281399725e+01    0.8087552    0.4275104  -0.72            0    2.742    0.635
        26 -11.6680     50.2306      9.8482   8.7242544051e+01   6.5938093952e+01    0.3326163    0.2446976   8.35 0.0008590173    1.145    0.127
        27 -11.8814     57.0523      3.8948   8.2353609308e+01   6.5406661620e+01    0.5922194    0.3682732  42.44  0.002074303    1.395    0.283
        28 -11.1892     42.2516     15.1348   9.2506695609e+01   6.6544194085e+01    0.7315513    0.4707805  43.21  0.004275234    1.792    0.442
        29  -9.9060     17.5269     39.7850   1.1255377031e+02   6.5922835596e+01    0.8155473    0.6410616  15.23   0.00594034    1.369    0.270
        30 -10.0660     31.5104     12.0292   9.5594274309e+01   6.8297458827e+01    0.5184485    0.2389579 -13.08  0.002559075    2.884    0.653
        31 -10.8048     25.1248      5.0452   9.5282932492e+01   6.9833422876e+01    0.7846802    0.4266717  35.10  0.005106817    1.801    0.445
        32 -11.0039     23.8040     30.9816   1.0664883650e+02   6.6700025699e+01    0.9945326    0.2258888 -44.57  0.003877916    4.211    0.763
        33 -11.7315     29.9351     25.2990   1.0178350457e+02   6.6845288212e+01    0.8253325    0.3439907 -32.83  0.004099438    2.215    0.549
        34 -12.2709      8.8446     26.1881   1.1164384785e+02   6.8736463487e+01    0.9060386    0.5550124  -8.80   0.00614403    1.447    0.309
        35 -12.3236     13.2135      8.5876   1.0239985717e+02   7.0719697675e+01    0.5176402    0.3060691 -31.88  0.002254696    1.569    0.363
        36 -12.5400      3.2923     17.4415   1.1096284879e+02   7.0419290435e+01      0.36346    0.2234543 -13.62 0.0004385821    1.319    0.242
        37 -13.6151      4.2567      9.2636   1.0711366671e+02   7.1437257986e+01    0.4966756    0.2768016 -35.37 0.0004994041    1.590    0.371
        38 -11.8339     19.7988     13.7600   1.0154215425e+02   6.9428866709e+01    0.7000095    0.3728418  26.25  0.004506869    1.745    0.427
        39  -9.4914    123.1150      9.9455   6.7844648527e+01   5.1957712404e+01    0.4613933    0.2483534  44.53   0.00233297    1.689    0.408
        40 -11.7345    129.7861     20.1147   6.9669251304e+01   4.9527047706e+01     1.195744    0.2130312  52.94  0.003969151    3.790    0.736
        41 -10.8875    128.5268     14.5806   6.8243131390e+01   5.0340510878e+01     1.043364    0.2155543  50.26  0.003610787    3.687    0.729
        42 -10.2916    112.2439     22.2088   7.3963748334e+01   5.3185538904e+01     1.366155    0.9326497  71.23  0.007655297    1.626    0.385
        43 -11.6951    113.4286      7.6660   6.9008961387e+01   5.4262306926e+01     1.425569    0.2611246  55.42  0.005165765    3.430    0.708
        44 -13.1529     99.7752      5.8606   7.1312634965e+01   5.7284959432e+01    0.4460328     0.357998   5.55 0.0006326732    1.367    0.268
        45 -11.6904     93.5126      7.6716   7.3403077689e+01   5.8412208636e+01     0.628558    0.3550853  34.20  0.003550458    1.663    0.399
        46 -10.8172    116.1179     14.6103   7.0680225305e+01   5.3079058442e+01    0.7137067     0.347119  77.11  0.002132808    3.235    0.691
        47  -9.4104    230.6774      2.7102   5.3104753019e+01   2.8495240167e+01    0.2296513    0.1428068  76.97 0.0004173926    1.376    0.273
        48 -10.4471    249.9773      8.7204   5.2784782236e+01   2.3886123728e+01     0.864996    0.1166774 -44.14  0.003350538    4.205    0.762
        49 -11.0645    211.4962     15.4623   5.7272023115e+01   3.1231631281e+01    0.4706483    0.4227486 -36.64   0.00248592    1.460    0.315
        50 -10.6844    221.5040      2.8460   5.3847930804e+01   3.0420730541e+01    0.6564518    0.2379824  60.94  0.003170337    2.611    0.617
        51 -11.0375    220.6154     11.2512   5.5572979764e+01   2.9705791886e+01     1.235878    0.5131516 -89.44  0.005457796    2.785    0.641
        52  -9.9301    226.4087      8.5736   5.4555891114e+01   2.8759528225e+01    0.3262947     0.228113 -75.49 0.0007172899    1.151    0.131
        53 -10.7046    246.0256     18.9645   5.4925485874e+01   2.3470676361e+01      1.55722    0.2719892  71.18  0.005159788    5.437    0.816
        54 -10.6179    239.6715     16.9706   5.5066250906e+01   2.5012573904e+01    0.8893809    0.1662894 -44.72  0.003483651    3.775    0.735
        55 -11.1268    242.9762     10.4732   5.3608916622e+01   2.5094740699e+01    0.5777015    0.3006896 -33.21  0.003244244    2.365    0.577
        56 -10.5786    233.7750      7.3774   5.3739989874e+01   2.7340676981e+01    0.2632197    0.1828541  70.78 0.0003338917    1.416    0.294
        57  -9.3303     81.5059     19.7129   8.0959945899e+01   5.9641208037e+01    0.3153561    0.2572551  88.41  0.001941155    1.955    0.489
        58 -10.8644    201.3433     19.3065   5.9132466747e+01   3.3072842662e+01    0.7443353     0.298331  65.97  0.003213204    2.123    0.529
        59  -9.5193    141.7987     11.2644   6.4986632630e+01   4.7637098117e+01    0.1938955    0.1723599  51.62 0.0006799899    1.139    0.122
        60  -8.7178    138.3302      8.2457   6.4693606450e+01   4.8693791714e+01    0.2411382    0.1962701  76.45  0.001501495    1.131    0.116
        61 -11.1046    132.5980      4.6471   6.4596080985e+01   5.0287782268e+01    0.5568627     0.261003  55.85   0.00204227    1.691    0.409
        62 -11.0544    139.4715      1.8032   6.2701603049e+01   4.8969502144e+01     0.383848     0.189966  70.87 0.0003272282    1.758    0.431
        63  -9.8187     78.3110      4.2111   7.6040690159e+01   6.1642079889e+01     0.518218    0.1803804  40.84  0.002267372    2.414    0.586
        64 -10.1970     41.7244      3.0075   8.7479225943e+01   6.7848241194e+01    0.2723565    0.1839993 -23.28  0.001168467    1.560    0.359
        65 -10.1040     38.1097      1.4815   8.8209233540e+01   6.8502077122e+01    0.3762989    0.1048437  35.11  0.001661032    3.278    0.695
        66 -10.5265     77.3206      9.0801   7.8169185053e+01   6.1421674301e+01    0.2419369    0.2163146  35.06 0.0006272095    1.179    0.152
        67 -10.7187    234.2297     10.5596   5.4301080394e+01   2.6888968704e+01    0.3175274    0.2180996  65.83 0.0008281379    1.533    0.347
        68  -9.5398     61.3322    147.2050   1.2370395295e+02   3.8410662866e+01    0.2592801    0.2077059 -28.36 0.0007320742    1.488    0.328
        69  -9.1339    184.1750    250.1579   1.1207905364e+02  -5.2560519233e+00    0.1740689    0.1473406  50.31 0.0009131377    1.337    0.252
        70 -10.1094     38.2047    143.1147   1.2947950816e+02   4.2184690254e+01    0.2121738    0.2005185 -12.10 0.0004570271    1.264    0.209
        71  -8.9811     75.0032    142.0538   1.1886544490e+02   3.7751262862e+01    0.2342371    0.1706577 -27.97 0.0005232097    1.704    0.413
        72  -8.6395     80.5857    140.2340   1.1690484621e+02   3.7343317438e+01    0.2154377    0.1271459 -47.14 0.0009402071    1.643    0.391
        73  -9.1741    246.5123    139.5349   7.9034659906e+01   4.1354547099e+00     0.137592    0.1188341 -44.82 0.0004522587    1.003    0.003
        74  -9.3740     58.9926    139.3625   1.2292924488e+02   4.0662840158e+01    0.1858765    0.1821015  70.18 0.0004620126    1.122    0.108
        75 -10.4461     54.6975    137.4495   1.2381226248e+02   4.1681465517e+01    0.3757403    0.2354124 -63.19  0.001211922    1.435    0.303
        76  -9.4658     48.4527    138.1573   1.2574291533e+02   4.2262375595e+01    0.4857466    0.2206171  48.20  0.001993878    2.699    0.630
        77  -9.2149     86.5985    134.2068   1.1389324463e+02   3.7852423291e+01    0.2159453    0.1306862 -45.91  0.000603326    1.609    0.379
        78 -10.4214     46.2196    131.2199   1.2513985223e+02   4.4212861941e+01    0.4496058    0.2831087 -46.75  0.002292256    1.488    0.328
        79 -10.7797     71.9818    129.2943   1.1710061753e+02   4.1328136498e+01    0.3504903    0.3013218 -41.74 0.0009296795    1.140    0.123
        80  -9.8766     28.0702    120.5296   1.2865175641e+02   4.8610082341e+01    0.8186499     0.461701  55.45  0.002943866    2.435    0.589
        81 -10.0159     29.5185    127.4971   1.2941806121e+02   4.6825825523e+01    0.3488501    0.2312437 -24.48  0.001654094    1.892    0.472
        82  -9.2650     22.4779    128.4379   1.3163294017e+02   4.7221993734e+01    0.2199846    0.2011744  59.61 0.0007154157    1.262    0.208
        83  -9.0829     25.5006    126.9985   1.3051863931e+02   4.7305305598e+01     0.229063    0.2133372 -78.49 0.0009027454    1.134    0.118
        84 -11.5944     67.5936    122.2907   1.1689328777e+02   4.3644061335e+01     1.120785    0.3657887 -46.21  0.003817506    2.967    0.663
        85 -11.2469     82.1678     86.1240   1.0303819371e+02   4.9404487130e+01     1.350467    0.3592465 -45.04  0.004301092    3.595    0.722
        86  -9.4876     82.6633     74.7703   9.9489707575e+01   5.1509121412e+01    0.3972827    0.1969583  30.93  0.001289468    2.246    0.555
        87 -11.1495     67.9283    107.4148   1.1332016929e+02   4.7058255637e+01     1.314181      0.52101 -33.77  0.003870133    4.592    0.782
        88  -9.9123     90.5714     95.6955   1.0312149156e+02   4.5989316325e+01    0.3901662    0.3452101  85.18  0.001807556    1.402    0.287
        89 -10.1118     74.1762    107.7714   1.1143149575e+02   4.6053758836e+01    0.3737394    0.2758069  30.07 0.0009120459    1.453    0.312
        90 -11.0255     77.3730    101.9289   1.0892708835e+02   4.6860723121e+01    0.7665635     0.340734  36.00  0.002101591    2.368    0.578
        91 -10.6147     86.5969    100.0563   1.0554120732e+02   4.5752589421e+01    0.4538391    0.3705768 -55.63  0.001336862    1.266    0.210
        92  -9.5656     59.8234    125.8964   1.2002559685e+02   4.3839085286e+01    0.2367196    0.2059333   1.67 0.0003893439    1.326    0.246
        93  -9.6868     55.3407    128.2965   1.2186351320e+02   4.3833798620e+01    0.2557679    0.1991666 -20.24 0.0005831936    1.530    0.347
        94  -9.6035     55.8448    124.8618   1.2101736684e+02   4.4598357119e+01    0.2686962    0.2263835 -78.27 0.0006982512    1.233    0.189
        95  -9.8810     38.9269    127.0213   1.2653952555e+02   4.6018310152e+01    0.2255861    0.1396591 -36.62  0.001129288    1.762    0.432
        96 -10.6456     48.5498    124.7401   1.2320806518e+02   4.5508937310e+01     0.450956    0.2535286  58.88  0.001939568    2.622    0.619
        97 -10.2358     40.8697    116.9520   1.2403141592e+02   4.8207789653e+01    0.4142209    0.1933606  52.30  0.001625425    3.354    0.702
        98  -9.5396     75.1944    124.5042   1.1508844145e+02   4.2001564517e+01    0.2506583    0.2039579  60.47 0.0006920881    1.413    0.292
        99  -9.6581     13.2739    117.2596   1.3258273217e+02   5.0559290070e+01    0.3558879    0.1887802  22.73  0.001905616    2.273    0.560
       100  -9.7948     18.1091    123.3555   1.3210986392e+02   4.8777394947e+01    0.3234564    0.2190371  89.10  0.001490665    1.648    0.393
       101  -9.1112     20.0868    118.9488   1.3080189697e+02   4.9653997688e+01    0.4139599    0.2048384 -74.72  0.001947619    2.064    0.516
       102  -9.8029     40.7377    122.8567   1.2522035799e+02   4.6824669419e+01    0.2412819    0.1597271  60.66   0.00121364    1.973    0.493
       103  -9.8097     92.8386    119.6353   1.0868769157e+02   4.0269198568e+01    0.4229025    0.3153323 -27.64  0.001629698    1.533    0.348
       104  -9.9526     92.2316    113.7445   1.0740367267e+02   4.1734648607e+01    0.5338929    0.3346991 -55.68  0.001055585    1.613    0.380
       105  -9.2697     59.3467    120.6317   1.1905734371e+02   4.5160340663e+01    0.2765892    0.2182696  -9.91  0.001484639    1.521    0.343
       106  -9.8395    105.0150    117.6852   1.0466857734e+02   3.8496778632e+01    0.5243217    0.3736637  83.80  0.002221905    2.148    0.534
       107  -9.7197     98.4840    114.5139   1.0575279286e+02   4.0438608621e+01    0.4214383    0.2992151  40.82   0.00200885    1.458    0.314
       108  -9.1103     51.2292    118.4685   1.2111061579e+02   4.6686620066e+01    0.3013029    0.2126813  71.84  0.001497047    1.955    0.489
       109  -9.7885     82.5749    114.6608   1.1054054840e+02   4.3157135121e+01    0.3827799    0.2855751  11.36  0.001226735    1.654    0.395
       110  -9.0052     45.4824    113.4900   1.2186933243e+02   4.8517561589e+01    0.2737769    0.2049818 -29.67  0.001523698    1.403    0.287
       111  -9.8323    132.6585    111.8955   9.5632342765e+01   3.4137317426e+01    0.4767131    0.3689511  50.16   0.00181012    1.306    0.234
       112  -9.2970     33.0575    109.6734   1.2504984543e+02   5.0680325912e+01    0.3784132    0.1615155 -41.73  0.001638268    2.308    0.567
       113  -8.5954    110.2001    224.6010   1.2388031499e+02   1.2145367848e+01    0.1923345    0.1280386  31.64 0.0008369205    1.624    0.384
       114  -8.5806    120.3535    109.3263   9.8216114709e+01   3.7310459834e+01    0.1600176    0.1228954  -1.00 0.0007046984    1.767    0.434
       115  -8.6966    104.4687    109.0662   1.0260180601e+02   4.0541291456e+01     0.229335    0.1449222 -46.23 0.0006096446    1.541    0.351
       116 -10.1669    133.2765    103.3659   9.3209434182e+01   3.5812746664e+01    0.4523664    0.2999137 -35.58  0.001763256    1.614    0.380
       117  -9.3403    141.4277    103.0963   9.1093197348e+01   3.4055064266e+01    0.4058311    0.2235629 -48.65  0.001637529    1.862    0.463
       118  -8.7231    105.8228    102.6116   1.0048326074e+02   4.1685269248e+01    0.2208842    0.1797213  18.53 0.0004744839    1.376    0.273
       119 -10.4963     87.9327     89.9874   1.0232999287e+02   4.7634821508e+01    0.6827053    0.5024063  16.33  0.002894649    1.559    0.359
       120  -9.1462     52.5796    224.1888   1.3622907626e+02   2.0978217057e+01    0.1751519    0.1063526 -61.41 0.0004553591    1.688    0.408
       121 -10.4928    116.7740     99.7119   9.6598576373e+01   4.0099319354e+01    0.4519141    0.3081366  -4.52  0.001822477    2.403    0.584
       122 -10.3339     64.9423     97.8683   1.1187704951e+02   4.9603964657e+01    0.4074183    0.3250342 -42.16 0.0009350839    1.141    0.124
       123  -9.2540     34.6296     99.0696   1.2229657703e+02   5.2927410126e+01    0.2743205    0.2567934   9.61 0.0006970898    1.214    0.176
       124  -9.3146     38.9845     97.0354   1.2036489944e+02   5.2943197339e+01    0.2642135    0.1866552 -23.47  0.001149513    1.501    0.334
       125  -9.3115    159.6419     97.3598   8.5328030241e+01   3.1021515197e+01    0.2864904    0.2696283  24.43 0.0009680788    1.183    0.154
       126  -9.0915     53.3745    104.2988   1.1726982365e+02   4.9701282462e+01    0.2936324    0.1616995 -61.80  0.001348733    1.864    0.464
       127  -9.7946    114.5918     94.6391   9.5791429049e+01   4.1592181185e+01    0.4140395    0.2512366 -50.05  0.001533349    1.727    0.421
       128  -8.7811    188.5230     94.3081   7.8718044976e+01   2.4845104886e+01    0.1910334    0.1442905 -30.90  0.000712303    1.504    0.335
       129  -8.4252    137.3464     90.8364   8.8762582269e+01   3.7419371241e+01    0.2153951    0.1413967 -31.60  0.000943679    1.712    0.416
       130  -8.4424    194.6074     90.1525   7.6615564657e+01   2.4195806064e+01    0.1996239    0.1390987 -30.43 0.0006230145    1.675    0.403
       131  -9.3502     75.0465     89.4768   1.0629538325e+02   4.9880811956e+01    0.3003033    0.1286525  42.25  0.001193566    2.537    0.606
       132  -8.0924    101.2686     88.3140   9.7801682888e+01   4.5517683604e+01    0.1442428    0.1117506  -6.99 0.0002079572    1.550    0.355
       133  -8.6248    153.0008     87.4677   8.4168697629e+01   3.4458085800e+01    0.2319775    0.1438814  50.74  0.001019917    1.573    0.364
       134  -9.7169    146.1556     86.1724   8.5370892133e+01   3.6289768499e+01    0.4681928    0.2361633 -31.07  0.001766505    2.469    0.595
       135  -9.4068    140.7118     85.2027   8.6381239733e+01   3.7721464908e+01     0.366872    0.2402534 -47.04  0.001609152    1.581    0.368
       136  -9.2502    238.5873     86.2412   6.9041818558e+01   1.5207542902e+01    0.1894987     0.121637 -35.09 0.0009583459    1.682    0.405
       137  -8.7741     76.9757     84.4710   1.0423554163e+02   5.0589701251e+01    0.2111053    0.1779613 -35.53 0.0004772839    1.123    0.109
       138  -8.7819    186.3047     84.4177   7.6687987444e+01   2.7158366334e+01    0.2058572    0.1367025  71.68  0.000946072    1.623    0.384
       139 -10.1459    217.0777     80.9811   7.0881478441e+01   2.0701736975e+01    0.5065519    0.2102477 -34.56  0.001925304    2.793    0.642
       140  -8.4695    196.5203     83.0636   7.4583712832e+01   2.5011852522e+01     0.203256    0.1364048 -44.45 -8.894605e-05    1.450    0.310
       141  -9.6679    159.7085     81.4651   8.1101047094e+01   3.3973941451e+01    0.3476654    0.2753215 -74.33  0.001739485    1.420    0.296
       142 -10.1765    134.4891     79.9457   8.6399939816e+01   4.0097027608e+01    0.5305631    0.2693767 -48.52  0.002134456    2.168    0.539
       143 -10.4083    138.9050     75.7821   8.4154673046e+01   3.9829384199e+01    0.4857951    0.2653608 -29.59  0.001710287    2.216    0.549
       144 -10.1372    151.8985     66.8215   7.8748051943e+01   3.8304659596e+01    0.4372007    0.2571658  48.72  0.001020066    1.642    0.391
       145 -10.0023    144.6957     76.5251   8.3026917669e+01   3.8364342013e+01    0.3607155     0.285769 -13.44  0.001802014    1.578    0.366
       146 -10.0521    150.7361     76.9507   8.1798545481e+01   3.6881087507e+01    0.5255961    0.4261555  13.19  0.001596586    1.597    0.374
       147  -9.6793    149.3338     71.6801   8.0644070839e+01   3.8109566504e+01    0.2649554    0.2120481 -71.21 0.0007923024    1.421    0.296
       148 -12.5297    101.4177     78.1058   9.4741369452e+01   4.7443915491e+01     1.688189     1.307909 -62.59  0.008648116    1.624    0.384
       149  -8.7834     36.7596     75.7619   1.1579952721e+02   5.7638235780e+01    0.3300284    0.1189923 -41.36  0.001389079    2.485    0.598
       150  -9.3501    213.7478     75.0334   7.0026668176e+01   2.2439806642e+01    0.2904387    0.1791145 -46.46 0.0004269867    1.516    0.340
       151  -9.3971    215.4945     71.4928   6.8981425965e+01   2.2627644133e+01    0.2379477    0.2271177 -54.00 0.0006860874    1.230    0.187
       152  -9.1524    191.5722     73.2312   7.3032818004e+01   2.7839182879e+01    0.3592812    0.2164172 -80.69 0.0009804068    2.337    0.572
       153  -8.8039    154.5415     71.0195   7.9353363554e+01   3.6993653252e+01    0.2125216    0.1436142 -39.55 0.0006070631    1.548    0.354
       154  -9.3645     84.9852     67.8781   9.6594065061e+01   5.2343209720e+01    0.3169015    0.2148899   0.40  0.001525823    1.928    0.481
       155  -9.6198     80.7740     68.9780   9.8294674514e+01   5.2882624534e+01    0.2177996    0.1852929  24.57 0.0003061751    1.137    0.120
       156 -10.3202    250.2984     64.8820   6.3289276889e+01   1.6269439687e+01    0.5396113    0.1600545 -38.11  0.002017086    3.395    0.705
       157 -10.3992    159.5496     50.7015   7.2822117368e+01   3.8923628839e+01    0.5145945    0.3399384  67.63  0.002030232    1.443    0.307
       158  -9.7501    165.6369     55.2252   7.2929635626e+01   3.6823439641e+01    0.5340189     0.312002 -33.85  0.002478685    1.897    0.473
       159  -9.9600    162.7532     66.1949   7.6392690518e+01   3.5830761193e+01    0.2667065    0.2387957 -72.39 0.0006934312    1.122    0.108
       160 -10.8833    165.5743     62.6195   7.4902720446e+01   3.5721696947e+01    0.6054552    0.4122339 -30.96  0.002901189    1.680    0.405
       161  -9.1448    198.9451     63.1820   6.9465108853e+01   2.7730353028e+01    0.2082094    0.1778439 -81.60 0.0002404729    1.053    0.050
       162  -9.5976    200.8324     59.0057   6.8208611667e+01   2.7933607207e+01    0.3233935    0.2569502  46.03  0.001433583    1.508    0.337
       163  -8.9805    202.8211     55.4007   6.7090715132e+01   2.8013803001e+01    0.2070262    0.1756401  55.62 0.0008253778    1.323    0.244
       164  -9.6193    112.3749     61.7177   8.6616087084e+01   4.8029991871e+01    0.6072355    0.2428066  32.62  0.001717505    4.614    0.783
       165  -9.3436    185.4867     60.7376   7.0962228621e+01   3.1268852429e+01    0.2892089    0.1966446 -76.90 0.0008801662    1.668    0.401
       166  -9.6330    171.3998     48.3127   7.0124657245e+01   3.6435494358e+01    0.3409947    0.2993822  68.34  0.001786879    1.070    0.066
       167  -9.5608    189.2174     49.3419   6.7601968554e+01   3.2065691445e+01    0.2886142     0.204823 -74.90 0.0006630663    1.453    0.312
       168  -9.8292    185.8949     53.8228   6.9193801110e+01   3.2206340251e+01    0.3909035    0.2951632   3.18  0.001957995    2.173    0.540
       169  -9.5347    178.7638     59.2244   7.1688383780e+01   3.3096165893e+01    0.4850047    0.3575601  -3.59  0.001529723    2.166    0.538
       170 -10.1597    174.4572     56.3071   7.1671012818e+01   3.4559554560e+01    0.5682924    0.3364314 -12.69  0.002240822    3.264    0.694
       171 -10.9578    181.3335     50.6013   6.9105957804e+01   3.3751140414e+01    0.6142281    0.4008503  72.96  0.002584984    1.464    0.317
       172  -9.0334    158.6542     58.4076   7.5081479633e+01   3.8014325008e+01    0.3064556    0.1818966  39.12  0.001120802    2.013    0.503
       173  -8.8673    137.6823     59.5263   7.9747176319e+01   4.2765842979e+01    0.2743375    0.1237584  49.58 0.0008249671    2.046    0.511
       174  -9.5731    132.6308     57.2515   8.0222392670e+01   4.4265928765e+01    0.2993814    0.2152778 -27.25  0.001253678    1.564    0.361
       175  -9.8660    134.7855     52.1650   7.8228600181e+01   4.4517468799e+01    0.4184919    0.2854689  15.47  0.001965567    2.126    0.530
       176 -10.9043    147.6126     53.8435   7.5995659351e+01   4.1298452345e+01    0.4500542    0.3917107  74.36 0.0004204727    1.114    0.103
       177 -10.0654    151.2396     50.1500   7.4237269694e+01   4.0969863709e+01    0.2598132    0.2127453  61.07 0.0004936742    1.111    0.100
       178 -10.7041    141.2349     51.7233   7.6707598507e+01   4.3092135111e+01    0.4878702    0.3245949  40.72  0.001597927    1.556    0.357
       179  -9.8108    146.1626     49.2063   7.4972625491e+01   4.2295047673e+01     0.323102    0.2639397  45.40  0.001043308    1.205    0.170
       180  -9.2689    235.4887     54.9985   6.2933678066e+01   2.0818125791e+01    0.1913243    0.1143498 -44.21 0.0007112984    1.564    0.361
       181  -8.9092    193.1197     53.8825   6.8119644813e+01   3.0495557311e+01    0.2155728    0.1644145 -77.90  0.000565498    1.278    0.218
       182  -9.0253    127.6185     52.1833   7.9861018647e+01   4.6141085019e+01    0.3610899    0.1946984 -59.02  0.001404648    3.088    0.676
       183  -8.4783    211.6238     52.1695   6.5184051954e+01   2.6474393688e+01    0.1733866    0.1268756 -27.55 0.0009362841    1.759    0.431
       184  -8.5364     16.5073     50.4255   1.1642805298e+02   6.4211951466e+01    0.1215478    0.0855819 -25.02 0.0003605776    1.158    0.137
       185  -9.5452    225.8316     49.1357   6.2808341397e+01   2.3750349290e+01    0.1951977    0.1456899 -75.54 0.0002603372    1.172    0.147
       186 -10.0447    222.2114     57.2206   6.4958835089e+01   2.3360170494e+01    0.3791825    0.2842088 -83.13  0.001225568    1.225    0.184
       187  -9.4089     94.7679     47.5441   8.6933212252e+01   5.3731327783e+01     0.278461    0.2493876 -39.46 0.0009193355    1.281    0.219
       188  -8.8784    134.2242     46.5721   7.6691790376e+01   4.5422108467e+01    0.2126099    0.1566973 -86.01  0.001080156    1.766    0.434
       189  -9.3480    232.7860     43.3464   6.0851848313e+01   2.3064122752e+01    0.2471598    0.2071273  -0.51  0.001196108    2.053    0.513
       190  -9.0575    206.9082     45.7800   6.4356792809e+01   2.8457084808e+01    0.2804494    0.1720619  64.13  0.001374465    1.535    0.348
       191  -8.4564    207.3668     42.3213   6.3525463198e+01   2.8828527703e+01    0.1676404    0.1236937   2.04 0.0008353101    2.547    0.607
       192  -9.2641    152.7866     44.8490   7.2467941339e+01   4.1328419978e+01    0.3385298    0.1723028 -39.62  0.001545559    2.092    0.522
       193  -9.5422    156.9677     43.9883   7.1466531368e+01   4.0453874377e+01    0.3445348    0.1692063  57.88  0.001187718    1.802    0.445
       194  -8.7827    100.0137     46.0000   8.4927037055e+01   5.2907036472e+01    0.2764791    0.1260725  46.18  0.001064388    1.986    0.496
       195 -10.0074     97.3136     42.2238   8.4414445522e+01   5.3957275028e+01    0.3278674    0.2889773 -42.96  0.001264052    1.336    0.251
       196  -9.7342     99.3932     38.0412   8.2427046373e+01   5.4079839059e+01    0.4586123    0.2787832  46.67  0.002427028    1.468    0.319
       197 -10.4295     66.8724     43.8434   9.4512518205e+01   5.9227283683e+01    0.3192402    0.2157926 -19.46  0.001321922    1.483    0.326
       198  -9.1810    222.7676     45.5984   6.2412228928e+01   2.4923206196e+01    0.2347241    0.1097911  63.67   0.00111728    2.034    0.508
       199  -8.5736     40.5162    221.5089   1.3844956872e+02   2.3116425800e+01    0.1274136    0.1025302  80.61 0.0001935121    1.020    0.019
       200  -8.3191    234.3280    218.7329   9.6848320223e+01  -7.9318113814e+00    0.1111641    0.1040209  72.06 0.0001918755    1.575    0.365
       201 -10.1839    135.8579     33.1951   7.2385334606e+01   4.6731469866e+01    0.4951304    0.2756503  30.42   0.00135201    2.487    0.598
       202 -10.2828    131.8663     40.0749   7.5255355638e+01   4.6808134043e+01    0.6190202    0.3014047  56.19  0.001861075    1.816    0.449
       203  -8.5671      3.3132    213.9741   1.4520087282e+02   2.8819700307e+01    0.2010728   0.06682426  82.14 0.0007046626    4.276    0.766
       204  -8.4619    244.6640    203.7097   9.2157942323e+01  -7.0035427370e+00     0.132288   0.09068316  -4.26 0.0003931905    1.637    0.389
       205  -8.9412    234.1891    200.1720   9.3373874394e+01  -4.7835100000e+00    0.2968129   0.08892699 -36.41  0.001012887    3.443    0.710
       206  -9.0760    245.7702    187.2008   8.8779403153e+01  -4.3568339941e+00    0.1855522    0.1412068 -11.35 0.0009612781    1.347    0.258
       207 -10.8035     20.4552    183.6393   1.3911180750e+02   3.4120629086e+01    0.4957065    0.2459782  24.82  0.002453666    2.633    0.620
       208  -8.8992     37.2332    179.4204   1.3474605713e+02   3.3373327448e+01    0.2268914    0.1349248  25.19  0.001145445    2.139    0.533
       209 -10.0245      1.7054    177.1450   1.4269489996e+02   3.7311279632e+01    0.4958322    0.1553369 -81.51  0.001947742    3.107    0.678
       210  -9.1411     80.3684    176.7239   1.2368041660e+02   2.8277377777e+01    0.2128765     0.123349 -53.40 0.0006768914    1.685    0.407
       211  -9.2926    105.8793     44.3269   8.2782292485e+01   5.1935439560e+01    0.3720427    0.2957429  59.10  0.002151083    1.323    0.244
       212  -8.8077     26.7271    175.9827   1.3684664028e+02   3.5328848608e+01    0.2531154    0.1845029  17.46  0.001468695    1.870    0.465
       213 -10.5359     18.1639    164.7410   1.3763775579e+02   3.8858593730e+01     0.339352     0.225021  64.74 0.0008765131    1.569    0.362
       214  -9.7952     12.5454    165.0357   1.3902932432e+02   3.9277963007e+01    0.2609855    0.1776882  55.26  0.001146546    1.549    0.354
       215 -10.5197      8.4220    162.5175   1.3975322385e+02   4.0217123626e+01    0.3793994    0.2080667  34.13  0.001789066    2.084    0.520
       216 -10.0222      2.4312    161.1360   1.4104316199e+02   4.1005511012e+01    0.3418528    0.1779883 -60.58  0.001768788    1.609    0.378
       217  -8.6404     54.4490    162.5142   1.2811959292e+02   3.5488393048e+01    0.1403575    0.1225367 -72.71 0.0001033529    1.034    0.033
       218 -10.8447     16.4039     31.2070   1.1002241015e+02   6.7359758842e+01    0.2570904    0.1993437 -25.62 0.0006999301    1.155    0.134
       219  -9.7448     77.5957    156.4962   1.2091001535e+02   3.3757948362e+01    0.6146639    0.3131584  70.09  0.001857562    4.423    0.774
       220 -11.2311     37.7265     25.8541   9.8726684350e+01   6.5844930946e+01    0.3839003    0.2815534  31.68  0.001050898    1.462    0.316
       221 -10.4248     40.6049     21.4520   9.5780697046e+01   6.6030856146e+01    0.2557109    0.1836483 -20.55 0.0005239863    1.289    0.224
       222  -9.6095     33.1419    156.0591   1.3276436425e+02   3.9532794328e+01    0.2006881    0.1538996 -51.23 0.0004781141    1.308    0.235
       223  -8.6397     83.8260    154.4139   1.1882483334e+02   3.3305137805e+01    0.2062381    0.1473692  18.81 0.0009530761    1.804    0.446
       224 -11.2223     67.5026     62.0086   1.0050640460e+02   5.6255880452e+01    0.3328182    0.2623324  25.23 0.0008882013    1.232    0.189
       225 -12.0587     19.7572    147.8109   1.3517221788e+02   4.2803608291e+01    0.7110642    0.5053766 -49.98  0.002659911    1.379    0.275
       226  -9.2295    235.6217    249.0085   1.0196143342e+02  -1.2732642409e+01    0.2225107    0.1269057  46.74  0.001161382    2.407    0.585
       227  -9.0120    125.1727    249.0098   1.2401209397e+02   4.6821421424e+00     0.202935    0.1523539 -22.27  0.001068813    1.993    0.498
       228  -8.9843     10.6530    248.3140   1.4605352351e+02   2.0855112568e+01    0.1245305   0.06007265  66.25 0.0004446194    1.718    0.418
       229  -8.7823    249.0000     42.8783   5.9148943167e+01   1.9752254322e+01    0.3865161    0.1340076 -31.17   0.00130712    5.231    0.809
       230  -9.0754    162.3949     40.1174   6.9479844755e+01   3.9671615660e+01    0.6327171    0.3882513 -58.38  0.003115693    1.891    0.471
       231  -8.3497      1.3931     44.2812   1.2104134197e+02   6.6319666800e+01    0.1203811   0.06093834 -26.33  0.000699881    1.752    0.429
       232  -8.8626    219.7680     42.8688   6.2174706290e+01   2.5964773182e+01     0.180693    0.1655521  79.85  0.000625235    1.251    0.201
       233  -9.2260    214.2412     42.2595   6.2683440925e+01   2.7281365247e+01    0.2688364    0.1856276 -16.98  0.001383611    2.354    0.575
       234  -8.7105    225.2999     42.0053   6.1376626011e+01   2.4866632495e+01    0.2426136    0.1117634  55.02  0.000970774    2.396    0.583
       235 -10.3659    202.4770     37.9587   6.3151009054e+01   3.0530730925e+01    0.4103203    0.3018317 -64.68  0.001421139    1.270    0.213
       236  -8.7692    196.9165     41.5079   6.4674256208e+01   3.1343632073e+01    0.1995424    0.1178512  68.68  0.001015779    1.539    0.350
       237 -10.0757    194.4547     31.2342   6.2613805805e+01   3.3238208977e+01    0.3722473    0.3353063 -82.55  0.002444774    1.122    0.109
       238  -9.4520    191.1901     40.0290   6.5095061289e+01   3.2874939354e+01    0.2059952    0.1789536 -60.59 0.0003426147    1.168    0.144
       239  -9.4658    192.9355     36.3038   6.3985210683e+01   3.2952409911e+01    0.2565587     0.213014  65.22  0.001240373    1.206    0.171
       240 -11.5571      7.2434    143.4606   1.3791379071e+02   4.4834007869e+01    0.7403584     0.533056  24.14  0.003063518    1.744    0.427
       241  -9.1310    235.4873     38.9107   5.9684217843e+01   2.3097685419e+01    0.2278189    0.1961529 -73.07 0.0006847687    1.150    0.131
       242 -11.1396    236.2453     32.4662   5.8336962874e+01   2.3794575862e+01    0.4922675    0.4230956 -86.88  0.002626491    1.183    0.154
       243 -10.1305    245.0778     33.3948   5.7702687683e+01   2.1836140787e+01     0.569693    0.2023999  64.14  0.002647777    2.680    0.627
       244  -9.7432    180.4849     38.2925   6.6180820694e+01   3.5618025438e+01    0.4087073    0.2414707 -77.01  0.001678227    2.093    0.522
       245  -9.6946    173.1853     38.3548   6.7286582215e+01   3.7337233187e+01    0.2827775    0.1972808  88.08  0.000456392    1.463    0.317
       246 -10.0720    123.9302     36.5192   7.5895565149e+01   4.9035349430e+01    0.3541013    0.3038627 -88.10  0.001370557    1.359    0.264
       247  -9.3090    125.4326     32.4691   7.4315582685e+01   4.9179052959e+01    0.2241947    0.1807267  31.18 0.0007120554    1.276    0.216
       248 -12.2407     11.4706    131.3966   1.3521136624e+02   4.7382615708e+01     1.055673    0.7564641 -43.37  0.004429092    1.403    0.287
       249  -9.6616    110.0056     38.0404   7.9662581338e+01   5.1880790582e+01    0.3434469    0.1738542 -36.18  0.001191771    2.163    0.538
       250 -11.5164      4.3329     98.9457   1.3233464096e+02   5.5272129837e+01    0.6973861    0.2855461 -52.32  0.003562662    1.809    0.447
       251 -11.7351      4.5173     83.1882   1.2932339833e+02   5.8650144390e+01     1.709668    0.3654195 -57.05   0.00698603    2.899    0.655
       252 -10.0827    189.5263    244.7753   1.1013969586e+02  -5.2267606881e+00    0.3385509     0.239689  70.51  0.001661363    2.584    0.613
       253 -11.6692    101.9752     54.1787   8.7068402722e+01   5.1337456464e+01     1.055524    0.4811079  37.97  0.003122664    2.266    0.559
       254 -10.5665    105.8700     33.2169   7.9112033897e+01   5.3334368832e+01    0.3201756    0.2921503 -63.11 0.0003708399    1.358    0.264
       255 -10.5089    113.5029     32.1347   7.6894316844e+01   5.1839692232e+01     0.233613    0.2004383  15.34  0.000464467    1.221    0.181
       256 -10.0048    142.2433    243.5356   1.1969864624e+02   2.8634322488e+00    0.3520395    0.2194199  20.42  0.001659141    2.110    0.526
       257  -9.6478     13.9043    237.1130   1.4478367955e+02   2.2798336499e+01    0.2947031    0.1565342 -48.32  0.001507978    3.148    0.682
       258 -11.1310    211.5946     33.3104   6.1049427517e+01   2.9061873405e+01    0.6596456    0.3554416  88.17 0.0008860668    1.959    0.489
       259 -10.7472    110.1174     30.0963   7.7035903429e+01   5.2797143216e+01    0.3690105    0.1801394  51.43 0.0005564897    1.754    0.430
       260 -11.4598     68.1779     74.5578   1.0422719807e+02   5.3888837680e+01      0.86975    0.4069462 -43.60  0.003863248    2.026    0.506
       261  -9.4075    155.0308     33.4523   6.8932713633e+01   4.2237325125e+01    0.2463514    0.2009905 -27.60  0.001017062    1.441    0.306
       262  -8.8450     32.4446     33.3392   1.0382570486e+02   6.5440670791e+01    0.2138997   0.09218378 -33.94  0.001102056    2.123    0.529
       263  -9.7848    228.0852     31.0662   5.8845881814e+01   2.5715910145e+01     0.331574    0.2055864 -83.37  0.001056344    1.495    0.331
       264  -9.6971    225.6596     26.9244   5.8247303846e+01   2.6764794774e+01    0.3304885    0.2161899 -79.63  0.001184873    1.351    0.260
       265  -8.7530    198.8454     31.3858   6.2109153534e+01   3.2206247879e+01     0.181988    0.1021661  59.41 0.0006142932    1.691    0.408
       266  -9.1385    169.4698     36.5187   6.7391436402e+01   3.8449591946e+01    0.2388493    0.1865312 -88.50   0.00096157    1.250    0.200
       267  -9.4473    203.0811     29.6125   6.1210217141e+01   3.1456033192e+01    0.2512653    0.1962664 -37.11  0.001184122    1.490    0.329
       268  -8.5107    201.4390     25.4980   6.0485865639e+01   3.2330065475e+01    0.1967926    0.1165293 -41.40 0.0008780006    1.744    0.427
       269 -10.6554    215.5825     25.7790   5.9018300723e+01   2.9114727879e+01    0.4334809     0.235966 -35.64  0.002311679    2.035    0.509
       270 -10.3551    212.3663     24.8250   5.9150745097e+01   2.9945938788e+01    0.2096214    0.1972738 -87.92  0.000361265    1.286    0.223
       271  -9.3935    159.6711     24.0471   6.5656056494e+01   4.2219709724e+01    0.2808992    0.2058181  58.42 0.0007624139    1.221    0.181
       272  -9.5340     12.5992    232.1786   1.4469433773e+02   2.3972401512e+01    0.3049169    0.1563689  75.43  0.001334198    1.710    0.415
       273 -11.3164     26.5809     52.1197   1.1278989300e+02   6.3045565288e+01    0.6155927     0.290787 -20.00  0.001961258    2.781    0.640
       274  -8.7009      3.6230    246.1486   1.4712899472e+02   2.2024504359e+01     0.155062    0.0807976 -71.18 0.0009503329    1.782    0.439
       275 -12.0372     54.4737     37.0565   9.6488864538e+01   6.2078335375e+01      1.25075    0.4094455  37.79  0.005351674    2.926    0.658
       276 -10.9612     53.0946     30.2241   9.4413653811e+01   6.3195356460e+01    0.5580495    0.1961046  32.79  0.001974445    2.907    0.656
       277  -8.4173     40.9545    236.7206   1.3970242117e+02   1.9745541859e+01    0.1600498    0.1025048   7.55 0.0006994595    3.990    0.749
       278  -8.4010    227.5014    231.4777   1.0043241551e+02  -8.9585550807e+00    0.1286533    0.1069687  -0.43  9.79474e-05    1.030    0.029
       279 -11.8052     24.2712     69.6663   1.1883978582e+02   6.0010519634e+01    0.9349783    0.4908517 -33.85  0.003462347    1.735    0.424
       280 -11.7495     58.8831     69.4388   1.0589851863e+02   5.6191025312e+01    0.8434714    0.5883934  37.31  0.004686442    1.558    0.358
       281 -12.5033     37.4881     63.5428   1.1201237013e+02   5.9905873381e+01      1.27074     1.024265  46.76   0.00804048    1.707    0.414
       282  -8.9159     97.6305     22.1599   7.7450566224e+01   5.6246040764e+01    0.1713021    0.1501162 -40.21 0.0007163975    1.390    0.281
       283  -8.6107    202.1819    229.1488   1.0494310919e+02  -4.6380368760e+00     0.169175     0.157443  52.30 0.0004612842    1.324    0.245
       284 -11.1546     31.8625     43.1857   1.0763854577e+02   6.4005865601e+01    0.3291469     0.272691  35.18  0.001508588    1.583    0.368
       285  -9.8608    198.7830     16.6248   5.8819597807e+01   3.3953917213e+01    0.4348704    0.1603666  67.14  0.001764954    2.271    0.560
       286 -10.1431    221.4276     32.6481   5.9844954212e+01   2.6961247067e+01    0.4991688    0.1690902 -38.75  0.001897466    2.829    0.647
       287  -8.9602     83.1958     12.9193   7.7967456340e+01   5.9977305165e+01    0.1640037    0.1301003  32.22 0.0004643666    1.037    0.036
       288  -8.2303    192.4618     12.4438   5.8574497677e+01   3.5841982860e+01    0.1239935    0.1009514  82.10 0.0003014621    1.061    0.058
       289 -10.1368    143.0291     42.9012   7.3793264267e+01   4.3874181172e+01    0.7763582    0.2767976  55.33   0.00294581    2.410    0.585
       290 -12.3764     25.7927     82.4633   1.2153424569e+02   5.7301044145e+01    0.8848363    0.8366144 -28.60  0.006268083    1.179    0.152
       291 -11.8198     17.7503     81.4219   1.2419908310e+02   5.8157225263e+01    0.2630646    0.2216211 -14.66 0.0004052767    1.213    0.176
       292 -11.3912     29.7587    141.5187   1.3158055322e+02   4.3421850101e+01     1.004921    0.6297877  71.83  0.005087817    1.977    0.494
       293 -10.3921     22.6228    137.5921   1.3298043774e+02   4.5019709233e+01    0.3483571    0.2512317 -49.60  0.002067869    1.306    0.234
       294  -9.9270     34.7303    150.5507   1.3156202998e+02   4.0721815611e+01    0.2993634    0.2160896  57.03  0.001238425    1.521    0.342
       295 -11.0023    147.2546     35.7691   7.0952754972e+01   4.3783883951e+01     0.839667    0.6149994  58.81   0.00474715    1.201    0.168
       296 -11.0981     39.3966    147.6196   1.2985607606e+02   4.0951104733e+01    0.4358646     0.380745 -73.31    0.0016844    1.026    0.025
       297  -8.7544      8.2870    150.9976   1.3852849504e+02   4.2967268924e+01    0.1821312    0.1281665 -75.81 0.0004653058    1.134    0.118
       298 -10.0119     66.4981    148.4463   1.2248634193e+02   3.7395153418e+01    0.2983741    0.2778059 -70.57  0.001289419    1.038    0.036
