#   1 NUMBER                 Running object number                                     
#   2 MAG_AUTO               Kron-like elliptical aperture magnitude                    [mag]
#   3 X_IMAGE                Object position along x                                    [pixel]
#   4 Y_IMAGE                Object position along y                                    [pixel]
#   5 X_WORLD                Barycenter position along world x axis                     [deg]
#   6 Y_WORLD                Barycenter position along world y axis                     [deg]
#   7 A_WORLD                Profile RMS along major axis (world units)                 [deg]
#   8 B_WORLD                Profile RMS along minor axis (world units)                 [deg]
#   9 THETA_WORLD            Position angle (CCW/world-x)                               [deg]
#  10 FWHM_WORLD             FWHM assuming a gaussian core                              [deg]
#  11 ELONGATION             A_IMAGE/B_IMAGE                                           
#  12 ELLIPTICITY            1 - B_IMAGE/A_IMAGE                                       
         1 -12.1275    207.3862     39.6316   6.9859544298e+01   2.8665199243e+01     1.189598    0.7391292 -49.97  0.001329604    1.597    0.374
         2 -17.0020    242.8645     13.2480   5.9946024571e+01   2.3656499305e+01     3.988471     2.480589 -40.82   0.02307824    1.599    0.375
         3 -13.5771    240.8954     32.9321   6.4308935560e+01   2.1630816810e+01    0.6126887    0.3560472 -27.06  0.001995001    2.164    0.538
         4 -10.7532    151.8784     31.4825   7.6565445403e+01   4.3438089955e+01    0.6498179    0.4373287 -39.20   0.00226722    1.616    0.381
         5 -11.0343    111.9816     30.4922   8.5058783162e+01   5.2668754125e+01    0.9776431     0.483576 -47.09  0.004147183    2.816    0.645
         6 -10.7216    115.4840     29.4954   8.3834953329e+01   5.2043606798e+01     0.784169    0.2961741 -37.67  0.003169248    2.881    0.653
         7 -13.5642    233.9845     59.7591   7.1135415261e+01   1.9378526617e+01     2.880306     1.238276  79.46    0.0095714    3.929    0.745
         8 -10.0945     97.3304     29.7895   8.8736032335e+01   5.5731632793e+01    0.5756197    0.3880394 -62.49  0.002521166    2.745    0.636
         9  -9.7755     20.6570     15.6611   1.1075743635e+02   6.8649132023e+01    0.4586152    0.2427869  43.73  0.002210519    3.592    0.722
        10  -9.2049    176.9058     14.8540   6.7672137846e+01   3.9184556650e+01    0.2721514    0.1955468  84.15 0.0007213548    1.335    0.251
        11  -9.6325    168.6442      9.1325   6.7281318801e+01   4.1782783641e+01    0.5581253    0.2974453 -83.97  0.002168121    2.619    0.618
        12  -8.1252    152.1783     10.0803   7.0073134398e+01   4.5674009820e+01    0.2078748    0.1631603  41.77  0.001228694    1.259    0.206
        13  -8.6295    179.8121      9.1431   6.5755324013e+01   3.9056202440e+01    0.1984873    0.1572289 -81.13 0.0005409109    1.240    0.193
        14  -9.6319    140.8777      7.6453   7.1251313122e+01   4.8575063920e+01    0.2900608    0.2371443  86.09  0.001052108    1.315    0.240
        15  -9.0041    134.7747      7.6255   7.2347225792e+01   4.9995418310e+01    0.2309062    0.2062746 -61.67  0.001003894    1.318    0.241
        16  -9.3458    160.3952      4.4350   6.7157859853e+01   4.4218031115e+01     0.310856    0.2364912 -39.03  0.001078104    1.489    0.329
        17  -9.6298    175.9291      3.0818   6.4658453508e+01   4.0581859727e+01    0.2947225    0.2263536 -26.20  0.001778627    1.550    0.355
        18  -8.2564    155.9396      4.9802   6.7980032313e+01   4.5240065643e+01    0.2082876    0.1448863 -72.51  0.001130122    1.708    0.414
        19  -9.4560    127.0093      2.8622   7.2257253495e+01   5.2173535453e+01    0.3237844    0.2571554 -61.32   0.00191396    1.593    0.372
        20  -8.8865    101.4764      3.4520   7.7919899608e+01   5.7632813306e+01    0.2439435    0.1938955  82.68   0.00119254    1.693    0.409
        21  -7.8437    181.5611      2.3073   6.3752443724e+01   3.9287496608e+01    0.2150368    0.1187482 -34.74 0.0007326416    1.984    0.496
        22  -9.1326    108.1444      3.4700   7.6378936138e+01   5.6245619570e+01    0.3708017    0.2695037 -82.90  0.001633054    2.118    0.528
        23  -7.9053     79.3369      2.5461   8.3392182687e+01   6.1991080179e+01    0.1858215    0.1037275 -18.78  0.001054402    1.851    0.460
        24  -8.8623    135.4527      1.5195   7.0279875060e+01   5.0357849374e+01    0.2724837    0.1096367  63.99  0.001133894    2.133    0.531
        25  -7.4439     92.6831      3.7161   8.0206087836e+01   5.9372183806e+01     0.128255   0.07568147  29.52 0.0002590111    1.583    0.368
        26  -8.9148     66.3198    144.1964   1.2920618794e+02   3.8055115134e+01    0.3223869    0.2183594 -87.10   0.00148696    1.624    0.384
        27 -11.2296    241.9616    137.7560   8.7822410498e+01   4.2623202504e+00    0.8512248    0.6259661 -55.53  0.003637391    1.490    0.329
        28  -9.1247    247.8742    132.2578   8.5621432801e+01   4.0533026156e+00    0.3812728    0.2815794 -71.19  0.001820009    1.808    0.447
        29  -7.9272    206.6292    141.8078   9.5227337269e+01   1.0967925080e+01    0.2220949    0.1365919 -49.51 0.0007895298    1.693    0.409
        30  -9.1528    197.1732    137.8714   9.6211330185e+01   1.3848464053e+01     0.563934    0.3579176 -16.66  0.002184451    2.417    0.586
        31  -7.6514    222.4782    136.4995   9.0981194268e+01   8.5420647948e+00    0.1472779    0.1399626 -44.08 4.885462e-05    1.036    0.034
        32  -8.9553    231.4728    134.9570   8.9008646889e+01   6.9209493552e+00    0.2532788    0.2052662  72.08 0.0006725054    1.487    0.327
        33  -8.3986    184.2305    134.0255   9.8004953181e+01   1.7566052357e+01    0.2138824    0.1289524 -41.94 0.0008816044    1.654    0.395
        34  -8.1807    193.1483    133.1977   9.5932588614e+01   1.5699730969e+01     0.220181    0.1846816 -72.94 0.0007189058    1.361    0.265
        35  -9.4382    233.2790    127.3996   8.6973654323e+01   7.9232566605e+00    0.2832587    0.2358872 -55.61 0.0009687249    1.224    0.183
        36  -9.1905    166.2531    120.7825   9.8720622280e+01   2.4481307936e+01    0.5530084    0.1983919 -44.84  0.001766354    2.783    0.641
        37  -7.6293    127.5934    124.8355   1.0911945492e+02   3.2129531285e+01    0.2163612    0.1442813 -59.88 0.0005622996    1.617    0.382
        38 -10.9277    243.1469    118.9569   8.3412875779e+01   7.3672957385e+00    0.9717211    0.6113538 -76.84  0.003937605    2.784    0.641
        39  -9.8811    248.2476    116.9964   8.2166091243e+01   6.6571258382e+00    0.5816972    0.3415286 -53.62  0.002660115    1.815    0.449
        40  -9.0245    250.5221    111.0199   8.0482278196e+01   7.2298826417e+00    0.3131055    0.2406596   3.83  0.001590468    1.829    0.453
        41 -10.6003    244.8058    108.5284   8.0792304067e+01   8.8566120899e+00    0.6523572    0.4455386  46.72  0.001274663    1.636    0.389
        42  -9.2944    235.8089    101.4515   8.0567526267e+01   1.2044217402e+01    0.3838136    0.2520926 -33.01  0.001030897    1.538    0.350
        43  -9.5118    152.6128    119.9420   1.0168935209e+02   2.7788325041e+01    0.4808237    0.2700818 -51.47 0.0006764415    1.864    0.464
        44  -8.0519    135.0315    121.0108   1.0628329657e+02   3.1426506832e+01    0.2437244    0.1907288 -86.71 0.0006565466    1.606    0.377
        45  -9.0666    214.1204    117.5615   8.8079301047e+01   1.3973767360e+01    0.2996667    0.1984363 -22.27  0.000692573    1.886    0.470
        46  -8.1857    194.9735    117.7812   9.1815953371e+01   1.8363870621e+01      0.31766    0.2004654 -14.26  0.001166892    2.657    0.624
        47 -10.4458    239.1242    103.2558   8.0466761841e+01   1.1000074452e+01    0.6743303    0.3882181  35.53  0.002302927    2.476    0.596
        48  -9.4408    227.4685    116.0925   8.5357753584e+01   1.1252162356e+01    0.2942841    0.2340895 -61.30 0.0008780534    1.326    0.246
        49 -10.7114    222.8326    111.8878   8.5167168704e+01   1.3060052423e+01     0.694667    0.2896145  49.72  0.002595301    2.501    0.600
        50  -9.2441    203.8559    112.1655   8.8690305799e+01   1.7375986833e+01    0.2394165    0.2057953 -74.16 0.0007039072    1.253    0.202
        51  -9.2041    214.1963    110.2916   8.6313597167e+01   1.5326482653e+01    0.2609732    0.2162245 -46.15  0.000839294    1.156    0.135
        52  -9.8912    233.2451    110.6399   8.3114766936e+01   1.0972139906e+01    0.6508994    0.1746223 -43.46  0.002000323    3.445    0.710
        53  -7.9633    227.0351    105.7264   8.2990661742e+01   1.3238253275e+01    0.2026809     0.192945 -74.82 0.0005849773    1.047    0.045
        54  -8.5865    217.4633    105.5059   8.4574444716e+01   1.5461524130e+01    0.3007573    0.1478619  53.99   0.00119362    2.107    0.525
        55  -8.7334    197.5911    104.6645   8.8023903295e+01   2.0295664876e+01    0.3257613    0.2519133  14.09 0.0009100368    1.776    0.437
        56  -8.3314    147.0211    104.9367   9.9133555119e+01   3.2239737666e+01    0.2422559    0.2355141 -69.64 0.0007969814    1.028    0.027
        57  -9.1482    139.0371    102.7125   1.0050994575e+02   3.4499835675e+01    0.2248532    0.2074403  44.85  0.001166347    1.092    0.084
        58  -7.8022     23.5174    103.4782   1.3381255263e+02   5.2001407362e+01    0.1231333   0.09782083 -59.10 0.0005311319    1.010    0.010
        59  -8.0660    162.1034    102.0981   9.4816946171e+01   2.9311426069e+01    0.2554009    0.1935168 -78.68  0.001127224    1.692    0.409
        60  -9.2445     43.8008    249.4139   1.4566369224e+02   1.8257730344e+01    0.1424222   0.09731735  40.47 0.0009591376    1.728    0.421
        61 -13.7041    227.7931     38.1271   6.6919653345e+01   2.3961455487e+01     1.311143    0.4793777  77.05  0.003288564    3.761    0.734
        62 -10.1946     31.4584    246.7768   1.4748625952e+02   2.0244507561e+01      0.35354    0.1264823  65.09  0.001722708    2.745    0.636
        63 -10.0539     37.4972    242.6159   1.4622297675e+02   2.0298492508e+01    0.2484926    0.1095188  73.35  0.001310984    2.248    0.555
        64  -9.3514    167.2863    100.3314   9.3179387946e+01   2.8429583946e+01    0.3448152    0.2159261 -52.50  0.001438354    1.717    0.417
        65  -8.9647     39.5442     99.0144   1.2817309727e+02   5.1574923241e+01    0.3304907    0.2120152 -89.49  0.001669204    2.250    0.556
        66  -8.8470    201.0091     99.7157   8.6125448601e+01   2.0413146057e+01    0.2160566    0.1998913  72.27   0.00114246    1.084    0.078
        67 -10.2362    229.5248     96.3068   8.0356047839e+01   1.4357122956e+01    0.5889346    0.4634291  25.10  0.002965852    1.680    0.405
        68 -10.1175    226.5663     89.7568   7.9269009769e+01   1.6180305375e+01    0.6688083    0.3766331  58.83  0.002595749    1.849    0.459
        69 -10.5155    219.5056     89.7747   8.0409222221e+01   1.7820392960e+01     1.048774    0.3692002 -33.78  0.003433821    3.164    0.684
        70  -8.4461    227.0426     82.3404   7.7425127606e+01   1.7343243301e+01    0.2438177    0.1965509 -48.75 0.0004650863    1.162    0.139
        71  -8.7459    224.0320     79.4973   7.7203894775e+01   1.8526225682e+01    0.3001196    0.2344681  82.22 0.0007308244    1.342    0.255
        72 -11.8931    218.7151     73.1748   7.6485923760e+01   2.0838933021e+01     0.714183    0.3493653 -47.19  0.002963956    1.985    0.496
        73  -9.5070    142.3678     95.1042   9.7592204355e+01   3.5309995281e+01    0.2834923     0.213547  38.41  0.001330243    1.381    0.276
        74  -9.6989    211.0898     92.6550   8.2537933787e+01   1.9298724058e+01    0.4324331    0.3327379  52.65  0.001234347    1.341    0.255
        75  -9.9182    188.4567     90.8016   8.6233850751e+01   2.5114825138e+01    0.4989375    0.3049114  33.89  0.001995511    2.177    0.541
        76  -8.4004    188.8501     87.1470   8.5197818215e+01   2.5688193906e+01    0.2350241    0.2143074  12.34 0.0006835519    1.283    0.221
        77  -9.6827    155.8339     88.4839   9.2529077882e+01   3.3474090662e+01    0.2869206    0.2256812  30.06  0.001359368    1.437    0.304
        78  -8.5901    179.2859     89.1372   8.7622417668e+01   2.7669487890e+01    0.3206329    0.2094584  85.48   0.00125781    2.273    0.560
        79  -8.2072    106.8328     87.0622   1.0475718169e+02   4.4422290672e+01    0.2247189    0.2003165 -72.53 0.0008818095    1.298    0.229
        80  -7.9711    211.6533     83.8957   8.0264003472e+01   2.0713946425e+01    0.2104265    0.1788597 -51.16 0.0004637573    1.129    0.114
        81  -8.7264    206.8305     82.6795   8.0776035396e+01   2.2089175814e+01     0.345383     0.263552 -42.75  0.001722967    1.284    0.221
        82 -10.1318    157.3683     79.7930   8.9727652965e+01   3.4727711771e+01    0.3911318    0.2637086 -48.39  0.001179319    1.553    0.356
        83 -11.3934    161.7457     72.7264   8.6751310578e+01   3.4921024538e+01    0.6912148    0.5751682  18.84  0.002395187    1.426    0.299
        84  -7.9291    111.7771     80.7414   1.0151065072e+02   4.4705200398e+01    0.2300528    0.1117308 -51.51  0.000840087    2.393    0.582
        85  -8.9317    158.5876     65.8007   8.5430925028e+01   3.6863851329e+01    0.2996385    0.2424261 -75.09 0.0009511969    1.445    0.308
        86  -9.8510    148.4839     77.6478   9.1145066423e+01   3.7234205958e+01    0.3702715    0.3010644  71.34  0.001836731    1.356    0.263
        87  -9.7723    202.8488     72.2200   7.8791933142e+01   2.4844146684e+01    0.7524771    0.2501576 -41.08  0.002561979    2.852    0.649
        88  -8.3277     61.8067     78.9494   1.1626409632e+02   5.3328813355e+01    0.2107479    0.1576545 -30.83  0.001054251    1.256    0.204
        89  -9.1848    185.6453     78.1705   8.3428662404e+01   2.8079104373e+01    0.3678454    0.2082158  73.97  0.001122129    2.361    0.576
        90  -8.7593     81.7289     77.8534   1.0957478589e+02   5.0671732130e+01    0.3516312    0.2366347  57.35  0.001707276    2.067    0.516
        91  -7.9756    191.0565     75.3497   8.1670091989e+01   2.7226456179e+01    0.2443373    0.2049413 -26.67 0.0004697814    1.327    0.246
        92  -8.5044    191.4906     71.5687   8.0591261209e+01   2.7759055892e+01    0.2517415    0.1467953 -37.20  0.000572512    1.746    0.427
        93  -9.7695    168.9320     75.3811   8.5985999554e+01   3.2698316668e+01    0.3263623    0.2927259 -84.08  0.001373544    1.166    0.142
        94  -8.3062    212.1187     73.3349   7.7556989505e+01   2.2398154896e+01    0.2314341    0.1989169 -27.77 0.0004984419    1.304    0.233
        95  -9.7553    180.0775     72.1242   8.2858367834e+01   3.0501630283e+01    0.7541884    0.2551443  62.88  0.002200618    3.790    0.736
        96 -10.3002    169.9704     67.8575   8.3660976911e+01   3.3726183234e+01    0.5323893    0.3780833 -86.29  0.001715688    1.842    0.457
        97 -10.5772    174.6399     62.2916   8.1184605783e+01   3.3474863962e+01    0.5787191    0.4359935 -32.95   0.00197463    1.417    0.294
        98  -8.4042    104.9032     72.3138   1.0091182042e+02   4.7647060927e+01    0.2325535    0.1921829 -48.00 0.0003539808    1.278    0.218
        99  -8.3370    228.0909     71.6010   7.4714672388e+01   1.8881105192e+01    0.2106491    0.1758727 -44.69 0.0004632325    1.171    0.146
       100  -8.1912    175.4948     77.5395   8.5243539556e+01   3.0701639389e+01    0.1525026    0.1450413  86.13 0.0001103808    1.024    0.023
       101  -8.4863    195.8163     70.7970   7.9624855907e+01   2.6815454311e+01    0.2522293    0.2351544  79.26 0.0006803517    1.034    0.033
       102  -8.6128    111.5465     69.7630   9.8232663420e+01   4.6800985538e+01    0.2649018    0.2490751  -8.02 0.0006204878    1.023    0.022
       103  -8.7519    232.4000     68.6020   7.3401484282e+01   1.8361922822e+01    0.2474353    0.2330039 -31.69  0.000631717    1.228    0.185
       104  -9.1012    225.2880     67.7045   7.4189971624e+01   2.0166995874e+01    0.2332166    0.2191463 -38.33 0.0002748998    1.189    0.159
       105  -8.3890    149.5432     67.7089   8.7983125575e+01   3.8724868244e+01    0.2628695    0.1879829  79.14  0.001038901    1.798    0.444
       106  -7.9377     19.6787     68.3207   1.2780141885e+02   5.9691740609e+01    0.1062572   0.08774629  85.39  0.000477977    1.671    0.402
       107  -8.5374    209.6280     65.0809   7.5886745830e+01   2.4347949905e+01    0.2225404    0.1902524 -83.64 0.0005305197    1.131    0.116
       108 -10.5566    199.5279     62.2009   7.6762728667e+01   2.7289055556e+01    0.5102985    0.3582343  30.79 -0.000133754    1.948    0.487
       109  -9.6121    161.2855     60.0440   8.3190895954e+01   3.7136162663e+01    0.3619058    0.3007579 -22.95  0.001341186    1.335    0.251
       110  -7.6466     80.5042     62.4941   1.0524055022e+02   5.3759616893e+01    0.1343148     0.120385 -13.66 -2.28781e-05    1.011    0.011
       111  -9.3974    187.1035     58.9051   7.7985120148e+01   3.0897335999e+01    0.4654447    0.2913783  31.01  0.001216424    2.314    0.568
       112  -9.4829    182.5359     55.5558   7.7875736600e+01   3.2553032830e+01    0.5024448    0.3198079 -56.90  0.001502012    1.767    0.434
       113  -9.2515    166.0729     62.7246   8.2988622504e+01   3.5529936861e+01    0.3440928    0.2148262 -31.43  0.000779469    1.738    0.425
       114  -8.2295    107.0000     58.9874   9.6076516252e+01   4.9576019751e+01    0.2244801   0.07795554 -37.73 0.0007022188    2.889    0.654
       115  -7.6191     65.5044     59.4866   1.0922985100e+02   5.6559791857e+01    0.1279029    0.1141635 -22.42 0.0001752916    1.078    0.072
       116  -7.8314     90.5198     58.0086   1.0062528699e+02   5.2843294310e+01    0.2031086    0.1274592 -38.04 0.0007910667    1.553    0.356
       117  -8.7971    149.8372     56.8041   8.4658979309e+01   4.0424090197e+01    0.2031219     0.174542 -80.46 0.0008376861    1.330    0.248
       118  -8.7498    206.6493     55.8107   7.4012468232e+01   2.6519818635e+01    0.2140521    0.1795806  61.78 0.0003409842    1.187    0.157
       119  -9.7117    165.1671     52.6406   8.0268432318e+01   3.7316854375e+01    0.5177744    0.2995951  80.43  0.001874169    2.475    0.596
       120  -9.7342    175.4408     53.5566   7.8594424110e+01   3.4626885271e+01    0.5908937    0.4053385 -78.53  0.002699991    1.862    0.463
       121  -8.7181    170.7360     52.5605   7.9183372099e+01   3.5947632697e+01     0.312855    0.2170678 -80.87 0.0008290463    1.853    0.460
       122  -8.4805    191.4092     52.5161   7.5553218383e+01   3.0792052299e+01    0.3477127    0.1587588 -40.88  0.001013132    2.181    0.541
       123  -8.0528      2.3312     53.6840   1.3052287571e+02   6.3591365859e+01   0.09660258   0.08158039  84.83 0.0007046414    1.683    0.406
       124  -8.4418    143.2961     51.4417   8.4468315717e+01   4.2797159333e+01     0.244675    0.1705175 -55.77  0.001080041    1.735    0.424
       125  -7.3817     45.3478     48.6833   1.1286405450e+02   6.1007461550e+01    0.1075798   0.09809306  87.59 0.0007048033    1.727    0.421
       126  -8.7242    193.4417     45.5778   7.3400801544e+01   3.1289627451e+01     0.322066    0.2207609 -31.14 0.0008477716    1.612    0.380
       127  -8.0143    181.2573     46.7339   7.5683974440e+01   3.4168446415e+01    0.1918444    0.1594714  39.97 0.0004220789    1.320    0.243
       128  -9.4340    105.6905     45.8759   9.2063913190e+01   5.1892407736e+01    0.3858047    0.2430023 -67.45  0.001500836    3.596    0.722
       129  -8.4926    153.5275     46.5263   8.0784503792e+01   4.1058366862e+01     0.310825    0.1342039  58.08  0.001210411    2.170    0.539
       130  -8.3059     58.2721     45.7929   1.0717729131e+02   5.9896878657e+01    0.1847013    0.1435891 -45.42 0.0006707369    1.442    0.306
       131  -8.7541     90.6297     44.8438   9.6102100815e+01   5.4926794185e+01     0.265335    0.2113874  53.92   0.00123753    1.496    0.332
       132  -8.9481     84.5036     42.6055   9.7208374556e+01   5.6349613194e+01    0.2898031    0.2160293  67.93  0.001524833    2.170    0.539
       133  -9.2005    195.7316     40.7054   7.1784524458e+01   3.1395577038e+01    0.2128289    0.2018514  64.46 0.0004320047    1.138    0.122
       134 -11.0894    123.2890     36.2486   8.4225650041e+01   4.9497502550e+01    0.5498285    0.4017946 -31.75  0.001754093    1.459    0.315
       135  -8.3187    189.1273     38.6576   7.2241366190e+01   3.3314654129e+01    0.2553931    0.1810458 -50.15  0.001318398    1.451    0.311
       136  -9.3428    172.5639     37.8049   7.4683004460e+01   3.7555957658e+01    0.4873398    0.2858558  84.04  0.002087244    2.174    0.540
       137  -7.9943    102.7901    231.7641   1.3348231475e+02   1.3131186280e+01    0.1823486    0.1246508  68.02 0.0005501045    1.354    0.261
       138  -8.6969     88.3827     36.1499   9.3680106514e+01   5.6583174117e+01    0.3384705    0.2610844 -82.90  0.001737127    2.513    0.602
       139  -8.2968     89.7735     32.3831   9.1882213319e+01   5.6833779997e+01     0.198213    0.1198591  44.60 0.0004905122    1.587    0.370
       140  -8.2690     73.0514     37.3020   9.9002206110e+01   5.9036390575e+01    0.1766409     0.150161  17.42 0.0005435553    1.114    0.103
       141  -9.1401    138.9857     35.5538   8.0435452399e+01   4.6004425924e+01    0.2665891    0.2033497 -28.38 0.0003551038    1.421    0.296
       142  -8.9943    135.7072     31.0087   7.9685457076e+01   4.7332495589e+01    0.3198445    0.2365248 -67.35 0.0009971109    1.804    0.446
       143 -11.2083     45.0385    221.8823   1.4332060372e+02   2.3420390511e+01    0.8897004    0.4517553  60.68  0.004755945    1.724    0.420
       144  -7.6523     79.0000    218.9542   1.3663448517e+02   1.9381037967e+01    0.1928098   0.06663596 -64.84 0.0007964702    2.901    0.655
       145  -8.8075    161.3324     33.7906   7.5500601908e+01   4.0848145483e+01    0.3020005    0.2339695  62.93 0.0009551494    1.174    0.148
       146  -7.7767     86.5876    213.7140   1.3453127669e+02   1.9314774710e+01    0.1694137    0.1124732 -82.69 0.0006605256    1.501    0.334
       147  -8.0628    185.3023     28.4132   7.0095876006e+01   3.5572844829e+01    0.2299699    0.1653969  58.77 0.0006389802    1.285    0.222
       148  -9.6191    193.1200     31.4435   6.9764766172e+01   3.3258231139e+01    0.5727426    0.3048365  86.05   0.00186371    2.338    0.572
       149  -7.9279    189.5486     27.4730   6.9237743828e+01   3.4634223262e+01    0.2545756    0.1819285  69.57 0.0005881966    1.252    0.202
       150 -10.7499     28.4992    208.1436   1.4520519759e+02   2.8188468335e+01    0.5279477    0.4276402  79.89  0.002841394    1.137    0.121
       151  -7.7883    171.4398     31.9160   7.3214908239e+01   3.8585505421e+01    0.1916851    0.1029639 -55.69 0.0008034449    2.327    0.570
       152  -8.6867    201.4590     28.1081   6.7783568741e+01   3.1617915609e+01     0.249664    0.1896337 -72.12 0.0009715895    1.293    0.227
       153  -8.3796    162.8743     27.2535   7.3325025618e+01   4.1261588387e+01    0.2125746    0.1771472  85.77 0.0006736861    1.212    0.175
       154  -9.1103    156.0511     25.4844   7.3995578042e+01   4.3133507539e+01    0.3531396      0.25363  82.69  0.001851811    1.515    0.340
       155  -8.4050     84.4317     24.6719   9.0608257664e+01   5.8776500906e+01      0.24587    0.1942962 -60.68  0.001036795    2.029    0.507
       156  -8.8092    175.7139     23.5432   7.0209613959e+01   3.8524619616e+01    0.2501672    0.1940499 -49.74  0.000773203    1.375    0.273
       157  -8.5751    174.2947     19.8372   6.9405847136e+01   3.9291325123e+01     0.216595    0.1660736  79.01 0.0005535109    1.210    0.174
       158  -9.1669    180.5298     21.5833   6.8965748385e+01   3.7557269787e+01    0.2497635    0.1993505  54.23 0.0004960843    1.222    0.181
       159  -7.3153    190.2896     21.3451   6.7545726442e+01   3.5174805664e+01    0.1335923   0.09810623  37.40 0.0004897039    1.655    0.396
       160  -8.6747    164.1687     18.9246   7.0712392472e+01   4.1878323641e+01     0.288954    0.2150113 -54.40 0.0008683916    1.493    0.330
       161  -8.1959    103.1951     19.0700   8.3240061841e+01   5.5799768786e+01    0.2053555    0.1546293  23.94  0.001108342    1.246    0.198
       162  -8.6101    155.8275     17.9187   7.1790383007e+01   4.4015451687e+01    0.3282145    0.2047612  82.67  0.001422002    1.827    0.453
       163  -7.7766    184.7983     17.5991   6.7312283032e+01   3.6948446378e+01    0.1919415    0.1160006  80.87 0.0009401541    1.628    0.386
       164  -8.1813    173.9119    204.5534   1.1500028781e+02   5.5445766286e+00    0.1973629    0.1880527 -53.19 0.0005370164    1.158    0.137
       165  -9.0795    137.9918     16.0138   7.4418262685e+01   4.8456090276e+01     0.228457    0.1402688  33.54  0.001147415    1.758    0.431
       166  -8.2033     68.8720     15.7725   9.2048980181e+01   6.2479458268e+01    0.2109105    0.1501217 -47.95  0.001236705    2.128    0.530
       167 -11.0930     57.6823    197.7378   1.3855333165e+02   2.6887897392e+01    0.5025596     0.289687  32.44  0.002648444    2.164    0.538
       168 -11.3465     48.1829    186.7613   1.3930939405e+02   3.0519438693e+01    0.4696908    0.3210786  68.80  0.002822282    1.343    0.255
       169  -7.9041     80.4755     11.4875   8.6660028122e+01   6.0946460726e+01    0.1226207    0.1008961  19.69 0.0008100277    1.010    0.010
       170  -8.0905    108.2487    187.2372   1.2626706464e+02   2.1478692520e+01     0.200966    0.1499667  74.62 0.0008709884    1.377    0.274
       171  -7.5475     28.7888     10.6054   1.0510446165e+02   6.8516916409e+01    0.1261558   0.09321921  25.53 0.0002989248    1.490    0.329
       172  -8.9476     35.2814    185.9960   1.4189877277e+02   3.2192391018e+01    0.2261688     0.135609  67.58  0.001184268    1.579    0.367
       173  -8.6730     39.9338    185.0000   1.4083909032e+02   3.1888314012e+01    0.1808925   0.06737947  35.02 0.0008059805    2.967    0.663
       174 -10.8832     51.4036    174.7694   1.3721857893e+02   3.2831957781e+01    0.3358841    0.3116272  10.39  0.002233188    1.521    0.343
       175  -8.9288    248.9108    168.8682   9.3330020637e+01  -2.4459969642e+00    0.3358589    0.1805578 -44.03  0.001559585    1.885    0.470
       176  -8.2019    227.7996    168.3858   9.7035071964e+01   1.5954613926e+00    0.2054514    0.1278247  33.64 0.0009562757    1.713    0.416
       177  -8.9305     61.1475    166.9034   1.3397795461e+02   3.3405978364e+01    0.2101806    0.1579592  78.99 0.0009155013    1.275    0.215
       178  -7.7840    145.1982    156.3995   1.1196225864e+02   2.1331539397e+01    0.2226959    0.1402721  55.11  0.000945293    1.671    0.402
       179  -7.3447    222.6806    155.3256   9.5173907061e+01   4.9857002526e+00     0.144409    0.1162749 -77.01 0.0007046204    1.678    0.404
       180 -10.5183    178.3653    150.6390   1.0314312056e+02   1.5425405569e+01    0.6205744    0.5103548 -86.29  0.002403684    1.487    0.327
       181  -7.9984    234.6279    149.7958   9.1762432485e+01   3.5760667192e+00    0.2067306    0.1244711 -47.40  0.000602028    1.703    0.413
       182  -8.1755      5.8324    150.5872   1.4463774545e+02   4.2816890992e+01    0.1498005   0.09327941  51.57 0.0009482317    1.739    0.425
       183  -7.9112     80.8012    148.8066   1.2632895900e+02   3.4892555168e+01    0.1997284    0.1541453  87.36 0.0006979039    1.359    0.264
