#   1 NUMBER                 Running object number                                     
#   2 MAG_AUTO               Kron-like elliptical aperture magnitude                    [mag]
#   3 X_IMAGE                Object position along x                                    [pixel]
#   4 Y_IMAGE                Object position along y                                    [pixel]
#   5 X_WORLD                Barycenter position along world x axis                     [deg]
#   6 Y_WORLD                Barycenter position along world y axis                     [deg]
#   7 A_WORLD                Profile RMS along major axis (world units)                 [deg]
#   8 B_WORLD                Profile RMS along minor axis (world units)                 [deg]
#   9 THETA_WORLD            Position angle (CCW/world-x)                               [deg]
#  10 FWHM_WORLD             FWHM assuming a gaussian core                              [deg]
#  11 ELONGATION             A_IMAGE/B_IMAGE                                           
#  12 ELLIPTICITY            1 - B_IMAGE/A_IMAGE                                       
         1 -15.6681    211.4862     69.9379   7.3907662556e+01   2.3313329509e+01     10.75316     5.140168  85.26   0.03207551    4.684    0.787
         2 -17.9240    244.0393     35.7900   6.2197539515e+01   2.0919875173e+01     6.388603     4.397312 -30.03   0.01886146    1.785    0.440
         3 -13.8071    232.2311     34.5692   6.3144645467e+01   2.3704122943e+01    0.5055032    0.3185879 -21.92  0.001558434    2.317    0.568
         4 -11.3136    112.8479     20.2114   7.7991097458e+01   5.3525416645e+01    0.4928054    0.1549229 -30.67  0.001959798    3.319    0.699
         5 -11.8741    142.6481     11.6824   6.9310606453e+01   4.7622849608e+01     1.085241    0.4324198 -23.51  0.004203097    2.998    0.666
         6  -9.8343    156.5893      9.9777   6.6591376091e+01   4.4490629576e+01    0.4217598     0.231597  -8.93  0.001994056    2.721    0.632
         7  -8.9733    163.8594     12.7802   6.6296878962e+01   4.2485030723e+01    0.1946761    0.1868499 -35.10  0.000706032    1.230    0.187
         8  -8.7416    216.6425      1.8397   5.7639553856e+01   3.1111452134e+01    0.1615381    0.1433499  49.71  0.000587231    1.471    0.320
         9  -9.1024    209.8568      1.8098   5.8248597567e+01   3.2668044103e+01    0.1789936    0.1365869 -83.28 0.0003788716    1.086    0.079
        10  -9.5695     79.1016     14.8567   8.4897688547e+01   6.0786854990e+01    0.2730063    0.1651262 -25.08  0.000941622    1.725    0.420
        11  -8.7983      2.6712    248.9972   1.5036103913e+02   2.2584000421e+01    0.1573814   0.04941794 -59.49 0.0007051696    4.349    0.770
        12 -11.6001    250.5554    232.6738   1.0210443683e+02  -1.2361634952e+01    0.2746771    0.1364825 -28.95 0.0005495832    1.989    0.497
        13 -11.6385    247.2647    248.3847   1.0539878080e+02  -1.3952702232e+01    0.9436505    0.6525954 -19.66  0.006072093    1.382    0.276
        14 -12.7162    223.6122    248.1308   1.0961337361e+02  -1.0464635363e+01     2.485456    0.5965532  37.22  0.008991074    3.776    0.735
        15  -9.0658    189.4229    170.2224   1.0174242395e+02   9.0200317579e+00    0.2056053    0.1415955 -54.90 0.0004841423    1.607    0.378
        16  -8.4254    110.0823    140.0850   1.1391572405e+02   3.2176687838e+01    0.2044378    0.1957762 -30.78  0.001106575    1.137    0.121
        17  -9.0689    204.8243    162.5664   9.6931332433e+01   7.3694624335e+00    0.3591228    0.1938423 -57.26  0.001063297    2.503    0.600
        18 -11.2371     51.9738    157.2275   1.3221906851e+02   3.7043462591e+01    0.3395789    0.3226134 -41.94 0.0009247176    1.279    0.218
        19 -10.0075    135.2439    124.2798   1.0366513026e+02   3.0760166730e+01    0.4636924    0.2021067 -58.34  0.001437319    3.212    0.689
        20  -7.9185    153.6390    131.7171   1.0098311614e+02   2.5065944454e+01    0.1595576    0.1271785   8.50 0.0007017782    1.677    0.404
        21 -10.6829    160.4657    128.6503   9.8631674907e+01   2.4202314368e+01    0.4183892    0.2946572 -51.51  0.001867046    1.433    0.302
        22  -8.2743    146.2063    157.3674   1.0865782236e+02   2.0902895349e+01    0.2202601    0.1410725  54.63 0.0005177425    1.650    0.394
        23 -11.1702    171.8134    126.6232   9.5562679512e+01   2.2044642870e+01    0.4780682     0.316108  67.30  0.001847967    1.881    0.468
        24 -10.6332    158.9595    115.4388   9.5660892803e+01   2.7379529268e+01    0.5574175    0.3437596 -79.24  0.001861928    3.197    0.687
        25 -13.2548     63.1917    149.9824   1.2822178271e+02   3.7347740401e+01     1.628575     1.170208 -23.83  0.005068952    2.039    0.510
        26  -9.5249    129.0418    115.6054   1.0305919145e+02   3.4015763741e+01     0.291752    0.2158734 -65.92 0.0007035702    1.554    0.356
        27 -10.0648    134.9992    113.5271   1.0098833248e+02   3.3189829256e+01    0.3563715    0.1701111 -46.88  0.001324485    2.080    0.519
        28  -8.8986    112.0226    155.0394   1.1657480678e+02   2.8255298281e+01    0.2149351    0.2024483 -88.96 -0.002661949    1.008    0.008
        29 -10.8111    125.9896    109.4193   1.0224265165e+02   3.6015822673e+01    0.5812004    0.3572129  83.48  0.001833813    3.903    0.744
        30 -13.0005     25.8934    171.2108   1.4017290540e+02   3.6634574437e+01    0.8344502    0.6817949  87.39  0.003796972    1.064    0.060
        31 -10.3370    132.6525     99.4303   9.7810800259e+01   3.6693207501e+01    0.4443499    0.2510535 -56.96 0.0005228043    2.154    0.536
        32  -9.6200    145.1958    103.3542   9.5747072295e+01   3.3071119560e+01    0.3322171    0.2505267  22.95 0.0008337259    1.665    0.400
        33 -10.7101    122.5045    102.9138   1.0142313717e+02   3.8144460300e+01    0.3628505    0.2239411  48.00  0.001574533    1.659    0.397
        34 -12.1217    168.2501     90.6169   8.7045675175e+01   3.0154667995e+01    0.9222938    0.6899821 -29.72   0.00138308    1.483    0.325
        35 -10.7699    163.4693     92.4682   8.8573761325e+01   3.0952200924e+01    0.3806643    0.3012968 -64.28  0.001367726    1.382    0.276
        36 -10.4601    153.9580     98.5373   9.2361379122e+01   3.2021169143e+01    0.4712687      0.28286  47.02  0.001327161    1.666    0.400
        37  -9.9410    173.8454     86.8829   8.4883280905e+01   2.9495328038e+01    0.3418549    0.2434632  43.39 0.0003876273    1.490    0.329
        38  -9.9869    138.4116     93.7682   9.4783828462e+01   3.6555599466e+01    0.3713012    0.3152053  72.65 0.0006692747    1.301    0.232
        39 -10.6811    151.1954     89.5947   9.0546951726e+01   3.4418574117e+01    0.3260679    0.2581807 -39.53 0.0005478599    1.286    0.223
        40 -10.2956    156.0206     80.0629   8.6787687001e+01   3.5043281271e+01    0.3572445    0.2946412 -45.57  0.001817395    1.235    0.191
        41  -8.4094    151.2889     81.3407   8.8207932588e+01   3.5939292470e+01    0.1521489     0.120447  10.75 0.0002182344    1.644    0.392
        42  -8.9823     80.0407     78.5223   1.0685810269e+02   5.1072224581e+01    0.2141896    0.1689901 -38.88 0.0004875967    1.188    0.158
        43 -10.6167    109.2169     76.3899   9.7440715967e+01   4.6167346728e+01    0.2930744    0.2311699  -4.19  0.001491934    1.480    0.324
        44  -8.6313    105.6905     60.6852   9.3501647159e+01   4.9623698999e+01     0.143405    0.1050701   9.66 0.0004684649    1.632    0.387
        45  -8.6011    103.6179     51.8821   9.1188722513e+01   5.1431229003e+01    0.1842931    0.1726085 -15.28 0.0007064111    1.102    0.093
        46 -10.5387    118.7262     42.7361   8.4153772633e+01   4.9572280369e+01    0.3619701    0.1524016 -34.63  0.001498483    2.489    0.598
        47  -8.5036     17.8352    233.1915   1.4697723829e+02   2.4038590212e+01     0.136527    0.1131062 -87.78  0.000439361    1.313    0.238
        48 -11.1464    126.1631     40.8859   8.1769000184e+01   4.8170336658e+01    0.4072976     0.283993  37.63   0.00213644    1.405    0.288
        49 -11.0824    122.8271     38.1666   8.1667427499e+01   4.9269778045e+01     0.289935    0.2357421  -9.74  0.001344544    1.352    0.261
        50 -10.5871    162.7185     37.7188   7.3416908780e+01   3.9945472185e+01    0.4225756    0.2362088 -36.05  0.001435375    1.910    0.476
        51 -11.1661    109.5366     38.3522   8.5013709030e+01   5.2121884265e+01     0.404657    0.2848853  20.21  0.002151285    1.569    0.363
        52  -8.6180    171.2453     29.0107   6.9603843144e+01   3.8937692765e+01    0.3302818    0.1174763 -26.76  0.001214516    3.505    0.715
        53  -9.6763    164.3046    211.6070   1.1510978109e+02   5.7491504803e+00    0.2302928    0.2201563  19.52 0.0003445086    1.088    0.081
        54 -10.3123    112.4976     29.5263   8.1259393944e+01   5.2580984391e+01     0.216556    0.1642455  58.44 0.0007284713    1.315    0.239
        55  -9.8600    192.2009    193.6025   1.0593831942e+02   3.8628276200e+00    0.6377404     0.293921 -60.88  0.001832719    5.277    0.810
        56  -9.1902    159.9399     27.8168   7.1091882316e+01   4.1824762776e+01     0.207149    0.1960623 -43.12 0.0004358116    1.184    0.156
        57  -8.6033     92.3017     25.9848   8.5296265465e+01   5.7113672247e+01      0.17648    0.1477555  -7.43 0.0008791781    1.194    0.162
        58 -12.5354     14.2330    183.5862   1.4388728519e+02   3.4947793914e+01    0.8082704    0.4266907 -85.85   0.00454357    1.599    0.375
        59 -12.4472      5.6122    175.8482   1.4499721811e+02   3.7441625070e+01     1.198066    0.3399061 -74.90  0.005098229    2.819    0.645
        60  -8.4235    167.5588     13.5137   6.5966591701e+01   4.1523943746e+01    0.1308184     0.111986  74.22 1.469154e-05    1.007    0.007
        61 -10.5475    214.0056    187.5096   1.0034435496e+02   8.3540178256e-01    0.3941403    0.2063478  45.46  0.001739675    1.958    0.489
        62  -8.0384    206.5648     10.5451   6.0516256636e+01   3.2524616927e+01    0.1264433    0.1054172  85.87 0.0003856714    1.058    0.054
        63 -11.2725    178.7948    149.3755   9.9422476399e+01   1.5628972973e+01    0.4848762    0.4282106 -23.85  0.001461906    1.219    0.180
        64 -10.2908    218.3263    181.5844   9.8300753594e+01   1.1001924975e+00    0.3847232    0.1649542  36.97   0.00149081    2.536    0.606
        65 -10.1705    213.9031    180.1296   9.8858726313e+01   2.2075259477e+00       0.2225    0.2070506 -10.20 0.0005447287    1.017    0.017
