#   1 NUMBER                 Running object number                                     
#   2 MAG_AUTO               Kron-like elliptical aperture magnitude                    [mag]
#   3 X_IMAGE                Object position along x                                    [pixel]
#   4 Y_IMAGE                Object position along y                                    [pixel]
#   5 X_WORLD                Barycenter position along world x axis                     [deg]
#   6 Y_WORLD                Barycenter position along world y axis                     [deg]
#   7 A_WORLD                Profile RMS along major axis (world units)                 [deg]
#   8 B_WORLD                Profile RMS along minor axis (world units)                 [deg]
#   9 THETA_WORLD            Position angle (CCW/world-x)                               [deg]
#  10 FWHM_WORLD             FWHM assuming a gaussian core                              [deg]
#  11 ELONGATION             A_IMAGE/B_IMAGE                                           
#  12 ELLIPTICITY            1 - B_IMAGE/A_IMAGE                                       
         1 -14.0570    163.0641     51.5954   7.7277482880e+01   3.7966867988e+01     1.782693     1.237137  19.71  0.006128076    2.102    0.524
         2 -13.8465    176.0234     35.9645   7.0731551275e+01   3.6915059708e+01    0.8781896    0.8119403 -71.77  0.003036474    1.107    0.096
         3 -13.0680    180.3885     28.8785   6.8200692237e+01   3.6723349368e+01    0.5044705    0.4747372  36.86  0.001365191    1.255    0.203
         4 -12.3040    189.9312     14.9434   6.3409851974e+01   3.5994986820e+01     0.343682    0.2458348 -69.12  0.001153507    1.390    0.281
         5 -13.6895    194.8930      4.6832   6.0386908214e+01   3.5870740023e+01    0.9148584    0.5438159  72.34    0.0040785    1.410    0.291
         6 -10.5627    158.8036    204.8996   1.1510786963e+02   8.1085562719e+00    0.3673021    0.2000919  57.16  0.001367725    2.202    0.546
         7 -18.9576     59.0879    245.3956   1.4065437559e+02   1.6559067007e+01     6.434529     5.486447  55.82   0.04109564    1.317    0.241
         8 -11.4505    139.2115    200.3804   1.1859099406e+02   1.2771972350e+01    0.2955109    0.2020534 -69.08  0.001413481    1.717    0.418
         9 -11.3841    208.4848    197.2564   1.0336460069e+02   1.0724948009e-01    0.2573614    0.2239049  53.08 0.0006115095    1.297    0.229
        10 -10.9113    160.8304    197.7131   1.1337667714e+02   9.1688391765e+00    0.2736852    0.1946289 -23.85  0.001280349    1.880    0.468
        11 -11.1244    154.7644    196.7814   1.1453033286e+02   1.0541133738e+01    0.3129777    0.2463405  65.80  0.001281136    1.385    0.278
        12  -9.7785    180.1673    192.1947   1.0817897476e+02   6.4837113512e+00    0.1981468    0.1711046  71.64 0.0005081293    1.343    0.255
        13 -11.5252    167.7047    189.5946   1.1035235346e+02   9.4764014418e+00    0.3912447    0.3151023   1.15   0.00182929    1.571    0.363
        14 -19.0982     42.7399     97.0560   1.2381969569e+02   5.2142810844e+01     18.37347     1.244078 -58.07   0.03131099   14.249    0.930
        15  -9.9716    176.4940    187.9473   1.0813128491e+02   8.0590741712e+00    0.2215472    0.1456397 -46.10  0.001030504    1.584    0.369
        16 -11.9869    152.6069    184.1404   1.1264419714e+02   1.3641746729e+01    0.4706232    0.2987576 -84.00  0.001783022    2.818    0.645
        17 -10.2590      7.5521    212.5263   1.4740948027e+02   2.9320543818e+01    0.1575912    0.1056367  39.59 0.0006352141    1.735    0.424
        18 -13.5526     12.0065    205.3814   1.4608746401e+02   3.0393934869e+01    0.4064083    0.3979944  36.49  0.003222232    1.569    0.363
        19 -11.6910    207.1694    179.7136   1.0010059297e+02   3.5875132064e+00    0.7077554    0.4097556  26.47  0.002980917    2.193    0.544
        20 -11.9172    136.4253    179.4758   1.1545441279e+02   1.7878728716e+01    0.3316603    0.2072356  41.96 0.0007871732    1.568    0.362
        21 -13.0094    193.8382    193.4724   1.0557598172e+02   3.5715071811e+00     1.196993    0.6055117 -56.51  0.003109379    2.816    0.645
        22 -10.0150      1.8463    177.1275   1.4588041864e+02   3.7469244784e+01    0.1197488    0.1032978 -83.62 -0.000430966    1.227    0.185
        23 -11.9100    196.0192    171.1184   1.0055947345e+02   7.4835752262e+00    0.7092682    0.3960353 -49.92  0.002468689    1.917    0.478
        24 -10.5382    193.8068    164.9495   9.9693924397e+01   9.1770122690e+00    0.3130293    0.2694173 -50.57 0.0008037257    1.191    0.160
        25 -11.6941    230.6467    167.2796   9.3005203505e+01   1.3774804075e+00    0.5035031    0.1967999 -49.68  0.001759511    3.159    0.683
        26  -9.4903    179.1358    206.1285   1.1102332611e+02   3.9910988763e+00     0.181661    0.1623535  69.97  0.001025801    1.272    0.214
        27 -11.7261    120.7362    164.3474   1.1626844910e+02   2.4406649692e+01    0.5256233    0.2512385  52.79  0.001823074    2.336    0.572
        28  -8.7182     25.3124    162.2739   1.3930846154e+02   3.8763231232e+01    0.1169573   0.08483664 -48.62  0.000269833    1.556    0.357
        29 -10.3389     14.0216    160.1090   1.4166834847e+02   4.0292233307e+01    0.2015911     0.137207 -73.99 0.0003772961    1.159    0.137
        30 -10.4580    237.5136    159.5036   9.0125615463e+01   1.4901019689e+00    0.1399615    0.1274617 -26.76 7.505789e-06    1.007    0.006
        31  -9.7750    223.3983    163.2224   9.3481199100e+01   3.5146861761e+00    0.2042951     0.128302 -49.39 0.0004666186    1.671    0.402
        32 -12.7971    134.0000    144.5364   1.0878839510e+02   2.6394739941e+01     1.121235    0.3184627 -54.78  0.002863078    4.626    0.784
        33 -10.7993     15.4653    213.7975   1.4606366133e+02   2.8262532661e+01     0.155739    0.1465534 -29.23 0.0007725045    1.745    0.427
        34 -10.6450    174.7951    148.9439   1.0020092496e+02   1.6599771827e+01    0.2887387     0.217825 -66.10  0.000700547    1.541    0.351
        35 -12.3484    145.5351    146.5146   1.0641063650e+02   2.3512598011e+01     0.512568    0.4134845  81.75  0.001717378    1.456    0.313
        36 -10.7116     11.1650    142.7505   1.4041066362e+02   4.4512787072e+01    0.2176984    0.1870658 -41.56 0.0005496715    1.394    0.282
        37 -11.7556    142.3620    138.9879   1.0544449113e+02   2.5904109592e+01     0.406714    0.2514726 -59.67  0.001662411    1.810    0.448
        38 -12.1145    102.3698    139.0004   1.1571919316e+02   3.3851054801e+01    0.3036677    0.2909005 -20.74 0.0003792821    1.165    0.142
        39 -11.7511     94.8199    136.7510   1.1726034155e+02   3.5713224940e+01    0.3994252    0.2005746 -49.38  0.001634672    1.896    0.473
        40  -9.4249    167.9686    134.4557   9.8327408631e+01   2.1245492384e+01    0.2203852    0.1384513  72.51 0.0007680095    2.423    0.587
        41 -12.2212    106.0251    130.8308   1.1291513456e+02   3.5118655082e+01    0.4621708    0.4003699 -82.08  0.001242715    1.223    0.182
        42 -11.2541    106.7826    125.6199   1.1149255177e+02   3.6195618079e+01    0.2951548    0.2635361 -13.73  0.000652183    1.288    0.223
        43 -12.2910    118.6003    129.6756   1.0928767899e+02   3.2973927693e+01    0.4069113     0.398934 -53.78 0.0008268568    1.043    0.042
        44 -11.0548      3.8494    130.7433   1.4080733450e+02   4.7775901835e+01    0.2299742    0.1273041  81.80  0.001237806    2.038    0.509
        45 -11.4064      6.0728    250.7600   1.4992294067e+02   2.1903491295e+01    0.1743833   0.06778914  44.11  0.001022429    2.223    0.550
        46 -10.9379    160.5203    127.5945   9.8359140423e+01   2.4418977525e+01    0.3770511    0.2866845 -65.43  0.001214015    1.479    0.324
        47 -11.0581    141.9944    127.0374   1.0265911800e+02   2.8679925421e+01    0.3422568    0.2684516  87.29 0.0004613628    1.591    0.371
        48 -11.8582    125.3212    127.4209   1.0698561179e+02   3.2134763182e+01    0.5463717    0.3360968  84.76  0.001769272    3.584    0.721
        49 -12.0785    135.3560    122.4989   1.0319174432e+02   3.1134448696e+01    0.7226604    0.2133583 -49.44  0.002066407    3.543    0.718
        50 -10.9414     91.1478    123.4125   1.1530929241e+02   3.9493524046e+01    0.3365102    0.1231535  46.77  0.001135146    3.154    0.683
        51 -10.9480    112.6287    118.5725   1.0818312302e+02   3.6698366519e+01    0.3423781    0.2792887  85.86  0.001082849    1.484    0.326
        52 -10.8870    168.1541    113.1411   9.2988720266e+01   2.5717287239e+01    0.5279227    0.3425962  84.13   0.00196574    2.545    0.607
        53 -11.3283    134.7310    108.4546   9.9721543298e+01   3.4342047154e+01     1.048062    0.1331068 -44.87  0.002034367    7.793    0.872
        54 -10.8351      3.3821    112.6453   1.3856180132e+02   5.1867085867e+01    0.2247447    0.1690838 -55.06 0.0008650924    1.151    0.131
        55 -11.9057     84.5060    110.0033   1.1402741019e+02   4.3678237521e+01    0.4128527    0.2621323 -54.54  0.001958025    1.500    0.333
        56 -11.8700     87.2736    108.2209   1.1276936337e+02   4.3626515262e+01    0.4826336    0.3372813  87.35  0.001891357    2.287    0.563
        57 -10.5327    205.5329    110.1518   8.4682031705e+01   1.7553411712e+01     0.324254    0.2208102  45.07 0.0009470436    1.590    0.371
        58 -10.8948    198.7224    222.7648   1.1003450825e+02  -2.5471897040e+00    0.2714924    0.1616399  40.13  0.000430333    1.534    0.348
        59 -11.2777     98.8514    213.9434   1.2944187913e+02   1.7036862586e+01    0.3228378    0.2038821 -76.13  0.001197446    1.705    0.414
        60  -9.3768     76.6881     99.7070   1.1378469107e+02   4.7197957200e+01    0.1410656    0.1045571 -19.35            0    1.591    0.372
        61 -10.2297     86.4573     77.4974   1.0453349413e+02   5.0203901862e+01    0.1386063    0.1283578 -18.20 0.0001267332    1.013    0.013
        62  -9.9484     23.5144    205.5163   1.4391170264e+02   2.9183920277e+01    0.3597927    0.1361719  46.54  0.001805416    2.387    0.581
        63 -10.6309    163.5118    204.2652   1.1398604525e+02   7.3337013685e+00    0.2456522     0.213031  50.88 0.0004909085    1.101    0.091
        64  -9.8716     13.4936     59.9447   1.2497731630e+02   6.2266220211e+01    0.1625871    0.1292085 -35.46 0.0004017946    1.045    0.043
        65 -10.3335      2.4982    244.5867   1.5016132245e+02   2.3431886227e+01    0.1062034   0.07491158  77.52 0.0008035906    1.057    0.054
        66  -9.7603    120.7806     24.7931   7.7734330970e+01   5.1307798520e+01    0.1735487     0.147994  80.99 0.0005607394    1.354    0.261
        67  -9.4427    220.5038    228.0164   1.0675813608e+02  -7.0762632756e+00    0.1649933    0.1139808 -63.19 0.0008105491    2.623    0.619
