#   1 NUMBER                 Running object number                                     
#   2 MAG_AUTO               Kron-like elliptical aperture magnitude                    [mag]
#   3 X_IMAGE                Object position along x                                    [pixel]
#   4 Y_IMAGE                Object position along y                                    [pixel]
#   5 X_WORLD                Barycenter position along world x axis                     [deg]
#   6 Y_WORLD                Barycenter position along world y axis                     [deg]
#   7 A_WORLD                Profile RMS along major axis (world units)                 [deg]
#   8 B_WORLD                Profile RMS along minor axis (world units)                 [deg]
#   9 THETA_WORLD            Position angle (CCW/world-x)                               [deg]
#  10 FWHM_WORLD             FWHM assuming a gaussian core                              [deg]
#  11 ELONGATION             A_IMAGE/B_IMAGE                                           
#  12 ELLIPTICITY            1 - B_IMAGE/A_IMAGE                                       
         1 -15.4220    199.8312     60.6069   5.1095031924e+01   2.7656209589e+01     4.410144    0.9589549 -31.45   0.01164771    5.196    0.808
         2 -14.7207    210.7447     51.9605   4.7288998227e+01   2.6340742900e+01     1.049657    0.9247364  -2.69  0.003256035    1.393    0.282
         3 -18.7035    240.7384     66.5088   4.6984290497e+01   1.7535955077e+01     8.045117      5.94213 -28.83   0.03007952    1.386    0.279
         4 -14.4972     62.9159    136.8534   1.0526525754e+02   3.9979417785e+01     1.937706     1.622275 -21.99  0.005908366    1.442    0.307
         5 -14.3977     12.4411     37.2538   1.0040837885e+02   6.7464381230e+01     2.123153     1.352558 -36.23   0.01304515    1.218    0.179
         6 -13.5769    139.3673     45.3249   5.7718877766e+01   4.4745854796e+01     1.317001    0.5137229 -26.47  0.004183683    3.034    0.670
         7 -13.2612      9.3154      7.0841   8.9907654451e+01   7.2894476753e+01     1.199407    0.7375795   1.64   0.00795276    1.503    0.335
         8 -11.2552    142.7504     15.2827   4.7060783826e+01   4.7530598036e+01    0.3427103    0.2471671   0.11  0.001177179    1.686    0.407
         9 -10.3753    222.2129     13.8121   3.6751123976e+01   2.8470664581e+01     0.453901    0.1822674  49.17  0.001863458    3.329    0.700
        10 -11.5766    231.2855      9.0866   3.4930120077e+01   2.6961374706e+01    0.3023122    0.1719051  56.24 0.0009256691    1.966    0.491
        11 -10.9717    220.9977      9.9985   3.5980096532e+01   2.9155154070e+01    0.4037201    0.1727958  51.08  0.001788484    2.851    0.649
        12 -11.5026    228.4398      5.6438   3.4393898669e+01   2.7949123357e+01    0.6131311    0.1516157  57.68  0.002269511    4.098    0.756
        13 -10.2937    155.0533     11.3980   4.3838555836e+01   4.4872702898e+01    0.2691827    0.1875807  10.44  0.001012444    1.865    0.464
        14 -11.4713    119.6681      9.5331   4.9414502183e+01   5.3629099491e+01    0.5845514    0.3351128  39.35  0.002813297    1.666    0.400
        15 -11.4256    210.3489      7.5971   3.6355057667e+01   3.1842572629e+01    0.2052346    0.1850943  64.11 0.0003733318    1.241    0.194
        16  -9.5604    195.9896      2.5566   3.6454580671e+01   3.5707432703e+01    0.2809326    0.1456108 -62.90  0.001293479    2.066    0.516
        17  -9.4005     94.5706      2.1948   5.2218094056e+01   5.9937589458e+01    0.1822266    0.1112669   6.43  0.000951489    1.847    0.459
        18 -11.4918    192.1998    153.1928   7.5748257538e+01   1.2610621642e+01    0.4414981    0.3259336 -17.76 0.0007581072    1.478    0.323
        19 -12.1680      4.4153    248.0473   1.2833973425e+02   2.1914964523e+01    0.4888176    0.2797751  54.14  0.003566797    1.322    0.244
        20 -11.0267    189.0269    150.4773   7.5803627952e+01   1.3776009921e+01     0.394077    0.3239286 -21.39  0.000946316    1.214    0.177
        21 -11.0352    166.8352    133.9195   7.6820408472e+01   2.1777390896e+01      0.28877    0.2525863   6.94 0.0008192171    1.230    0.187
        22 -12.5440    159.9731    128.6401   7.7129008883e+01   2.4371681508e+01    0.5762337    0.4503678 -28.06  0.002229433    1.343    0.256
        23 -11.3871    196.6792    128.4736   6.9078872529e+01   1.6448692232e+01    0.4121686    0.2805389 -43.40   0.00126017    1.433    0.302
        24 -11.0372    143.9692    123.8540   7.9845421943e+01   2.8857082531e+01    0.4354084    0.2654083 -50.85  0.001803071    1.702    0.412
        25  -8.8703     55.7661    187.6443   1.1413363550e+02   2.8712834933e+01    0.1221595   0.09030695 -50.26 0.0002811334    1.575    0.365
        26 -14.2366     20.0566    146.6140   1.1838201728e+02   4.2051331347e+01     1.838926    0.9971671  44.29   0.00770495    1.945    0.486
        27 -11.2031    157.5455    115.2145   7.4288346922e+01   2.7739357360e+01    0.4663202    0.3414484 -74.92  0.001215835    1.948    0.487
        28 -10.5409    173.8416    113.9732   7.0238567051e+01   2.4323636935e+01    0.4017259    0.2513061 -48.03  0.001356917    1.641    0.391
        29 -14.7782    226.7350     88.7898   5.4124427270e+01   1.7045734290e+01    0.9949743    0.3817844 -49.46  0.002872834    2.961    0.662
        30 -10.4750    158.4669    156.9673   8.4060415273e+01   1.8642166464e+01    0.3933415    0.2653556 -75.88  0.001562997    2.510    0.602
        31 -10.3123    163.9810    106.7826   7.0550703235e+01   2.8013204542e+01    0.2129015    0.2035518  30.18 0.0003563936    1.060    0.057
        32 -11.6765    204.3912    152.9260   7.3207197969e+01   1.0248060048e+01    0.4293329      0.36253  85.61  0.001664882    1.702    0.412
        33 -10.1006    154.2099    152.1921   8.4020424486e+01   2.0520041614e+01    0.2067943    0.1826277  76.79 0.0004427601    1.334    0.251
        34 -12.6902     50.5653    139.8605   1.0926145107e+02   4.0730366329e+01    0.5292424    0.4246855 -41.14 0.0008281328    1.365    0.267
        35 -10.5708    173.3938    150.2833   7.9158687416e+01   1.7006204167e+01    0.2606287    0.2446909  -3.19 0.0008239293    1.033    0.032
        36 -11.4383    133.6621    145.2844   8.7555183005e+01   2.6165242904e+01     1.213327    0.3226651 -54.23   0.00296065    5.278    0.811
        37 -11.7571    132.8195     81.9210   7.1064393515e+01   4.0106611931e+01    0.4560951    0.4363948 -78.59  0.002171356    1.149    0.130
        38 -10.1470    138.0177     83.6911   7.0256716929e+01   3.8580198010e+01    0.2276383    0.2066732  36.96   0.00117343    1.099    0.090
        39  -9.8138    103.0919     81.8441   7.9523097604e+01   4.6430116062e+01    0.2127895    0.1996189  -9.84 0.0003105003    1.018    0.018
        40 -11.6059    164.8705     77.8868   6.2269279448e+01   3.3298661732e+01    0.4731808    0.2521464 -36.87  0.001914006    1.865    0.464
        41 -10.4668    140.6850     78.4394   6.7993410439e+01   3.8961233655e+01    0.2968359    0.2635067  88.58 0.0009046068    1.313    0.239
        42 -11.9664    135.9482     67.2375   6.5675133182e+01   4.2089040015e+01    0.6119146    0.2423317 -43.29   0.00161623    2.657    0.624
        43 -11.5522    136.3294     75.0968   6.8056051964e+01   4.0592065743e+01    0.5155191    0.2373082 -40.89  0.001448837    2.175    0.540
        44 -11.8056    131.8847     73.1528   6.8586763916e+01   4.1972768684e+01     0.384868    0.3457341 -89.37  0.002000462    1.312    0.238
        45 -10.5716    126.9163     72.6886   6.9749212424e+01   4.3186743173e+01    0.2169841    0.1977185  41.48 0.0004284852    1.093    0.085
        46 -11.0356    233.4591    209.5860   7.9126811654e+01  -4.1464001120e+00     0.267711    0.2051332 -25.22 0.0004997533    1.279    0.218
        47 -11.5504    140.0308     65.5113   6.4126210918e+01   4.1424341868e+01    0.2737768    0.2644551 -49.65 0.0009251876    1.086    0.079
        48 -12.1797    144.1663     59.4085   6.1214649242e+01   4.1446824168e+01    0.4234215    0.3246505 -46.12  0.001142642    1.379    0.275
        49 -11.5534    135.0545     60.0218   6.3567220919e+01   4.3521490188e+01    0.3609383    0.2839687 -16.83  0.001800012    1.386    0.278
        50  -9.9712    180.7411    211.0085   8.9617850350e+01   4.1012517015e+00    0.2690185    0.1569061  56.88   0.00116832    2.625    0.619
        51 -12.6804    134.0884     40.6664   5.7336845641e+01   4.6668063184e+01     0.580661    0.4433285  53.49  0.003039777    1.233    0.189
        52 -11.7355    168.7398     38.5329   4.9897963354e+01   3.8410543613e+01    0.5747979    0.3069054  40.09  0.002041092    2.231    0.552
        53 -12.1902    181.0005    143.1857   7.5851260429e+01   1.6872008778e+01     0.716557    0.4925964  32.54  0.003294803    1.539    0.350
        54 -10.3786    203.1447    205.9151   8.4194244975e+01   1.1929395813e+00    0.1897126    0.1740918  22.32 0.0004107684    1.200    0.167
        55 -10.0303     91.0475     45.6904   7.0940014018e+01   5.5444418715e+01     0.482458    0.1552963 -33.98   0.00166449    3.218    0.689
        56 -12.3639    146.9162     41.4516   5.4843391126e+01   4.3441249499e+01    0.5970601    0.3454927  28.96   0.00246003    2.338    0.572
        57 -10.0222    192.0771    144.0353   7.3693574135e+01   1.4408175775e+01    0.2369271     0.212717  38.10 0.0003389677    1.152    0.132
        58 -10.6700    169.7745     30.8080   4.7445327574e+01   3.9120862762e+01    0.2720608     0.225266  72.08  0.001472613    1.133    0.117
        59 -11.6257    148.3693     28.0268   5.0217013562e+01   4.4774664014e+01    0.4879494    0.1372202  57.54  0.001675798    2.931    0.659
        60 -11.2470    179.8457     24.1744   4.4065761437e+01   3.7397110694e+01    0.4866847    0.3696355  82.27  0.002704034    1.263    0.208
        61  -9.8808    186.9216     24.7645   4.3289951684e+01   3.5588970403e+01    0.2020407    0.1665564  49.42 0.0005304114    1.291    0.225
        62 -11.0160    198.8190    144.5867   7.2439414908e+01   1.2924853413e+01    0.2856617    0.2618576 -56.27  0.001023254    1.237    0.192
        63 -11.6147    236.8684     19.4548   3.6753547575e+01   2.4592788066e+01     0.254768    0.1983713  80.44 0.0007879485    1.246    0.197
        64  -9.2735    195.5185    142.5533   7.2641710579e+01   1.3987458337e+01    0.2403073    0.1958396  52.88 0.0006871513    1.369    0.269
        65 -10.3120     10.2108    206.5995   1.2531092285e+02   2.9394292510e+01    0.1335187    0.1079478  22.42 0.0009536944    1.715    0.417
        66 -11.6615    203.7672    201.0276   8.3170736465e+01   1.8835832657e+00    0.2921581    0.2312063  24.83 0.0009475447    1.146    0.128
        67 -11.5911    159.9353    142.9835   8.0576916768e+01   2.1321290748e+01    0.4410283    0.3234088  64.69  0.001596505    1.732    0.423
        68 -12.3674    192.7506    194.9573   8.4248293084e+01   4.7963653153e+00    0.9939649    0.5203469 -60.64  0.003343672    4.660    0.785
        69 -10.0168    171.1546    196.4982   8.9063914423e+01   8.3397155778e+00    0.2164816    0.1908285 -34.70 0.0003069113    1.209    0.173
        70 -11.4147    246.3158    194.1354   7.3939169758e+01  -3.8333487438e+00    0.3178473    0.2090548  48.99  0.001730078    2.130    0.530
        71  -9.3390    135.4807    240.5096   1.0332421196e+02   6.4621589373e+00     0.126363    0.1043962  42.80 7.092786e-05    1.033    0.032
        72 -10.1304    243.1560    213.1449   7.8042852078e+01  -6.0596114534e+00    0.1547986    0.1392567  -5.79 0.0005367337    1.328    0.247
        73 -11.5522    214.6605    211.7023   8.3009469554e+01  -1.5706910616e+00    0.3855608    0.2328412  54.94  0.001783964    2.793    0.642
        74 -12.8330    201.9721    174.9545   7.8416080607e+01   6.6809398592e+00     0.624538    0.4814873  44.31  0.003347045    1.397    0.284
        75 -12.8914    196.7738    159.4981   7.6194535899e+01   1.0506631601e+01     1.058195    0.7007066 -82.12  0.003582334    4.290    0.767
