#   1 NUMBER                 Running object number                                     
#   2 MAG_AUTO               Kron-like elliptical aperture magnitude                    [mag]
#   3 X_IMAGE                Object position along x                                    [pixel]
#   4 Y_IMAGE                Object position along y                                    [pixel]
#   5 X_WORLD                Barycenter position along world x axis                     [deg]
#   6 Y_WORLD                Barycenter position along world y axis                     [deg]
#   7 A_WORLD                Profile RMS along major axis (world units)                 [deg]
#   8 B_WORLD                Profile RMS along minor axis (world units)                 [deg]
#   9 THETA_WORLD            Position angle (CCW/world-x)                               [deg]
#  10 FWHM_WORLD             FWHM assuming a gaussian core                              [deg]
#  11 ELONGATION             A_IMAGE/B_IMAGE                                           
#  12 ELLIPTICITY            1 - B_IMAGE/A_IMAGE                                       
         1  -8.8102    242.6651     97.3241   8.6056101923e+01   1.4421780292e+01    0.1280658   0.09510703 -49.71 0.0007050966    1.712    0.416
         2  -8.4479    139.4675    250.4683   1.3114120133e+02   1.0467873412e+01    0.1043207   0.07623352  32.97 0.0002169371    1.003    0.003
         3  -9.3328     89.6107    250.1417   1.3973454580e+02   1.6410061406e+01    0.2873439    0.0942175  39.04  0.001618644    2.109    0.526
         4  -9.6501     73.9155    250.2238   1.4244401389e+02   1.8118940684e+01    0.3819832   0.07546584  38.14  0.001829231    3.046    0.672
         5 -10.2209     65.5897    248.8337   1.4378872721e+02   1.9192800100e+01    0.4115299    0.1379631  41.70  0.002449978    2.015    0.504
         6  -9.8478     51.9567    249.9977   1.4616961225e+02   2.0412274838e+01    0.3648385    0.1132194  37.32  0.002140036    2.198    0.545
         7  -9.9794     45.5140    245.3701   1.4703933204e+02   2.1710659881e+01    0.3283889     0.147667  52.13  0.001533985    1.683    0.406
         8 -11.2980     18.6843    222.5710   1.5076716577e+02   2.7697090124e+01    0.5580499     0.243791  32.96  0.003520375    1.954    0.488
         9 -10.7794     29.8132    227.5788   1.4897853266e+02   2.5907965941e+01    0.8521091    0.1446127  56.70  0.002947042    6.765    0.852
        10 -10.6998     35.6551    248.2490   1.4882546027e+02   2.2224579265e+01    0.5044241    0.2970558  54.40  0.004056951    1.249    0.199
        11  -9.5974     38.1846    241.1020   1.4809835061e+02   2.3042074699e+01    0.4000873    0.1433908  64.57  0.002224881    2.967    0.663
        12 -11.4567      4.9409    226.4594   1.5329899938e+02   2.8198639610e+01     0.822143    0.2603644  82.51  0.004541762    3.236    0.691
        13 -10.1070     10.5160    226.3109   1.5233076671e+02   2.7774959377e+01    0.2384036    0.1280555  51.90  0.001015687    1.331    0.249
        14 -10.5323      5.1590    235.1225   1.5348471873e+02   2.6822480401e+01    0.5289618    0.1085324  42.18  0.003041698    2.539    0.606
        15  -9.8499     26.2274    249.3122   1.5042345863e+02   2.2924334958e+01    0.2536311    0.1242254  52.79  0.001085141    1.449    0.310
        16 -11.0847     14.8964    240.9829   1.5202515931e+02   2.5133551672e+01     0.484495    0.3203193  77.80  0.004167765    1.375    0.273
        17 -10.8516     28.3566    242.3556   1.4981977138e+02   2.3758079197e+01    0.4683456    0.2749966  82.25  0.003693475    1.677    0.404
        18 -11.4663     21.6638    239.6377   1.5085051971e+02   2.4758336711e+01    0.6832985    0.2839297 -85.37  0.004537563    2.552    0.608
        19 -10.6921     19.6137    249.3704   1.5150428439e+02   2.3493089597e+01    0.5294688    0.1285898  35.89  0.003056804    2.617    0.618
        20 -11.0167      3.1043    242.4724   1.5399699455e+02   2.5870643740e+01    0.4542995     0.239189  48.49  0.002865042    1.295    0.228
        21 -10.4831      9.1597    248.5243   1.5316634808e+02   2.4491882230e+01    0.3531818    0.1937964 -84.57  0.002862546    1.915    0.478
        22 -10.4064      4.3048    248.9633   1.5395036260e+02   2.4819512027e+01    0.2840438    0.1411617  40.77  0.001532421    1.454    0.312
        23  -9.2614    153.2028    249.5875   1.2870203121e+02   8.8706899589e+00     0.153419   0.07566249  28.39 0.0006546365    1.675    0.403
        24  -9.8213    125.1725    249.1742   1.3348608102e+02   1.2373509535e+01    0.1424103   0.09462956  46.70 0.0005940896    1.324    0.245
        25  -9.3690    109.8964    249.1377   1.3613706930e+02   1.4207079678e+01    0.1608142    0.1041601  47.02 0.0007159996    1.279    0.218
        26  -9.6776    115.4850    247.6600   1.3503747730e+02   1.3734809334e+01    0.1843161   0.07302082  35.68 0.0009695312    1.873    0.466
        27  -8.9796     99.9434    247.5056   1.3774120774e+02   1.5587659302e+01    0.1623052   0.07523061  37.25 0.0009811678    1.585    0.369
        28  -9.3641    218.3348    245.1526   1.1744293299e+02   1.2392855627e+00    0.1768933   0.08143722 -20.86  0.001082543    2.571    0.611
        29  -9.2393    211.4356    245.6997   1.1860526206e+02   2.0269715500e+00    0.1866672   0.09119404  21.43  0.001173651    1.752    0.429
        30  -8.6580    105.0863    246.4844   1.3675889393e+02   1.5124215611e+01    0.1646307   0.07640219  36.70  0.001032835    1.594    0.373
        31  -8.7880    232.7074    244.4307   1.1511769268e+02  -4.1331988178e-01    0.1760394    0.0957107  -0.87  0.001185634    1.858    0.462
        32  -8.9091    176.2430    244.7543   1.2425765314e+02   6.5144606400e+00    0.1426915   0.07782774 -24.18 0.0008971239    2.449    0.592
        33  -8.9007    134.5130    245.5051   1.3151312667e+02   1.1686407826e+01    0.1057297   0.07826111  35.14 0.0007901493    1.022    0.022
        34  -9.9502     83.2283    244.5927   1.4045580718e+02   1.7889241686e+01    0.3125136   0.07851306  38.06  0.001557144    2.660    0.624
        35  -9.2418    110.1415    244.1364   1.3567208576e+02   1.4838592100e+01    0.1480828    0.0944299  48.60 0.0009786875    1.352    0.260
        36  -8.9651     96.0192    244.5060   1.3819675989e+02   1.6449671127e+01    0.1613587   0.07719584  36.37  0.001026402    1.571    0.363
        37  -9.3987     58.2973    247.9645   1.4498852283e+02   2.0066808996e+01     0.233817    0.0832303  45.66  0.001427755    1.962    0.490
        38  -8.6151    115.1980    243.1506   1.3469111811e+02   1.4361164893e+01    0.1462742   0.09552612  48.26 0.0009262621    1.339    0.253
        39  -9.8689     54.4122    240.7343   1.4527113934e+02   2.1513618797e+01    0.3158016    0.1652225  69.85  0.001920894    2.008    0.502
        40  -9.0600    104.8435    241.8494   1.3641779702e+02   1.5779785988e+01    0.1483429   0.09488533  48.81  0.001069083    1.328    0.247
        41  -9.7924     73.0163    240.2904   1.4196751894e+02   1.9628719206e+01     0.417908    0.1315931  49.82  0.002170943    2.716    0.632
        42  -9.1366    126.5166    240.5453   1.3243873453e+02   1.3313573924e+01    0.1064457   0.08019285  34.26 0.0002349823    1.026    0.025
        43  -9.8008     45.3199    237.5428   1.4669663749e+02   2.2895028321e+01    0.2825439    0.1291685  57.23  0.001569989    1.842    0.457
        44  -8.4969    183.5032    238.0052   1.2221394381e+02   6.3222560226e+00     0.115707   0.09678088 -82.21   0.00081047    2.545    0.607
        45  -9.4203     82.2534    236.8960   1.4007964399e+02   1.9102211105e+01    0.3505672    0.0981404  46.44  0.001711653    2.833    0.647
        46  -9.0949     94.0766    236.3564   1.3790004688e+02   1.7821260775e+01    0.2750616    0.1111303  47.55  0.001559996    2.080    0.519
        47 -10.2749     64.2145    233.7521   1.4312261504e+02   2.1547223753e+01    0.4298824    0.2106034  72.46  0.002565285    2.569    0.611
        48 -11.2104     13.3310    232.2301   1.5202508149e+02   2.6606825917e+01    0.4595358    0.3537308  72.37  0.004134636    1.191    0.161
        49  -9.5972     48.4607    230.5683   1.4577925658e+02   2.3659144698e+01    0.2755813    0.1389429  63.49  0.001464971    1.862    0.463
        50  -9.1673     40.4641    229.9467   1.4718378199e+02   2.4537965843e+01    0.2032792    0.1162136  61.56  0.000957656    1.473    0.321
        51  -8.8590     75.3353    223.3219   1.4034861949e+02   2.1943980897e+01    0.2008743    0.1083733  74.53  0.001178753    2.425    0.588
        52  -9.1520     54.8166    222.7081   1.4416079145e+02   2.4262108265e+01    0.2647623    0.1210744  59.98  0.001573009    2.113    0.527
        53  -9.2153     45.5061    221.1004   1.4580245587e+02   2.5465175356e+01    0.2130112    0.1167151  56.12  0.001241764    1.495    0.331
        54 -11.2650     25.2848    230.5522   1.4989896421e+02   2.5843338897e+01     1.073625    0.1258777  52.58  0.004226602    5.175    0.807
        55  -8.6189     33.6749    224.3078   1.4813957805e+02   2.6078373985e+01    0.1083246   0.05229933  56.21 0.0003707566    1.651    0.394
        56  -8.9871      8.9938    220.9595   1.5243643098e+02   2.8764531143e+01    0.1620902   0.07400014  56.34 0.0006226954    1.616    0.381
        57  -9.1638     33.5908    216.7063   1.4779492550e+02   2.7335795864e+01    0.2356095    0.1237305  72.15  0.001560565    1.810    0.448
        58 -10.6890     12.6973    216.5669   1.5163322360e+02   2.9189013238e+01    0.3392489    0.1203649  45.78  0.001505746    1.942    0.485
        59  -9.4265     24.0280    217.0315   1.4958228532e+02   2.8147284274e+01    0.1704751   0.08191045  58.84  0.001125563    1.672    0.402
        60  -9.9773      6.8769    215.8523   1.5266036566e+02   2.9777599118e+01    0.3169379   0.09016604  55.95  0.001751821    2.560    0.609
        61  -8.7176     44.8032    212.8347   1.4546396684e+02   2.6910180914e+01    0.1503848   0.09341723  58.28 0.0006137689    1.331    0.249
        62  -8.3488     58.4687    212.4968   1.4279932686e+02   2.5561887417e+01    0.1087667   0.08250234  54.52  0.000809219    1.056    0.053
        63  -9.6126     22.0757    211.1060   1.4969688900e+02   2.9319505427e+01    0.2411721    0.1128475  45.92  0.001097276    1.598    0.374
        64  -8.9393      1.6673    211.9672   1.5348839350e+02   3.0834602928e+01    0.1375832   0.09811906  69.71  0.001107222    1.113    0.102
        65  -8.5230     12.9802    211.2504   1.5139768953e+02   3.0062564094e+01    0.1405916    0.1016672  57.99 0.0006709023    1.027    0.027
        66  -8.5008      8.7418    210.3815   1.5215049877e+02   3.0553337316e+01    0.1197861    0.0848234  28.74 0.0005666509    1.543    0.352
        67  -8.8616     35.8715    208.5556   1.4694534603e+02   2.8508152534e+01    0.2040222   0.08423414  59.09  0.001151174    2.187    0.543
        68  -8.4314     51.5098    206.4936   1.4375863546e+02   2.7319287271e+01    0.1098685   0.08288693  56.44  9.66241e-05    1.066    0.062
        69  -8.6479     17.8017    206.5479   1.5031613779e+02   3.0472170523e+01    0.1466905   0.06595652  44.78 0.0009368003    1.670    0.401
        70  -9.2106      5.9780    205.1052   1.5249415139e+02   3.1680802736e+01    0.2150598     0.112791  73.99  0.001381163    1.605    0.377
        71  -9.4292     11.9198    203.7104   1.5132512991e+02   3.1454137330e+01    0.2391501    0.1247926  49.72  0.001236694    1.453    0.312
        72  -8.6735     18.2499    201.0684   1.5000326088e+02   3.1399302487e+01    0.1456419    0.1075534  63.32 0.0008004616    1.045    0.043
        73  -8.8460     13.6880    196.4561   1.5070434192e+02   3.2604593563e+01    0.1946485    0.1047462  52.37  0.001079569    1.442    0.307
        74  -9.4949      3.0865    196.3731   1.5276655941e+02   3.3446853693e+01    0.1951654    0.1167823  75.30 0.0009340955    1.370    0.270
        75  -8.5416     19.2874    194.6597   1.4951685865e+02   3.2467913208e+01    0.1128271   0.05700917  60.59 0.0007019995    1.640    0.390
        76  -7.9653     39.3410    193.6650   1.4538530472e+02   3.0834768015e+01     0.120636   0.06117291  58.93 0.0007050956    1.757    0.431
        77  -8.5506     16.5130    191.4671   1.4993065484e+02   3.3285892567e+01    0.1063733   0.07991344  62.83 0.0001845437    1.030    0.030
        78  -8.4681     10.9929    191.0210   1.5102160545e+02   3.3813557573e+01    0.1272355   0.09701574  61.64 0.0009967822    1.025    0.025
        79  -8.9254      2.7991    188.3656   1.5256184470e+02   3.4929431480e+01    0.1251896   0.09245676  20.36 0.0009451474    1.676    0.403
        80  -8.3522     23.1978    187.4382   1.4836896563e+02   3.3473688692e+01    0.1511198   0.07478152  44.98 0.0009330614    1.631    0.387
        81  -9.1706      8.8307    186.6443   1.5128473526e+02   3.4795775589e+01     0.151148   0.06975632  42.00 0.0009435725    1.740    0.425
        82  -8.1771     16.4776    180.4436   1.4942614371e+02   3.5368821681e+01    0.1092265   0.08240847  64.38 9.792593e-05    1.050    0.048
        83  -8.2829     22.9735    179.5027   1.4799172831e+02   3.5009318753e+01    0.1570909   0.05638235  50.48 0.0005952102    2.284    0.562
        84  -9.3246      4.9939    174.1517   1.5158807126e+02   3.7472545990e+01    0.1895492   0.07508823  51.27   0.00107748    2.006    0.501
        85  -8.4941      5.3230    169.6472   1.5133262410e+02   3.8335085551e+01     0.120249   0.05716304  60.35 0.0007047497    1.756    0.431
        86  -8.9046      9.3471    154.2992   1.4969353331e+02   4.1173614707e+01    0.1044955   0.07814115 -47.98 0.0007036593    1.682    0.405
        87  -9.3106      3.9845    135.0185   1.4996200462e+02   4.5670796327e+01    0.1786166    0.1205763 -50.61 0.0008723192    1.717    0.418
        88  -9.6851    238.2903    122.1868   9.2425537144e+01   1.2113047408e+01    0.3065644   0.09738831 -30.69  0.001214256    2.735    0.634
        89 -10.0308    247.2182    117.9912   9.0182666729e+01   1.1087705013e+01    0.2199496    0.1797692  24.69  0.001411652    1.247    0.198
        90  -9.0463    218.8656    116.4883   9.4171789392e+01   1.6378945120e+01    0.2794125     0.158088 -40.71   0.00133714    1.929    0.482
