#   1 NUMBER                 Running object number                                     
#   2 MAG_AUTO               Kron-like elliptical aperture magnitude                    [mag]
#   3 X_IMAGE                Object position along x                                    [pixel]
#   4 Y_IMAGE                Object position along y                                    [pixel]
#   5 X_WORLD                Barycenter position along world x axis                     [deg]
#   6 Y_WORLD                Barycenter position along world y axis                     [deg]
#   7 A_WORLD                Profile RMS along major axis (world units)                 [deg]
#   8 B_WORLD                Profile RMS along minor axis (world units)                 [deg]
#   9 THETA_WORLD            Position angle (CCW/world-x)                               [deg]
#  10 FWHM_WORLD             FWHM assuming a gaussian core                              [deg]
#  11 ELONGATION             A_IMAGE/B_IMAGE                                           
#  12 ELLIPTICITY            1 - B_IMAGE/A_IMAGE                                       
         1 -15.3419    237.7775    195.4617   1.0053734114e+02  -2.4670665006e+00     5.551768     3.953455 -79.88   0.02125097    5.530    0.819
         2 -16.6737    244.6046    139.1547   8.7816619401e+01   4.7246193276e+00     14.39274     4.153273 -32.56   0.04843339    3.398    0.706
         3 -10.3299    170.0931    213.6146   1.1629613072e+02   6.3107082540e+00    0.2483132    0.2245729 -73.21  0.001408621    1.386    0.279
         4  -8.7117    219.6522    250.3286   1.1290957798e+02  -6.6178463296e+00    0.1028995   0.08483995  53.79 0.0007049472    1.758    0.431
         5  -9.7521    178.1374    243.5468   1.1922531241e+02   5.1951086369e-01    0.2007551    0.1589269 -76.37  0.001194743    2.026    0.506
         6  -9.2408    169.0058    244.0067   1.2094269018e+02   1.8950331272e+00    0.1838287     0.132909  63.63 0.0009830741    1.779    0.438
         7  -9.3899    194.8273    239.6308   1.1566005106e+02  -1.5742879523e+00    0.1706168    0.0937986  45.06 0.0008753264    1.686    0.407
         8  -9.4434    157.2245    239.3989   1.2248826233e+02   4.4354548101e+00    0.1818081   0.09317444  48.07 0.0009502008    1.736    0.424
         9 -10.0916    220.2470    234.1101   1.1031731444e+02  -4.7841550677e+00    0.2668273    0.1681257  48.09  0.001381056    1.855    0.461
        10  -9.3324    170.5170    235.4903   1.1949196811e+02   2.8728246388e+00    0.1228785    0.1008996  38.17 0.0008100111    1.042    0.040
        11  -9.0305    241.6660    233.3166   1.0653501229e+02  -7.8336472313e+00   0.09877811   0.09047814  46.87 0.0007047619    1.692    0.409
        12 -10.0547    195.4935    232.5566   1.1447573714e+02  -7.3345960002e-01    0.2321231    0.2013161 -47.66  0.001373396    1.522    0.343
        13  -9.5543    187.7461    232.7668   1.1591968136e+02   4.7896940844e-01    0.1601737    0.1317272  50.24 0.0007549035    1.343    0.255
        14 -10.4467    177.0312    230.1049   1.1750206603e+02   2.6003084684e+00    0.2645521    0.1687426 -60.28  0.001427532    2.410    0.585
        15  -9.2619    158.4438    231.2271   1.2115232178e+02   5.4793664483e+00     0.150906    0.1197507 -72.20 0.0009168783    1.695    0.410
        16 -10.3124    229.7243    228.4612   1.0776116959e+02  -5.5152336216e+00    0.3120741    0.2103495  58.51  0.001694201    2.666    0.625
        17  -9.6171    167.5187    227.9901   1.1897676111e+02   4.4831036974e+00    0.2335002    0.1246736 -53.58  0.001124865    2.475    0.596
        18 -10.0049    211.3302    228.0594   1.1091880533e+02  -2.6406966981e+00     0.195401    0.1599798  49.91 0.0007777588    1.510    0.338
        19  -9.3667    184.4964    228.0659   1.1580676064e+02   1.6740365151e+00    0.1617906    0.1231775 -40.57 0.0007345589    1.558    0.358
        20  -9.3585    162.5598    227.7940   1.1988783602e+02   5.3338360728e+00    0.1540178    0.1212421 -68.83 0.0009431138    1.713    0.416
        21 -11.1444    206.1949    224.6962   1.1129676172e+02  -1.3764823312e+00    0.2680076    0.2175459 -25.63  0.001781996    1.355    0.262
        22  -9.7600    197.7556    247.8199   1.1633089846e+02  -3.0744313032e+00    0.2004589     0.133099  54.69 0.0009852132    1.946    0.486
        23 -10.1026    195.8059    196.2287   1.0833738574e+02   4.5905870348e+00    0.2849062    0.2042227 -54.91 0.0009389957    1.855    0.461
        24  -9.0960    138.7765    207.0142   1.2152759171e+02   1.2862790517e+01    0.1622708    0.1093302 -53.77 0.0008780661    1.677    0.404
        25  -9.9446    188.5110    205.9391   1.1145913853e+02   4.3369481329e+00    0.2535037    0.1288417 -41.01  0.001043353    2.181    0.541
        26 -10.2127    186.2491    201.1653   1.1106752077e+02   5.4977114996e+00    0.3247182    0.1728148 -46.41   0.00119982    2.176    0.540
        27  -9.2378    149.4694    205.9483   1.1919036134e+02   1.1201667385e+01    0.1762503    0.1159593 -81.77 0.0008094703    2.584    0.613
        28  -9.6530    175.6975    204.1739   1.1365146599e+02   6.8774820319e+00    0.1896817     0.168951 -80.82 0.0007466126    1.454    0.312
        29  -9.3115    160.9656    203.2008   1.1642619134e+02   9.6589566592e+00    0.1783409    0.1473814 -82.99  0.001003368    1.578    0.366
        30 -10.3008    180.8358    200.5902   1.1202541729e+02   6.5561409746e+00     0.485292    0.1577463 -50.23  0.001636857    4.423    0.774
        31  -9.8886    198.7306    204.9171   1.0933526725e+02   2.7198718169e+00    0.4607142    0.1596064 -47.26  0.001705193    3.915    0.745
        32  -9.2530    167.4675    197.9313   1.1423061421e+02   9.4119764990e+00    0.1901706    0.1343173 -47.50  0.000779896    1.589    0.371
        33  -9.3316    144.3937    197.1801   1.1884516230e+02   1.3694166255e+01     0.182598     0.128757 -66.49 0.0009528547    1.740    0.425
        34 -10.3924    185.8241    194.4894   1.0996133960e+02   6.6701795533e+00    0.3242333    0.1896907 -46.95  0.001279971    1.959    0.490
        35 -11.0053    194.9783    221.4271   1.1281983290e+02   9.0621447321e-01    0.2712135    0.2334157 -53.53   0.00119912    1.548    0.354
        36  -9.2680    181.3452    195.1903   1.1097171729e+02   7.3656896148e+00    0.1746223    0.1259067 -51.55 0.0006938369    1.654    0.395
        37  -9.8077    185.3184    223.6584   1.1497257844e+02   2.1808433161e+00    0.2148771     0.172289 -85.02 0.0009912447    2.051    0.513
        38  -9.5575    191.1104    191.6779   1.0841112699e+02   6.1760383095e+00    0.3248493    0.1844354 -61.08  0.001299528    3.354    0.702
        39  -9.1919    174.4569    188.9267   1.1122122190e+02   9.7110151299e+00    0.1778556    0.1221931 -72.56 0.0008068673    2.432    0.589
        40  -9.3043    120.6776    189.3399   1.2265268126e+02   1.9376490987e+01    0.1423468   0.09879871  73.29 0.0007050686    1.721    0.419
        41  -9.1342    186.7068    188.6767   1.0871930129e+02   7.4854315805e+00    0.1374357    0.1014583   4.96 0.0003991399    1.615    0.381
        42  -9.5449    183.4605    186.4562   1.0894983491e+02   8.4674122065e+00    0.2221167    0.1306502 -53.73 0.0009051498    2.184    0.542
        43  -9.3127    166.3790    187.2466   1.1257034646e+02   1.1515549458e+01    0.1809647    0.1320557 -56.68 0.0009402362    1.618    0.382
        44  -9.0061    157.6403    186.3208   1.1422552833e+02   1.3314915182e+01    0.1424983    0.1066018  73.75 0.0007043586    1.769    0.435
        45  -9.4390    142.2127    186.2692   1.1749655465e+02   1.6169499316e+01    0.2046029     0.110664 -61.73 0.0007479108    2.380    0.580
        46 -10.0661    188.5516    184.7705   1.0761805365e+02   7.8081219723e+00    0.2396256    0.1363938 -46.25 0.0008778355    1.964    0.491
        47  -9.7577    177.4843    184.4970   1.0978675718e+02   9.9289721081e+00     0.266141    0.1369273 -43.13  0.001186761    2.084    0.520
        48  -9.0668    162.5069    184.5027   1.1287709092e+02   1.2744487431e+01    0.1387327    0.1280014  48.14 0.0007071751    1.067    0.063
        49  -9.4127    134.3521    184.2256   1.1885070293e+02   1.7998583456e+01    0.1887647    0.1293806 -64.98 0.0008998742    1.682    0.405
        50 -10.3087    184.5127    182.1200   1.0791656063e+02   9.0235422339e+00    0.1989937    0.1361874 -40.21 0.0009646566    1.547    0.354
        51  -9.7085    217.4658    220.4947   1.0857963600e+02  -2.6086599766e+00    0.1815437    0.1665427  71.94  0.000768539    1.671    0.402
        52  -9.2609    145.3740    180.2062   1.1575404852e+02   1.6776744306e+01    0.1939613    0.1328634 -62.66 0.0009492399    1.719    0.418
        53  -9.2674    175.5348    179.7417   1.0928356914e+02   1.1150951767e+01    0.1801296    0.1360484 -56.30 0.0009334744    1.573    0.364
        54  -9.3546    163.7316    177.5741   1.1133104105e+02   1.3811327882e+01    0.1968547    0.1275269  51.88 0.0008410219    1.584    0.369
        55  -9.6346    170.4402    176.2800   1.0967288546e+02   1.2764270889e+01    0.1857319    0.1371026 -56.23 0.0009410291    1.581    0.367
        56  -9.3137    181.6868    175.3404   1.0716839642e+02   1.0765477932e+01    0.1377654    0.1133963  86.89 0.0007046803    1.699    0.411
        57  -9.1557    158.4960    175.5208   1.1205642125e+02   1.5208435223e+01    0.1415171    0.1323044  29.66 9.952403e-05    1.043    0.042
        58  -9.2944    173.6848    173.4942   1.0845216274e+02   1.2653825058e+01    0.2352007    0.1304803 -43.62  0.001028373    1.898    0.473
        59  -9.1649    152.5043    174.5022   1.1315752077e+02   1.6555593267e+01    0.1414537    0.1332189  46.91 0.0008106422    1.013    0.013
        60  -8.9461    129.3581    174.6665   1.1831120928e+02   2.0854171701e+01    0.1501291     0.105841  74.71 0.0007041651    1.801    0.445
        61  -9.4109    164.4790    172.9923   1.1029193262e+02   1.4538730752e+01    0.2092966    0.1414279 -45.81 0.0007744086    1.567    0.362
        62  -9.0829    118.4895    171.4960   1.2022832146e+02   2.3475170123e+01    0.1409809    0.1291774  70.41 8.319309e-05    1.026    0.026
        63  -9.8658    158.5150    169.9811   1.1098485225e+02   1.6283280967e+01     0.212379    0.1424922 -46.46 0.0008813247    1.569    0.363
        64  -9.4936    171.6756    169.3123   1.0804083661e+02   1.3830542528e+01    0.1415772    0.1144345  82.08  0.000704036    1.659    0.397
        65  -9.2731    128.6182    168.7659   1.1742333376e+02   2.2227457797e+01    0.1959742    0.1345187 -64.91 0.0009463884    1.624    0.384
        66 -10.0904    187.5886    163.6684   1.0359216937e+02   1.1723238385e+01    0.2650284    0.1371201 -36.21  0.001024939    2.028    0.507
        67 -10.8404    190.4281    167.0064   1.0371508854e+02   1.0558887526e+01    0.2192566    0.1766232 -52.71 0.0006649519    1.428    0.300
        68 -12.0651    192.0759    155.1312   1.0086219840e+02   1.2377184420e+01    0.7383401    0.1446315 -42.19  0.001933864    5.135    0.805
        69  -9.1634    147.6918    168.3436   1.1304132382e+02   1.8711456657e+01    0.1465902      0.11269  82.62 0.0007043829    1.695    0.410
        70 -10.8074    179.2269    166.7353   1.0594130975e+02   1.2821063824e+01    0.2404745     0.195713 -55.07  0.001109553    1.399    0.285
        71  -9.0441    159.6753    164.3270   1.0960789575e+02   1.7169818497e+01    0.1468118    0.1153079  83.09 0.0005812903    1.694    0.410
        72  -9.7842    138.3844    164.2150   1.1433893441e+02   2.1351640644e+01     0.203246     0.136756 -62.51  0.000948538    1.694    0.410
        73 -10.2189    182.6530    162.4319   1.0434058189e+02   1.2936895669e+01    0.2755817    0.1753073 -37.61 0.0008419651    1.618    0.382
        74  -9.3802    153.0322    161.9681   1.1059421920e+02   1.8960156682e+01    0.1731122    0.1724488 -64.97 0.0006864751    1.041    0.040
        75 -13.6479    243.7056    182.6387   9.7057748892e+01  -1.6424740187e+00     1.617333    0.9031239 -44.66  0.008069847    2.199    0.545
        76  -9.2043    188.4124    220.2365   1.1385153634e+02   2.1703731160e+00    0.1525039    0.1219503 -53.31 0.0008158375    1.633    0.388
        77  -8.8870    130.4753    158.5074   1.1505746293e+02   2.4070884113e+01    0.1429464    0.1392807  60.93 6.961048e-05    1.038    0.036
        78  -9.5406    158.3085    154.0190   1.0776865096e+02   1.9512719825e+01    0.2111639     0.190514 -43.21  0.000754667    1.136    0.120
        79  -9.0646    156.3202    248.6621   1.2384578840e+02   3.2267851601e+00    0.1168741   0.08175498  63.01 0.0007049926    1.710    0.415
        80  -8.7052    151.3037    152.3056   1.0897743775e+02   2.1288569388e+01    0.1470045    0.1179197   0.28 0.0003800895    1.600    0.375
        81 -10.0666    205.1900    217.8620   1.1035378312e+02  -2.6764006824e-01    0.3032925    0.2334024  86.95  0.001604237    2.710    0.631
        82  -9.2295    176.1239    151.1091   1.0326797238e+02   1.6416810427e+01    0.2264072    0.1953442  -9.00 0.0006360613    1.255    0.203
        83 -10.0433    170.5050    150.9350   1.0442975871e+02   1.7617717979e+01    0.2221794    0.1457672 -40.80 0.0007309067    1.552    0.356
        84 -10.6191    202.4413    197.7724   1.0735530056e+02   3.1732397892e+00    0.3086355     0.239967  67.51   0.00162372    1.909    0.476
        85  -9.0163    122.3251    150.3274   1.1537734666e+02   2.7396696327e+01    0.1463379    0.1178057 -10.18 0.0007049675    1.696    0.410
        86 -10.7195    203.2932    209.0764   1.0920715591e+02   1.3153983919e+00    0.6937445    0.2681365 -51.48  0.002330441    5.319    0.812
        87 -10.4919    200.6249    217.0782   1.1106218877e+02   5.9693948104e-01    0.3206319    0.2366946 -62.21  0.001802437    2.200    0.545
        88  -9.3593    202.3768    202.2504   1.0817610036e+02   2.4959369661e+00    0.2063838     0.123459 -49.48 0.0006747079    2.172    0.540
        89  -9.6261    199.2616    211.4172   1.1036111175e+02   1.6513991024e+00    0.2601815    0.1559236 -49.80  0.001012032    2.211    0.548
        90  -9.4957    148.2797    142.9667   1.0763681560e+02   2.3861170472e+01    0.2184943     0.195742 -46.07  0.000830174    1.128    0.114
        91  -9.2265    138.3309    143.2994   1.1004958827e+02   2.5819982553e+01     0.149661    0.1202588   0.05 0.0004860413    1.645    0.392
        92  -9.7750    160.6752    211.3370   1.1778636803e+02   8.3166382461e+00     0.220908    0.1615938 -61.14  0.001246785    1.725    0.420
        93  -9.8113    176.4976    209.0584   1.1431066759e+02   5.9370134778e+00    0.1791585    0.1299764 -41.49 0.0008633996    1.557    0.358
        94  -9.4726    175.1660    222.7666   1.1674743172e+02   4.0079087216e+00     0.191904    0.1306981  74.50 0.0009308105    2.714    0.632
        95 -10.6612    179.7403    217.3405   1.1502883736e+02   4.0693907842e+00    0.2053115    0.1588437 -57.95 0.0008936799    1.707    0.414
        96  -9.6088    183.7843    207.7808   1.1268352919e+02   4.8704108141e+00    0.1646961    0.1533048  82.67  0.001048085    1.376    0.273
        97 -11.2382    206.0940    130.0785   9.2414413624e+01   1.3990064043e+01    0.2308682    0.1931225  -3.63 0.0006343509    1.284    0.221
        98 -10.5123    194.0797    203.2089   1.0991761737e+02   3.7922203243e+00    0.3957202    0.2818588 -77.82  0.001857629    2.944    0.660
        99  -9.4233    198.4142    200.1823   1.0855421767e+02   3.5053282527e+00      0.22604    0.1307954 -44.88 0.0009647493    1.998    0.499
       100  -8.6596    143.0000    216.9864   1.2213217020e+02   1.0376935475e+01    0.1868093    0.0742399 -51.25 0.0007988542    2.918    0.657
       101 -11.0960    185.8079    214.8809   1.1347598641e+02   3.4150601764e+00    0.3638963    0.2131203 -59.00  0.001718974    2.828    0.646
       102 -11.9857    193.6111    211.7478   1.1147768656e+02   2.5613974354e+00    0.5801188    0.3862191 -61.85  0.002945539    2.522    0.603
       103  -9.4246    154.4992    214.4967   1.1949282875e+02   8.8483922936e+00     0.206045    0.1261626 -63.64  0.001028524    2.282    0.562
