#   1 NUMBER                 Running object number                                     
#   2 MAG_AUTO               Kron-like elliptical aperture magnitude                    [mag]
#   3 X_IMAGE                Object position along x                                    [pixel]
#   4 Y_IMAGE                Object position along y                                    [pixel]
#   5 X_WORLD                Barycenter position along world x axis                     [deg]
#   6 Y_WORLD                Barycenter position along world y axis                     [deg]
#   7 A_WORLD                Profile RMS along major axis (world units)                 [deg]
#   8 B_WORLD                Profile RMS along minor axis (world units)                 [deg]
#   9 THETA_WORLD            Position angle (CCW/world-x)                               [deg]
#  10 FWHM_WORLD             FWHM assuming a gaussian core                              [deg]
#  11 ELONGATION             A_IMAGE/B_IMAGE                                           
#  12 ELLIPTICITY            1 - B_IMAGE/A_IMAGE                                       
         1  99.0000    226.3720     49.8140   2.7009516646e+01   2.1787580481e+01     2.533494     1.495479 -29.13   0.01146341    1.710    0.415
         2 -15.2825    188.3132     66.9832   3.7929916511e+01   2.8980207447e+01     2.317655     1.541367  61.38   0.01031657    1.520    0.342
         3 -13.2071    150.8210     43.3425   3.8068311103e+01   4.2298107715e+01     1.379655     1.115178  43.86  0.007058652    1.194    0.162
         4 -11.8536     71.9252     15.7556   4.9023253815e+01   6.2937084361e+01    0.3375058    0.3139144 -28.03 0.0007949881    1.341    0.254
         5 -14.6237     26.9397     59.7464   8.1461665902e+01   6.0639362590e+01     1.315664     1.173075  84.36   0.00954058    1.391    0.281
         6 -11.0426     81.7857     22.6917   4.8691222143e+01   6.0301935005e+01     1.115507    0.4769113  33.44  0.004650646    2.693    0.629
         7 -12.6476     51.6358     22.1432   5.9405129762e+01   6.5039768979e+01     1.017607    0.9497122   1.52  0.006015854    1.299    0.230
         8 -14.1443     51.2714     44.5004   6.8060250646e+01   6.1259380239e+01     1.380694    0.5569795 -38.96  0.002438035    2.243    0.554
         9 -13.5666     62.4245     33.1428   5.9753906418e+01   6.1809451128e+01     1.285636    0.8544888   7.00  0.007078424    1.767    0.434
        10 -13.2088     13.8641     37.9495   8.0635381067e+01   6.5895645755e+01    0.9279938    0.3664639 -40.78  0.002176015    2.070    0.517
        11 -14.6307    125.2536     58.0557   4.9198928664e+01   4.6030514894e+01      3.14239     2.144672  31.06  0.008826918    1.620    0.383
        12 -13.3270     81.3342     41.3991   5.6295379893e+01   5.7502054230e+01     1.043538    0.7289803   7.04  0.005481216    1.694    0.410
        13 -15.4015    197.3504     52.6428   3.2156378409e+01   2.8847534059e+01     5.067208     2.923946 -61.76    0.0197395    2.335    0.572
        14 -11.5411    103.8233     28.0449   4.4138347432e+01   5.5322507500e+01     0.452415    0.2527707 -38.91  0.001328463    1.888    0.470
        15 -10.7544    158.8886     21.5138   2.9098592622e+01   4.3084633939e+01    0.5095392    0.3262385 -52.20    0.0016351    1.851    0.460
        16 -10.7948    163.6819     21.0954   2.8112854009e+01   4.1886970262e+01    0.2593287    0.1787881  40.99 0.0006550044    1.458    0.314
        17 -10.9147    176.0064     24.9669   2.7296601086e+01   3.8197849153e+01    0.3081168    0.2488505 -62.35 0.0007092852    1.350    0.259
        18 -11.1709     30.8417     19.8396   6.7133759305e+01   6.7776373587e+01     0.335302    0.2132319 -42.44  0.002146025    1.361    0.265
        19 -13.0800      2.6874     36.2655   8.4725584439e+01   6.6850696624e+01     1.303045    0.4997217 -43.97  0.007303792    1.942    0.485
        20 -11.4753     65.2047     14.5924   5.0901430394e+01   6.4179378016e+01    0.4599734    0.1975974 -34.56  0.002187262    2.162    0.538
        21 -10.2362     63.4579      7.5699   4.8291299166e+01   6.5353004566e+01    0.3010314    0.1667398 -46.09 0.0008254747    2.666    0.625
        22 -10.4828     94.0563     10.6779   3.9743413754e+01   5.9471575713e+01    0.4041678    0.2792455 -61.62   0.00197777    2.546    0.607
        23 -10.0365     89.0922     12.2645   4.1895179409e+01   6.0271008529e+01    0.1704775    0.1474579  22.76 0.0003735012    1.079    0.074
        24 -11.6324    115.6265      9.7536   3.3716501370e+01   5.4945478290e+01    0.4957724    0.2472188  43.37  0.002036181    1.820    0.451
        25 -10.1278     53.7876     10.1866   5.3212304753e+01   6.6472601436e+01    0.2197783    0.1228934 -42.60  0.001179729    2.075    0.518
        26  -9.4947     60.4740      9.4696   5.0296077506e+01   6.5581084637e+01    0.1242544   0.09953593  -2.22 0.0005222132    1.015    0.015
        27  -9.7855     48.8108      8.6236   5.4475237546e+01   6.7369382840e+01    0.1423509     0.107812  38.01 0.0004466295    1.595    0.373
        28 -10.2372      3.2504      6.6536   7.4766034564e+01   7.2105211949e+01    0.1390226    0.1164441 -11.48   0.00109268    1.287    0.223
        29 -10.2921     67.1582      3.8909   4.5204965100e+01   6.5182289833e+01    0.1713674    0.1481683  -6.62 0.0003189131    1.169    0.144
        30 -10.4979     73.4101      3.2187   4.2744068804e+01   6.4183548217e+01    0.2790839    0.1444541  45.07 0.0008277021    1.862    0.463
        31  -9.5007    118.2401      1.5993   2.9850015940e+01   5.5122374213e+01    0.1298689   0.09720151 -48.89 0.0006921986    1.677    0.404
        32 -10.0420     35.9412    105.0000   8.7715035531e+01   5.0092442819e+01    0.1705077   0.07095796  28.33 0.0008024769    2.943    0.660
        33 -10.0482    228.9964    249.9771   6.9699410934e+01  -7.6486985338e+00    0.1757026    0.1067222  19.48 0.0005583749    1.594    0.372
        34 -12.5863    165.3599    248.1623   8.0135646707e+01   2.8281617582e+00    0.4459027    0.2556129  36.20  0.002670272    1.550    0.355
        35 -12.4558    136.5168    249.6779   8.5192477518e+01   7.2897667941e+00    0.4147401    0.1310416  47.75  0.001928251    2.390    0.582
        36 -13.7508    110.1499    240.7967   8.8743596870e+01   1.2726553635e+01    0.5980872    0.3526855  59.99  0.002629871    1.414    0.293
        37 -13.7795    110.2400    249.1564   8.9522709324e+01   1.1432197409e+01    0.9480742    0.3587573  54.45  0.004829446    2.234    0.552
        38 -13.1815     37.9763    247.8009   1.0083308503e+02   2.1279040977e+01    0.4891436    0.3820774  62.82  0.004205944    1.315    0.239
        39 -11.9742     11.6164    247.4489   1.0464138781e+02   2.4174513572e+01    0.3694155    0.1586944 -75.14  0.002586718    2.177    0.541
        40 -11.3544     69.7990    101.9800   7.7587225471e+01   4.6933135402e+01    0.1978419    0.1940251  84.79 0.0002781759    1.131    0.116
        41 -11.9559     53.7820     99.3257   8.1634142154e+01   4.9520003612e+01    0.2512523    0.2236522 -35.73 0.0007885483    1.245    0.197
        42 -12.7805    130.1690     98.6057   6.0184654241e+01   3.7110748152e+01    0.5549061    0.3712288 -13.31   0.00221917    2.416    0.586
        43 -12.2883    124.6550    100.7113   6.2170135906e+01   3.7821199926e+01    0.3127738    0.2762271  54.58 0.0006707017    1.162    0.139
        44 -11.6588    111.9775    101.2808   6.5669583438e+01   4.0212005601e+01    0.1983804    0.1965007  61.94 0.0004756507    1.053    0.050
        45 -10.9902    153.5313     99.4834   5.4675449813e+01   3.1717369630e+01    0.2957337    0.1555813 -37.29 0.0006704373    1.973    0.493
        46 -10.4956    151.1966     96.3649   5.4371220491e+01   3.2879661814e+01    0.2167176    0.2017301 -19.09  0.000832501    1.122    0.109
        47 -11.4135     86.9717     97.8958   7.1750330133e+01   4.5324253375e+01    0.3352022    0.2534415 -44.85 0.0008530107    1.262    0.208
        48 -11.3332     81.6012     99.4596   7.3653859960e+01   4.5809249942e+01    0.2709036    0.2055209 -50.67  0.001487719    1.206    0.171
        49 -12.1845    200.9558     98.0468   4.4182430276e+01   2.0493189303e+01    0.5118986    0.3543595 -60.28   0.00146883    1.795    0.443
        50 -11.1776    191.7826     99.2870   4.6301603023e+01   2.2523515156e+01    0.4141717    0.2131944  55.47  0.001593887    1.992    0.498
        51 -11.4059    170.3806     97.9264   5.0415636496e+01   2.8011597510e+01    0.4286403    0.3338615  21.73  0.001975387    1.529    0.346
        52  -9.8447    166.5180     95.5148   5.0606381830e+01   2.9406689047e+01    0.2161187    0.1535305  61.20 0.0009503751    1.512    0.338
        53 -12.2138    139.3471     98.0288   5.7711063662e+01   3.5236809505e+01    0.5634676    0.2701631  43.30 -0.000275831    2.145    0.534
        54 -14.8145    194.8450     80.3637   4.0525370814e+01   2.5079303890e+01     2.434008     1.646623  20.52   0.01006754    2.058    0.514
        55 -13.6014     81.8436    247.5799   9.4017158747e+01   1.5770809975e+01    0.6834974    0.2930148  47.72  0.004039715    1.767    0.434
        56 -12.6294    166.7851     38.4530   3.3224370816e+01   3.8897101623e+01    0.9337763    0.3271055  53.67  0.003231671    2.545    0.607
        57 -12.2506    107.4854     95.0383   6.5264019730e+01   4.2402894383e+01     0.502925    0.2914881 -21.22   0.00161156    3.333    0.700
        58 -13.1409    106.1016     90.9256   6.4543371020e+01   4.3538212914e+01    0.6624957    0.4216838 -54.51  0.002544864    1.589    0.371
        59 -11.3845     59.9099     97.0176   7.9378480782e+01   4.9312883261e+01    0.1947608    0.1695672 -62.70 0.0003297861    1.012    0.012
        60 -12.5760    123.9618     95.2171   6.0875173661e+01   3.9119259085e+01    0.4998191    0.3136477 -27.62  0.001211165    2.017    0.504
        61 -12.0004    128.4562     89.5047   5.8106772045e+01   3.9351981308e+01    0.2877888    0.2523157 -24.95 0.0008134785    1.193    0.162
        62 -12.6162    162.4365     84.0216   4.8259947411e+01   3.2567144942e+01    0.6623927    0.5261344  39.40  0.003175384    1.288    0.224
        63 -10.4340    158.0638     95.6033   5.2549959705e+01   3.1416322318e+01    0.3453267    0.1500186  50.41  0.001218386    2.288    0.563
        64 -11.7414    212.5425     94.2379   4.1039841366e+01   1.8315625149e+01    0.4063901    0.2139649  61.98  0.001247653    2.162    0.537
        65 -11.3401     98.5557     92.5345   6.7097563830e+01   4.4558960046e+01    0.2347147    0.2184234  31.04 0.0004610177    1.158    0.136
        66 -11.6834     95.1476     89.3334   6.7221388964e+01   4.5838722411e+01    0.4015978    0.3452097  36.36  0.001086493    1.255    0.203
        67 -11.5815     61.6127     93.1329   7.8031715844e+01   4.9966924823e+01    0.2127353    0.1956923   7.98 0.0005416037    1.288    0.224
        68 -12.5828     48.2707     86.0053   8.0498117572e+01   5.3078767409e+01    0.3593854     0.262546 -85.18  0.001572441    1.582    0.368
        69 -12.3638     52.6304     89.8377   8.0001181870e+01   5.1758824783e+01    0.3791613    0.2446035 -77.24 0.0008332405    1.750    0.429
        70 -12.0326     52.9810     86.2834   7.9108796401e+01   5.2500807512e+01    0.3106374     0.199125  44.46 0.0002611829    1.834    0.455
        71 -12.1074    116.0279     89.2968   6.1356851493e+01   4.1966171660e+01    0.3528891    0.2824781 -18.45 0.0002408884    1.457    0.314
        72 -13.0742    121.7869     86.1316   5.8902360601e+01   4.1445443512e+01    0.6508112    0.4456584 -16.53  0.002192314    2.028    0.507
        73 -11.2976    126.3432     81.2979   5.6274238809e+01   4.1454193995e+01    0.3291083    0.2741138   1.00   0.00113908    1.411    0.292
        74 -11.7973     39.9967     90.0972   8.3868655329e+01   5.3017014021e+01    0.2398847     0.186063 -70.74 0.0003726281    1.151    0.131
        75 -11.7022     38.4894     86.5097   8.3611612020e+01   5.3948392304e+01    0.2585837    0.2090152 -39.92 0.0006493953    1.261    0.207
        76 -13.8134     86.3454    238.9986   9.2583895218e+01   1.6516976542e+01    0.6432238    0.3882281  50.66  0.004300609    1.307    0.235
        77 -11.4957      3.0615    248.0925   1.0586060028e+02   2.4915777693e+01    0.2544581   0.09634313  74.96  0.001654575    2.091    0.522
        78 -11.2498    174.9924     90.1179   4.7253599856e+01   2.8343734948e+01    0.3031905    0.2194875  44.45 0.0004625186    1.385    0.278
        79 -10.5048    166.7800     89.9324   4.8985791284e+01   3.0400026553e+01    0.3544658    0.2169203  56.78  0.001047734    1.692    0.409
        80 -11.8190    138.8051     87.8743   5.4995967218e+01   3.7404510629e+01    0.2817812    0.2600243 -68.88            0    1.154    0.134
        81 -12.3069    139.8021     80.9341   5.2710072368e+01   3.8534699741e+01    0.5870504    0.3251147 -36.77  0.001386551    1.829    0.453
        82 -12.0309    236.3247     86.6849   3.5143012734e+01   1.3849489166e+01    0.5044689    0.3300534  57.88  0.001174356    1.610    0.379
        83 -12.9930     66.8966     83.2606   7.4090071251e+01   5.1452121069e+01    0.7299355    0.5264876  86.84  0.003152626    1.973    0.493
        84 -10.2645     81.1232     82.8759   6.9632744181e+01   4.9501089717e+01    0.2396538    0.1742126 -58.21 0.0003132501    1.344    0.256
        85 -11.5976     79.9153     77.7911   6.8609107854e+01   5.0762880129e+01    0.4663461    0.3103667  76.35  0.001715354    2.755    0.637
        86 -11.7035     72.4757     76.0234   7.0440118353e+01   5.2231173090e+01    0.3185555    0.2230435  45.35  0.001065049    1.647    0.393
        87 -11.4594     64.1808     75.0414   7.2812706433e+01   5.3566832559e+01    0.2413259    0.2090857   3.71 0.0002673379    1.317    0.241
        88 -10.6501     68.2968     74.3317   7.1301512433e+01   5.3168381087e+01    0.1751322    0.1369364   2.94 0.0003281283    1.565    0.361
        89 -13.4217    152.7342     64.1206   4.4426395167e+01   3.8516773237e+01      1.20414    0.9019511 -29.96  0.005729807    1.369    0.269
        90 -12.4443    148.1981     82.3202   5.1068135913e+01   3.6315763089e+01    0.6763869      0.39946 -41.17  0.002838557    1.690    0.408
        91 -15.0414    137.0963     71.6181   5.0541653191e+01   4.0914915390e+01     2.825963     1.211305  37.14  0.009323028    3.038    0.671
        92 -10.8466      5.4613     85.0430   9.3310408680e+01   5.6722354555e+01     0.179265   0.08610974 -70.40 0.0005421649    1.583    0.368
        93  -9.8182    242.0672     84.0455   3.3614249902e+01   1.2923587083e+01    0.1715655    0.1462272 -31.91 0.0003480004    1.108    0.098
        94 -13.0711     96.1248     70.7542   6.1590818177e+01   4.9518963112e+01    0.7146837    0.5595451 -54.39  0.003553527    1.330    0.248
        95 -11.5310     98.1868     80.7746   6.3964050074e+01   4.7113046042e+01    0.4726556    0.3852241 -56.52 0.0008638591    1.244    0.196
        96 -11.9997    103.8175     75.7656   6.0850357862e+01   4.7105614903e+01    0.4510627    0.3330566  13.59   0.00141443    1.737    0.424
        97 -11.1920     18.8672     81.1205   8.8632697488e+01   5.6722175625e+01    0.1956696    0.1528774 -66.09 0.0003288937    1.038    0.036
        98 -13.6726     54.5067     73.1079   7.5439859828e+01   5.5166561203e+01     1.055051    0.5710939 -67.45  0.004951044    2.215    0.549
        99 -11.8457     60.7453     71.5773   7.2990927535e+01   5.4734650012e+01    0.3158962    0.2340781 -12.54  0.001011761    1.655    0.396
       100 -12.1445     41.0206     39.4605   7.0246916419e+01   6.3334031700e+01    0.5263559    0.3097467 -49.49  0.003028055    1.503    0.335
       101 -14.1631     41.7099     75.9091   8.0304328282e+01   5.5938855623e+01    0.9725281    0.6803483 -17.24  0.005713714    1.817    0.450
       102 -13.9119     35.1828     69.0908   8.0867411438e+01   5.8000284055e+01    0.7401453    0.5741088 -21.13  0.003430978    1.446    0.308
       103 -14.2639     52.4107    234.4069   9.7789860036e+01   2.1775810749e+01    0.9078289    0.3081442  49.61  0.005023356    2.185    0.542
       104 -12.8943    178.1451    236.5287   7.6431590555e+01   2.2269268489e+00    0.3833089    0.2748676 -64.18  0.002399941    2.064    0.516
       105 -13.6920     58.6886    244.2605   9.7453003052e+01   1.9359146967e+01    0.5536186    0.3357743  65.47  0.004029639    1.212    0.175
       106 -13.5793      4.3456     53.3287   8.8098368449e+01   6.3404588357e+01     1.015456    0.5649223 -52.23  0.006600949    1.321    0.243
       107 -12.2134     94.1606    247.1652   9.1987950099e+01   1.4101627793e+01    0.3356164    0.1662252  66.81  0.001561717    2.039    0.510
       108 -10.6590    227.1766    242.4030   6.8883439683e+01  -6.5788378971e+00    0.1624033   0.08956473  46.58 0.0009451158    1.688    0.408
       109 -10.7695    144.3075    242.6677   8.3091312701e+01   7.0337123115e+00     0.117839    0.0763592  66.53 0.0003296128    1.666    0.400
       110 -10.6186    219.5389    240.8681   6.9932136910e+01  -5.1930455328e+00    0.2344794    0.1348233  51.83  0.001337993    1.921    0.480
       111 -11.7020     20.8888     27.9165   7.4516565133e+01   6.7258214636e+01    0.5058428    0.2637999  16.48  0.002989192    2.291    0.564
       112 -11.8205    230.6156     79.0743   3.4074973004e+01   1.6391075657e+01    0.4784832    0.3427581 -72.89  0.002222917    1.785    0.440
       113 -11.3865    155.4497     77.3717   4.7886082753e+01   3.5500813684e+01    0.5900834    0.3382874  48.83   0.00231868    1.718    0.418
       114 -12.1865     87.5242     73.7157   6.5095225297e+01   5.0399340560e+01     0.462785    0.3177251 -14.99 0.0006334992    1.970    0.492
       115 -11.7060     24.3303     78.0250   8.6344577104e+01   5.6990687558e+01    0.2496281    0.1562699  21.22  0.001533227    2.032    0.508
       116 -11.3347     19.9884     75.9190   8.7321276215e+01   5.7759428206e+01    0.1805463    0.1408774 -57.69 0.0004465581    1.036    0.035
       117 -10.6480     78.8097     72.0874   6.7325260268e+01   5.2117334709e+01    0.2002819    0.1818732 -70.41 0.0005917314    1.230    0.187
       118 -13.8432    168.1016     78.2749   4.5328751708e+01   3.2212055271e+01      2.05732     1.210561 -64.25  0.007339454    2.741    0.635
       119 -13.2389     40.5999     60.6157   7.6853549478e+01   5.9254235463e+01    0.9336635    0.4492628 -47.93  0.004851636    1.672    0.402
       120 -13.5497    171.5624     56.6528   3.8058741220e+01   3.4974797193e+01     1.094273    0.8762364  16.21  0.002700018    1.463    0.317
       121 -11.8206     53.3220     55.6999   7.0933246905e+01   5.8870140483e+01    0.4058304     0.276672 -26.43  0.002324235    1.503    0.335
       122 -10.7494     58.6770     66.7073   7.2326243297e+01   5.6003588538e+01    0.2682591    0.1464062 -34.27 0.0008233297    1.962    0.490
       123 -10.9088     60.6896     63.3235   7.0672940282e+01   5.6442311479e+01    0.2527381    0.1895732 -53.39 0.0009711237    1.247    0.198
       124 -11.7001     58.0276     59.9203   7.0569920673e+01   5.7461943689e+01    0.4083362    0.2589273 -47.70   0.00106023    1.357    0.263
       125 -11.7839    107.1261     64.6789   5.6417657362e+01   4.8632813734e+01    0.2948065    0.2231114 -51.18 0.0007112345    1.403    0.287
       126 -11.7061     88.0311     62.1481   6.1356636995e+01   5.2614892864e+01    0.7903242    0.4665982   3.46   0.00287863    3.672    0.728
       127 -12.9939     93.9505     60.4700   5.8967993085e+01   5.1902510864e+01    0.8157435    0.5483783  65.33  0.001319056    2.294    0.564
       128 -10.6312     90.2379     55.3433   5.8400110056e+01   5.3515339438e+01    0.2159223    0.1889031  13.55 0.0003385725    1.165    0.142
       129 -13.0212     78.6183     59.8491   6.3625216088e+01   5.4591812138e+01    0.5695702    0.5150729  38.17  0.002056852    1.247    0.198
       130 -12.0051     82.7114     58.2897   6.1787967286e+01   5.4238222160e+01    0.3073171    0.2087779 -56.55 0.0001820011    1.699    0.412
       131 -10.9901    103.1784     60.8972   5.6328503938e+01   5.0107868397e+01    0.2441517    0.2262081 -22.92  0.000590744    1.018    0.018
       132 -11.8598    153.5863    249.4607   8.2287803953e+01   4.5779233601e+00     0.473659    0.1663548  36.58  0.002002112    3.151    0.683
       133 -11.1763    238.6996     52.7722   2.6154976587e+01   1.8333428255e+01    0.4176154    0.2874837  10.12  0.001571269    2.168    0.539
       134 -10.9974     92.2230     34.9124   5.0302376022e+01   5.6611973791e+01    0.3811612    0.2746705  40.75  0.002038861    1.411    0.291
       135 -11.9603     87.0769     30.4613   5.0170381826e+01   5.8234805980e+01    0.4698887    0.3766821  59.05  0.002301187    1.623    0.384
       136 -11.5281     82.3687     35.1086   5.3546378989e+01   5.8354930981e+01    0.2629215     0.222896  31.02  0.000394379    1.226    0.184
       137 -11.8223     82.3384     48.5365   5.8566786527e+01   5.6096950311e+01    0.6636861    0.3180347  38.74  0.002749549    2.230    0.552
       138 -10.5619    144.3072    103.2611   5.7902816477e+01   3.3061060817e+01     0.299775     0.185447  38.59  0.001262841    1.735    0.424
       139 -12.7334     75.5721     42.1830   5.8528287053e+01   5.8308527768e+01    0.3505284    0.3220047  -6.32  0.001183886    1.093    0.085
       140 -12.1112     62.9171     44.4313   6.3778171735e+01   5.9782317443e+01    0.5616794    0.4017942 -64.73  0.003030234    2.011    0.503
       141 -11.1736    100.3890     53.9146   5.4788444168e+01   5.1911853969e+01    0.5339756    0.2783796  37.90  0.002326388    2.047    0.511
       142 -11.2792     27.3255     44.8888   7.7315401291e+01   6.3579212942e+01    0.4704691    0.1643668 -59.19  0.002052522    2.784    0.641
       143 -10.9739     23.6333     44.0663   7.8510346417e+01   6.4031217933e+01    0.2534355    0.2089678  38.67  0.001257637    1.597    0.374
       144 -10.8421     99.7698     46.1846   5.2230004376e+01   5.3365534030e+01    0.2814929    0.2580606  18.81  0.001662903    1.083    0.077
       145 -10.4595     36.0283     43.2315   7.3434725143e+01   6.3127190135e+01    0.2038927    0.1429281 -46.65 0.0006441004    1.182    0.154
       146 -10.9844     67.9906     40.1951   6.0429605554e+01   5.9810738981e+01    0.2909952    0.2079311  18.28  0.001481628    1.519    0.342
       147 -12.7925    161.6120     58.3099   4.0628452721e+01   3.7261945058e+01     1.315673    0.5022198 -43.03  0.003941406    2.791    0.642
       148 -10.8498    114.5439     38.8083   4.5277866174e+01   5.1506309096e+01    0.6423361    0.1633347  54.87  0.001789489    4.816    0.792
       149 -10.3362    109.6256     37.9757   4.6325361581e+01   5.2681198109e+01     0.307599       0.1625 -27.66 0.0009860009    1.936    0.484
       150 -11.6688    132.0188     34.1198   3.9110077123e+01   4.8207504125e+01    0.3591102    0.3148862  84.51 0.0006808951    1.358    0.264
       151 -11.3551    169.6055    234.2586   7.7627651662e+01   3.9890665310e+00    0.2345196    0.1203806  50.93 0.0007570187    1.685    0.406
       152 -10.3229    216.5361     34.4665   2.4189835816e+01   2.6358283194e+01    0.1420885    0.1363695  80.88 3.103728e-05    1.057    0.054
       153 -12.7728     26.4871     35.9392   7.4871824374e+01   6.5346503199e+01    0.3173656    0.2242043 -20.06 0.0006816513    1.388    0.279
       154  -9.8892    122.4216     32.4811   4.0857146261e+01   5.0666966716e+01    0.1436714    0.1303873  15.99 0.0001062111    1.033    0.032
       155  -7.3121    202.7665     29.6805   2.4703171542e+01   3.0548915936e+01    0.3317324    0.2487882   2.52  0.001624823    1.706    0.414
       156 -11.0751     37.2604     30.5245   6.8566555660e+01   6.5325648082e+01    0.3643811     0.183947  17.00  0.001892222    2.527    0.604
       157 -10.5664    150.9732    234.5378   8.0957206349e+01   7.1082344712e+00    0.1850646   0.09478482  45.33 0.0003859987    1.526    0.345
       158 -10.5677     29.3107     29.0979   7.1347345863e+01   6.6341497211e+01    0.3687648   0.08868907 -50.56  0.001427632    3.493    0.714
       159 -10.0495    149.1186     27.6647   3.3066800393e+01   4.4850623667e+01    0.4270236    0.2023636  36.22  0.001587726    2.559    0.609
       160 -10.9135    218.1618     28.8860   2.2468702325e+01   2.6645446789e+01    0.3119707    0.2038151  58.96 0.0007956941    1.494    0.331
       161  -9.8956    159.1451     26.8396   3.0838575845e+01   4.2386781366e+01    0.2007544    0.1629814  28.09 0.0003779784    1.296    0.228
       162 -12.6905    180.2131    243.0668   7.6947339802e+01   1.0276305583e+00    0.3398626    0.2361612  64.30  0.001957292    1.767    0.434
       163 -11.4836    159.9929    219.7310   7.7376265109e+01   7.7760583448e+00    0.1871485    0.1777402  70.73 0.0002668438    1.197    0.165
       164 -10.9923     33.3879    214.0465   9.9562346273e+01   2.7582097957e+01    0.2318737   0.08436209 -75.89  0.001263171    2.475    0.596
       165 -10.2830    111.8611     24.2589   4.0438409817e+01   5.4115554113e+01     0.257924    0.1652238  12.82 0.0009914956    1.889    0.471
       166 -11.1581     36.9909     24.0861   6.6203460354e+01   6.6452059579e+01    0.2687165    0.1979674 -25.70  0.001103719    1.094    0.086
       167 -10.1158    148.2972     24.3560   3.2080799353e+01   4.5462321031e+01    0.1552385    0.1037004  26.85 0.0007034595    1.699    0.411
       168  -9.9106    138.8247     23.2524   3.3641845484e+01   4.7956974293e+01    0.2042351    0.1556202  28.12 0.0006824054    1.338    0.253
       169 -10.9851     97.5858     21.7715   4.3404830937e+01   5.7429226550e+01    0.2954861    0.2033567 -29.93  0.001188888    1.445    0.308
       170 -10.8142     89.3437     21.2981   4.5689605449e+01   5.9101061937e+01     0.348919    0.2084215 -37.05  0.001779817    1.741    0.425
       171 -11.0470    201.0896     20.7769   2.2384490405e+01   3.2057468185e+01    0.4496429    0.2676291  56.96  0.002094832    1.587    0.370
       172 -11.7880     12.9187    213.6780   1.0288795929e+02   2.9774051146e+01    0.2879891     0.124065  64.28   0.00182361    1.826    0.452
       173  -9.7892    162.4563    123.4536   5.8790819912e+01   2.4861978616e+01    0.1518572    0.1479545  57.45 4.393141e-05    1.007    0.007
       174 -13.3183    172.8623     45.5566   3.4342185173e+01   3.6311024403e+01     1.194059    0.7422639  23.54  0.004800301    2.261    0.558
       175 -12.4501    161.3610     36.3860   3.3588905286e+01   4.0586121849e+01    0.6359425    0.4117399 -23.34  0.001854801    1.663    0.399
       176 -14.4005      9.3535     67.9972   8.9280418521e+01   6.0114356603e+01     1.104536    0.7569129 -57.70  0.005267681    1.102    0.092
       177 -10.6010    139.4866     17.0439   3.1254915478e+01   4.8505432923e+01      0.23983    0.1946618  82.71 0.0004044957    1.414    0.293
       178 -10.0821     94.1194     16.7693   4.2333657424e+01   5.8749352101e+01    0.1815417    0.1548307  23.09 0.0004777962    1.066    0.062
       179 -10.5687    202.9461    115.9534   4.8414007271e+01   1.6846234731e+01    0.3246953    0.2120647  78.24  0.001270526    2.450    0.592
       180  -9.7916    181.7839    115.3979   5.2561455162e+01   2.1952702098e+01    0.2240804    0.1408582  40.06 0.0009429622    1.644    0.392
       181  -9.7027    150.6112     13.2497   2.7768390362e+01   4.6114157633e+01    0.1430696    0.1062294 -78.19 0.0006950925    1.670    0.401
       182  -9.9518    134.7645     13.4044   3.0888925920e+01   5.0056109345e+01     0.197063    0.1133157  47.63 0.0009136403    1.565    0.361
       183 -12.2418    131.4957    111.7210   6.3252217657e+01   3.4065760742e+01    0.4690175    0.3080128  45.47  0.002138035    1.534    0.348
       184  -9.6120    171.3231    112.6584   5.4115656386e+01   2.4947642416e+01    0.1611814    0.1241353 -80.63 0.0007050718    1.727    0.421
       185 -11.0459    197.8113    109.4402   4.7766077359e+01   1.9230521479e+01    0.6025067    0.3718251 -73.64  0.002062201    3.279    0.695
       186 -10.0928    216.8541    108.4102   4.3911651958e+01   1.4883171042e+01    0.2392478    0.1837632 -22.92 0.0004670781    1.340    0.254
       187  -9.6425    182.9690    107.5924   5.0301638926e+01   2.3140260830e+01    0.3641306    0.2221246 -15.06  0.001348867    2.509    0.601
       188 -10.8226     29.9442    106.9795   8.9669866682e+01   5.0190281542e+01    0.1763805     0.142254 -70.39 0.0002992511    1.025    0.024
       189 -10.5597    208.5316    104.2970   4.4388582232e+01   1.7564987940e+01    0.3312626    0.2259542 -63.55  0.001102388    1.976    0.494
       190 -10.9634    134.9248    105.0426   6.0688687273e+01   3.4750181797e+01    0.2280994    0.2255643 -74.54 0.0003997551    1.006    0.006
       191 -10.9362    165.8213    103.3830   5.2904612599e+01   2.8055969786e+01    0.4033931    0.2245777 -45.13  0.001288883    1.840    0.457
