#   1 NUMBER                 Running object number                                     
#   2 MAG_AUTO               Kron-like elliptical aperture magnitude                    [mag]
#   3 X_IMAGE                Object position along x                                    [pixel]
#   4 Y_IMAGE                Object position along y                                    [pixel]
#   5 X_WORLD                Barycenter position along world x axis                     [deg]
#   6 Y_WORLD                Barycenter position along world y axis                     [deg]
#   7 A_WORLD                Profile RMS along major axis (world units)                 [deg]
#   8 B_WORLD                Profile RMS along minor axis (world units)                 [deg]
#   9 THETA_WORLD            Position angle (CCW/world-x)                               [deg]
#  10 FWHM_WORLD             FWHM assuming a gaussian core                              [deg]
#  11 ELONGATION             A_IMAGE/B_IMAGE                                           
#  12 ELLIPTICITY            1 - B_IMAGE/A_IMAGE                                       
         1 -12.3822     68.5208    144.4657   1.0524983932e+02   3.7178352591e+01     2.196378     1.091585  86.58  0.006634335    4.793    0.791
         2 -12.3661    204.0551     35.7453   4.4924624656e+01   2.9890000917e+01     1.018358    0.9401459 -65.78  0.006007091    1.049    0.047
         3 -11.2614    213.6071     26.9609   4.1585188857e+01   2.8721437311e+01    0.6711689    0.4266775  54.17  0.001063722    1.709    0.415
         4 -12.1503    220.0415     19.8906   3.9207869968e+01   2.8064283281e+01    0.9010956    0.7951019  47.98  0.005704858    1.381    0.276
         5 -10.3561      7.5006      4.8107   8.8563840808e+01   7.3301878596e+01    0.3643403    0.1385718 -47.49   0.00180718    2.827    0.646
         6  -9.2990    242.7961      1.6175   3.3266989504e+01   2.5027924546e+01      0.49064    0.1344775  73.69  0.001999325    3.399    0.706
         7  -8.8851     47.8973      2.3076   6.7324561943e+01   6.8614473946e+01    0.1687903    0.1269705  19.08 0.0004586782    1.112    0.100
         8  -8.2048     56.5092      1.5035   6.3596934802e+01   6.7268226998e+01    0.1226512   0.09720307  14.20  8.40544e-05    1.009    0.009
         9  -8.4869     53.5868    231.2693   1.1883777722e+02   1.9718813015e+01    0.2080033    0.1018494 -78.32  0.001136364    2.053    0.513
        10 -13.4206     65.4375    247.7581   1.1797202428e+02   1.5143020624e+01     3.234173     1.229035  31.45  0.005695105    3.487    0.713
        11 -12.0682     31.2648    247.1610   1.2387707973e+02   1.9373088404e+01    0.8207815    0.7076666 -85.74  0.004470391    1.399    0.285
        12 -13.8147      3.2636    172.1912   1.2440212292e+02   3.7500907390e+01     16.32223    0.5555771 -75.89   0.02619966   20.261    0.951
        13 -13.9474      4.9022    137.4047   1.2111670817e+02   4.5406301984e+01     6.191345     1.613656 -82.63    0.0195077    4.860    0.794
        14  -8.6290    174.4868    223.5017   9.4022196401e+01   2.7751486021e+00    0.1295633    0.1111846  24.70 0.0003642261    1.023    0.023
        15  -9.0405     42.0505    231.8186   1.2100509716e+02   2.1007114807e+01    0.2227908    0.1508345 -36.99  0.001265671    2.924    0.658
        16 -10.1784     87.9689    226.4790   1.1177144667e+02   1.6023747952e+01    0.3769422    0.2241307  65.88  0.001575124    1.735    0.424
        17  -8.1980     93.7706    219.6255   1.0984745882e+02   1.6511767331e+01    0.1649339     0.146507  86.16 0.0006268804    1.127    0.113
        18 -11.5783    150.2434    229.8294   9.9764077798e+01   5.7076645363e+00    0.7244334    0.3069163  28.45  0.002821791    3.158    0.683
        19  -9.8264     49.2141    224.7774   1.1914513972e+02   2.1528253951e+01    0.2778886    0.2455676  62.30 0.0007407029    1.246    0.198
        20 -11.8547     24.6330    225.1760   1.2372208511e+02   2.4252398252e+01    0.9941832    0.3633888  51.52     0.005264    2.189    0.543
        21  -8.8748     45.4186    221.2108   1.1958507051e+02   2.2698336089e+01    0.2123824    0.1308856  69.42  0.001301221    1.401    0.286
        22 -11.4857     37.4509    206.2520   1.1994556093e+02   2.6714068115e+01    0.4307925    0.4061926 -83.85  0.001294584    1.359    0.264
        23  -8.2118     99.5075    180.5341   1.0335156964e+02   2.3920602774e+01     0.137447    0.1291231  78.11 0.0001207267    1.048    0.045
        24 -10.3943     64.1601    178.6511   1.1135754941e+02   2.9577314288e+01     0.406477    0.3131829 -31.92  0.001878182    1.855    0.461
        25 -10.2647     69.0480    173.2584   1.0950088275e+02   3.0173602800e+01    0.3063627    0.2606185 -40.57 0.0005366191    1.455    0.313
        26  -8.6652     40.4978    178.0270   1.1671353661e+02   3.2616795667e+01    0.1822391    0.1538724  69.43  0.000363263    1.122    0.109
        27  -9.3068    100.8017    170.5760   1.0143740335e+02   2.5985061596e+01    0.2088625    0.1242351  50.67 0.0008291117    1.698    0.411
        28  -8.6771     94.3245    168.6546   1.0269342987e+02   2.7487273757e+01    0.1516843    0.1036184  75.26 0.0007050259    1.741    0.426
        29 -11.7503     65.9257    159.5514   1.0832179028e+02   3.3859572496e+01    0.5021024    0.3579828 -41.83  0.001419248    1.680    0.405
        30 -11.3098    114.1650    239.6709   1.0810065943e+02   9.7045170666e+00    0.4019759    0.3710058 -65.18  0.002610584    1.288    0.224
        31  -9.7086     22.6626    155.6419   1.1856029593e+02   3.9669688695e+01    0.3393289    0.1731871 -63.50  0.001790123    1.664    0.399
        32  -8.9610    134.0000    145.9714   8.8464143226e+01   2.5618581677e+01    0.5970711   0.08595567 -48.88  0.001245692    6.861    0.854
        33  -9.0299     99.4677    142.5103   9.6589427784e+01   3.2859600803e+01    0.2968631    0.2412438 -40.79 0.0009301507    1.307    0.235
        34  -8.3704    101.6701    139.6729   9.5417339150e+01   3.3160815022e+01    0.3141795    0.2157426 -31.85   0.00140863    1.825    0.452
        35 -10.5172     87.4509    141.4041   9.9587356207e+01   3.5116221594e+01    0.2933467     0.258049 -53.10 0.0003634295    1.125    0.111
        36  -8.9413     82.0698    141.7935   1.0111595938e+02   3.5861864192e+01    0.2865459    0.2013806  61.45 0.0006818008    1.597    0.374
        37  -9.3490     54.1184    222.0585   1.1798411205e+02   2.1465683450e+01    0.4447969    0.1707261  59.33  0.001614943    2.736    0.634
        38  -8.9592    110.3756    131.1095   9.1206432338e+01   3.3636792743e+01    0.2850914    0.2205896  16.42  0.001117435    1.635    0.388
        39  -8.3092    105.9336    130.9931   9.2380181470e+01   3.4480965983e+01    0.2456135    0.1862904  83.65  0.001134915    1.673    0.402
        40  -8.9498     97.3614    127.4982   9.3950403973e+01   3.6841138850e+01    0.2963186    0.2364835 -29.51  0.001109481    1.435    0.303
        41 -10.9067     78.4119    163.5074   1.0579494418e+02   3.1152109384e+01     0.560783    0.3677417 -84.24 0.0005608302    1.670    0.401
        42  -8.3226    107.0818    119.8252   8.9438717113e+01   3.6918477069e+01    0.2149039    0.2000569 -88.66 0.0003446543    1.128    0.114
        43 -14.1921      8.3745    239.7116   1.2730578804e+02   2.3143018545e+01     2.904184     1.670768 -70.24   0.02018269    1.811    0.448
        44  -7.5313    134.6943    111.6906   7.9939942897e+01   3.3207154262e+01    0.1576895     0.125227  -3.93 0.0005560435    1.612    0.380
        45 -13.2494     46.7663    195.7306   1.1710365008e+02   2.7904880265e+01     2.145638     1.140011  67.17  0.009207341    1.905    0.475
        46  -7.9128    205.5039    109.9974   6.4057581059e+01   1.7604140532e+01    0.2298928    0.1394902 -38.31   0.00101091    1.527    0.345
        47  -7.9389    114.3070    110.3228   8.5014099810e+01   3.7733553545e+01    0.1567846     0.121842 -12.24 0.0001891365    1.644    0.392
        48  -8.1611     33.0000    108.9785   1.0932010039e+02   5.0002392920e+01    0.2200824   0.06380472 -64.70 -0.005334738    2.854    0.650
        49  -7.8738    168.3832    113.1942   7.2314244330e+01   2.5375087489e+01    0.2374178    0.1405538 -50.18   0.00095467    1.762    0.433
        50 -11.2393     84.9098    157.7582   1.0322316855e+02   3.1552386419e+01    0.9728526    0.5290933 -46.54  0.002466887    1.998    0.499
        51  -8.8988     32.5014    155.6740   1.1616236779e+02   3.8720280024e+01    0.2511407    0.1634752 -74.38  0.001241606    1.283    0.221
        52 -10.0331      9.9308     92.0998   1.1382047910e+02   5.5789298373e+01    0.2683821     0.160248  37.36  0.001539623    2.051    0.513
        53 -12.9776      9.3206    207.0499   1.2543821493e+02   2.9446268482e+01    0.9645034    0.8047356  11.02   0.00400671    1.933    0.483
        54 -10.1166     49.0694    216.5854   1.1850393385e+02   2.3197226762e+01    0.5015391    0.2733061 -73.92   0.00260875    1.734    0.423
        55  -9.6661     13.2283     59.9869   1.0594612908e+02   6.2782974890e+01    0.1895546    0.1616805 -26.56 0.0005166107    1.187    0.157
        56  -7.7565     98.1885     57.3765   7.3425569971e+01   5.1867955297e+01    0.1887733    0.1367226  55.18 0.0004404872    1.596    0.373
        57 -10.1700    189.9817     50.4590   5.0836279875e+01   3.1300254217e+01    0.3496368    0.1781634 -47.35  0.001469403    1.973    0.493
        58 -12.0281    196.7300     41.2631   4.7340792019e+01   3.0934331569e+01    0.8370383    0.7056034 -59.74   0.00326867    1.126    0.112
        59  -9.6731     52.5532    241.6311   1.1981436317e+02   1.7887309483e+01    0.3136713    0.1895087 -52.09  0.001575659    2.347    0.574
        60 -11.3788    134.7980    233.9876   1.0338171330e+02   7.4838212596e+00    0.4178123    0.3193273 -34.56  0.002560856    1.663    0.399
        61 -12.2797    126.7535    229.9994   1.0445789471e+02   9.4591597997e+00     1.106387     0.831575  56.57  0.006776872    1.254    0.202
        62  -8.1105    142.4981     40.0014   5.6046830227e+01   4.4547273625e+01    0.2147659    0.1872435  58.88 0.0004391258    1.110    0.099
        63  -9.9983      7.9521     38.8982   1.0224327877e+02   6.7417998527e+01    0.1864706    0.1561864   2.93  0.001118821    1.355    0.262
        64 -11.1717     84.3208    229.0006   1.1275200454e+02   1.6060826529e+01    0.7395486    0.4238513 -84.64  0.003098908    2.062    0.515
        65  -8.9766    138.4855     44.5058   5.8401909581e+01   4.4893566470e+01    0.2862535    0.2381204 -71.76 0.0005178307    1.414    0.293
        66 -10.1817    121.1786    223.0910   1.0468373147e+02   1.1605673263e+01    0.4486998    0.3059992 -14.61  0.002142159    2.826    0.646
        67 -11.7818    117.5340    229.9100   1.0628333451e+02   1.0925962314e+01    0.6500862    0.3572123  37.93    0.0034157    1.637    0.389
        68  -8.3577    170.5195    233.5208   9.6333776520e+01   1.8290465856e+00    0.1265583     0.106094  26.58 0.0001790204    1.040    0.038
