#   1 NUMBER                 Running object number                                     
#   2 MAG_AUTO               Kron-like elliptical aperture magnitude                    [mag]
#   3 X_IMAGE                Object position along x                                    [pixel]
#   4 Y_IMAGE                Object position along y                                    [pixel]
#   5 X_WORLD                Barycenter position along world x axis                     [deg]
#   6 Y_WORLD                Barycenter position along world y axis                     [deg]
#   7 A_WORLD                Profile RMS along major axis (world units)                 [deg]
#   8 B_WORLD                Profile RMS along minor axis (world units)                 [deg]
#   9 THETA_WORLD            Position angle (CCW/world-x)                               [deg]
#  10 FWHM_WORLD             FWHM assuming a gaussian core                              [deg]
#  11 ELONGATION             A_IMAGE/B_IMAGE                                           
#  12 ELLIPTICITY            1 - B_IMAGE/A_IMAGE                                       
         1 -12.0088    241.0163     22.0346   3.5906273424e+02   2.4851434959e+01    0.4589604    0.2500238 -16.24  0.002502751    2.723    0.633
         2 -11.5724     32.5144     19.4932   4.0442387818e+01   7.2370883018e+01    0.4351781    0.3075379  25.68  0.002084097    1.354    0.261
         3 -11.5917     48.5032     13.0553   2.7260305906e+01   7.0217096360e+01    0.5677577    0.3289715  65.00  0.002276986    2.148    0.534
         4 -10.7664     35.1944     13.5333   3.4976631822e+01   7.2841751883e+01    0.2559778    0.2169539 -13.75  0.001187003    1.214    0.176
         5  -9.5257     78.9975     11.9624   1.5345776901e+01   6.3161006895e+01    0.1718671    0.1441913  62.26 0.0004621563    1.055    0.052
         6 -11.2421    241.4890     10.4612   3.5672482286e+02   2.5957925160e+01    0.2204004   0.08465258 -32.01  0.001203124    2.138    0.532
         7 -10.8537    124.0179      6.4945   4.4141081017e+00   5.2124422437e+01    0.4231827    0.2201775 -82.53  0.001288242    2.077    0.518
         8  -9.7572    115.1888      8.8243   6.5130680235e+00   5.4180645322e+01     0.200639    0.1631928 -83.54 0.0005183116    1.135    0.119
         9 -11.3734    129.1233      8.8163   4.5849080895e+00   5.0604900663e+01    0.2426772    0.2104941 -67.10 0.0003603238    1.099    0.090
        10 -11.6805    100.1426      6.5223   8.0774370316e+00   5.8287652400e+01    0.5254579    0.3744713  52.40  0.002857712    1.353    0.261
        11 -11.4080     85.8718      7.2632   1.1327312526e+01   6.1893015310e+01    0.3771185    0.2525628  53.45 0.0008284757    1.349    0.259
        12 -10.4690     91.0066      3.5514   8.4978548092e+00   6.0910259090e+01     0.259015    0.2162894 -86.69  0.000707385    1.165    0.142
        13 -10.3847     64.2846      8.1403   1.7860945641e+01   6.7181294457e+01    0.2610076    0.1718241 -84.68  0.001172594    2.153    0.535
        14 -11.9501    173.5226      3.2406   3.5873647445e+02   4.0341083876e+01    0.3743327     0.221616 -59.14  0.001686877    1.451    0.311
        15 -11.9918     13.2134      3.8101   4.5260536416e+01   7.7985266665e+01    0.6260432      0.26467  42.38  0.002755333    2.604    0.616
        16 -10.2837     62.0689      3.3410   1.5855261699e+01   6.8196461874e+01    0.2321565    0.1820505  20.35  0.001325255    1.402    0.287
        17 -11.0919    113.8859      1.7766   3.9962715447e+00   5.5141490242e+01    0.2840466    0.1679516  78.71 0.0007291205    1.492    0.330
        18 -10.3728    178.9911      1.4417   3.5790471221e+02   3.9270236985e+01    0.1730825    0.1059375  84.58 -1.502764e-05    1.505    0.336
        19 -11.1786    224.0378    173.0396   3.0849863466e+01   7.2337647341e+00    0.1843422    0.1438544 -19.90 0.0009793277    1.052    0.049
        20 -10.5255     19.1174    250.2193   8.4972197069e+01   1.8388906693e+01    0.1640377    0.1378687  26.30 0.0005266414    1.208    0.172
        21 -13.5798      5.9407    203.5595   8.6478494519e+01   2.8957736206e+01    0.9628962    0.6494784  66.99  0.005759555    1.343    0.256
        22 -12.8988      3.3104    217.3687   8.7575394823e+01   2.6161349758e+01    0.7687916    0.3848675  81.36  0.002649066    2.020    0.505
        23 -13.2489      5.2493    228.0703   8.7417521351e+01   2.3801794486e+01    0.8878502    0.4515091  42.70  0.003469886    1.472    0.320
        24 -11.4904      1.5479    247.6777   8.8735521972e+01   2.0303374758e+01    0.3406679    0.1586629 -80.49  0.001138284    2.455    0.593
        25 -12.4773      2.0935    239.8640   8.8440459972e+01   2.1730486019e+01    0.6062264    0.3028787 -82.16  0.003516829    2.239    0.553
        26 -10.0433     21.5095    170.0331   8.0386976514e+01   3.5684394525e+01    0.1967338    0.1304943 -82.65 0.0005727729    1.516    0.341
        27 -10.6819      6.0651    154.8707   8.4317632362e+01   4.0757931611e+01    0.3388945    0.2005633 -17.33  0.001571307    2.226    0.551
        28 -10.1446     17.1288    151.7383   8.0462281384e+01   4.0772047142e+01     0.253209    0.1874905 -14.32  0.001235913    1.630    0.387
        29 -10.0410     40.1174    149.2177   7.2423920228e+01   3.9286279712e+01    0.3071293    0.1749866 -68.23 0.0007929942    1.752    0.429
        30 -10.3761    244.3233    148.6610   2.3612610668e+01   8.1242467573e+00    0.1061553   0.07903759 -51.14 0.0003073833    1.721    0.419
        31 -10.4499     22.3008    147.3139   7.8341555537e+01   4.1519593621e+01    0.2391601    0.2019289  58.80 0.0007310148    1.110    0.099
        32  -9.9519     25.5083    146.4429   7.7153371205e+01   4.1471524422e+01    0.2647057    0.1974589  23.70 0.0007672634    1.340    0.254
        33 -11.3115    237.9924    142.9816   2.3408020770e+01   9.7103368595e+00    0.1480665    0.1096321 -27.71 0.0007847763    1.050    0.048
        34 -10.2650     28.7635    138.5518   7.5192307468e+01   4.3295530038e+01    0.2983092    0.1870067 -77.63 0.0008433409    1.585    0.369
        35 -11.7889    245.8146    137.9915   2.1481056088e+01   9.3874400642e+00    0.1779489    0.1572175  -2.61  0.001167392    1.240    0.193
        36  -9.9519      5.4735    137.4972   8.3489446066e+01   4.5384672302e+01    0.1379648    0.1265347  75.90 0.0001181983    1.009    0.009
        37  -9.8174     11.2160    133.8254   8.1147528011e+01   4.6002365305e+01    0.2192736    0.1716706  58.91 0.0006698963    1.221    0.181
        38 -12.2611    236.0850    130.3163   2.1277999059e+01   1.1746020016e+01     0.371265    0.1797007 -26.96  0.001946454    1.968    0.492
        39 -10.2841    135.4991    132.0031   3.9916079629e+01   2.8375166113e+01     0.334815    0.1919847  21.19  0.001288455    2.520    0.603
        40 -10.2249     81.3855    131.5081   5.5488525949e+01   3.8285815245e+01    0.2619481     0.244778  37.20 0.0004524594    1.036    0.035
        41 -10.1830     17.7930    132.1690   7.8567652800e+01   4.5972272078e+01    0.2207931    0.1759428  57.55 0.0005025231    1.213    0.176
        42 -10.2481     44.1378    129.5004   6.8345012951e+01   4.4127861247e+01      0.27943    0.2188762 -68.94  0.001397777    1.274    0.215
        43 -11.9928    245.3321    119.4478   1.8075964223e+01   1.1979580896e+01    0.2346028    0.1137803 -37.66 0.0009034338    1.590    0.371
        44  -9.5012    103.0177    119.7724   4.5996935635e+01   3.7313094554e+01    0.2074813    0.1262741  38.59 0.0003355775    1.610    0.379
        45 -12.1412    249.0822    115.9508   1.6986443919e+01   1.1939299151e+01    0.4605828    0.1397123 -46.03  0.001886765    3.550    0.718
        46  -9.9022     91.6698    116.0511   4.8689202166e+01   4.0337003377e+01    0.2184199    0.1971048 -49.55 0.0004230327    1.130    0.115
        47 -10.0176     21.4890    116.1372   7.5377970809e+01   5.0075006682e+01    0.2493432     0.186936  50.11 0.0007862317    1.340    0.254
        48  -9.5395     15.3832    113.7842   7.7625674470e+01   5.1195462099e+01    0.2130101    0.1185394 -62.87 0.0005899309    1.670    0.401
        49  -9.6566     96.2577    111.1898   4.6015399170e+01   4.0642056436e+01    0.2455693    0.1870907 -31.58 0.0007609529    1.483    0.326
        50  -9.1558     79.6677    110.6932   5.1490289541e+01   4.3836873976e+01    0.1608452    0.1231935 -14.42 0.0007039786    1.665    0.399
        51  -9.4913     12.8624    105.8563   7.7798053229e+01   5.3553114086e+01    0.1914797     0.154295  62.85            0    1.262    0.208
        52 -10.4709      1.9413    104.7632   8.2457128229e+01   5.4472352778e+01    0.2695597    0.1615706 -51.07  0.001289584    1.621    0.383
        53  -9.0921     77.2419    103.3290   5.0542833741e+01   4.6110102482e+01    0.1546812    0.1192765 -26.02 0.0002193963    1.536    0.349
        54  -9.2482     66.0174    103.0362   5.4711756407e+01   4.8113183379e+01    0.1773752    0.1758721  47.22 0.0009443818    1.005    0.005
        55 -12.6751    249.6146     99.2012   1.3735112525e+01   1.4097836757e+01    0.5636426    0.1694031 -33.73   0.00251363    2.692    0.628
        56  -9.5926    117.6098    102.1579   3.7275617672e+01   3.8363478129e+01    0.2058739    0.1446341 -35.37 0.0003140272    1.532    0.347
        57 -10.5671    103.1411     95.7953   3.9752627952e+01   4.2814422536e+01    0.3349556    0.2192135 -49.57  0.001462433    1.557    0.358
        58 -11.2725     64.7524     96.2588   5.3516018248e+01   5.0053239857e+01    0.3351231    0.2839034  42.31 0.0007523348    1.168    0.144
        59 -12.5217    235.4713     94.9771   1.4398179292e+01   1.6785040595e+01    0.3399229    0.2323862 -73.49  0.002052758    2.069    0.517
        60  -9.6770    143.7573     96.3572   2.9211823216e+01   3.3933130591e+01    0.2044631    0.1360524  41.29 0.0007182548    1.609    0.378
        61 -10.3307    136.0135     95.6695   3.0804485129e+01   3.5744404891e+01    0.2146659    0.1967851  54.00 0.0008655831    1.108    0.098
        62  -9.3430      4.3130     96.3184   8.0595965818e+01   5.6664828373e+01    0.1515992   0.09201708 -43.48 0.0002685046    1.647    0.393
        63  -9.1917     89.6472     93.7364   4.3554281687e+01   4.6061913445e+01    0.1567595    0.1241249   3.43 0.0006981406    1.619    0.382
        64 -10.3414    126.4797     91.7393   3.2058459142e+01   3.8619178032e+01    0.3370805    0.2369283 -73.41  0.001413886    1.938    0.484
        65  -9.8750    108.5514     88.4883   3.6021083770e+01   4.3246522076e+01    0.1520152    0.1506828  41.35 4.188649e-05    1.031    0.030
        66 -11.7922    249.1742     85.1436   1.1053453602e+01   1.6000912558e+01     0.437392    0.1101915 -34.49  0.001814435    3.086    0.676
        67 -10.2146     96.9073     86.2649   3.8949489939e+01   4.6248265693e+01    0.2244601    0.2021033  64.26 0.0004266719    1.140    0.123
        68 -10.5653     12.0184     85.6981   7.5523968332e+01   5.9116917837e+01    0.2534339    0.1887038 -58.37 0.0003810095    1.247    0.198
        69 -12.1963    238.4062     82.2234   1.1510438808e+01   1.8045993847e+01     0.365061    0.1201279 -43.51  0.001684648    2.405    0.584
        70  -9.6456     77.8621     78.1320   4.3108026634e+01   5.2020141160e+01    0.2052631    0.1809996   5.81 -0.0006383859    1.268    0.212
        71  -9.6396     72.4890     78.0332   4.5167691229e+01   5.3098536210e+01    0.2199885    0.1528549 -49.16 0.0003471402    1.470    0.320
        72 -11.0265     30.3982     76.6905   6.4277460492e+01   5.9925887422e+01    0.3751006    0.2377976 -42.93  0.001294501    1.577    0.366
        73  -9.3684      2.0263     78.5089   7.9694030146e+01   6.1585277797e+01    0.1996569     0.136639   7.72   0.00102195    1.558    0.358
        74 -11.5778     54.1828     78.6372   5.3168890236e+01   5.6200364349e+01    0.4147615    0.3058764  51.14   0.00121297    1.467    0.318
        75  -9.5292    127.5001     73.5160   2.6473781063e+01   4.1901030610e+01    0.1491086    0.1429433 -86.10  0.000810466    1.008    0.008
        76  -9.1786     76.3474     71.3274   4.1451824378e+01   5.3844904132e+01    0.1599385    0.1226028  -0.90  0.000704972    1.754    0.430
        77 -11.3555     64.0539     69.5839   4.5897354245e+01   5.6637223352e+01    0.2603708    0.2303803 -52.13 0.0003435747    1.168    0.144
        78 -11.1242      8.5680     67.7358   7.4400844669e+01   6.4109137648e+01    0.4947286    0.1647697 -44.62  0.001786139    2.817    0.645
        79  -9.7051     83.2201     68.1926   3.7799194182e+01   5.3076601727e+01    0.1990642    0.1761367  86.10 0.0002608194    1.271    0.213
        80  -9.2893     33.6807     68.2987   6.0318435081e+01   6.1689044126e+01    0.1482882    0.1102672  59.57  0.000263505    1.618    0.382
        81  -9.6190     46.0084     68.0000   5.3802974590e+01   6.0070691538e+01    0.2412623   0.08335012  31.26 0.0005818972    2.859    0.650
        82 -10.3481     24.3563     66.1111   6.4895723609e+01   6.3278983941e+01    0.3446065    0.1399772 -52.63  0.001341377    2.212    0.548
        83  -9.8809    204.2560     65.4487   1.1492163330e+01   2.6358653906e+01    0.1602946    0.1154705 -87.24 0.0009333245    1.597    0.374
        84 -10.0490     85.1307     63.8562   3.5586124906e+01   5.3551249008e+01    0.2199099    0.2014772  80.13            0    1.164    0.141
        85  -9.2630     75.4807     64.5138   3.9412361407e+01   5.5489366613e+01    0.1518738    0.1461821  51.18 0.0001850341    1.029    0.029
        86 -10.5340      4.6112     63.5389   7.5990214376e+01   6.5413775029e+01    0.2392943    0.2043815 -56.88 0.0005859736    1.075    0.070
        87 -10.1670     99.8776     62.3109   3.0211962603e+01   5.0488848670e+01     0.258246    0.2022932 -55.44 0.0005865077    1.361    0.265
        88  -9.9210    114.2988     60.9407   2.5718980439e+01   4.7305622877e+01    0.2011226    0.1930865 -51.59 0.0003366613    1.080    0.074
        89 -11.7354    248.6762     55.6992   5.3029644384e+00   1.9757946911e+01    0.5241382    0.1985922 -40.40  0.002829761    1.876    0.467
        90 -11.3762    228.2018     57.4078   7.3051538492e+00   2.2988561011e+01    0.2437173    0.1760993 -53.56  0.001294558    1.168    0.144
        91 -10.8372     12.5003     58.6973   7.0127719867e+01   6.6180372499e+01    0.2308498    0.2130483 -13.28  0.001208431    1.066    0.062
        92 -10.0714      3.1074     58.9385   7.6089758316e+01   6.6670343271e+01    0.2624286    0.1706199 -59.43  0.001355654    1.375    0.273
        93 -10.1283     22.2488     57.9340   6.3888225359e+01   6.5537531489e+01    0.2022962    0.1888365  69.93 0.0004776439    1.213    0.176
        94  -9.7124     29.0000     56.9822   5.9531212479e+01   6.5034263672e+01     0.235377   0.07975149 -60.36 0.0008030405    2.947    0.661
        95  -9.5672     65.1646     57.3816   4.1010470890e+01   5.9089021834e+01    0.2115236    0.1358112  50.78  0.000658186    1.617    0.382
        96  -9.9604     99.0132     55.7518   2.8130689239e+01   5.1895389710e+01    0.2309487    0.1957567  30.44 0.0006215798    1.302    0.232
        97  -9.8648     44.2059     56.0150   5.0612189118e+01   6.3151903419e+01    0.2411266    0.1774446  81.00  0.001093465    2.053    0.513
        98 -10.2072     69.8049     55.3746   3.8269236459e+01   5.8554599927e+01    0.2053768     0.196933 -82.40  0.001126883    1.131    0.116
        99  -9.2419     25.6237     53.2963   6.0379734706e+01   6.6308262909e+01    0.1469726    0.1041569  54.84 0.0007024824    1.747    0.428
       100  -9.5190     11.3224     51.3085   6.9034851474e+01   6.8111329780e+01    0.1496657   0.08984254 -33.35 0.0007035497    1.646    0.392
       101 -10.0976     14.7842     48.8663   6.6013803626e+01   6.8438463881e+01    0.2601489    0.1635805 -64.48  0.001285855    1.588    0.370
       102  -9.0315     99.2865     49.6764   2.5805420651e+01   5.2884555892e+01    0.1505189    0.1145414 -76.43 0.0003870122    1.602    0.376
       103 -11.0195     94.0094     48.6062   2.6962615533e+01   5.4338767169e+01    0.2522519    0.2155863 -41.38 0.0002301856    1.234    0.190
       104 -10.7581     50.9819     46.0530   4.3086016482e+01   6.4135839441e+01    0.3565841    0.2317267  37.76  0.001064174    1.470    0.320
       105 -11.2313    248.8325     43.8769   2.9562966369e+00   2.1121877546e+01    0.2727581     0.152522 -55.94  0.001576294    1.529    0.346
       106 -10.4675     39.4163     43.8068   4.8428486275e+01   6.6582104637e+01    0.3093242     0.235783 -16.17 0.0009469976    1.463    0.317
       107 -10.9238    119.1721     42.7109   1.8273026006e+01   4.9057525023e+01     0.293595    0.2367735 -50.20 0.0004503776    1.258    0.205
       108 -11.7250    223.2083     40.0252   3.9691843628e+00   2.6024980862e+01    0.3977559    0.2119024 -83.97  0.001305779    2.267    0.559
       109  -9.9112    185.9359     41.3288   7.6405167471e+00   3.3352416099e+01     0.171624    0.1523082 -76.47 0.0004852227    1.089    0.082
       110  -9.7859    106.8154     41.1864   2.0589831220e+01   5.2381769419e+01     0.198831    0.1647279  38.36 0.0004253284    1.313    0.238
       111 -10.9991    158.9236     39.3366   1.0344746950e+01   3.9746029096e+01    0.2380458    0.1964503 -51.27 0.0002814661    1.131    0.116
       112  -9.6628     96.1204     37.8792   2.2118017933e+01   5.5541996384e+01    0.1951787    0.1621159  38.55 0.0003367318    1.267    0.211
       113 -10.5636    129.8535     36.1157   1.3878981116e+01   4.7298631390e+01    0.2282831    0.2062393 -80.39 0.0002758715    1.032    0.031
       114  -9.8563    145.9887     36.4990   1.1342379059e+01   4.3237139358e+01    0.2111299    0.1296888  70.30 0.0007948079    1.570    0.363
       115  -9.4966     46.8911     35.8289   4.0587366416e+01   6.6885364260e+01    0.1824128    0.1649332  63.01            0    1.285    0.222
       116 -11.5162     28.2798     33.6865   5.0901157450e+01   7.0358063463e+01    0.5942655    0.4106524  11.07  0.002877256    1.534    0.348
       117 -11.5321     36.6834     29.4566   4.3310565017e+01   6.9887158079e+01    0.5734781    0.2639516  35.42  0.002268892    2.075    0.518
       118 -10.5141    119.1828     35.0279   1.5538914957e+01   5.0141171737e+01    0.2323359     0.192234  69.84 0.0003389276    1.123    0.110
       119  -9.3477     82.4789     35.5262   2.5262958761e+01   5.9228826147e+01    0.1472673    0.1339915  44.72 -0.0001022997    1.063    0.059
       120 -10.2752     39.7357     35.2935   4.4377183214e+01   6.8258665202e+01    0.3695367    0.1753723  37.77  0.001562311    1.998    0.499
       121 -10.8414      4.3316     31.4129   6.8290353330e+01   7.3317699964e+01    0.3694497    0.1865229  36.72  0.001259809    2.218    0.549
       122 -10.9800     92.4129     31.1333   2.0369174109e+01   5.7439867600e+01    0.2559605    0.2229882  65.09 0.0002843151    1.059    0.055
       123 -10.4159     16.9921     30.8050   5.7803089104e+01   7.2368585539e+01     0.288555    0.1855921  37.54  0.001267517    1.663    0.399
       124 -10.1544     58.6316     29.5131   3.1633001666e+01   6.5625162700e+01    0.3008413    0.1314037  49.04   0.00119752    2.120    0.528
       125 -10.4138    153.1690     27.8792   7.7116109152e+00   4.2560106842e+01     0.215975    0.1740609  84.80 0.0003258034    1.152    0.132
       126  -9.4603    103.8362     28.2301   1.6283217517e+01   5.4946636804e+01    0.1902813    0.1543924  44.11 0.0003277901    1.285    0.222
       127  -9.7244    118.5304     27.4554   1.2920400278e+01   5.1288844756e+01    0.1418205    0.1280182  82.25 6.571259e-05    1.010    0.009
       128 -11.1372     47.0859     26.4772   3.5715222632e+01   6.8504107060e+01    0.2860262    0.2298381  -8.85  0.001566334    1.379    0.275
       129  -9.5475     83.3679     26.1803   2.0821087672e+01   6.0360037799e+01    0.1946687    0.1292439 -43.88 0.0009402374    1.647    0.393
       130  -9.8925    177.0179     24.5029   4.1473810214e+00   3.7355407327e+01     0.188999    0.1510801 -52.04 0.0003507364    1.111    0.100
       131 -10.1417     88.1739     24.8163   1.8813493408e+01   5.9346864466e+01    0.2147252    0.1874624 -75.49  0.000693704    1.229    0.187
       132 -10.3157     34.0368    248.0283   8.1558728656e+01   1.7450761968e+01    0.1831817    0.1376803  37.55 0.0005019464    1.009    0.008
       133  -9.8001    148.9626     29.9865   8.9034579514e+00   4.3330999794e+01    0.2041623     0.158041  36.31 0.0005373392    1.647    0.393
       134  -9.4393    136.3112     23.6861   8.6637791166e+00   4.7220479217e+01      0.14641   0.09303848 -65.80 0.0007030902    1.633    0.388
       135 -10.5615     98.6350     22.7072   1.5235471381e+01   5.6964111123e+01    0.2528548    0.2201754  86.23 0.0005997636    1.112    0.100
       136 -10.4175     38.2590     22.9193   3.8778314523e+01   7.0774527337e+01    0.2302288    0.1801203  34.20 0.0004228575    1.174    0.148
       137 -10.2001     44.5970    244.0329   7.8945268272e+01   1.7178795374e+01    0.2070656    0.1259291  38.57 0.0005500023    1.261    0.207
       138 -10.3132    108.2403     18.0206   1.1286609888e+01   5.5037504025e+01     0.239852    0.1785179 -83.65 0.0006351438    1.371    0.270
       139  -9.2913     84.6705     20.3081   1.7751181157e+01   6.0788503153e+01    0.1442873    0.1053647 -75.14 0.0003236888    1.661    0.398
       140  -9.2356     66.5547     20.5665   2.3764621248e+01   6.5157047454e+01     0.140415    0.1262784  48.93  8.41331e-05    1.007    0.007
       141  -9.5426     79.4989     19.5159   1.8879834116e+01   6.2170973310e+01    0.1414292    0.1281174  71.24 2.693315e-05    1.070    0.065
       142  -9.9082     19.7159     15.9745   4.7815896983e+01   7.4985258937e+01    0.1789772    0.1586791 -14.87 0.0004754156    1.092    0.084
       143  -9.7672    128.9318     24.0218   9.8960650797e+00   4.9047824152e+01    0.2045088    0.1574721  37.49 0.0003686515    1.565    0.361
       144  -9.9008     84.9200     15.6150   1.5501464669e+01   6.1273782631e+01    0.3608826    0.1285387  66.12   0.00129541    2.696    0.629
       145  -9.9455     20.3199    246.2981   8.4565386342e+01   1.9007696140e+01    0.1041504   0.08457668 -12.51 0.0006967251    1.618    0.382
       146 -10.1425     27.8373     11.3918   3.8526313982e+01   7.4493462067e+01    0.2773981    0.1077092  34.79  0.001100824    2.585    0.613
       147 -10.0060     28.9795    242.9626   8.2472836304e+01   1.8859919766e+01    0.1458947    0.1117399  39.26 0.0004470034    1.002    0.002
       148 -11.9216     25.1432    228.1978   8.2699799346e+01   2.2093029333e+01    0.4611307    0.1341662  52.89  0.001860408    3.118    0.679
       149 -11.8160     19.6967    225.6535   8.3898887777e+01   2.3094004872e+01    0.3882995    0.1998957   3.71  0.001743737    2.658    0.624
       150 -13.1862     22.0845    219.2962   8.3033628168e+01   2.4202974073e+01    0.8712757    0.5248286 -27.20  0.004439945    2.546    0.607
       151 -11.7858     20.4532    215.0228   8.3242752363e+01   2.5253967821e+01    0.4233408    0.2335433  20.56  0.001626217    1.696    0.410
       152 -10.5791     34.2315    220.9181   8.0097475474e+01   2.2741291746e+01    0.3715105    0.1481978  34.46  0.001759882    1.873    0.466
       153 -11.0031     11.1190    216.9896   8.5650758295e+01   2.5624161479e+01    0.1857393    0.1541374  46.70 0.0004978512    1.040    0.038
       154 -10.2835    244.0450    209.9612   3.3916711537e+01   2.2617613044e-01    0.1545436    0.1113693 -12.39            0    1.058    0.055
       155 -13.3212      8.9790    247.9112   8.7125130956e+01   1.9665971370e+01     1.061003    0.6108096 -72.29  0.006660575    2.101    0.524
       156 -11.2451      2.3771    192.3645   8.7032435643e+01   3.1770682645e+01    0.2472019    0.1977625 -56.60  0.001088029    1.480    0.324
       157 -10.7313    237.4979    186.4805   3.1121881805e+01   3.8467477679e+00    0.1122287   0.08239438 -15.04 6.068411e-05    1.011    0.011
       158 -11.4167      3.2656    183.7923   8.6480212406e+01   3.3725931822e+01     0.493594    0.1543701  58.78  0.001881718    3.003    0.667
       159 -11.1910    244.1166    180.2216   2.9129616600e+01   3.9451011154e+00     0.230906    0.1497415 -44.40  0.001250471    1.881    0.468
       160 -11.1132      9.3286    178.2821   8.4512635345e+01   3.4615757651e+01    0.3464872    0.2190996 -19.81  0.001720648    2.143    0.533
