#   1 NUMBER                 Running object number                                     
#   2 MAG_AUTO               Kron-like elliptical aperture magnitude                    [mag]
#   3 X_IMAGE                Object position along x                                    [pixel]
#   4 Y_IMAGE                Object position along y                                    [pixel]
#   5 X_WORLD                Barycenter position along world x axis                     [deg]
#   6 Y_WORLD                Barycenter position along world y axis                     [deg]
#   7 A_WORLD                Profile RMS along major axis (world units)                 [deg]
#   8 B_WORLD                Profile RMS along minor axis (world units)                 [deg]
#   9 THETA_WORLD            Position angle (CCW/world-x)                               [deg]
#  10 FWHM_WORLD             FWHM assuming a gaussian core                              [deg]
#  11 ELONGATION             A_IMAGE/B_IMAGE                                           
#  12 ELLIPTICITY            1 - B_IMAGE/A_IMAGE                                       
         1 -14.2552    220.1226     56.9866   1.2414059221e+01   2.1984661279e+01     1.888628     1.619688 -44.36  0.004491192    1.145    0.127
         2 -11.1587     39.2420     41.7425   5.5646837104e+01   6.3480309677e+01     1.335712     1.137653  45.72  0.008836914    1.524    0.344
         3 -14.3189     10.3706     68.8037   7.3441572523e+01   5.9943576584e+01     2.096497     1.442068 -12.20   0.01371287    1.878    0.468
         4  -9.3836     30.9275     21.5586   5.1891320721e+01   6.8151066587e+01    0.8781325    0.5447028 -48.66  0.003708602    1.464    0.317
         5 -12.0041     10.8679     24.9392   6.2801183851e+01   6.9100744207e+01    0.4016467    0.3333564 -13.19  0.001284823    1.288    0.223
         6 -14.5077     43.2282     74.4820   6.3196766561e+01   5.6115018341e+01     1.627185     1.314271  -9.71   0.01020332    1.489    0.328
         7 -12.8529     24.6130     39.3147   6.1066385794e+01   6.5289615752e+01     1.024272    0.4613014 -52.60  0.002402004    1.710    0.415
         8 -13.5079     55.3868     24.7788   4.2356863881e+01   6.4676146484e+01     2.494311     1.812971 -56.73   0.01398775    1.889    0.471
         9 -13.6458     56.6873      4.0994   3.1861221126e+01   6.7570807445e+01    0.6673563    0.3498791  42.24 0.0008871858    1.997    0.499
        10 -11.6492     47.4958      2.2082   3.4819733375e+01   6.9212184759e+01    0.4083459    0.2861969   2.46  0.001722832    1.317    0.241
        11 -12.9689     46.4834     54.8499   5.6877410963e+01   6.0029565934e+01     1.500514    0.5741111 -32.96  0.005019273    4.437    0.775
        12 -12.6063     60.3521     62.1632   5.3926270991e+01   5.6828662877e+01     1.209296    0.9871033 -73.58  0.005451716    1.443    0.307
        13 -14.1345     12.5021     39.1439   6.6251958816e+01   6.6159309650e+01     1.640746     1.125208 -85.97   0.01014033    1.888    0.470
        14 -10.8413    188.9771     22.8226   6.9215136985e+00   3.4512865044e+01     0.686999     0.384634  45.65  0.002545347    1.845    0.458
        15 -13.2727    193.8034     37.0751   1.0581226569e+01   3.1484502786e+01     1.680641    0.8687872 -38.70  0.006935292    1.913    0.477
        16 -11.9362    177.9910     37.9678   1.3432463274e+01   3.5585582033e+01    0.9211735    0.5109584 -15.02  0.003650231    2.200    0.545
        17 -11.1425    132.5652     34.1615   2.1387433788e+01   4.7917441003e+01    0.8916076      0.42193 -56.95  0.002541591    4.880    0.795
        18 -10.9212    122.5646     33.4223   2.3598731927e+01   5.0438300987e+01    0.7121422    0.4737706 -11.40  0.001820889    1.696    0.410
        19 -12.0612    224.1921     24.7600   3.0576365188e+00   2.5081883283e+01     1.620401     0.860647  51.52  0.006096319    1.962    0.490
        20 -10.3591    229.1000     15.8224   1.5598657332e-01   2.4851415740e+01    0.3126662    0.2663372 -34.83 0.0007169173    1.168    0.144
        21  99.0000    232.8702      4.0794   3.5676745491e+02   2.5138406448e+01     1.034984    0.7392051 -51.75  0.005770129    1.305    0.234
        22 -12.6243    221.5501      8.4165   3.5892197089e+02   2.7524458461e+01     0.658574    0.2750109 -49.12  0.001428892    2.449    0.592
        23 -11.4522    229.0005     10.5189   3.5877367219e+02   2.5438945523e+01    0.5511076    0.2950172 -73.76  0.001697447    2.220    0.550
        24 -11.4684    211.2038     21.1096   3.5337145436e+00   2.8825165281e+01    0.5717095    0.4176064  44.98  0.002918598    1.466    0.318
        25 -11.6207    202.1473     20.7840   4.5444227729e+00   3.1235730103e+01    0.5090237    0.2877505 -46.59  0.002254387    1.819    0.450
        26 -11.5999    204.3691     17.7258   3.3772861619e+00   3.0988020675e+01    0.5896363    0.3015238 -69.43  0.001876131    2.742    0.635
        27 -12.7213    249.7143     10.1139   3.5687971564e+02   2.0496768660e+01    0.5894483    0.2939141 -30.95  0.002848684    1.839    0.456
        28 -13.3814    242.2300      7.2223   3.5677927925e+02   2.2558393753e+01    0.7332112    0.3604196 -77.03  0.003150536    2.480    0.597
        29 -10.5104     78.6239      9.6899   2.6411277341e+01   6.3031454834e+01    0.4242582    0.3194533 -28.94  0.002072771    1.352    0.260
        30 -11.4305    240.9899     22.0355   6.0411610235e-01   2.1259189664e+01    0.5241179    0.3278913 -78.41   0.00257021    1.805    0.446
        31 -11.0466     99.5991     22.1972   2.5406601542e+01   5.7177895484e+01    0.4775951    0.2750965  57.49  0.001718938    1.975    0.494
        32 -10.2607    121.9553     17.0389   1.7247692676e+01   5.2713189015e+01     0.263211    0.2357093  -3.57 0.0006045632    1.111    0.100
        33 -13.8506     94.5475     69.9067   4.4813071957e+01   4.9880444503e+01     2.049763     1.535613 -74.46  0.006798082    1.851    0.460
        34 -10.0808    154.3971     16.9471   1.0484303831e+01   4.4445912453e+01      0.37457     0.214234 -40.42  0.001633369    1.886    0.470
        35 -10.8787    150.0230     13.1100   9.8883372799e+00   4.6010373764e+01    0.2462228    0.2212745 -69.28 0.0007905283    1.243    0.195
        36  -9.9160    141.4108     12.7679   1.1372303220e+01   4.8295989698e+01    0.2576428    0.1381137 -25.00  0.001112692    1.934    0.483
        37 -11.8119    115.8127     10.3693   1.5958218528e+01   5.4930103813e+01    0.4806242    0.2961639   1.87  0.001722831    1.880    0.468
        38 -13.5466     74.4235     20.7683   3.3111312729e+01   6.2295930245e+01     1.660386     1.519101 -74.94   0.01017865    1.612    0.380
        39 -10.4004    132.7473     11.3471   1.2563826853e+01   5.0662006007e+01    0.2647997    0.1945701 -42.26 0.0006938846    1.537    0.349
        40  -9.8043    131.0668      8.4862   1.1781983807e+01   5.1376560720e+01    0.3608476    0.2549961  52.16  0.001287386    1.278    0.218
        41 -10.7402     87.6375     11.3518   2.4226925036e+01   6.1056518261e+01    0.3136271    0.2561762  67.73  0.001779499    1.631    0.387
        42 -10.8015    108.9946      9.9494   1.7476588314e+01   5.6574438838e+01    0.3511521    0.2632329 -34.42  0.001883763    1.459    0.315
        43 -10.2587    111.6101      4.4555   1.4433617847e+01   5.6526313391e+01    0.2683392    0.2092275  36.67 0.0009360539    1.145    0.127
        44 -12.7829    173.1427      6.7875   4.0335078554e+00   4.0457823138e+01    0.5329758     0.336805  -6.36  0.002073749    1.886    0.470
        45 -10.0762    125.0177      9.4052   1.3437659576e+01   5.2795491896e+01    0.2485109    0.2319717 -19.89  0.001108148    1.159    0.137
        46 -11.4712    193.6071      7.4452   1.6223405469e+00   3.4903863112e+01    0.3017243    0.2669607  45.46 0.0007624715    1.172    0.146
        47  -9.1912    156.4947      7.4589   6.7546294899e+00   4.4857467580e+01    0.1437071    0.1348225  80.51 7.792504e-06    1.091    0.084
        48  -9.9896     12.8487      7.4196   5.5069890750e+01   7.2200139727e+01    0.1415256    0.1071537 -25.07  0.001017762    1.086    0.080
        49 -11.1193      2.7642      6.1132   6.0158755278e+01   7.3085156424e+01    0.2176575    0.1563686 -18.79 0.0008444354    1.291    0.225
        50  -9.8950    210.8268      6.0622   3.5933684832e+02   3.0508534893e+01    0.2059487    0.1513058  36.95 0.0004892108    1.572    0.364
        51 -10.4650    146.4930      5.8192   7.8371900738e+00   4.7656461709e+01    0.2709427    0.1642938  45.90  0.001029562    1.525    0.344
        52 -10.3587    120.9636      4.7030   1.2390596013e+01   5.4254871273e+01    0.2501109    0.1925862 -23.31  0.000597092    1.368    0.269
        53 -10.9291     26.4621      9.8537   4.8946446734e+01   7.0615820610e+01    0.2545795    0.1542444 -23.99  0.001043952    1.468    0.319
        54  -8.0524    183.4901      3.8706   1.7458622084e+00   3.7949185529e+01    0.2872024    0.2184906 -69.20 0.0006669505    1.396    0.284
        55  -9.8574    187.0740      1.4302   5.6115499460e-01   3.7212259711e+01    0.6033937    0.1420152  73.52  0.001675303    4.512    0.778
        56  -9.7260    135.0407      3.0929   8.8742724848e+00   5.0874733552e+01    0.3290905     0.160018  19.73  0.001225664    2.885    0.653
        57  -9.1406    102.7470      3.9747   1.6443197772e+01   5.8620661341e+01    0.1756473    0.1130646 -16.28 0.0008857631    1.566    0.362
        58  -9.9375     93.3111      3.8551   1.8978852277e+01   6.0712727579e+01    0.1787611    0.1133529  -4.84 0.0008971036    1.628    0.386
        59 -10.8525    217.6084      2.2724   3.5763950292e+02   2.9132698352e+01    0.3239995    0.2349959  74.91  0.001405118    1.301    0.232
        60  -9.5067    213.3493      2.6810   3.5815128180e+02   3.0184586272e+01    0.1419643    0.1324157  83.80 0.0008475513    1.053    0.051
        61  -9.9850    207.2762      2.8700   3.5879994471e+02   3.1739340623e+01    0.1816763    0.1248538  -7.23 0.0007037293    1.754    0.430
        62  -9.9715    143.2521      2.7115   7.2416469316e+00   4.8786176232e+01    0.2151098    0.1664501  80.71 0.0003993118    1.375    0.273
        63 -12.0659     85.7321      1.4123   2.0052916561e+01   6.2556781347e+01    0.4097046     0.126156  52.62  0.001126817    2.960    0.662
        64 -10.0446    250.2621      1.4595   3.5476385497e+02   2.1253828586e+01    0.1576848    0.1120364 -79.05  0.000313947    1.352    0.260
        65  -9.6049    177.2367      1.1997   1.6794176216e+00   3.9869000265e+01    0.1292843   0.09440451  47.52 0.0002290479    1.340    0.253
        66  -9.1583    115.9591      2.0000   1.2361247620e+01   5.5720626174e+01    0.2201843   0.07387871  61.52 0.0003796965    2.799    0.643
        67 -10.1737    180.8163    243.7874   5.9036596522e+01   2.0691943864e+00    0.1595468    0.1123654  50.69  0.001079215    1.375    0.273
        68 -10.6937     88.0336    238.9834   7.4529734736e+01   1.6736239575e+01    0.1361954   0.09805625  56.96 0.0004787699    1.015    0.015
        69  -9.8161     15.7268    238.6311   8.6167763955e+01   2.5285392023e+01    0.0796146   0.06617396 -75.79 0.0007002363    1.674    0.403
        70  -9.7465    101.1090    176.1051   6.5388330184e+01   2.5893458511e+01    0.1660262    0.1277197  68.77            0    1.220    0.180
        71  -9.5586    236.7287    146.0047   3.1942748477e+01   5.0676417454e+00    0.1885713    0.1588025  -2.82 0.0003550651    1.072    0.067
        72 -10.0364     96.8386    125.1625   5.8013628053e+01   3.7390019598e+01    0.1879915    0.1608303 -39.35  0.001049603    1.304    0.233
        73  -9.3690    152.6558    124.2031   4.3874431380e+01   2.6756793070e+01    0.1949225     0.141417 -33.43 0.0002195064    1.498    0.332
        74 -10.3723    220.9941    121.5785   2.9108710002e+01   1.1955658155e+01    0.3276242    0.1389256  50.34 0.0009976487    2.377    0.579
        75 -13.0532     80.1552     41.1317   3.9597402326e+01   5.7968970409e+01     1.207992    0.4723212  37.64  0.003021998    2.791    0.642
        76 -13.4259     37.4191     54.6834   6.0310350879e+01   6.0991914063e+01     0.861766    0.7254626  46.59  0.002374848    1.484    0.326
        77 -10.8771    181.5505    117.6629   3.5840086683e+01   2.1517399291e+01    0.4630448    0.2468084 -45.67  0.001852041    2.051    0.512
        78 -13.1942     79.8603     59.1471   4.6150912445e+01   5.4594840060e+01    0.8247206    0.5836858  29.92  0.002090656    1.542    0.351
        79 -13.0139     81.2367     49.4732   4.2336836249e+01   5.6253009808e+01    0.9988857    0.5814648  23.13   0.00445349    2.221    0.550
        80 -11.8071     75.9557     52.0146   4.5080721867e+01   5.6636312460e+01    0.2510159    0.2269619 -49.04  0.000312082    1.186    0.157
        81 -12.5077     48.2512     95.1935   6.5906194009e+01   5.0913367530e+01     0.345161    0.3011755  46.34  0.002243864    1.295    0.228
        82  -9.7969     27.4740     96.5000   7.2422885211e+01   5.2572491017e+01    0.1224719   0.09911715 -70.69 0.0001148331    1.013    0.013
        83 -10.6513    249.7075     93.7389   1.7648400676e+01   9.8737341675e+00     0.342359    0.2027866 -40.82  0.001092898    1.662    0.398
        84 -12.0933    116.7402     92.9436   4.5023495012e+01   4.0808430299e+01    0.3718404    0.3028857 -35.00 0.0009833684    1.251    0.200
        85 -12.9623    192.2381     76.0679   2.2442173132e+01   2.6155487879e+01    0.8448088       0.5661  36.55  0.002079893    1.617    0.382
        86  -9.9661    177.9220     92.7701   3.0040616328e+01   2.6875516802e+01    0.3575534    0.1572857  48.48   0.00108377    2.208    0.547
        87 -10.6900    181.5129     93.5209   2.9496691003e+01   2.5864402680e+01    0.3158459    0.2012618 -38.14  0.001143109    1.578    0.366
        88 -11.8497    185.1024     91.6548   2.8242956710e+01   2.5312093869e+01    0.3760469    0.3233245 -46.52 0.0008077809    1.224    0.183
        89  -9.2835     73.0272    118.9734   6.3195989267e+01   4.2418885254e+01    0.1557629    0.1427539 -86.77            0    1.031    0.030
        90 -10.1355    172.9423     90.9779   3.0603072344e+01   2.8414977858e+01    0.2864127    0.2362275 -54.00  0.001152949    1.337    0.252
        91 -10.6331    167.8156     89.9654   3.1438425422e+01   2.9850698423e+01    0.3975832     0.239608  57.91 0.0008098161    1.780    0.438
        92 -11.4601     96.1804     90.8882   5.0339271722e+01   4.5126987235e+01    0.4477919    0.3830674  56.44  0.001324367    1.265    0.210
        93  -9.1751     79.3663     91.2845   5.5489194551e+01   4.7786206414e+01    0.1395607    0.1060373 -18.03 0.0007018987    1.693    0.409
        94 -10.9549    212.3706     89.1621   2.2418290802e+01   1.9071493745e+01     0.219142    0.1316795 -41.07 0.0005700325    1.677    0.404
        95  -9.5259     87.0569     89.4719   5.2695724771e+01   4.6981330649e+01    0.2022037    0.1414286  35.70 0.0006189632    1.551    0.355
        96 -12.3639     47.6974     85.3443   6.4102396368e+01   5.3212089890e+01    0.4850876    0.2428191  21.53  0.002282501    2.652    0.623
        97 -11.8224      6.2880     87.6600   7.7553314585e+01   5.6007068384e+01    0.3181348    0.1600773  87.55  0.001697354    2.092    0.522
        98 -10.7673    225.8782     85.1827   1.9109849865e+01   1.6472812025e+01    0.2530192    0.2068591 -27.73 0.0005495711    1.167    0.143
        99 -11.5319    238.0816     86.4048   1.7535901536e+01   1.3479095311e+01    0.4805006    0.2832659  57.58  0.001497845    1.834    0.455
       100 -11.4348    232.3713     84.4142   1.7893365120e+01   1.5074660039e+01    0.4862014     0.323765 -87.82  0.002069435    2.441    0.590
       101 -11.8422    161.6248     84.2724   3.1185734849e+01   3.2404280937e+01    0.8482975    0.5200056  39.48  0.003528032    1.707    0.414
       102 -11.2216    110.6828     85.9615   4.4774174914e+01   4.3486510439e+01    0.3311355     0.281127 -79.57  0.001432542    1.399    0.285
       103 -11.6155    147.4906     83.1530   3.4183692312e+01   3.6015815986e+01    0.7040827    0.4626517 -40.13  0.002910061    1.529    0.346
       104 -10.4106    203.6778    115.9110   3.0937134071e+01   1.6740448923e+01    0.4354068    0.2189493  63.64  0.001520133    3.011    0.668
       105 -11.2829    249.5671     82.7994   1.4977579920e+01   1.1440129236e+01    0.4290105    0.3778985  16.51  0.002032207    1.182    0.154
       106 -13.7248    203.3188     68.8736   1.8396559686e+01   2.4480209657e+01     2.592564     1.496426 -86.54  0.008507726    3.615    0.723
       107 -12.4259     83.3580     83.9855   5.2392907716e+01   4.8785542224e+01      0.26625    0.2485809  30.87 0.0004751934    1.158    0.137
       108 -11.9277    222.1953     80.0547   1.8346894695e+01   1.8118577153e+01    0.4515027    0.3254627 -85.89   0.00205273    1.962    0.490
       109 -12.2403    168.5672     79.6637   2.8285485109e+01   3.1518281216e+01    0.6206134    0.4582874 -43.24  0.001427138    1.396    0.284
       110 -11.9620    222.1279     88.2151   2.0512107655e+01   1.6895048082e+01    0.4500093    0.2543851  56.67  0.001940489    1.860    0.462
       111 -10.5797    233.0233     79.0336   1.6403355503e+01   1.5711240693e+01     0.362637    0.2239887  66.34   0.00163851    1.897    0.473
       112  -8.9742    143.2525     79.3353   3.4081409958e+01   3.7740170460e+01    0.1549107    0.1213318   1.29 0.0002500422    1.564    0.361
       113 -12.0482    114.5400     80.4621   4.2073891572e+01   4.3855437654e+01    0.5436029    0.4844472 -40.10  0.002487395    1.093    0.085
       114  -9.2490    241.2497     78.3832   1.5036476583e+01   1.3913520078e+01      0.14584    0.1057882   5.94 0.0006952448    1.657    0.397
       115 -10.9582    161.8106     77.3728   2.9094595742e+01   3.3606373647e+01    0.3119372    0.2158201 -41.76   0.00064098    1.475    0.322
       116 -10.6422    155.9142     76.7289   3.0245819879e+01   3.5177252212e+01    0.4065897    0.2887138  70.92  0.001610756    1.752    0.429
       117 -11.5739    249.9258     75.0013   1.2991798602e+01   1.2442225317e+01    0.3244241    0.2197914 -27.52 0.0004663321    1.360    0.265
       118 -11.1264    249.1245     68.4956   1.1470799062e+01   1.3510401419e+01    0.4691024    0.2774802 -18.34  0.002051543    1.804    0.446
       119 -12.2144    227.7950     72.5424   1.5484278600e+01   1.7888794382e+01    0.7178495    0.3788782  26.10  0.002523384    3.218    0.689
       120 -10.0267    232.3013     73.6906   1.5118759404e+01   1.6653441940e+01    0.2342084    0.1992342 -32.35 0.0004977458    1.113    0.101
       121 -10.8629    234.5044     71.0296   1.4105063874e+01   1.6515620434e+01    0.3076968    0.2461927  14.89 0.0009301089    1.420    0.296
       122 -11.2494    241.0343     71.6609   1.3352056376e+01   1.4909772997e+01    0.5923718     0.367431 -44.83  0.002585736    1.614    0.381
       123 -12.0431    144.6673     67.9985   3.0196173776e+01   3.9493206487e+01     1.060399    0.7473432  10.46   0.00271369    1.923    0.480
       124 -11.6977    154.0969     62.4935   2.6198687413e+01   3.8122497505e+01    0.8401074    0.5014324 -46.71  0.003084009    1.839    0.456
       125 -10.7011    141.1175     61.3475   2.8899430474e+01   4.1525859934e+01     1.048231    0.3052869  44.89  0.003030794    3.573    0.720
       126 -10.7096    144.6055     53.8415   2.5536619009e+01   4.1933790482e+01     1.188413    0.5098873  35.26  0.003662237    3.411    0.707
       127 -11.5090    135.1151     72.1189   3.3908674697e+01   4.1001791482e+01    0.6093004    0.3790582  51.00  0.001179022    1.630    0.387
       128 -11.5778    131.4730     67.8092   3.3477590867e+01   4.2646191588e+01     1.031781    0.5036938  27.71  0.002861785    3.897    0.743
       129 -11.8309    112.0417     68.0238   3.8925992333e+01   4.6859618083e+01    0.4246151    0.3393112  27.82  0.001273835    1.329    0.248
       130 -13.7918    117.2507     61.4530   3.5253178959e+01   4.7006650528e+01      1.09293    0.8422021  44.00  0.001612947    1.313    0.238
       131  -9.2153    151.2492     72.6566   3.0085567803e+01   3.7055209939e+01    0.1554368    0.1211044 -64.00 0.0002653316    1.574    0.365
       132 -10.6660    161.4825     67.0358   2.5989620538e+01   3.5490143109e+01    0.4514267    0.2419842 -39.56 0.0009021435    1.880    0.468
       133 -11.5349    166.8762     64.7022   2.4094288740e+01   3.4507511271e+01    0.6932073    0.6505823  42.35  0.002669001    1.044    0.042
       134 -12.2444    128.1266     58.1392   3.1140072045e+01   4.5166801434e+01    0.4744044     0.317994  32.25   0.00211479    1.636    0.389
       135  -9.9168    161.4894     47.8552   1.9788440223e+01   3.8558008093e+01    0.3751851    0.3619206  62.89  0.001921296    1.058    0.055
       136 -10.7523    161.1161     58.1287   2.3233736592e+01   3.7058687137e+01    0.3449358    0.2698723  82.43  0.001044726    1.559    0.358
       137 -11.6188    160.6710     54.5226   2.2156933876e+01   3.7747613407e+01     0.760321    0.4773576  66.24  0.002427774    1.781    0.438
       138 -11.6858    102.3683     54.6058   3.7278917073e+01   5.1379321086e+01     1.083071    0.5069872  48.34  0.004333598    2.286    0.563
       139 -11.5492    174.8540     55.6820   1.9643550708e+01   3.3876363209e+01    0.3664602    0.2605325 -51.93 0.0006971461    1.575    0.365
       140  -9.9539    170.0957     56.3399   2.0792349017e+01   3.5017719762e+01    0.2272961    0.1938604  59.45  0.001127284    1.172    0.147
       141 -10.1438    133.9664     53.0336   2.7863625407e+01   4.4666817930e+01    0.3472244     0.223256  15.85  0.001385577    2.215    0.549
       142  -9.1751    137.3334     52.6905   2.6901615726e+01   4.3910962884e+01    0.2765602    0.2133048  32.09  0.000767418    1.337    0.252
       143 -12.8311    243.3836     61.1612   1.0351963896e+01   1.5811327192e+01     1.200579     0.517403  53.48   0.00491773    2.375    0.579
       144 -10.7756    245.3449     50.2304   7.3199145108e+00   1.6801188676e+01    0.2671121    0.2407471 -67.00 0.0001398779    1.129    0.115
       145 -10.4312    249.6119     48.7869   6.4608898086e+00   1.6001702854e+01    0.4818397    0.2308648 -53.55   0.00196461    2.456    0.593
       146 -11.4580     90.4946     51.1493   3.9821499589e+01   5.4300708802e+01    0.2323859    0.2164742   1.05 0.0002650784    1.056    0.053
       147 -11.0179     89.5392    114.0285   5.7698448758e+01   4.1076411361e+01    0.2993559    0.2166503  12.11  0.001457648    2.002    0.500
       148 -11.6644    187.8723     43.5763   1.3518263318e+01   3.2194446952e+01    0.8266438    0.4065678  40.48  0.002828054    2.363    0.577
       149 -11.3721    186.6584     37.6501   1.1882104489e+01   3.3312302873e+01    0.4909824    0.3293775 -67.82  0.001478118    1.877    0.467
       150 -11.9404    210.3811     46.9676   1.1020786889e+01   2.5832792007e+01    0.6412726    0.4310497 -79.71  0.002801305    1.917    0.478
       151 -11.2857    138.9850    112.2792   4.4263039622e+01   3.2121252373e+01    0.3255979    0.2023825  45.39  0.001149039    1.582    0.368
       152 -12.3344    202.2016     33.0648   8.1533099895e+00   2.9770112016e+01     0.674861    0.5857857 -85.52  0.001581996    1.182    0.154
       153 -11.4006    198.2343     26.0366   6.6135303521e+00   3.1669190751e+01    0.4261916    0.3203401  41.40  0.001192108    1.412    0.292
       154 -12.2387    172.9537     44.6513   1.6489722246e+01   3.6007138108e+01    0.7677412    0.5506794  49.49    0.0021709    1.348    0.258
       155  -9.0966    242.4942    112.4242   2.3269675686e+01   8.7258365103e+00    0.1407166    0.1268056  -1.99 8.279591e-05    1.012    0.012
       156 -11.7788    202.0479     44.8243   1.1638485320e+01   2.8285369766e+01    0.8189153    0.4458755  25.08  0.002906816    3.009    0.668
       157  -9.1213    134.2902     48.3483   2.6137536903e+01   4.5356173210e+01    0.1594921    0.1154998  14.25  0.000702666    1.664    0.399
       158 -10.8237     99.5088     47.4964   3.5590952050e+01   5.3234500946e+01    0.2930023    0.2297406   2.14 0.0008946902    1.401    0.286
       159 -13.0537      4.6256     54.8474   7.3006416694e+01   6.3273033678e+01    0.9209437    0.4799935 -63.80  0.003611012    1.425    0.298
       160  -9.5351    174.2434    111.5185   3.5851678024e+01   2.4333503546e+01    0.2141423    0.1416587  37.02 0.0004336439    1.552    0.356
       161  -6.5548    133.5489     39.9495   2.3293361835e+01   4.6837458385e+01    0.7588727    0.5091729 -76.38  0.003040765    2.557    0.609
       162 -11.7870    144.3228     45.0978   2.2584918053e+01   4.3383495137e+01    0.6299692    0.3779212  41.78  0.001176086    1.676    0.403
       163 -12.6648    148.9687     40.6530   1.9985643453e+01   4.2859890611e+01    0.7093304    0.3881387 -41.49  0.002830737    1.942    0.485
       164 -10.2076    128.1275     46.1866   2.6930393604e+01   4.7179551442e+01    0.2054432    0.1825535 -63.92 0.0005357645    1.329    0.248
       165  -9.4970    120.8127     44.6581   2.8310866399e+01   4.9131871467e+01    0.3148811    0.2213847 -73.36  0.001324165    2.365    0.577
       166 -10.0515    125.7710     42.9646   2.6366036342e+01   4.8247515553e+01    0.3050423    0.2157274   1.80  0.001381351    1.729    0.421
       167 -10.8906    246.7179     41.8022   5.0247122940e+00   1.7551661032e+01    0.3653837      0.23294 -54.59  0.001268311    1.617    0.382
       168 -10.4743    240.7677     40.5507   5.3690962249e+00   1.9109512836e+01    0.3248964    0.2347791  10.81  0.001079671    1.812    0.448
       169 -10.9339    234.3980     37.2907   5.2473949271e+00   2.1049519790e+01    0.6032778     0.383797 -60.92  0.002024099    1.742    0.426
       170 -12.2410    214.8199     41.8807   8.9529308041e+00   2.5367025407e+01    0.5739629    0.2993894  69.87 0.0009676552    2.052    0.513
       171 -11.7720    228.2699     40.4496   6.8173074929e+00   2.2159950537e+01    0.7682311    0.2847223  53.06  0.002860588    2.689    0.628
       172 -12.2906    220.7537     38.1568   7.1328346084e+00   2.4332893280e+01    0.3956712    0.3414709 -32.91 0.0003257725    1.139    0.122
       173 -10.6357    217.5050     35.0087   6.6723755143e+00   2.5553449177e+01    0.2710467    0.2130093  68.40  0.000665148    1.272    0.214
       174 -10.3067    156.1925     41.6892   1.8806256685e+01   4.0841843387e+01    0.4145313     0.221044 -50.82  0.001562073    2.383    0.580
       175  -9.6149    105.1938     43.3459   3.2286070428e+01   5.2783921602e+01    0.1906745    0.1366102  55.66 0.0007576192    1.585    0.369
       176  -9.9798    100.2595     41.4750   3.3077866153e+01   5.4118074543e+01     0.322202    0.2449511 -10.10  0.001652303    1.385    0.278
       177  99.0000    168.6830     32.4065   1.3252510097e+01   3.8800543249e+01    0.8001724    0.4091697  44.97  0.003187283    1.973    0.493
       178  -9.7800    162.7958     29.0823   1.3197267519e+01   4.0791792526e+01    0.2203587     0.195448 -67.24 0.0005139926    1.241    0.194
       179 -11.4437    161.1740     40.6230   1.7430493599e+01   3.9688962077e+01    0.5661471    0.2379132  41.59  0.001600448    2.693    0.629
       180 -11.7619    160.9673     36.5143   1.6078403667e+01   4.0309897182e+01    0.4881719    0.3613135  32.34  0.002313907    1.433    0.302
       181  -9.9913    250.2368     36.9215   3.4244562514e+00   1.7335870385e+01    0.3579862    0.1807024 -29.86  0.001028024    1.816    0.449
       182  -9.5868    168.4274     36.8457   1.4774916327e+01   3.8286997472e+01      0.21428    0.1478373  -5.63 0.0009423493    1.738    0.425
       183 -10.8515     62.5138    110.5080   6.4569687253e+01   4.5743137298e+01    0.1319033    0.1163431 -74.57 7.868082e-05    1.005    0.005
       184  -9.9930    123.6649     24.7007   1.9908213365e+01   5.1362232944e+01    0.4412239    0.2985491  36.90  0.002125493    1.441    0.306
       185  99.0000    111.0011     32.4996   2.6361377820e+01   5.3232940536e+01    0.7533776    0.3972188  60.14  0.002677443    2.293    0.564
       186  -9.6627    104.2296     27.3448   2.6211065014e+01   5.5468781995e+01    0.1800895    0.1329277  56.98 0.0003592577    1.507    0.336
       187 -11.3120    114.5323     27.9501   2.3562968736e+01   5.3081396347e+01    0.2556678    0.2018389  35.95 0.0004820855    1.203    0.168
       188 -11.1107    114.2374     23.7131   2.1920683804e+01   5.3718420069e+01    0.4059269    0.2726184  36.92  0.001394925    1.438    0.305
       189 -11.0908     92.1907     33.9376   3.2652298124e+01   5.6964086084e+01    0.3520944    0.2587197  15.16  0.001059415    1.466    0.318
       190 -10.6015     75.0484     33.8034   3.8509966544e+01   6.0114571925e+01    0.2693278     0.216444  43.68 0.0009027863    1.428    0.300
       191 -10.8336    217.8264    108.1339   2.6370466851e+01   1.4779839935e+01    0.2548122    0.2417657 -71.38 0.0002568956    1.243    0.195
       192 -11.0646    196.1488    107.9728   3.0392094498e+01   1.9829887687e+01    0.4960953    0.3540816 -58.86  0.002225276    1.816    0.449
       193 -10.8519    191.7349    104.1553   3.0275912954e+01   2.1532440484e+01    0.5811918    0.2098629 -44.24   0.00185498    3.108    0.678
       194 -12.2477    161.5435    106.5271   3.7391836890e+01   2.8227354367e+01    0.5793995    0.3268689 -60.92  0.002050717    2.831    0.647
       195  -9.5222    234.9764    108.5732   2.3552249554e+01   1.0896702095e+01    0.2008912    0.1377838  47.82 0.0003420789    1.498    0.332
       196 -11.1443    153.0169    108.0783   3.9786818440e+01   2.9877391432e+01    0.2327161    0.2284147  57.22 0.0005142932    1.041    0.039
       197 -10.9244    211.0993    105.1180   2.6818380200e+01   1.6809870780e+01    0.6052051    0.3034675  32.30  0.002204205    2.626    0.619
       198 -11.2935    144.5792    103.3620   4.0584628001e+01   3.2716018630e+01    0.4156029    0.3302569  23.61  0.001205802    1.422    0.297
       199 -11.7535    140.9446     96.1360   3.9530234186e+01   3.4983190844e+01    0.7091717    0.5155428 -57.73  0.001766988    1.571    0.363
       200 -14.1607    131.9154     98.1503   4.2383740146e+01   3.6557612624e+01     1.406226     1.070992 -40.03  0.004327555    1.321    0.243
       201  -9.8978    239.5612     30.4154   2.8899162617e+00   2.0632424916e+01     0.526342    0.2284612  64.57  0.002218156    2.292    0.564
       202 -11.7517    197.6188     50.3699   1.3971126880e+01   2.8678785179e+01    0.4657294     0.337531  70.07  0.001357008    1.447    0.309
       203 -11.6787    136.5935     87.5007   3.8189999054e+01   3.7686951712e+01    0.7246959    0.3952543  39.25  0.002518356    1.951    0.487
       204 -11.6355     86.3091     28.4853   3.2330407179e+01   5.8954997340e+01    0.4177463    0.2626747  38.78 0.0007075004    1.593    0.372
       205  -9.9581     90.4184     26.8383   3.0266010770e+01   5.8407470496e+01    0.1922414    0.1296998 -28.56 0.0009786913    1.415    0.293
       206 -10.1237    151.0233     20.5025   1.2381860971e+01   4.4938801870e+01    0.2280845    0.1399822  61.73  0.001017758    1.545    0.353
       207 -10.6016    148.5273     24.1109   1.4171932858e+01   4.5168262402e+01    0.2981822    0.2313201  24.22 0.0009480255    1.360    0.265
       208 -10.0845    167.7610     26.1643   1.1325147417e+01   3.9823007630e+01     0.223545    0.1974768 -76.26  0.001176285    1.229    0.186
       209  -8.9125    159.3129     26.3142   1.2885143268e+01   4.2059502231e+01    0.1594331    0.1075746  30.86 0.0002651437    1.638    0.389
       210 -10.7234    135.3974     24.8406   1.7211145025e+01   4.8449677650e+01    0.3381287    0.2694856  65.89  0.001730454    1.316    0.240
       211 -10.6770     20.8631     25.1292   5.8064102471e+01   6.8372179584e+01    0.3558759    0.2673286  38.16  0.002386714    1.787    0.441
       212 -10.3126     20.1157     19.3382   5.6248993443e+01   6.9514380154e+01    0.2088216    0.1472229 -66.76  0.001291079    1.855    0.461
       213 -11.0504    234.3943     24.1655   1.8087515429e+00   2.2614853013e+01    0.3849251    0.2750539  70.97  0.001558988    1.408    0.290
       214  -9.6189    243.9206     18.1846   3.5935968078e+02   2.0989616507e+01    0.3430009    0.2064761 -49.98 0.0009485541    1.563    0.360
       215 -10.9733    247.2046     22.5965   1.5708576439e-01   1.9722173339e+01    0.2932713    0.2244993  63.84   0.00106785    1.367    0.269
       216 -10.8859    128.0904     89.8609   4.1089121902e+01   3.9084501642e+01     0.335673    0.2947391  50.51 0.0002981176    1.161    0.139
       217 -12.6680    176.3041     23.4243   9.0090330354e+00   3.7851011167e+01    0.3784252     0.307269  28.96 0.0004621797    1.322    0.243
       218  -8.9770    153.3175     25.2660   1.3648642544e+01   4.3772583779e+01    0.1554376    0.1053389  34.27 0.0002816713    1.552    0.356
       219 -13.9417    122.7985     86.1848   4.1458379197e+01   4.0966233878e+01      2.12023    0.8672161 -36.48  0.007231423    2.758    0.637
       220 -10.0101    124.0090     20.9052   1.8314181431e+01   5.1754684294e+01    0.2097543    0.1973934  21.43 -0.001320134    1.042    0.040
       221 -11.6254    133.8656     83.7047   3.7782396113e+01   3.9052325679e+01     0.442774    0.3105473  63.72  0.001213767    1.711    0.415
       222  -9.6393    163.4237     20.6193   1.0187576641e+01   4.1632639398e+01    0.1457429    0.1369566  68.03 0.0001434374    1.049    0.047
       223 -10.7685    130.1951     19.2882   1.6234302779e+01   5.0426037990e+01    0.2610803    0.2182178  45.05 0.0003769489    1.110    0.099
       224 -11.9134    136.8046     80.8302   3.6163346590e+01   3.8949384596e+01    0.5640142    0.4252073  76.49  0.001548726    1.764    0.433
       225 -10.1210    171.1369     18.7515   8.2874840638e+00   3.9770686133e+01    0.3078121    0.1861865  37.24 0.0008297201    1.807    0.447
       226  -9.5812    172.6459     15.1961   6.8755119656e+00   3.9748322967e+01    0.2584215     0.145926  -2.84 0.0006044675    2.354    0.575
       227 -10.0157    119.2334     21.8442   1.9867139237e+01   5.2786097321e+01     0.204093    0.1949871 -48.78 0.0006424111    1.212    0.175
       228 -11.8161    225.7274     97.5573   2.2329790027e+01   1.4626396835e+01    0.4177929    0.2442119 -45.13  0.001171667    1.855    0.461
       229  -9.5208    138.8650     17.6268   1.3723075995e+01   4.8424912700e+01    0.2525913     0.102543 -20.47 0.0006678879    2.731    0.634
       230 -10.5683     93.6206     16.1335   2.4551603583e+01   5.9233376438e+01    0.3681735     0.192426  39.80  0.001385926    1.841    0.457
       231  -9.7785    192.7822     16.5275   4.4715516796e+00   3.4192634849e+01    0.1998881    0.1341273  89.72 0.0005708677    1.627    0.385
       232  -9.3663    160.0162     13.9717   8.4642181714e+00   4.3267867497e+01    0.1693205    0.1521393  58.31            0    1.038    0.037
       233 -10.1862    182.5118    103.5240   3.1997262352e+01   2.3842192279e+01    0.3263091    0.1526845 -35.78  0.001211344    2.167    0.539
       234 -10.1650     11.0706     14.1818   5.8850716155e+01   7.1119604376e+01    0.1714694    0.1195335 -21.83 0.0002943486    1.308    0.235
       235 -10.5080    187.1212     13.0344   4.1391183511e+00   3.6077421838e+01    0.2680048    0.1672955 -69.65 0.0009214061    1.927    0.481
       236 -11.5070    132.9646     77.4833   3.6140466238e+01   4.0472369227e+01    0.2913911    0.2714102 -56.25 0.0003118066    1.138    0.121
       237 -12.0355     75.6600    103.5396   5.9402247644e+01   4.5563905144e+01    0.3296926    0.2224192 -86.59 0.0007184822    1.897    0.473
       238 -10.6777    165.0725    102.0134   3.5386652631e+01   2.8264078310e+01     0.240183    0.2363273   5.94 0.0007442991    1.023    0.023
       239 -11.4789     95.8248    100.0957   5.2775146516e+01   4.3157774356e+01    0.4573278     0.197804 -51.99  0.001796714    2.208    0.547
       240 -10.1311      4.7572    101.9916   7.9657195117e+01   5.2925693085e+01    0.1545626   0.07537495 -74.90 0.0004169552    1.571    0.363
       241 -11.4250    158.7790     99.0202   3.6016925119e+01   3.0315053560e+01    0.4509783      0.34306  27.72 0.0003266191    1.454    0.312
       242  -9.2415    212.2990     11.6532   7.4616876557e-01   2.9562466378e+01    0.1520317   0.09511904 -58.52 0.0005816278    1.681    0.405
       243 -12.7591    156.4792     95.6577   3.5626830238e+01   3.1501108147e+01     1.051376    0.5762585  36.98  0.002259685    2.038    0.509
       244 -12.7185     87.1540     98.3563   5.4868564555e+01   4.4986890156e+01    0.6229169    0.3965096  26.55  0.002941318    1.938    0.484
       245 -10.1568     89.3763     93.7820   5.3095714382e+01   4.5646143761e+01    0.2060097    0.1682376 -48.37 0.0002563051    1.156    0.135
       246 -10.9029     33.9029    100.2118   7.1092937683e+01   5.1179963336e+01    0.1871434    0.1480569  88.45 0.0005436413    1.218    0.179
       247  -9.2647    100.6489     10.6887   2.0041547912e+01   5.8377723402e+01      0.15157   0.09288231  24.94 0.0007045174    1.721    0.419
       248 -10.9010    170.4506     97.7886   3.3038842349e+01   2.7774601968e+01    0.4312368    0.3083337 -51.60  0.001940291    1.565    0.361
       249 -11.7833    102.1787     96.1323   4.9963774346e+01   4.2909546578e+01    0.3923308    0.2880893 -24.86  0.001301777    1.675    0.403
       250 -12.2386    106.8452     96.7826   4.8807701789e+01   4.1907332188e+01    0.4368332    0.3089975 -30.11  0.001333137    1.642    0.391
       251 -12.3815    107.9764     92.4349   4.7337840301e+01   4.2633301310e+01    0.5875839    0.3110873  47.65  0.002454264    1.999    0.500
       252 -10.1072    244.5522     97.9580   1.9443388775e+01   1.0378831986e+01    0.2212832    0.1297396 -28.42 0.0007581413    1.584    0.369
       253 -11.7599     11.9249     97.3568   7.7106462415e+01   5.3512197720e+01    0.3127735     0.198034 -62.55  0.001070072    1.293    0.227
       254 -11.1555     13.4992     93.5470   7.6159206056e+01   5.4260419943e+01    0.2169172    0.1221856  15.15   0.00126085    2.407    0.585
       255 -11.8904    177.1582     84.9090   2.7980794911e+01   2.8454476132e+01     1.008331    0.4131687  37.55  0.002704803    3.331    0.700
       256 -13.1542    177.7459     68.8886   2.3141772205e+01   3.1028012964e+01     1.664837    0.7766342 -34.07  0.004649988    2.125    0.529
       257 -12.4989    185.0802     68.6812   2.1642993680e+01   2.9176316070e+01    0.8575344      0.60785 -35.73  0.003011112    1.407    0.289
       258 -13.2106    201.0019     76.5094   2.0961238712e+01   2.3874817913e+01     1.084006    0.6463705 -85.98  0.002386519    3.548    0.718
       259 -12.9195    209.7216     76.8585   1.9538532169e+01   2.1646126710e+01     1.009623    0.4943332 -59.41 0.0003887741    4.085    0.755
       260 -13.8419    194.3834     86.1577   2.4886135265e+01   2.3957227168e+01     1.533022     1.045908 -50.51  0.006811704    1.651    0.394
       261 -13.9790    199.2475     62.1036   1.7146546901e+01   2.6546776488e+01     1.491154     1.129141  40.60    0.0029205    1.369    0.269
       262 -12.6675    184.3944     56.5636   1.8117650773e+01   3.1242588362e+01      1.41734    0.7852935 -58.10  0.005190465    2.572    0.611
       263 -11.1374    113.6065    246.6997   7.0860453985e+01   1.1989809757e+01    0.2500589    0.1945199 -31.21  0.001426141    2.214    0.548
       264 -12.2876    209.1336     58.5601   1.4511291217e+01   2.4533850461e+01    0.5717057    0.3700374 -61.84  0.001488748    1.951    0.488
       265 -13.1474    234.7382     47.4600   7.8849080773e+00   1.9675842076e+01     1.568595    0.8806598 -69.07  0.006335909    2.579    0.612
       266 -10.8696     36.4995    248.4846   8.3444207831e+01   2.1586462311e+01    0.1802513   0.08136946 -79.65  0.001226179    2.218    0.549
       267 -14.3380     64.2527     85.5145   5.8816014345e+01   5.1211598074e+01     2.296587     1.183208 -35.64  0.006516337    2.465    0.594
