#   1 NUMBER                 Running object number                                     
#   2 MAG_AUTO               Kron-like elliptical aperture magnitude                    [mag]
#   3 X_IMAGE                Object position along x                                    [pixel]
#   4 Y_IMAGE                Object position along y                                    [pixel]
#   5 X_WORLD                Barycenter position along world x axis                     [deg]
#   6 Y_WORLD                Barycenter position along world y axis                     [deg]
#   7 A_WORLD                Profile RMS along major axis (world units)                 [deg]
#   8 B_WORLD                Profile RMS along minor axis (world units)                 [deg]
#   9 THETA_WORLD            Position angle (CCW/world-x)                               [deg]
#  10 FWHM_WORLD             FWHM assuming a gaussian core                              [deg]
#  11 ELONGATION             A_IMAGE/B_IMAGE                                           
#  12 ELLIPTICITY            1 - B_IMAGE/A_IMAGE                                       
         1 -13.9011    182.0559     40.9830   5.7557482308e+01   3.4552137531e+01     1.510988     1.122401  16.78  0.004090199    1.650    0.394
         2 -13.8749    203.2994      9.4553   4.5035786976e+01   3.2735096724e+01     1.099738     1.053874 -28.49  0.003769598    1.108    0.098
         3 -11.8135    190.6625     14.9689   4.8107047278e+01   3.5451888376e+01     0.549998    0.3802052 -87.69  0.002627402    1.552    0.356
         4 -12.4495    234.4520      2.6687   4.0456152242e+01   2.5687240687e+01     1.212697    0.3260894  69.91  0.004429144    3.429    0.708
         5 -10.2622     60.9791      2.0000   7.1271892234e+01   6.7937803636e+01    0.1990178   0.06941283  48.86 0.0008080792    2.982    0.665
         6 -11.9917     71.8347    210.1132   1.1883908007e+02   2.3419357532e+01    0.3652032    0.2393219  27.64 0.0005548616    2.008    0.502
         7 -13.0067    247.8303    246.0928   9.2281776757e+01  -7.3593519390e+00    0.8952779    0.7343381 -29.94  0.007220945    1.835    0.455
         8 -13.0581    248.3734    232.4859   9.0177462183e+01  -6.1934785124e+00    0.9492947    0.3353139 -32.32  0.005007267    3.181    0.686
         9 -10.6279     81.9582    195.7940   1.1553006238e+02   2.4716028005e+01     0.302017    0.2897581 -18.42  0.002188128    1.502    0.334
        10 -11.8529     68.4611    194.3918   1.1809406929e+02   2.6786934506e+01    0.3741414    0.3459426   6.07   0.00186499    1.622    0.383
        11  -9.1900    159.5777    194.7593   9.9850593935e+01   1.2596160006e+01    0.1558216    0.1241582 -65.57 0.0005477262    1.601    0.375
        12  -9.1727     60.9284    190.2988   1.1923113226e+02   2.8536914068e+01    0.2495054    0.1264215 -65.73  0.001398242    1.980    0.495
        13  -8.4892    164.6790    187.3078   9.7659093404e+01   1.2913489198e+01    0.1272078   0.09822786  69.38 0.0005250014    1.641    0.391
        14 -10.0198    238.4799    184.9892   8.3752039256e+01   4.2656713054e-01    0.1543239    0.1031999 -50.59 0.0008098602    2.516    0.603
        15 -10.6193    153.2294    184.2486   9.9445887440e+01   1.5455202588e+01    0.2376386    0.1834274 -65.12  0.001370352    1.597    0.374
        16 -11.6074    146.2349    182.8590   1.0064616619e+02   1.6931134124e+01    0.3335599    0.2494045  51.42  0.001128054    1.238    0.192
        17 -12.4273    143.0568    174.0685   9.9869524794e+01   1.9080695210e+01    0.6702913     0.400257 -55.89  0.003133759    1.924    0.480
        18 -10.1484    189.2505    178.3677   9.1321545112e+01   9.9075367521e+00    0.3535869    0.2562484  64.07   0.00122408    1.896    0.473
        19  -9.6186     69.4340    173.1978   1.1573813622e+02   3.0908608752e+01    0.3319216    0.1307414  55.52   0.00143217    2.670    0.625
        20  -8.8433    195.3952    172.7628   8.9105221053e+01   9.6441623621e+00    0.1833942    0.1223822 -22.01 0.0009514075    1.691    0.409
        21 -10.0228    240.3716    169.1935   8.0404940233e+01   2.1035495615e+00    0.1695366    0.1098533 -34.95 0.0005463993    1.647    0.393
        22  -9.4877    186.8543    165.4899   8.9348867044e+01   1.2402686221e+01    0.2871584    0.1744743 -43.60  0.001415341    1.823    0.451
        23  -9.9608    188.0176    173.7202   9.0697747245e+01   1.0860917062e+01     0.313884    0.2393525 -74.87    0.0013541    2.164    0.538
        24  -9.0459    117.8502    162.2292   1.0340209457e+02   2.5822075372e+01    0.2030528    0.1645402  71.53 0.0004835969    1.252    0.201
        25  -9.0501      8.5339    160.5626   1.2782839679e+02   4.0048103373e+01    0.1106827   0.08429998  84.40 0.0001907643    1.057    0.054
        26 -11.1224     96.0354    157.1835   1.0761219796e+02   3.0468498883e+01    0.2589865    0.2287304  84.46  0.000290763    1.045    0.043
        27 -12.1551    100.8657    150.7894   1.0545633378e+02   3.1073739119e+01    0.5739817    0.4482945 -32.86  0.002126491    1.689    0.408
        28 -10.1226    113.5903    151.4439   1.0255336269e+02   2.8796777296e+01    0.3935415    0.2379219  85.56  0.001600289    2.793    0.642
        29 -10.7112    134.3782    148.5687   9.7188799289e+01   2.5631660240e+01    0.6224691    0.2809743 -60.92  0.002261713    3.112    0.679
        30  -9.8762    174.8682    149.1150   8.8440981716e+01   1.7560002980e+01    0.2130675    0.1963944  77.45 0.0005294862    1.266    0.210
        31 -10.2519    143.8867    146.7850   9.4671625836e+01   2.4169372697e+01    0.3924118    0.2165035 -57.68  0.001673545    2.162    0.538
        32 -10.5511    134.0000    144.0006   9.6378070591e+01   2.6638619061e+01    0.7995057    0.2718678 -58.70  0.002213668    5.155    0.806
        33 -11.3529    110.7908    137.0722   1.0058569942e+02   3.2385058415e+01     0.483752    0.3236555 -33.11  0.002259114    2.000    0.500
        34 -11.8010     99.6862    136.6302   1.0327596672e+02   3.4383596658e+01    0.2663335    0.2592118  33.85 0.0004848304    1.178    0.151
        35 -11.1241    105.9642    130.7771   1.0056351195e+02   3.4623754626e+01    0.3719657    0.3086914 -72.88   0.00122109    1.199    0.166
        36 -10.0442    136.0000    129.0585   9.2751895183e+01   2.9356293895e+01    0.3939488   0.08347911 -47.33    0.0010347    4.784    0.791
        37 -10.4846    116.7335    128.6348   9.7395728680e+01   3.3163611886e+01    0.2836768    0.2308195 -15.00 0.0008136122    1.638    0.390
        38 -10.4516    104.8832    124.3083   9.9523327281e+01   3.6263049997e+01    0.2577462    0.2330244 -23.00 0.0007233705    1.313    0.239
        39 -10.2475    160.5636    127.5610   8.6724849584e+01   2.4570435664e+01    0.3119769    0.2729412 -87.48  0.001585249    1.357    0.263
        40  -9.3570    135.0000    120.0215   9.0918998748e+01   3.1462339251e+01    0.2466725   0.08435364 -46.55 0.0007656701    2.928    0.658
        41  -9.5182    111.5746    118.1426   9.6432550213e+01   3.6441491474e+01    0.2465281    0.1982888  44.54 0.0001908845    1.271    0.213
        42  -9.8914    231.2853    113.7092   6.9712123377e+01   1.1690385006e+01    0.2572518    0.2219469  10.21 0.0007345955    1.135    0.119
        43 -10.0294    167.9005    113.1686   8.1582165596e+01   2.5749559153e+01    0.3540963    0.2716026 -81.45  0.001224741    1.836    0.455
        44  -9.8821    205.2463    110.2740   7.3351756863e+01   1.7851720128e+01    0.3225552    0.2476776  28.97 0.0009903178    1.373    0.272
        45 -11.0245    117.3741    109.5198   9.2875079884e+01   3.7256409713e+01    0.4374923    0.2400306  51.36  0.001325841    1.967    0.492
        46 -10.4081    134.5955    104.4742   8.7139992626e+01   3.4832593427e+01    0.4391767    0.1455987 -44.25  0.001397703    2.975    0.664
        47  -9.5232     76.9769    104.3305   1.0300583151e+02   4.5404855211e+01    0.1888059    0.1792191  87.72 0.0006725065    1.078    0.073
        48  -9.4858    127.7248     95.0245   8.6350461719e+01   3.8286318001e+01    0.2183482    0.1938044 -41.97   0.00053155    1.102    0.092
        49 -12.3061     12.4502    205.8578   1.2940957176e+02   3.0793956185e+01    0.4483726    0.1509676  40.50  0.002587018    2.379    0.580
        50  -9.0442    151.5423     81.5310   7.6500200715e+01   3.5618701102e+01    0.1557681     0.150187  -5.91 0.0001801799    1.043    0.041
        51  -9.0943     75.1699     73.8841   9.5902549675e+01   5.2678380252e+01    0.1860575    0.1574882 -23.78 0.0004281061    1.272    0.214
        52 -13.0595    167.3951     57.0883   6.5382762247e+01   3.5971558107e+01     1.031795    0.8213086 -23.31  0.001810711    1.279    0.218
        53  -9.6545     13.6378     59.9185   1.1503784219e+02   6.2451464146e+01    0.1806239    0.1709837  74.51 0.0004172358    1.275    0.215
        54  -9.4485    167.7829    229.3365   1.0322457381e+02   6.1728007539e+00    0.1563632    0.1473233  58.55 0.0003361313    1.282    0.220
        55 -12.6260    186.5197     34.5997   5.4834878291e+01   3.4230841949e+01    0.6219224    0.5258242  16.39  0.001452628    1.333    0.250
        56 -11.4490    194.0690    205.0187   9.4988716859e+01   5.2015198723e+00    0.8165697     0.209607  34.40  0.002377203    5.646    0.823
        57 -10.8749    193.1502    195.3487   9.3569835014e+01   6.6981057739e+00    0.8691423    0.4466126 -60.38  0.002861588    6.452    0.845
        58 -11.9226    198.2679     23.3032   4.9736094646e+01   3.2538414355e+01    0.4430693    0.3048556 -24.63  0.001493195    1.468    0.319
        59 -19.1526     32.0217    102.8492   1.1623520259e+02   5.1078561263e+01     16.39071    0.8228874 -68.29   0.02708131   15.821    0.937
        60 -18.0457     45.6530    239.2344   1.2543921366e+02   2.1603250367e+01     6.261795     5.107626  67.08   0.04950476    1.233    0.189
        61 -11.8807    151.3788    195.9844   1.0164235742e+02   1.3802570672e+01    0.3925019    0.3338443  28.86  0.002518832    1.165    0.142
