#   1 NUMBER                 Running object number                                     
#   2 MAG_AUTO               Kron-like elliptical aperture magnitude                    [mag]
#   3 X_IMAGE                Object position along x                                    [pixel]
#   4 Y_IMAGE                Object position along y                                    [pixel]
#   5 X_WORLD                Barycenter position along world x axis                     [deg]
#   6 Y_WORLD                Barycenter position along world y axis                     [deg]
#   7 A_WORLD                Profile RMS along major axis (world units)                 [deg]
#   8 B_WORLD                Profile RMS along minor axis (world units)                 [deg]
#   9 THETA_WORLD            Position angle (CCW/world-x)                               [deg]
#  10 FWHM_WORLD             FWHM assuming a gaussian core                              [deg]
#  11 ELONGATION             A_IMAGE/B_IMAGE                                           
#  12 ELLIPTICITY            1 - B_IMAGE/A_IMAGE                                       
         1 -14.0992    199.8271      4.8947   5.9760667169e+01   3.4313307270e+01     1.534872     1.357521  84.46  0.009286348    1.134    0.118
         2 -13.6951    189.9344     14.9806   6.3281996710e+01   3.5651564358e+01     1.275807    0.6833968  87.91  0.005975101    2.010    0.503
         3 -14.3023    167.7023     46.1673   7.4860043354e+01   3.7356791711e+01     1.818158     1.231073  33.43    0.0056059    1.811    0.448
         4 -14.2387    181.1227     31.6279   6.8704714731e+01   3.5910143533e+01      0.93868    0.8822405  77.78  0.003939984    1.105    0.095
         5 -13.6399    185.4703     25.0211   6.6373622531e+01   3.5624739502e+01    0.6758614    0.5636779  85.10  0.001155568    1.062    0.058
         6 -11.9326     50.2831      7.5838   9.2176666517e+01   6.6270007121e+01    0.2194365    0.2004462  85.27  0.001524707    2.168    0.539
         7 -12.1234    116.0317    211.7242   1.2582925051e+02   1.4519698996e+01     0.596404    0.3291048  74.92  0.001117448    3.084    0.676
         8  -9.6648    159.4538    250.4937   1.2242661820e+02  -4.5211494375e-01    0.1303382    0.1076444  40.72  7.04026e-05    1.011    0.011
         9 -19.7019     39.8963    160.7612   1.3626358947e+02   3.7524202259e+01     20.02591     5.565382 -69.95   0.06959046    3.519    0.716
        10 -10.4784    179.8971    192.8732   1.0847210364e+02   6.1720674435e+00    0.3419208    0.2313857 -80.45  0.001377138    2.742    0.635
        11 -12.2976    117.0461    206.5625   1.2483264428e+02   1.5438108531e+01    0.4448303    0.2574334  53.22  0.001422367    1.652    0.395
        12 -12.3081    110.2052    188.3837   1.2350860042e+02   2.0688120459e+01     0.473388    0.3379087 -17.17  0.002072613    2.486    0.598
        13 -13.0626    111.3195    183.3965   1.2240851670e+02   2.1629857084e+01    0.8348285    0.2846302  34.23  0.002590049    3.727    0.732
        14 -12.1903    107.8491    211.1751   1.2753409804e+02   1.6063038170e+01    0.6338322    0.3549484  36.21  0.002950596    1.849    0.459
        15 -12.9311    107.6633    204.9974   1.2668074114e+02   1.7428474195e+01    0.6870307    0.5698508  30.66  0.003676018    1.392    0.282
        16 -11.8074    207.6908    183.9646   1.0084181035e+02   2.3755954342e+00    0.3655275    0.3576216   4.97     0.001056    1.100    0.091
        17 -11.8975    210.9824    180.7750   9.9517932986e+01   2.3258281546e+00    0.4492369    0.3069888 -28.77  0.001913857    1.527    0.345
        18 -10.9303     92.1824    185.0902   1.2721519559e+02   2.4543861413e+01      0.25177    0.1891161  54.99 0.0003782486    1.266    0.210
        19 -12.2006     98.7764    180.7720   1.2496160955e+02   2.4445000009e+01    0.3862073    0.2862013  35.99  0.001976171    1.450    0.310
        20 -10.7769     10.5249    213.7716   1.4750132836e+02   2.8729396702e+01    0.1667871    0.1367285  15.92  0.001182952    2.011    0.503
        21 -12.0214    197.8074    175.3231   1.0107911777e+02   5.9980588156e+00    0.4985444    0.3415791 -48.89  0.001370412    1.563    0.360
        22 -10.4257    145.5195    178.4786   1.1339754556e+02   1.6150625535e+01    0.1515826    0.1445148  53.75 6.798324e-05    1.018    0.017
        23 -14.0895     10.9648    206.7255   1.4693094588e+02   3.0160022925e+01    0.4859537    0.3624392  30.68  0.003023317    1.814    0.449
        24 -11.5600    203.5033    167.5951   9.8246485374e+01   6.3394472957e+00    0.4635608    0.4181438  42.49  0.002085559    1.125    0.111
        25 -11.5405    145.4954    168.6789   1.1143495792e+02   1.8340600477e+01    0.3160327    0.2678414 -46.79 0.0009138054    1.227    0.185
        26 -10.5484    225.4278    166.2358   9.3619438188e+01   2.1936112585e+00    0.2003063    0.1307138 -48.97 0.0005828677    1.646    0.393
        27  -9.8433    120.2335    163.8916   1.1663914833e+02   2.4509950297e+01    0.2366469    0.1940331  78.95   0.00066199    1.324    0.245
        28 -11.5020     15.5578    201.2400   1.4565390605e+02   3.0877665103e+01    0.2113466    0.1612164  44.45  0.000647193    1.489    0.328
        29 -13.0856    101.1970    155.9156   1.1991259420e+02   2.9928720410e+01    0.6906108    0.4653078 -34.35  0.002803199    1.898    0.473
        30 -12.3602    133.8592    144.8193   1.0914558476e+02   2.6229853780e+01     1.184851    0.3213565 -54.25  0.002925423    4.921    0.797
        31 -10.3765    119.8772    155.9760   1.1512657844e+02   2.6442861859e+01    0.3341717    0.2115188  49.35  0.001190183    1.590    0.371
        32 -11.3105    174.5213    148.4687   1.0021588293e+02   1.6523513285e+01    0.3982146    0.2934321 -54.32  0.001259539    1.439    0.305
        33 -12.1238    145.4437    146.2192   1.0656748954e+02   2.3443324399e+01    0.4269737    0.3909349 -86.00 0.0002962282    1.148    0.129
        34 -11.0644      9.1322    145.1347   1.4183128989e+02   4.3986202560e+01    0.3304033    0.2327673 -15.16  0.001593153    2.123    0.529
        35 -12.6339    110.5047    140.5971   1.1428752412e+02   3.1887757810e+01    0.6143132    0.4283234 -27.52  0.002686072    1.896    0.473
        36 -12.5082     99.8697    140.8796   1.1720746383e+02   3.3770175463e+01    0.2902725    0.2872009  14.13 0.0004645827    1.102    0.092
        37 -12.3130     10.3516    137.0215   1.4059181172e+02   4.5746690736e+01    0.4324712     0.241302  16.19  0.001055694    2.478    0.596
        38 -10.5664    164.8916    205.5499   1.1410436133e+02   6.6339743244e+00    0.4378209    0.1940385 -60.32   0.00145818    3.836    0.739
        39 -12.0428    117.6632    130.4445   1.1004463270e+02   3.2883609522e+01    0.4746381    0.4093983   3.95  0.001306852    1.391    0.281
        40 -12.0581    105.6284    128.9580   1.1297852983e+02   3.5549790710e+01    0.6457998    0.3297135 -57.03  0.002528074    2.048    0.512
        41 -13.1017    193.9754    193.8893   1.0567494670e+02   3.1976442623e+00     1.140847     0.786858 -70.08  0.004432241    2.356    0.576
        42 -11.4673    204.1812    199.1311   1.0459463127e+02   2.7728741160e-01    0.2521266     0.185587  28.20 0.0007091462    1.315    0.239
        43 -12.1216    135.2196    121.9079   1.0330235921e+02   3.1164092934e+01    0.7553418     0.206423 -47.59  0.002092722    3.733    0.732
        44 -11.4720    125.2687    127.1445   1.0721640165e+02   3.2098198799e+01    0.3959832    0.2687319  70.24  0.001377429    2.033    0.508
        45 -11.2963    160.2597    127.9621   9.8611482171e+01   2.4198170056e+01    0.4556663    0.2772584 -33.98  0.001821932    1.862    0.463
        46 -10.6954    111.9493    119.5465   1.0895975589e+02   3.6521693892e+01    0.2817731    0.2275947 -50.45 0.0005039439    1.214    0.176
        47  -9.7055    211.3915    203.2067   1.0393091186e+02  -1.7776113344e+00    0.1777656    0.1304368 -48.19 0.0004166239    1.580    0.367
        48 -12.1839    117.3567    201.5322   1.2398429926e+02   1.6470345240e+01    0.4924972    0.2226742  43.17  0.002027107    2.029    0.507
        49 -10.9242    168.5094    113.4427   9.3024948755e+01   2.5342584652e+01    0.3792978    0.2892487 -84.15 0.0008741167    1.700    0.412
        50  -9.8355    143.4584    128.2168   1.0277722184e+02   2.7943802129e+01    0.2122593    0.1521482 -60.05  0.000463247    1.539    0.350
        51 -11.4366    140.5254    199.5609   1.1843586147e+02   1.2570929060e+01    0.3149859    0.2151599  47.84   0.00131524    1.352    0.260
        52 -10.4073    205.6125    110.1367   8.4534962939e+01   1.7186246139e+01    0.2796921    0.2204263  47.35 0.0006447938    1.323    0.244
        53 -12.4434    112.7411    196.1163   1.2417481589e+02   1.8492519339e+01    0.6041489    0.4125814  -1.80  0.002383237    3.248    0.692
        54  -9.9599    177.5095    196.5008   1.0968924179e+02   5.9351413049e+00    0.1459357    0.1360123  39.91 0.0002931759    1.041    0.039
        55  -9.6258    152.0742    102.5238   9.3981848989e+01   3.1479489438e+01    0.2245935    0.1536302  50.37 0.0003369304    1.442    0.306
        56 -10.3280    134.5128    102.9202   9.8492346834e+01   3.5431346083e+01    0.2425573    0.1539238 -42.66  0.001032616    1.591    0.371
        57 -12.4739    103.6328    194.6026   1.2602370514e+02   2.0432384186e+01    0.4152595    0.3685255  21.33  0.002351647    1.398    0.285
        58 -10.5436     13.7160     59.9695   1.2580495610e+02   6.2114257409e+01    0.1746757    0.1467133 -25.01 0.0004759451    1.139    0.122
        59 -10.0984    168.1956    248.1805   1.2036530635e+02  -1.5874932762e+00    0.1672635    0.1374821  58.18 0.0002351065    1.303    0.233
        60 -10.5198    182.5149    241.3621   1.1647773282e+02  -2.9785309137e+00    0.2272784    0.2069002  67.32 0.0007851793    1.343    0.256
        61  -9.5410    185.6405    236.3161   1.1504169616e+02  -2.7130839908e+00    0.1313596   0.09957623  64.82 0.0007043367    1.756    0.430
        62 -11.2627    150.6902    220.5703   1.1971272628e+02   6.4163696370e+00    0.2800869     0.124521  37.85  0.001140106    2.116    0.527
        63 -12.4857    183.9351    215.2741   1.1179686594e+02   1.1836600923e+00    0.4250261    0.3083777 -44.74   0.00203362    1.537    0.349
        64 -11.1330     13.3848     37.0035   1.1927441409e+02   6.6259309264e+01    0.2151891    0.1409961   9.99 0.0005659375    1.569    0.363
        65 -10.4106    110.8620     21.0641   7.8972430297e+01   5.3800913381e+01    0.3152822    0.1770752  67.28  0.001479866    2.157    0.536
