#   1 NUMBER                 Running object number                                     
#   2 MAG_AUTO               Kron-like elliptical aperture magnitude                    [mag]
#   3 X_IMAGE                Object position along x                                    [pixel]
#   4 Y_IMAGE                Object position along y                                    [pixel]
#   5 X_WORLD                Barycenter position along world x axis                     [deg]
#   6 Y_WORLD                Barycenter position along world y axis                     [deg]
#   7 A_WORLD                Profile RMS along major axis (world units)                 [deg]
#   8 B_WORLD                Profile RMS along minor axis (world units)                 [deg]
#   9 THETA_WORLD            Position angle (CCW/world-x)                               [deg]
#  10 FWHM_WORLD             FWHM assuming a gaussian core                              [deg]
#  11 ELONGATION             A_IMAGE/B_IMAGE                                           
#  12 ELLIPTICITY            1 - B_IMAGE/A_IMAGE                                       
         1 -12.6808     80.8615     76.2547   1.0355517523e+02   5.1342402521e+01     1.683448    0.8834689 -54.01 0.0007247023    1.940    0.484
         2 -11.9759     53.8129     36.8210   1.0075646670e+02   6.3545948537e+01     1.717642    0.6586596  31.54  0.007010968    2.838    0.648
         3 -10.6219     98.1801     42.6014   8.5845425702e+01   5.4778818463e+01     1.845837     1.124731  16.21  0.007614179    2.254    0.556
         4 -12.5135    126.3739     67.9976   8.6520049432e+01   4.4104954779e+01     4.137569     0.974397  50.37   0.01068352    4.622    0.784
         5 -10.3117     92.6034     15.6630   7.5946096184e+01   5.9938662106e+01    0.2641707    0.2232344   7.24 0.0001701884    1.078    0.072
         6 -12.6348     84.7153     54.8032   9.5174850193e+01   5.5162861700e+01     2.216243     1.336655  50.91  0.009903551    2.042    0.510
         7 -11.5894     87.8773     38.0071   8.7508688558e+01   5.7641044395e+01     1.594639    0.4889385 -31.74  0.004911551    3.801    0.737
         8 -10.6438     89.6129     21.6377   7.9715652828e+01   5.9801891784e+01    0.5041619    0.2986145  -2.29  0.001443972    2.154    0.536
         9 -11.9919    113.0458     22.4340   7.2998967151e+01   5.4402623568e+01     1.175336    0.7592987 -19.91  0.005596096    1.592    0.372
        10 -11.5757    129.9326     20.0414   6.7875932664e+01   5.0509932414e+01     1.243362    0.4833191  55.36  0.003638695    2.258    0.557
        11 -11.7040    127.8445     14.9091   6.6278681937e+01   5.1602844168e+01       1.6617    0.3891883  55.46  0.005221964    3.259    0.693
        12 -12.8348     70.9641     31.0741   9.0963860290e+01   6.1940996137e+01     1.942485    0.8431729  40.43  0.008159004    2.364    0.577
        13 -11.3122     68.1688     20.1627   8.7047176008e+01   6.4189808351e+01      1.42841    0.5867389  30.35  0.004647358    3.083    0.676
        14 -12.2283    113.3545      7.5106   6.6463326817e+01   5.5981356948e+01     1.576415    0.4904713  56.68  0.005294797    2.682    0.627
        15 -11.2889    116.9640     46.4022   8.1533604797e+01   5.0020895098e+01     2.109531    0.8240472 -20.70  0.005583458    5.020    0.801
        16 -11.8496    109.9081     30.1347   7.7110417091e+01   5.4121250573e+01     0.779466    0.5269431  71.96  0.002019613    2.082    0.520
        17 -10.3263    156.5848     16.7461   6.1475367738e+01   4.3911031924e+01    0.5825534      0.53433  16.05  0.003288544    1.116    0.104
        18  -9.1230    156.1357     11.0834   5.9547766733e+01   4.4587657249e+01     0.217564    0.1962104  41.81 0.0004534206    1.062    0.058
        19 -10.4296    160.0372     23.3412   6.3194569072e+01   4.2293109743e+01    0.9976522    0.4897271   2.50   0.00306471    3.465    0.711
        20 -11.1385    148.8934     25.6072   6.6039684616e+01   4.4968231507e+01     1.092725    0.5845599  40.27  0.002214741    1.912    0.477
        21 -11.8843    149.3396     15.7801   6.2377771420e+01   4.5925673562e+01     1.130178     0.627076  18.32   0.00452685    2.420    0.587
        22 -10.0313    141.8704     11.2513   6.2038302522e+01   4.8340099372e+01    0.2346082    0.2085855  23.28 0.0004660973    1.114    0.102
        23  -9.2875    145.3522      8.1214   6.0245606335e+01   4.7716862801e+01    0.3433546    0.2679056  -0.13  0.001318089    1.387    0.279
        24 -10.7400    164.6390     11.6143   5.8433420474e+01   4.2279630534e+01    0.8132868    0.5531302 -82.84  0.003853471    1.742    0.426
        25  -9.8350    168.1057      8.0978   5.6758316634e+01   4.1685098106e+01    0.4344119    0.2072159 -33.73  0.001841877    2.117    0.528
        26 -11.1858    163.8614      5.1384   5.6344682393e+01   4.3072438222e+01    0.5452137    0.4680136  -0.16  0.001481376    1.266    0.210
        27 -11.7711    239.2726     32.1907   5.5471585865e+01   2.1457917732e+01     1.156372    0.4942577  67.11  0.004980584    2.454    0.593
        28 -10.1438    215.8824     26.7146   5.6487263965e+01   2.7541240267e+01    0.5962787    0.3545582   4.23  0.002496108    2.400    0.583
        29 -10.1088    212.5841     23.8666   5.6069704332e+01   2.8655696619e+01    0.5648006    0.3228981   9.11  0.001716681    2.687    0.628
        30 -12.7652    103.3407     81.7742   9.7751719339e+01   4.6192413675e+01     1.971118     1.499229 -70.70  0.009302201    1.760    0.432
        31  -9.1176     54.4780     18.4886   9.2246882155e+01   6.6714701055e+01    0.5332664    0.3094658   8.66  0.001723166    2.268    0.559
        32 -10.7702     68.0366      4.6241   7.9046160270e+01   6.6325433411e+01    0.7078889    0.3472103  32.02  0.002121077    2.056    0.514
        33 -11.2800     41.5444     14.9982   9.6888667133e+01   6.9119356072e+01    0.7292138    0.5181096  31.86  0.003722199    1.554    0.357
        34 -11.2010     50.3038     10.2304   8.9961356935e+01   6.8637104934e+01     0.423772    0.3334498  11.18  0.001432054    1.149    0.130
        35 -12.0694     56.8577      3.6396   8.3211476824e+01   6.8482134536e+01    0.6195276    0.5146621  33.23  0.001704897    1.299    0.230
        36 -12.1924     28.9422     23.4618   1.0753564446e+02   6.8998718329e+01     1.795015    0.5211967 -45.03  0.007334732    2.678    0.627
        37 -11.1337     25.2143      4.8557   1.0079144355e+02   7.2731781699e+01    0.5949734    0.2852564 -36.84  0.003152344    1.729    0.422
        38 -11.1872     18.6036      4.9335   1.0498148776e+02   7.3358503320e+01    0.5320477    0.3632088 -54.27  0.003260097    1.733    0.423
        39 -12.1985     19.3155     13.4149   1.0866347001e+02   7.1762040822e+01    0.9338148    0.3499449  27.39  0.004463071    2.908    0.656
        40 -11.6202     12.7516      7.5272   1.1004167412e+02   7.3364520701e+01    0.5765364    0.3735651 -63.27  0.003164538    1.959    0.490
        41 -12.2200      9.1649     24.0701   1.1872718682e+02   7.0335784734e+01    0.9522908    0.6473681 -35.97  0.006199569    1.206    0.171
        42 -12.4813      3.0623     17.6659   1.2015145948e+02   7.1945436164e+01    0.3626609    0.1766274 -42.49 0.0005511887    1.544    0.353
        43 -13.1178      3.9832      9.4135   1.1655920262e+02   7.3546200540e+01    0.7004091    0.2801178 -56.96 0.0004269792    2.015    0.504
        44 -11.1328    177.7436      5.1197   5.4550242867e+01   3.9402729329e+01     0.910485    0.5342694  72.07  0.002280738    1.609    0.379
        45 -10.0457    185.8692     13.8018   5.6269403653e+01   3.6473135618e+01    0.5689033    0.2269516  58.50  0.002255263    2.224    0.550
        46 -10.5093    186.2334     19.9361   5.8115161562e+01   3.5760149026e+01    0.8111013    0.4256868 -33.28  0.003585508    1.873    0.466
        47 -11.5890    175.9417     16.3275   5.8374718607e+01   3.8827306301e+01    0.8492572    0.3393392 -28.29  0.003107533    2.439    0.590
        48 -10.7301    182.9909     27.4629   6.0909187999e+01   3.5789104708e+01    0.5044626    0.3977347  33.28  0.002618537    1.342    0.255
        49 -10.7094    166.7978     25.8594   6.2910639158e+01   4.0224747462e+01    0.7758352    0.4777392  28.84  0.003175076    1.918    0.479
        50  -9.7402    231.5227     17.2271   5.2411680627e+01   2.4813184015e+01    0.5814251    0.3270272 -23.71  0.002902757    1.754    0.430
        51 -10.5425    249.5509      7.5515   4.8613685742e+01   2.1711967427e+01    0.7762411    0.3777327 -66.24  0.003673924    2.349    0.574
        52 -11.0177    243.3500     12.8795   5.0341670253e+01   2.2559354096e+01    0.6433427    0.3102266 -22.59   0.00308142    2.060    0.515
        53 -10.6918    245.5546     19.1050   5.1672451673e+01   2.1449597289e+01    0.5016958    0.3206834  76.09   0.00278104    1.656    0.396
        54 -10.8936    239.2513     16.5626   5.1574823402e+01   2.3111690239e+01     1.042322    0.1345865 -34.70  0.003342516    4.142    0.759
        55  -9.4357    233.5089      7.4477   4.9776459301e+01   2.5306796944e+01    0.2202417    0.1918841 -71.14 0.0005327411    1.079    0.073
        56 -10.9594    202.3501     19.2279   5.5915652983e+01   3.1694840568e+01    0.6996984    0.3277027  60.36  0.001702228    1.999    0.500
        57  -9.8648    198.4953     16.1726   5.5472155018e+01   3.2982932515e+01    0.5917292    0.2629945  43.54  0.002330567    2.583    0.613
        58  -9.6142    217.8975     13.1806   5.2608729352e+01   2.8448629381e+01    0.3713262     0.252755  72.46  0.001754574    1.454    0.312
        59 -10.1332    222.4696     11.0949   5.1634568938e+01   2.7550162802e+01    0.6377579    0.3242843 -69.80  0.002766775    2.445    0.591
        60  -9.6017    226.6578      8.5485   5.0610829632e+01   2.6798755872e+01    0.2783449    0.2277633  80.22 0.0007633322    1.210    0.174
        61 -10.5778    211.9808     15.2783   5.3760549110e+01   2.9688950799e+01    0.5049161    0.2898873 -21.24  0.001729712    1.803    0.445
        62  -8.6326     83.0074     13.9506   7.8323213716e+01   6.2198733894e+01    0.3242207    0.1652976 -34.09  0.001462827    2.012    0.503
        63 -13.5199     99.1289      6.5624   6.9691916657e+01   5.9484242598e+01     1.021048    0.6693088  48.31  0.002437281    1.374    0.272
        64 -10.6569     77.3894      9.3303   7.8000510479e+01   6.3920975416e+01    0.5103964     0.328806  -0.50 0.0007589225    1.641    0.390
        65  -9.4768     77.4448      4.4985   7.5458879798e+01   6.4470343478e+01    0.4803986    0.2309216  28.48  0.001700904    2.321    0.569
        66  -9.5190    190.0222      8.1950   5.4070243928e+01   3.5923529930e+01    0.5101209    0.1534024  54.97  0.001812392    2.913    0.657
        67  -9.9000    196.1834      5.8427   5.2708340313e+01   3.4551850012e+01    0.4084465    0.2417687  52.63  0.001986053    1.665    0.399
        68 -10.4714    200.1611      1.8961   5.1175496831e+01   3.3886776572e+01    0.4609712    0.1869624  70.43  0.001413887    2.272    0.560
        69  -9.8674    211.4595      3.7979   5.0666270370e+01   3.0899138119e+01    0.3327278    0.2311811  13.08 0.0009554312    1.841    0.457
        70 -10.8251    207.9240      2.9416   5.0748673850e+01   3.1849428011e+01    0.4629898    0.3064094 -30.61  0.001804258    1.494    0.331
        71 -10.8973    200.5823      6.8194   5.2540700666e+01   3.3344677597e+01     0.415619    0.2837242 -37.58 0.0006346121    1.444    0.307
        72  -9.9905    204.4708      6.5127   5.2067818456e+01   3.2392270291e+01    0.2463982    0.2303347 -47.82 0.0005440817    1.073    0.068
        73  -8.8451    138.2240      8.1027   6.1500315946e+01   4.9590952160e+01    0.2016185    0.1856459  55.18  0.001148323    1.052    0.050
        74 -11.4286    132.2820      4.6897   6.1263622331e+01   5.1443469070e+01    0.6837526    0.3286569  50.50  0.001881706    1.798    0.444
        75 -10.0788    138.8638      1.6232   5.8885029154e+01   4.9983902479e+01    0.4250074    0.2757086 -89.05  0.001380147    1.879    0.468
        76 -10.2550    232.9672     10.9319   5.0692916043e+01   2.5100044407e+01    0.3753656    0.2501687 -70.65 0.0008717175    1.561    0.359
        77 -10.3530     41.8241      3.2937   9.0369803418e+01   7.0909689008e+01    0.4246826    0.3131119   4.99   0.00263603    1.201    0.167
        78  -9.9428     37.7584      1.5380   9.1536956332e+01   7.1732756569e+01    0.3518798    0.1497251  28.23  0.001252643    2.548    0.607
        79  -9.1140    217.8454      5.1421   5.0469248406e+01   2.9219218707e+01    0.2610403    0.1434271  46.28  0.001239278    2.050    0.512
        80 -10.0899    223.0863      1.9900   4.9212470109e+01   2.8245481584e+01    0.3961889    0.2157087  68.47  0.001120604    1.773    0.436
        81  -9.3110    230.5400      2.0983   4.8666790272e+01   2.6484521229e+01    0.2167758    0.1623746  57.82 0.0004435247    1.414    0.293
        82  -8.5344    113.4898      1.5494   6.3800905100e+01   5.6490998139e+01    0.1445405    0.1225566  36.68 0.0001243827    1.033    0.032
        83 -12.6010     38.5594     64.1629   1.1623818612e+02   5.9456686926e+01      1.20007     1.101123  86.63  0.006333348    1.274    0.215
        84  -8.8861    124.9746    249.7799   1.2148552590e+02   1.0518602370e+01    0.1396705    0.1138311   5.20 0.0007204856    1.597    0.374
        85 -11.1942     27.0044     64.4250   1.2101069417e+02   6.0367592226e+01     1.177586    0.3534662 -38.97  0.003859285    4.112    0.757
        86 -11.7195     42.7377     49.5865   1.1030994520e+02   6.2269774831e+01    0.8015086    0.4567197  28.60  0.004132612    1.941    0.485
        87 -11.4919     31.8801     43.1288   1.1320387261e+02   6.4713958696e+01    0.7526273    0.4073897  24.06  0.003889738    2.069    0.517
        88 -12.6455     26.1276     82.5140   1.2487881004e+02   5.6228922496e+01     1.221366     0.926012  70.71  0.007452304    1.508    0.337
        89 -11.6205     17.6911     81.4876   1.2774195052e+02   5.7034824011e+01    0.3003158    0.2330592 -16.21 0.0003334483    1.529    0.346
        90 -10.1996     38.8456    126.8875   1.2727766184e+02   4.4771203954e+01    0.1979238    0.1528509 -48.26   0.00121952    1.388    0.280
        91  -9.4570     51.6388    119.2456   1.2252901284e+02   4.5254379319e+01    0.2909988     0.193202  75.01 0.0008551931    1.744    0.427
        92 -10.7911     42.3288    117.7301   1.2506609013e+02   4.6565082324e+01    0.3889721    0.2015329  57.59  0.001708019    2.311    0.567
        93  -9.4972     39.0235    115.8438   1.2578653105e+02   4.7319865841e+01    0.2366655    0.1933811  47.57  0.000792735    1.294    0.227
        94  -9.6129     98.1981    114.6246   1.0782993839e+02   3.9884763048e+01    0.3383732    0.2544455  30.28  0.001722576    1.388    0.280
        95  -9.8225    104.4651    116.4740   1.0643878516e+02   3.8397940256e+01    0.3562913    0.2192069  39.30  0.001169471    1.616    0.381
        96  -9.3328     82.1240    114.4902   1.1255085083e+02   4.2458255476e+01     0.368689     0.288057  17.39  0.001964746    1.479    0.324
        97  -9.3086     92.1771    113.4328   1.0933349588e+02   4.1145363513e+01    0.4904714    0.2839527 -65.06  0.001350783    2.005    0.501
        98  -8.1650     28.2365    115.3373   1.2892399530e+02   4.8370449747e+01    0.1233365   0.07840873 -51.78 0.0004259752    1.544    0.352
        99  -8.6404     45.8326    113.6587   1.2341638155e+02   4.7171940908e+01    0.1907927    0.1510622 -62.17  0.001149803    1.149    0.129
       100  -9.6703    133.1118    111.8650   9.7438555817e+01   3.3932448881e+01    0.4113708    0.3159913 -49.01  0.001607252    1.374    0.272
       101  -8.6340     59.5116    113.0857   1.1914422068e+02   4.5803743065e+01    0.2015195    0.1218915 -63.07  0.000745823    1.524    0.344
       102 -10.9247     37.4700    109.8488   1.2541056959e+02   4.8867660870e+01    0.3288101    0.2421974  46.25            0    1.452    0.311
       103  -9.0102    104.1833    109.2970   1.0485534004e+02   4.0040742335e+01    0.2607058    0.1916195 -39.01 0.0008274731    1.398    0.284
       104  -9.4649     53.5533    104.7505   1.1951985934e+02   4.8450555034e+01    0.3273082     0.126016 -66.97    0.0012806    2.599    0.615
       105  -9.8211    133.5387    103.3776   9.5121289056e+01   3.5585496782e+01    0.4540008    0.2498999 -35.26  0.001808155    1.947    0.486
       106  -8.4534    128.8699    104.1524   9.6582945468e+01   3.6398380139e+01    0.2053305    0.1743579   3.64  0.001027197    1.286    0.222
       107  -9.1618    105.8715    102.6000   1.0271076660e+02   4.1215925194e+01    0.2313334    0.1967565 -30.09 0.0004297278    1.207    0.171
       108  -8.7484    141.1684    101.7504   9.2681653643e+01   3.4281958364e+01    0.2180059    0.1803513   5.21  0.000621398    1.330    0.248
       109 -10.8833      4.3313     99.6229   1.3441843256e+02   5.3559784718e+01     0.402497    0.2238164 -67.42  0.002377724    1.436    0.304
       110  -8.8518      8.8170     94.0705   1.3242550574e+02   5.4609859144e+01    0.2219215    0.1306047  51.02  0.001017626    1.901    0.474
       111  -9.9460    116.8023     99.7107   9.8770930596e+01   3.9765264164e+01    0.4350081    0.2886541   3.20  0.001728245    2.425    0.588
       112  -9.2591    159.5978     97.3964   8.6932505653e+01   3.0996909228e+01    0.3033457    0.2588682  17.73 0.0009452744    1.184    0.155
       113 -13.0416     16.6940    101.6527   1.3079597483e+02   5.2388253910e+01     2.303525    0.7808477 -48.69  0.009937711    2.900    0.655
       114 -10.0901    114.4189     94.5514   9.8061058720e+01   4.1332095966e+01    0.4190518    0.2791969 -52.22  0.001704453    1.598    0.374
       115  -8.7989    188.3344     94.1174   7.9782233941e+01   2.4904140409e+01    0.2123157     0.187058 -21.18 0.0005568519    1.106    0.096
       116  -8.8564      3.4979    246.4668   1.4207280376e+02   2.4732520206e+01    0.1436031    0.0680396 -70.88   0.00103087    2.397    0.583
       117 -10.2522    142.4258    243.3111   1.1764226861e+02   8.9589023562e+00    0.3251835    0.1578282  27.46  0.001732018    2.109    0.526
       118  -9.1926    188.5032    243.5279   1.0931430285e+02   2.2983748879e+00     0.116641    0.0834533  26.33 -1.604161e-05    1.024    0.024
       119  -8.3988    184.6561    236.3042   1.0904221688e+02   3.7024827679e+00    0.1098141   0.07978296  50.46 0.0007040755    1.686    0.407
       120 -11.4549    101.8468     53.8400   8.8947386744e+01   5.2037675064e+01     1.071276    0.4196224  38.73  0.001678359    2.730    0.634
       121  -8.2735     40.9948    236.7059   1.3551920116e+02   2.2744602987e+01     0.135383   0.08015551  10.45 0.0006987709    3.983    0.749
       122  -8.8847     49.9888    235.7569   1.3389099064e+02   2.1945902260e+01    0.1343871   0.06938984  39.05 0.0006382308    1.572    0.364
       123  -9.8968     13.1130    233.0112   1.4011169186e+02   2.6023559322e+01    0.3322623     0.112138  67.21  0.001871638    2.656    0.624
       124  -8.9439    202.4142    229.2072   1.0483218230e+02   1.9186213405e+00     0.130456    0.1114884 -34.30 0.0003322347    1.645    0.392
       125  -8.3309    136.6728    224.3125   1.1654585281e+02   1.2482348763e+01    0.1192206   0.07939467  57.27 0.0007042178    1.666    0.400
       126  -8.4897    110.3263    224.6749   1.2172336994e+02   1.6234582244e+01    0.1205462   0.07405899  59.07  0.000704931    1.694    0.410
       127  -9.2810     52.4649    224.0120   1.3273397418e+02   2.3619239811e+01    0.1444587   0.09562191 -82.14 0.0005678697    1.578    0.366
       128  -8.7602     40.5970    221.2000   1.3475753570e+02   2.5367268841e+01    0.1332239    0.0875648 -67.48 0.0009491263    1.745    0.427
       129  -8.8516    121.4957     91.5178   9.5166487548e+01   4.0537810847e+01    0.1518333    0.1471352   1.52 9.930422e-05    1.022    0.022
       130  -8.4116    187.2767     89.6813   7.8774913682e+01   2.5880544666e+01    0.1478264    0.1196535 -63.02 0.0003507808    1.573    0.364
       131  -9.5599    153.0431     87.5708   8.5694681140e+01   3.4324627921e+01     0.332964    0.2525153  37.22 0.0008000565    1.299    0.230
       132  -8.1656    167.6964    220.6962   1.1006403456e+02   8.2751695326e+00    0.1203592   0.08169176  13.58 0.0003577584    1.596    0.373
       133  -9.3138    146.1513     86.9484   8.7212257051e+01   3.6035579715e+01    0.2889317    0.2163595  -8.25 0.0006797075    1.575    0.365
       134 -10.6455    118.9246     86.1201   9.4339229520e+01   4.2180676974e+01    0.6687312    0.3341902  43.01  0.002630678    2.002    0.501
       135  -9.3457    123.5731     80.6336   9.1349801262e+01   4.2303184685e+01    0.3868737    0.2525665  21.23  0.001321737    1.955    0.488
       136  -9.3556     74.4908     85.4954   1.0831019014e+02   5.0253565058e+01    0.3044571    0.2625396 -29.48 0.0007880966    1.155    0.134
       137  -8.9923     76.3261     82.9891   1.0701776629e+02   5.0548790469e+01    0.3280793      0.22084 -81.69 0.0007963332    2.313    0.568
       138  -9.3726    140.7505     84.5861   8.7887632791e+01   3.7718432410e+01    0.2925653    0.2589451 -61.55   0.00112098    1.321    0.243
       139  -8.6323    186.5413     84.4988   7.7472846983e+01   2.6898004809e+01    0.1506264    0.1456363 -12.63 6.754269e-05    1.067    0.063
       140 -10.0310    159.7705     81.4827   8.2302550158e+01   3.3831001640e+01    0.3575543    0.3123243  73.31  0.001789332    1.353    0.261
       141  -9.9392    134.8413     80.4096   8.8173514913e+01   3.9855388957e+01    0.5449374    0.2862265 -43.59  0.002143727    1.973    0.493
       142 -10.0892    138.5799     76.8291   8.6075502278e+01   3.9673515929e+01    0.4634474    0.2756183 -29.42  0.001511344    1.783    0.439
       143  -9.9617    217.7015     78.9530   7.0443633995e+01   2.0443085370e+01    0.5886561    0.2876123 -13.53  0.002095794    2.889    0.654
       144  -9.6691    144.6706     76.5447   8.4428481482e+01   3.8303585263e+01    0.3847353    0.2170971 -25.37  0.001502723    2.028    0.507
       145  -9.2354     36.6187     75.8888   1.1972820622e+02   5.6933300704e+01    0.3373616     0.153775 -48.66  0.001225544    1.896    0.473
       146  -9.2095    213.6196     74.8566   6.9997161942e+01   2.1965949453e+01    0.2669264     0.181223 -42.71 0.0005988544    1.510    0.338
       147  -9.2215    215.4772     71.4720   6.8793570102e+01   2.2013623863e+01    0.2857699    0.2172373   9.44 0.0007813738    1.483    0.326
       148  -9.6013    149.8449     72.9726   8.2035694220e+01   3.7707983377e+01    0.5402656    0.2688768 -48.32  0.001888431    2.457    0.593
       149  -9.2207    191.6692     72.8747   7.3189772952e+01   2.7485669376e+01    0.2884335    0.2238232  63.42 0.0007307446    1.409    0.290
       150  -8.2134    244.5032    204.4311   9.3468793873e+01  -1.4984319455e+00    0.1231142   0.08725166  12.09 0.0008059261    1.059    0.055
       151  -8.0061    183.6832     70.7432   7.4061314192e+01   2.9768490835e+01    0.1543296    0.1122295  25.04   0.00022794    1.535    0.349
       152  -9.4227    250.3151     67.3293   6.2968143779e+01   1.4888265054e+01    0.2666271    0.1656224 -24.41  0.001014045    1.464    0.317
       153  -9.6076    250.5908     63.7409   6.2062232541e+01   1.5278700187e+01    0.2838765    0.1183369 -28.41 0.0008832071    2.110    0.526
       154 -10.2855    159.7757     50.7969   7.2594113266e+01   3.8812180769e+01    0.5237912    0.4458415  69.92   0.00212305    1.276    0.216
       155  -9.6108    165.4593     55.7407   7.3038748801e+01   3.6629803657e+01    0.5914243    0.3278193 -27.94  0.002430558    1.840    0.456
       156  -8.7592    162.5569     66.4980   7.7077691533e+01   3.5684299696e+01    0.2871273    0.2594755 -41.61 0.0009486722    1.171    0.146
       157 -10.3965    164.9586     62.5052   7.5303085133e+01   3.5720033607e+01    0.5607388    0.5105034  -6.84  0.002825992    1.093    0.085
       158  -9.9819    151.8780     66.6569   7.9541902691e+01   3.8297229929e+01    0.4527506    0.2613795  41.05  0.001351229    1.745    0.427
       159 -10.9995     67.6431     62.0296   1.0403353338e+02   5.6453742818e+01    0.4024475    0.2782467 -28.51  0.001731107    1.481    0.325
       160  -8.7985    207.0368     62.0833   6.7525948306e+01   2.5319853067e+01    0.2295679    0.1637767 -54.21 0.0009908658    1.604    0.376
       161  -8.9621    185.4639     60.5698   7.0703592989e+01   3.0852137675e+01    0.2821035    0.2002717 -76.69 0.0008395938    2.010    0.503
       162  -9.5669    200.7699     59.0060   6.7643886280e+01   2.7270351301e+01    0.3437559    0.2539474  43.97  0.001705973    1.373    0.272
       163  -9.0337    202.5263     55.5104   6.6366150727e+01   2.7315961555e+01    0.2570451    0.2124239 -13.52 0.0006974182    1.230    0.187
       164 -10.3490    180.6391     57.7936   7.0741006435e+01   3.2470860823e+01     1.186698    0.6069661  25.23   0.00370616    3.369    0.703
       165  -8.9843    188.9372     49.1480   6.6664027820e+01   3.1571615626e+01    0.3120231    0.2714188 -41.93 0.0008574104    1.174    0.148
       166 -10.1305    174.5279     56.1722   7.1385009795e+01   3.4257554221e+01    0.7144949    0.3758015 -10.93  0.002086516    2.760    0.638
       167 -10.4307    180.4046     50.3697   6.8494216154e+01   3.3581611555e+01    0.6483622    0.2948716  60.77  0.001631464    2.223    0.550
       168 -10.0172    137.1988     59.6374   8.0808149001e+01   4.3050457291e+01    0.2708933      0.23497  21.78 0.0003088245    1.138    0.122
       169  -8.7936    239.2728     58.9880   6.2240392208e+01   1.8287229700e+01    0.1879715     0.161265 -24.39 0.0002110399    1.071    0.067
       170 -10.1399    222.1926     57.0114   6.3929573057e+01   2.2401404895e+01    0.3993078    0.3137038  76.44  0.001397349    1.450    0.311
       171  -8.6393    158.5887     58.3725   7.5339211588e+01   3.7968416901e+01    0.3341008    0.1563685  37.30  0.001158771    2.544    0.607
       172 -10.4701    120.1690     58.2254   8.4932670847e+01   4.7278328751e+01    0.4857401    0.2568845  43.95   0.00197049    1.856    0.461
       173 -10.8077    122.3327     53.9749   8.2802831747e+01   4.7521842066e+01    0.5312175    0.4223443  40.13  0.001178411    1.221    0.181
       174 -10.8120    150.0707     51.8423   7.5049743430e+01   4.1122654476e+01     0.619642    0.4985787   2.70  0.002061442    1.347    0.258
       175 -11.0348    141.8922     51.0399   7.6675203300e+01   4.3294741366e+01    0.8340653     0.382477  38.25  0.002623506    2.476    0.596
       176 -10.2464    134.9619     52.2799   7.8821940546e+01   4.4803494708e+01    0.4294352    0.2850472  12.45  0.001416252    1.981    0.495
       177  -8.3921     54.7359     49.7823   1.0517593925e+02   6.0816862973e+01    0.2632977    0.1692009  42.77  0.001051892    1.882    0.469
       178 -10.8289     60.7448     52.1290   1.0347926756e+02   5.9524026461e+01     0.645405    0.3218068 -55.80  0.002693121    2.212    0.548
       179 -10.1394     57.6452     45.7836   1.0251612446e+02   6.1252103335e+01    0.4870265    0.3490931  13.49  0.002383448    1.518    0.341
       180  -9.2756    235.5217     55.0186   6.1689378363e+01   1.9612778107e+01    0.2101939    0.1260789 -26.03 0.0005646291    1.556    0.357
       181  -8.8401    243.4803     54.5036   6.0613914017e+01   1.7925906564e+01    0.1332917    0.1212856 -26.42 0.0008103101    1.015    0.014
       182  -8.8284    193.1003     53.8224   6.7377207171e+01   2.9887708698e+01    0.2259816    0.1952333 -61.99 0.0006200797    1.281    0.219
       183  -9.3828     61.5570     40.5185   9.8844416340e+01   6.1734844581e+01    0.3720196    0.1781675  23.67  0.001524122    2.658    0.624
       184  -8.9206    211.6179     51.2845   6.3829403585e+01   2.5654290106e+01    0.2607796    0.1822319 -15.79  0.001242376    1.502    0.334
       185  -8.1659    126.6299     50.7896   8.0468814245e+01   4.7046929912e+01    0.1568657    0.1068364  29.40 0.0004576573    1.574    0.365
       186  -8.1348     16.5092     50.4344   1.2231634525e+02   6.4238712977e+01    0.1295198   0.09345691 -44.83 0.0005989478    1.161    0.138
       187  -9.2392    171.1795     47.9770   6.9418212524e+01   3.6283313762e+01    0.4156228    0.2346562 -43.73  0.001720471    1.916    0.478
       188 -10.3213    136.6691     32.5213   7.1179718322e+01   4.7268687110e+01    0.7646369    0.3541778  30.91     0.002562    3.070    0.674
       189 -10.1492    127.9850     46.1232   7.8399825273e+01   4.7467930256e+01    0.6190747    0.3412092  49.91  0.002125093    1.745    0.427
       190  -9.6151    130.8896     39.9704   7.5363788338e+01   4.7686357939e+01     0.647857     0.246508  45.26  0.001558064    2.527    0.604
       191  -8.8473     10.6578    191.6780   1.3891787255e+02   3.3508396034e+01   0.09426396   0.07512295 -50.97 0.0007050419    1.726    0.421
       192 -10.1027      6.8636    185.5752   1.3939122495e+02   3.4975885782e+01    0.3234528   0.04857313  47.06 0.0008830111    3.745    0.733
       193 -10.7165     19.2017    184.0547   1.3682723148e+02   3.4258873838e+01     0.337514    0.1656952  29.72  0.002019238    2.123    0.529
       194  -8.7737     37.2255    179.4099   1.3271853804e+02   3.3515812571e+01    0.1986209    0.1061215  28.34  0.001131113    2.030    0.507
       195  -9.9770      1.7869    177.8929   1.4007511962e+02   3.6849628597e+01    0.2632992    0.1249971 -89.56  0.001477257    1.784    0.440
       196 -10.7756    148.4288     35.2188   6.9597581351e+01   4.3899490620e+01     1.096489    0.4552374  58.62  0.004019593    2.296    0.564
       197  -8.8804     80.3828    176.7605   1.2276267913e+02   2.9037936183e+01    0.1687462    0.1101856 -54.84 0.0004944291    1.690    0.408
       198  -9.6071      9.1332    167.1569   1.3802598060e+02   3.8452439713e+01    0.2425534    0.2047685  64.06  0.001232261    1.143    0.125
       199 -10.4273    142.5986     42.8775   7.3621231363e+01   4.4339460548e+01    0.9659497    0.3926027  58.15  0.003403064    2.488    0.598
       200  -9.4901      9.9783    157.9877   1.3732330823e+02   4.0285097573e+01    0.2429368    0.1060591 -57.09  0.001267081    2.452    0.592
       201 -11.1163     14.9073    164.9519   1.3663637887e+02   3.8460162099e+01    0.4733361    0.2303613  29.38  0.002772402    2.159    0.537
       202 -10.4735      8.6034    162.6044   1.3789403549e+02   3.9426145398e+01    0.3069455    0.1909555  34.78  0.001415259    1.658    0.397
       203  -9.1907    222.4571     45.8562   6.0903346703e+01   2.3745153671e+01     0.299155    0.1630841  43.81  0.001330493    2.038    0.509
       204  -9.1082    152.8523     44.8573   7.2045518820e+01   4.1443509140e+01    0.3289167    0.2512679 -29.69   0.00129246    1.332    0.249
       205  -9.5767    156.8522     43.9524   7.0897982276e+01   4.0542185843e+01    0.2823344    0.1908375  34.94 0.0004797482    1.549    0.354
       206  -9.3406    142.6969     38.8757   7.2157989685e+01   4.4879188896e+01    0.2517446    0.2074494 -12.41 0.0005629894    1.249    0.200
       207  -9.5461     66.9820     43.8623   9.7890908510e+01   6.0266153785e+01    0.3803608    0.2410582 -31.20  0.001632288    1.505    0.336
       208 -10.3318    232.1752     43.6490   5.9155302102e+01   2.1753713022e+01     0.437024    0.2398031  43.78  0.000677157    2.074    0.518
       209  -9.1314    234.9617     38.8414   5.7605394374e+01   2.1681138274e+01    0.2412433    0.2297472  22.86  0.001516535    1.135    0.119
       210 -10.2094      2.4748    161.3123   1.3917156392e+02   4.0128072605e+01    0.3173407    0.1799479 -78.42  0.002069164    1.510    0.338
       211 -10.1214    214.1678     42.1923   6.0959612875e+01   2.6174870172e+01     0.522143    0.2902654  -1.34  0.001880924    2.688    0.628
       212  -8.9328    206.7326     45.6213   6.2923604405e+01   2.7569346188e+01      0.46958    0.3019382  -9.71  0.002154591    1.810    0.448
       213  -8.6857     54.4459    162.4464   1.2726667943e+02   3.5223497258e+01    0.1206113    0.1056291  74.66  0.000117628    1.013    0.013
       214 -10.1496     16.0212    159.4740   1.3604288275e+02   3.9514154265e+01    0.2728221    0.1824989  28.48  0.001816656    1.684    0.406
       215 -11.0322    211.0477     32.9581   5.8781765142e+01   2.8028001965e+01     0.604394    0.3867983 -88.46 0.0005701031    1.914    0.478
       216  -8.5922    203.8120     41.8746   6.2261064762e+01   2.8760157906e+01    0.3547145    0.2175091  79.03 0.0009471705    1.951    0.488
       217 -10.0579    202.8938     37.8862   6.1237630449e+01   2.9475243431e+01    0.4153267    0.3010433  67.31  0.001331235    1.405    0.288
       218  -9.4618    205.9859     35.0199   6.0003155112e+01   2.9042874685e+01    0.2025917    0.1925634 -65.59 0.0004539817    1.055    0.052
       219  -9.7333    106.1405     44.2680   8.3950401365e+01   5.2799764487e+01    0.4143038     0.334343  70.07  0.002064391    1.634    0.388
       220  99.0000     17.0724     44.5138   1.2059810976e+02   6.5519011328e+01     1.025324    0.2449892  32.64  0.003861863    4.658    0.785
       221  -9.0623     12.9214     34.0000   1.1976127134e+02   6.8043082023e+01    0.2292566    0.1500599  24.30 0.0009975615    1.825    0.452
       222 -10.8712     16.2917     31.3135   1.1719258126e+02   6.8409527769e+01    0.5794548    0.2196919 -53.07 0.0005390638    1.951    0.487
       223 -10.3976     21.1705     40.1670   1.1743197874e+02   6.6198895846e+01    0.4440936    0.2918768  85.80  0.001844846    2.466    0.595
       224 -10.6934     17.5387     39.6014   1.1904506120e+02   6.6562435508e+01    0.5542017    0.3394698 -19.33  0.003186051    1.753    0.430
       225  -8.8814    249.1379     43.7173   5.7335642997e+01   1.7988257202e+01    0.2621616    0.1533991 -14.46  0.001278149    1.881    0.468
       226  -8.3421    219.5264     42.9102   6.0474913732e+01   2.4798659822e+01     0.207031    0.1331194 -24.08 0.0006693121    1.525    0.344
       227  -9.2005    196.8326     41.3120   6.3094989930e+01   3.0581774327e+01     0.240936    0.1878183 -39.54  0.000940703    1.279    0.218
       228  -8.9375    165.3394     42.6922   6.8795945020e+01   3.8517684760e+01    0.2840405    0.1547915  66.09   0.00113418    1.988    0.497
       229  -9.7377    161.7124     40.9706   6.8917548483e+01   3.9691051963e+01    0.2793566    0.2482066  65.41 0.0003646518    1.153    0.133
       230  -9.2465    162.0123     37.5056   6.7690525644e+01   4.0069107297e+01    0.2779156    0.2188506 -56.84  0.001236896    1.465    0.317
       231  -9.9835    194.3338     31.3048   6.0475356506e+01   3.2418431396e+01    0.4353783    0.3238244   0.31   0.00162401    1.555    0.357
       232  -9.3324    191.2814     39.9771   6.3523634878e+01   3.2159456523e+01     0.266513    0.2172451  -5.47 0.0003653462    1.320    0.242
       233  -9.3078    192.0649     36.4893   6.2354783091e+01   3.2386950507e+01    0.2654267    0.2405644  15.45 0.0008902733    1.156    0.135
       234  -9.7734    180.5578     38.4149   6.4728360946e+01   3.5117730628e+01    0.4788082    0.2946178 -62.96   0.00184587    2.199    0.545
       235  -9.0786    173.4957     38.5434   6.5956288359e+01   3.6938384519e+01    0.2553125    0.2226281 -82.57 0.0005906459    1.281    0.219
       236  -9.2673    170.0067     36.7522   6.5981237129e+01   3.8076243916e+01     0.293358    0.1979666  78.71 0.0003860226    1.737    0.424
       237  -9.9806    124.4068     36.7104   7.5776830824e+01   4.9743809939e+01    0.3663269    0.3400417 -50.45  0.001532228    1.241    0.194
       238  -9.0415    125.2975     32.3423   7.3845629569e+01   5.0136406295e+01     0.258644     0.195354  -1.82 0.0006758361    1.421    0.296
       239  -9.4749     76.5487    155.5117   1.2098434476e+02   3.4001625556e+01     0.310337    0.1691374  66.63  0.001382273    2.447    0.591
       240  -8.8919    222.4036     35.2628   5.8066269453e+01   2.5014382118e+01    0.1928835    0.1165813 -37.30 0.0005785837    1.543    0.352
       241 -10.6631     50.8619     25.0520   9.7079773616e+01   6.6131072919e+01    0.4796569    0.2219259  28.37  0.001236171    2.372    0.578
       242  -9.7435     33.6538    155.8743   1.3163727879e+02   3.8772032544e+01      0.21554    0.1677659   0.40 0.0006119074    1.825    0.452
       243  -9.2686      8.1939    151.0791   1.3731917269e+02   4.1870950714e+01    0.1681933    0.1342635  88.15 0.0004482798    1.054    0.051
       244 -10.3101     38.1767     26.8596   1.0412215147e+02   6.7392251464e+01    0.5403166    0.2491308  25.81  0.001236147    2.375    0.579
       245 -10.5054     40.7942     21.4428   1.0039006063e+02   6.8091509721e+01    0.3087799    0.2018079 -42.27 0.0003663227    1.409    0.290
       246 -12.3651     11.6761    130.7736   1.3505204940e+02   4.6059661130e+01    0.8231204    0.6464375 -45.56  0.001726093    1.491    0.329
       247 -12.0846     19.5708    148.2190   1.3441652170e+02   4.1639924159e+01    0.6777867    0.4847377 -50.52  0.004462368    1.619    0.382
       248  -9.6925     14.7133    144.3539   1.3531329771e+02   4.2850827065e+01    0.3062462    0.1947385 -63.54  0.001445111    1.507    0.336
       249  -9.8043      4.9756    147.3048   1.3784644967e+02   4.2894495676e+01    0.2616537     0.181328  38.99  0.001523471    1.505    0.336
       250 -11.1222      6.1317    142.4780   1.3727511714e+02   4.3855378503e+01    0.5006748    0.3421752  37.31  0.002190359    1.550    0.355
       251 -10.0801     35.0567    150.4984   1.3081004831e+02   3.9810079132e+01    0.2773046    0.2105088  47.12  0.001827395    1.287    0.223
       252 -10.6749     39.2960    147.1281   1.2941991913e+02   4.0148941592e+01    0.3264245    0.2967834  75.55  0.001407042    1.086    0.079
       253 -10.4326     38.4729    143.1318   1.2921896161e+02   4.1117028381e+01     0.259789    0.2141571  24.55 0.0001227947    1.422    0.297
       254  -9.6544     66.6494    148.5063   1.2256231894e+02   3.6815371991e+01    0.2659556      0.17638  41.21  0.001478031    1.457    0.314
       255  -9.3186     61.3262    147.0781   1.2375423414e+02   3.7781324150e+01    0.2101942    0.1794461  -0.60 0.0006519782    1.512    0.339
       256 -10.4271     29.4192    143.4558   1.3156958430e+02   4.1870558285e+01    0.5023742    0.1450752 -68.55  0.002133306    2.847    0.649
       257  -9.7560    228.2976     31.0633   5.6303934605e+01   2.4098503337e+01    0.3256983    0.2612782 -62.09  0.001206514    1.270    0.212
       258  -9.4277    225.8596     27.0759   5.5512348691e+01   2.5108764331e+01        0.314     0.265063 -63.80  0.001853395    1.181    0.153
       259  -8.3441     80.3481    140.3273   1.1774664695e+02   3.6827389164e+01    0.1358484    0.1032156 -23.60 0.0007049458    1.755    0.430
       260  -9.1673     58.8565    139.3642   1.2338791201e+02   3.9804745116e+01    0.2102325    0.1621469 -88.06 0.0004867603    1.262    0.207
       261 -10.1926     54.6003    137.2298   1.2425100244e+02   4.0776208138e+01    0.2789395    0.2152445 -76.06  0.001017526    1.205    0.170
       262  -9.5481     48.8110    138.3268   1.2595140395e+02   4.1158053377e+01    0.4568286    0.1815626  49.13  0.001975278    2.662    0.624
       263 -10.8911     46.0843    131.9609   1.2589592395e+02   4.2893709904e+01    0.4865041    0.2662596 -62.03  0.002551954    1.658    0.397
       264 -10.1235    177.4883     30.9459   6.2849311453e+01   3.6825798867e+01    0.3574339    0.2959813  34.22  0.001025785    1.238    0.192
       265 -10.3573    178.7685     26.9575   6.1376592497e+01   3.6950071616e+01    0.5147882    0.2281592  52.23  0.002015593    2.100    0.524
       266  -8.6003    198.8424     31.1985   5.9834079948e+01   3.1281864029e+01     0.202141    0.1583821  37.28 0.0006788679    1.359    0.264
       267  -8.8572    202.8492     29.7123   5.8881034798e+01   3.0438340552e+01    0.2653629    0.1803936  11.99  0.001108199    1.879    0.468
       268 -10.5072     22.7385    137.3711   1.3273016081e+02   4.3779019599e+01    0.2193111    0.2069919 -21.71  0.001296592    1.353    0.261
       269  -8.5831    201.4323     25.4679   5.7829236439e+01   3.1266127506e+01    0.1385037    0.1322582 -64.06 0.0001053738    1.034    0.033
       270  -8.6864     83.3362    135.2970   1.1610251277e+02   3.7531870430e+01    0.1345274    0.1056787 -20.24 0.0002988472    1.652    0.395
       271 -10.5665     72.3440    129.3662   1.1815829200e+02   4.0404840345e+01    0.3644262    0.2792965 -48.26  0.001213053    1.347    0.258
       272  -8.2980     95.3030    131.3269   1.1209560104e+02   3.6610170612e+01    0.1402145    0.1088224 -20.18 0.0007032778    1.644    0.392
       273 -10.0321     28.1003    120.6221   1.2958344354e+02   4.7156986820e+01    0.6129374    0.3130965  83.88  0.002435236    2.223    0.550
       274 -11.2929     24.8296    128.3397   1.3132247879e+02   4.5649403288e+01    0.7594427    0.4338132  -4.31  0.003821415    2.936    0.659
       275  -9.6357     29.5294    127.5382   1.2994940720e+02   4.5449374503e+01    0.2390858    0.2055686 -69.96 0.0006906858    1.120    0.107
       276  -8.6270     97.2110     22.2114   7.7502878865e+01   5.8082467723e+01     0.175862    0.1691602 -58.86  0.001019311    1.312    0.238
       277 -11.0845     67.2568    123.1285   1.1856716717e+02   4.2505998562e+01    0.7393036    0.3167591 -42.91  0.002884878    2.915    0.657
       278  -9.3803     68.6767    115.8351   1.1685516330e+02   4.4018782692e+01     0.259272    0.1573787  59.11   0.00108693    2.029    0.507
       279  -8.9802     64.3380    113.8098   1.1779904505e+02   4.5045864792e+01    0.2293386    0.1760793  45.44  0.000890181    1.360    0.265
       280 -11.4304     57.0829    125.9770   1.2196663452e+02   4.3079051700e+01    0.4338183    0.3899101   7.14  0.002740572    1.321    0.243
       281  -9.7023     74.9635    124.4439   1.1656167348e+02   4.1183027592e+01    0.2705824     0.201799  61.76 0.0006726626    1.463    0.316
       282  -9.1559    209.5586     18.4826   5.4902963953e+01   2.9965665914e+01    0.2267604    0.1552322 -59.91  0.000564464    1.544    0.352
       283  -9.8998     13.4665    117.2040   1.3339678390e+02   4.9006653180e+01    0.3177145     0.209964  13.90  0.001965121    1.922    0.480
       284  -9.5493     18.2487    123.9709   1.3269961209e+02   4.7138632186e+01    0.2836038    0.1836851  89.80  0.001039707    1.372    0.271
       285  -9.9447     19.7153    119.4604   1.3184704971e+02   4.8064228336e+01    0.4125235    0.2186755 -62.98  0.001795952    1.622    0.383
       286  -8.3125    192.4579     12.4526   5.5069000358e+01   3.4895328276e+01    0.1376134    0.1301592  61.08 0.0001456299    1.051    0.049
       287  -9.7930     40.9435    122.4812   1.2611887387e+02   4.5591721856e+01    0.1726403    0.1219682  33.14 0.0004141442    1.531    0.347
       288  -9.5481     92.5145    120.1219   1.1065746627e+02   3.9573913687e+01    0.3494306    0.2149228 -34.20  0.001374567    2.019    0.505
       289 -11.1453     70.4441    106.6698   1.1453068178e+02   4.5923808499e+01     1.135025    0.8408895  67.07  0.005947853    1.618    0.382
       290 -11.0772     48.5440    100.3016   1.2033369737e+02   5.0041661544e+01     1.170507    0.7677628 -28.86  0.006050353    1.893    0.472
       291  99.0000      7.2047     49.4913   1.2628802613e+02   6.4927780565e+01     0.684179    0.3920714 -43.49  0.003440593    1.485    0.326
       292 -11.8512     84.5419     97.2652   1.0794638399e+02   4.6044905904e+01     1.780336     1.155074 -21.00  0.007808336    2.186    0.542
       293 -10.7621     55.7107     61.4589   1.0854110510e+02   5.8190954891e+01    0.6705809     0.606786  20.52  0.003800422    1.210    0.173
       294 -11.7966     38.3635     87.9318   1.2150226908e+02   5.3955217182e+01     1.942489    0.6419823 -48.07  0.007676224    2.776    0.640
       295 -12.0816     55.1103     86.1114   1.1521731754e+02   5.2655320166e+01     1.384439    0.7944324 -29.59  0.006281862    2.238    0.553
       296  -9.0724    235.5051    249.4968   1.0209126636e+02  -4.7839973414e+00    0.1108288   0.07517246  19.19 0.0002184084    1.017    0.017
       297 -11.5890     14.0067     88.8435   1.3007282035e+02   5.5537260370e+01    0.7671509    0.4570594   7.56  0.001357787    2.157    0.536
       298 -12.3733      5.6502     80.0512   1.3182052340e+02   5.8011065982e+01     1.150709    0.3250107 -65.46  0.005061419    2.444    0.591
       299 -11.2185     68.0381     75.5496   1.0791766010e+02   5.3427219828e+01    0.6222299    0.3974932 -52.74  0.002215622    1.457    0.314
       300 -13.0071     17.5888     58.9112   1.2372466162e+02   6.2260553169e+01     1.160778    0.6669934  -5.32  0.002632993    2.193    0.544
       301 -11.7361     25.5591     52.9390   1.1889319127e+02   6.3077480392e+01    0.5004915    0.2495334 -31.59  0.002096538    2.166    0.538
       302  -9.5394    107.8302    248.2336   1.2443079002e+02   1.3032752437e+01    0.1909815    0.0878868  60.16 0.0009637116    2.890    0.654
       303 -10.7295     53.6100     30.0410   9.8018800297e+01   6.4848544368e+01     0.794223    0.2700157  32.36  0.001224712    3.236    0.691
       304 -12.0035     56.9502     69.8695   1.1048151406e+02   5.6166544769e+01       1.0255    0.4936726  23.35  0.002782144    2.490    0.598
