#   1 NUMBER                 Running object number                                     
#   2 MAG_AUTO               Kron-like elliptical aperture magnitude                    [mag]
#   3 X_IMAGE                Object position along x                                    [pixel]
#   4 Y_IMAGE                Object position along y                                    [pixel]
#   5 X_WORLD                Barycenter position along world x axis                     [deg]
#   6 Y_WORLD                Barycenter position along world y axis                     [deg]
#   7 A_WORLD                Profile RMS along major axis (world units)                 [deg]
#   8 B_WORLD                Profile RMS along minor axis (world units)                 [deg]
#   9 THETA_WORLD            Position angle (CCW/world-x)                               [deg]
#  10 FWHM_WORLD             FWHM assuming a gaussian core                              [deg]
#  11 ELONGATION             A_IMAGE/B_IMAGE                                           
#  12 ELLIPTICITY            1 - B_IMAGE/A_IMAGE                                       
         1 -12.8658    195.9336     31.5806   6.6065443162e+01   3.2600815644e+01      0.97269    0.8072546  38.21  0.005741692    1.507    0.336
         2 -13.6145    210.1893     14.4587   6.0400835032e+01   3.1277802611e+01     1.251897    0.9103356  42.32  0.007314111    1.827    0.453
         3 -11.3891      2.0966     13.3808   1.1438375811e+02   7.0631897537e+01    0.5904242   0.09729047 -46.54  0.002296861    4.857    0.794
         4 -11.6211      2.5046      4.4999   1.1051884011e+02   7.1806224581e+01    0.5007921    0.3007876  -8.97  0.003659443    1.366    0.268
         5 -15.1181      6.7925    150.6682   1.4178917107e+02   4.2770999665e+01     5.460004     1.363785 -74.79   0.01986608    3.627    0.724
         6 -11.1330    139.0510    249.8435   1.2527426893e+02   2.8657355557e+00    0.3506198    0.1596195  42.80  0.001654789    1.833    0.454
         7 -12.4281    128.3980    244.9598   1.2673657294e+02   5.5321749200e+00    0.4868592    0.4131341  31.99   0.00306753    1.278    0.218
         8 -11.4020     81.8387    248.4550   1.3614132779e+02   1.2303310565e+01    0.3034614    0.1960909  57.56   0.00182326    1.271    0.213
         9 -11.5449     64.5903    248.1171   1.3929176972e+02   1.4853537871e+01    0.4035489    0.2384325  74.42  0.001001092    1.589    0.370
        10 -10.9758     41.2111    206.4286   1.3992592901e+02   2.6618612432e+01    0.2657585    0.2034712  88.10 0.0002238499    1.058    0.055
        11 -14.5765      9.0276    243.6920   1.4856114630e+02   2.2503531999e+01     3.042432     1.389181  45.47   0.01882502    1.936    0.484
        12 -13.8284      8.4055    205.5937   1.4624425178e+02   3.0338392858e+01     1.696759     0.842047 -85.65  0.006836731    1.644    0.392
        13 -14.8400     45.6918    203.5015   1.3872049719e+02   2.6722135944e+01     8.442021     1.785093  50.96   0.02598269    5.351    0.813
        14  -9.8705    194.2129    197.0189   1.0525029403e+02   2.6187842592e+00    0.3861504    0.1794449 -62.24 0.0009583529    7.141    0.860
        15 -11.1586     61.3828    195.0819   1.3444115262e+02   2.6595022205e+01    0.3303217    0.2463142 -46.75 0.0007509628    1.679    0.404
        16  -8.4666    113.3654    193.3160   1.2243662275e+02   1.8789599114e+01    0.1418501    0.1166683  -9.66 0.0007039452    1.771    0.435
        17  -9.1151     75.9820    191.0058   1.3065490815e+02   2.5458524869e+01    0.2437072      0.14624  71.34   0.00113719    1.903    0.475
        18 -11.4644     67.7210    187.3974   1.3204688502e+02   2.7501237898e+01    0.3262824    0.2957196  -4.09  0.000888857    1.560    0.359
        19 -10.5402     77.3699    175.3769   1.2806593151e+02   2.8947373482e+01    0.2484354    0.2244759 -68.84 0.0003690635    1.134    0.118
        20 -12.8644     64.2039    173.0467   1.3088296381e+02   3.1396555485e+01    0.5260816     0.278349 -45.80   0.00165196    2.269    0.559
        21 -11.4857     85.0020    166.5400   1.2477083672e+02   2.9901384218e+01    0.6175698    0.5535765  73.87  0.003544365    1.077    0.071
        22 -12.4479     34.5663    228.0868   1.4309865169e+02   2.2773158503e+01    0.3364907    0.2748169 -74.35 0.0007938978    1.364    0.267
        23  -9.6988     97.8572    150.6543   1.1855983033e+02   3.1632453580e+01    0.2926876    0.2453252 -56.81 0.0008708718    1.146    0.127
        24  -8.4977    134.4327    148.5330   1.0873237703e+02   2.5183303828e+01    0.1561122    0.1483288 -86.09 0.0001042956    1.038    0.036
        25 -12.0532     67.4576    143.8897   1.2534913913e+02   3.8014347826e+01    0.7181579    0.4759988  65.28  0.003149468    1.822    0.451
        26 -11.7105     57.4112    132.2380   1.2596924259e+02   4.2150661291e+01    0.8378106    0.3660346 -76.42  0.002733255    3.960    0.747
        27  -8.4769    192.4087    144.4268   9.4469046510e+01   1.3555053477e+01    0.1505859    0.1458111 -47.48 0.0001256945    1.008    0.008
        28  -9.4681    109.6400    136.3558   1.1240930751e+02   3.2948507430e+01    0.3362359    0.2315798 -14.99  0.001359103    2.378    0.580
        29 -10.1894     96.7013    133.3953   1.1525524059e+02   3.5991997357e+01    0.2687194    0.2334759 -31.41  0.000884751    1.258    0.205
        30 -13.8088     41.1330    219.7864   1.4117278161e+02   2.3724170375e+01    0.8916878    0.7002846  69.96  0.002834141    1.092    0.084
        31 -10.4372     50.0320    129.9052   1.2761132440e+02   4.3597312178e+01    0.2384686    0.1921949  49.31 0.0006298942    1.391    0.281
        32 -11.7760     86.3266    149.8201   1.2142562775e+02   3.3754058622e+01    0.2997015    0.2529353 -45.78  0.000589691    1.237    0.191
        33  -9.0091    106.7630    123.2451   1.1014214411e+02   3.6570635927e+01    0.1918839    0.1721774  -9.84 0.0002664596    1.267    0.211
        34 -10.0653    167.9581    113.0346   9.2135106019e+01   2.5669087848e+01    0.3383357    0.2773511 -80.21 0.0006676622    1.406    0.289
        35 -12.2325     51.7689    236.6862   1.4064327470e+02   1.8855382456e+01    0.5063262    0.2846957  72.61   0.00165991    1.649    0.393
        36 -10.6393    140.7523    231.0851   1.2231719041e+02   5.9900789221e+00     0.241025    0.1967144 -28.61  0.001379618    1.577    0.366
        37 -10.9706     53.9454    229.4444   1.3959174180e+02   2.0053262270e+01    0.3372458    0.1956045  76.39  0.001784477    1.642    0.391
        38 -11.1046    241.8882    249.3359   1.0551603730e+02  -1.3555229452e+01    0.7348184    0.1758673  31.52  0.002316617    5.518    0.819
        39 -12.1083     23.8028    224.6970   1.4480090915e+02   2.4713166638e+01    0.3908458    0.2132806  78.36  0.002304118    1.591    0.371
        40 -12.3719     97.8167    245.3945   1.3278246235e+02   1.0443809851e+01    0.5118762    0.2406857  39.41  0.002483219    1.986    0.496
