#   1 NUMBER                 Running object number                                     
#   2 MAG_AUTO               Kron-like elliptical aperture magnitude                    [mag]
#   3 X_IMAGE                Object position along x                                    [pixel]
#   4 Y_IMAGE                Object position along y                                    [pixel]
#   5 X_WORLD                Barycenter position along world x axis                     [deg]
#   6 Y_WORLD                Barycenter position along world y axis                     [deg]
#   7 A_WORLD                Profile RMS along major axis (world units)                 [deg]
#   8 B_WORLD                Profile RMS along minor axis (world units)                 [deg]
#   9 THETA_WORLD            Position angle (CCW/world-x)                               [deg]
#  10 FWHM_WORLD             FWHM assuming a gaussian core                              [deg]
#  11 ELONGATION             A_IMAGE/B_IMAGE                                           
#  12 ELLIPTICITY            1 - B_IMAGE/A_IMAGE                                       
         1 -11.9969     93.0009     24.4751   6.4707442872e+01   5.8208466121e+01    0.6047305    0.4584296  55.10 0.0006641806    1.415    0.293
         2 -11.2703     42.9412     19.5634   8.1247517933e+01   6.7466223068e+01    0.9506825    0.4302503  17.45  0.003925053    3.433    0.709
         3  -9.9536     15.1429     14.1363   9.2597986603e+01   7.1318541579e+01    0.1767519    0.1555192 -28.70 0.0003794674    1.343    0.256
         4 -11.8640     10.8956      2.4213   8.9352230777e+01   7.3474351606e+01    0.5222623     0.207589  21.88  0.002205266    2.643    0.622
         5 -10.3235     17.3339      6.2580   8.7645437253e+01   7.2330710683e+01    0.3412462    0.1925368 -26.58  0.002134987    1.457    0.314
         6 -11.8468     23.3642      8.0138   8.5263981667e+01   7.1470923149e+01     0.429092    0.3088536 -44.89  0.001475897    1.739    0.425
         7 -10.4930     26.7089     14.0899   8.6490667310e+01   7.0221769227e+01    0.2101098    0.1705547 -25.45  0.001084444    1.213    0.175
         8 -11.9586     20.6049     18.0714   9.1453225765e+01   7.0201470725e+01    0.4200589    0.3900298 -27.18  0.001549196    1.424    0.298
         9 -11.5818     35.6447     14.9856   8.2496179904e+01   6.9065436081e+01    0.3662044    0.2018857  12.67  0.000359704    2.063    0.515
        10 -11.8694     31.1431     12.9828   8.3728600393e+01   6.9892895553e+01    0.3650604    0.1990612 -25.20 0.0003290193    1.647    0.393
        11 -11.9000     31.6541      2.0649   7.7877517238e+01   7.1304239379e+01    0.2586766    0.1752008  12.50 0.0008363368    1.296    0.229
        12 -12.1643     25.7814      3.0173   8.1397715025e+01   7.1891976186e+01    0.2807631    0.2022005  30.70 0.0004876473    1.587    0.370
        13 -11.8162     40.9806     11.1051   7.8087745728e+01   6.8917947647e+01    0.6007674    0.4671537  23.46  0.001770719    1.286    0.222
        14 -11.2555     61.5188     24.9199   7.5813345279e+01   6.3964922310e+01    0.5439653    0.2266715 -31.52  0.002428182    2.339    0.573
        15 -12.2927    128.8831     22.4868   5.4777899326e+01   5.0328234803e+01    0.5212885    0.2926635 -19.73  0.001183415    2.024    0.506
        16 -10.4927      6.6115      8.4289   9.4774646173e+01   7.2899567988e+01    0.2047479    0.1585283 -43.69 0.0009341152    1.412    0.292
        17 -10.9176      9.8868     15.8003   9.6185143449e+01   7.1458801259e+01    0.2846569    0.1561209 -25.47 0.0009910763    1.575    0.365
        18 -11.9195      4.3569     18.2004   1.0018233525e+02   7.1418691750e+01    0.3645895    0.2927149 -30.11  0.002224966    1.122    0.109
        19 -10.6597      5.4457     13.5529   9.7696772535e+01   7.2143906786e+01    0.2075756    0.1561011 -30.31 0.0005076146    1.063    0.059
        20 -11.8153    170.6306     18.7194   4.6180455220e+01   4.0289548326e+01    0.3510402    0.2924337 -80.12            0    1.195    0.163
        21 -10.7761    165.1843     17.5086   4.6611758312e+01   4.1804330241e+01    0.3180344    0.2343724 -52.82 0.0006258176    1.439    0.305
        22 -10.8213     81.8397      6.8889   6.0470746847e+01   6.2454285247e+01     0.397741    0.2257137 -22.13  0.001953833    1.808    0.447
        23 -12.0583     74.5392      5.5510   6.2153118596e+01   6.4018096127e+01    0.7712705    0.3419173 -11.32  0.003027252    2.883    0.653
        24 -11.9990     75.9786     15.7790   6.6389895353e+01   6.2634319703e+01    0.7308374      0.30531  38.20  0.003221971    2.298    0.565
        25 -10.8804     76.5369     10.9608   6.4010901886e+01   6.3073727065e+01    0.3631554    0.2235201  37.90  0.002000005    1.448    0.309
        26 -10.8316     61.9289     16.0120   7.1594651976e+01   6.5105648292e+01    0.3577646    0.2060695   2.06  0.001407712    2.203    0.546
        27 -10.7475    157.9958     13.6569   4.6502720977e+01   4.4028849110e+01      0.37071    0.2049388 -55.22  0.001660511    2.175    0.540
        28 -11.6566    118.3810     12.0683   5.3197007815e+01   5.3938439711e+01    0.5230474    0.2320627 -38.31  0.002244741    2.538    0.606
        29 -10.6589     99.8381     12.4292   5.7782658498e+01   5.8123280965e+01    0.2917123    0.2041246  42.37 0.0006457398    1.258    0.205
        30 -10.2608     55.1266     11.2115   7.1997931429e+01   6.6815221277e+01    0.3689942    0.1670085 -21.25  0.001728556    2.384    0.580
        31 -10.9914    132.3885     10.8178   4.9898893691e+01   5.0694719436e+01    0.3551709     0.270089  39.30  0.001012472    1.268    0.212
        32 -10.4284    226.5662     10.7228   3.7827278069e+01   2.7452014018e+01     0.234611    0.1266846 -24.03  0.001151526    2.203    0.546
        33 -10.8171    241.2760      9.8164   3.6433280627e+01   2.4233118356e+01    0.2060948    0.1435638 -79.02 0.0004382779    1.273    0.215
        34 -11.3654    236.4892      9.8789   3.6819004996e+01   2.5289662939e+01    0.2616131    0.1487147  70.22 0.0008842815    1.697    0.411
        35 -10.7206    164.9642      7.3429   4.3555789499e+01   4.2887154603e+01    0.4053355    0.1922791 -24.03   0.00127807    2.362    0.577
        36 -11.3518    247.2159      8.4238   3.5691162265e+01   2.3092531579e+01    0.2983135     0.182672 -69.18  0.001669039    1.458    0.314
        37 -11.1567    145.7720      7.7783   4.6523848743e+01   4.7670725889e+01    0.3315619    0.2869334  10.86  0.001292252    1.308    0.236
        38 -10.1651     67.1070      7.7555   6.5740666639e+01   6.5173809294e+01     0.170815    0.1305093  19.36 0.0002564052    1.119    0.106
        39  -9.3485     58.9777      9.7146   6.9729948249e+01   6.6365781659e+01    0.1561507    0.1226529  -6.58 0.0008755543    1.130    0.115
        40 -10.6931     92.6509      5.6437   5.6822821560e+01   6.0334386676e+01    0.4196926    0.2163169  21.83  0.001894322    2.379    0.580
        41 -10.1975    175.3378      5.9588   4.1820637696e+01   4.0405243612e+01    0.1801602    0.1668189  89.26 0.0004355473    1.064    0.060
        42 -10.8081    112.9498      2.7830   5.0790465994e+01   5.6050542984e+01    0.2851202    0.2098615 -68.35 0.0005353405    1.833    0.455
        43 -10.7284    241.0050      2.2613   3.4812464438e+01   2.5116406020e+01     0.198264    0.1520289 -56.38 0.0004048187    1.129    0.115
        44 -11.1051    236.7131      1.6159   3.4977152638e+01   2.6133083099e+01     0.272542    0.1867704 -76.62 0.0009689406    1.262    0.208
        45  -9.4331    159.9605      1.0000   4.2295079308e+01   4.4718426778e+01    0.2291301   0.06755723  69.77 0.0008060278    2.967    0.663
        46 -10.6650     10.7538    208.6640   1.2679297945e+02   2.9225466560e+01    0.2028601    0.1805369 -64.55 0.0005375393    1.550    0.355
        47 -10.6304    250.1880    246.5090   8.5204435327e+01  -1.1670409298e+01    0.2168194    0.1404904 -10.80  0.001459613    1.413    0.292
        48 -10.2407     72.6829    249.9222   1.1825313524e+02   1.4126528302e+01    0.2121709     0.169622 -72.85  0.001546946    1.464    0.317
        49 -12.5379     74.5082    238.8384   1.1700812015e+02   1.5862198870e+01    0.6215578     0.477876 -72.80  0.004306914    1.441    0.306
        50 -12.1049     21.9777    248.9102   1.2691863349e+02   2.0420461466e+01    0.3959725    0.2183802  49.99  0.001788511    1.413    0.292
        51 -10.9318     17.4886    247.4729   1.2758423482e+02   2.1150221609e+01    0.1840805    0.1312379  86.41 0.0005442929    1.243    0.196
        52 -10.2192      2.0379    212.0403   1.2855345035e+02   2.9349659285e+01    0.1819092    0.1298948  58.07 0.0007596068    1.235    0.190
        53 -11.7963      4.6092    207.2382   1.2785013383e+02   3.0082036928e+01    0.5144686    0.2174288  80.09  0.002809851    2.080    0.519
        54 -10.5805     19.6853    200.6607   1.2460922595e+02   3.0013110424e+01    0.2115494    0.1111039 -69.17 0.0008056855    1.768    0.434
        55 -10.3461    175.4168    202.6961   9.1811905736e+01   6.1609717560e+00      0.23763    0.1905458  41.20  0.000515584    1.162    0.139
        56 -11.0883     18.4674    203.5129   1.2502956223e+02   2.9537898800e+01    0.3362572    0.1453723  55.35  0.001845489    1.956    0.489
        57  -9.4059    223.5975    201.7856   8.2196843506e+01  -2.0172178707e+00    0.1659162    0.1180305 -43.56 0.0006547161    1.687    0.407
        58  -9.7420     37.9201    217.4868   1.2224160166e+02   2.4599197471e+01    0.1626977    0.1010147  41.91 0.0007341208    1.551    0.355
        59  -9.7160     34.5178    201.3334   1.2170925049e+02   2.8319553983e+01    0.1530209    0.1430363  -0.28 0.0005869207    1.639    0.390
        60  -9.6625    215.4902    194.5375   8.2355888164e+01   4.5261595996e-01    0.1359395    0.1141796   7.72 -2.444513e-05    1.055    0.052
        61 -10.5462     15.6240    192.8786   1.2490049662e+02   3.2054623451e+01    0.2730061    0.1601858  26.80  0.001247582    2.198    0.545
        62  -9.5417    211.4765    188.4658   8.1958217031e+01   2.1273218540e+00     0.236914    0.1213017 -26.55 0.0009459897    2.274    0.560
        63  -9.3506      1.6246    188.2057   1.2739234810e+02   3.4291234402e+01    0.1533345   0.08170422 -73.92 0.0005586807    1.593    0.372
        64  -9.5312     61.6317    184.8244   1.1434816512e+02   2.8679458372e+01     0.189161    0.1091976 -84.27 0.0009489534    1.757    0.431
        65  -9.7325    167.4599    183.5288   9.0025621625e+01   1.1154040493e+01    0.1426218    0.1322651  27.81 0.0001992853    1.008    0.008
        66 -11.2373     15.9837    182.7941   1.2413239145e+02   3.4205723273e+01    0.4254874    0.1892191  82.32  0.002121237    2.190    0.543
        67  -9.2777      1.7016    180.3355   1.2691775257e+02   3.5972978884e+01    0.1221808   0.06350802  69.11  0.000422664    1.653    0.395
        68 -10.1119    244.4082    178.2857   7.3917687805e+01  -1.8971557362e+00    0.2457642    0.1134709 -29.69  0.001110851    2.087    0.521
        69 -10.0743    224.0249    178.5157   7.7612899487e+01   1.5335802056e+00    0.2327579    0.1811159 -44.85 0.0003393872    1.482    0.325
        70 -10.2537     46.6527    177.7324   1.1697695829e+02   3.2146945293e+01    0.2464889    0.1913634  62.39   0.00154225    1.175    0.149
        71  -9.3446     70.1568    177.6253   1.1151961597e+02   2.9171371719e+01    0.1653684    0.1271905  24.04 0.0004479528    1.647    0.393
        72  -9.8406    200.7628    176.2333   8.1636201020e+01   6.1660280391e+00    0.2013914    0.1578779   4.31  0.001038115    1.358    0.263
        73 -11.0601     17.8872    173.3318   1.2301120163e+02   3.6134062861e+01    0.3243705    0.2094243  65.52  0.002022698    1.376    0.273
        74 -11.8812     36.0553    164.6049   1.1806660855e+02   3.6358881751e+01    0.6276667    0.3680559  85.93  0.003355496    1.641    0.391
        75 -11.2695     39.9874    163.4967   1.1700984155e+02   3.6198475241e+01    0.2785017     0.191079 -60.52  0.001072005    1.429    0.300
        76 -11.4688     36.9016    157.8811   1.1713565808e+02   3.7849779423e+01    0.2882828    0.2021504  73.25 0.0003592085    1.344    0.256
        77  -9.5644      4.6923    168.6628   1.2553739383e+02   3.8299564138e+01    0.1129646   0.07468174 -56.61 0.0005780383    1.679    0.404
        78  -9.6393     67.2006    165.1781   1.1058518759e+02   3.2480041630e+01    0.1963768    0.1423323  71.34  0.001064155    1.366    0.268
        79 -11.8356     50.7876    162.6277   1.1428965507e+02   3.5174698102e+01    0.6188693     0.427437  72.44  0.003468333    1.413    0.292
        80 -10.7543     44.6717    162.4776   1.1576371115e+02   3.5919561402e+01    0.3676674    0.1635301 -70.95  0.001697579    1.993    0.498
        81  -9.0541    200.3587    162.7181   7.8903363672e+01   8.6792962772e+00    0.1392239    0.1172888  83.45 0.0007016433    1.670    0.401
        82 -10.6192     18.7432    158.6643   1.2157436164e+02   3.9405842680e+01    0.2162222    0.1510079 -84.47 0.0002539163    1.150    0.131
        83 -11.9401     21.5142    156.5062   1.2071740600e+02   3.9662137031e+01    0.4688369    0.3664796  65.80  0.001898522    1.217    0.178
        84 -10.4210     11.9131    153.3445   1.2271376914e+02   4.1207018005e+01     0.261584    0.1821045  -4.72  0.001560583    2.330    0.571
        85 -10.1775    177.9961    151.4063   8.1115923838e+01   1.5403077122e+01    0.2757515     0.256716 -81.98  0.001048773    1.233    0.189
        86 -10.6847     17.9081    146.8154   1.2065218005e+02   4.2241600372e+01     0.270024       0.1751 -31.77 0.0009093171    2.259    0.557
        87  -9.3557     41.5163    146.4789   1.1460059417e+02   4.0084841915e+01    0.1328626    0.1100293 -88.65 0.0001496294    1.046    0.044
        88 -10.3638     11.8040    145.8297   1.2206551439e+02   4.2960745933e+01    0.2954553    0.1831826  68.13  0.001747142    1.565    0.361
        89  -9.6232    220.3811    144.1547   7.0957325135e+01   8.0659714699e+00    0.2023351     0.126225 -45.43 0.0008179852    1.647    0.393
        90 -10.1867    207.1706    146.1988   7.3917536131e+01   1.0354745535e+01    0.2216466    0.1941138   5.00 0.0007258974    1.155    0.135
        91 -10.4242      2.8326    143.6965   1.2406786624e+02   4.4106844658e+01    0.2170445    0.1247267 -69.31  0.001296808    1.404    0.288
        92 -10.5063     49.2136    141.9714   1.1194998373e+02   4.0322952261e+01     0.199028    0.1968474  50.18            0    1.226    0.184
        93 -10.1976     19.6038    140.2091   1.1953957751e+02   4.3660663511e+01    0.2417559    0.1022015 -77.81  0.001119112    2.052    0.513
        94 -10.2967     15.1085    140.0033   1.2067076574e+02   4.4070782432e+01    0.3299533    0.1582741   2.86  0.001398028    4.299    0.767
        95 -10.4468      9.0654    137.3568   1.2194874298e+02   4.5144984154e+01    0.3008526    0.1284556 -70.19 0.0008789377    1.804    0.446
        96 -10.5899      3.0899    136.0336   1.2334042529e+02   4.5863234560e+01    0.3183235      0.15672 -53.40  0.001729137    1.982    0.495
        97 -10.3633     21.4330    135.9126   1.1858470189e+02   4.4530371328e+01    0.2355197    0.1824648  67.83  0.001501779    1.289    0.224
        98  -9.3312    122.5232    135.4646   9.0829765015e+01   3.0382973936e+01    0.1522132    0.1481882 -85.68 6.610577e-05    1.003    0.003
        99 -10.0454    249.6923    134.1214   6.3727422198e+01   4.1630421249e+00    0.2065798    0.1920214  62.09 0.0006310666    1.327    0.246
       100 -10.2430    107.2754    133.1820   9.4396949470e+01   3.3815305704e+01    0.2575679    0.2117958  25.31  0.001290896    1.384    0.278
       101 -10.0356     79.9212    133.0647   1.0196339822e+02   3.8425142033e+01    0.2146673    0.1688238 -28.85 0.0004927282    1.567    0.362
       102 -10.0847     55.3761    133.0301   1.0888075791e+02   4.1779150860e+01     0.298083    0.1739755  44.19  0.001272886    1.821    0.451
       103 -11.0229     37.5455    130.5014   1.1350009916e+02   4.4363748343e+01    0.2624168    0.2477926  62.66 0.0005654971    1.198    0.165
       104 -11.3253     38.3446    127.0555   1.1277058657e+02   4.5121176775e+01    0.2264903    0.2069841 -66.15 0.0003767288    1.126    0.112
       105 -11.1381     73.7397    129.3339   1.0299984345e+02   4.0250959027e+01    0.3916078    0.2549941  52.21   0.00189417    1.680    0.405
       106 -10.2707     13.6314    126.2617   1.1957800248e+02   4.7432150986e+01    0.2176337    0.1586505  52.01 0.0005720331    1.502    0.334
       107 -11.4360     10.5468    122.8508   1.2003760332e+02   4.8455745639e+01    0.4614445     0.209177  48.09  0.002311041    2.492    0.599
       108 -11.0530      2.3848    123.9877   1.2238212503e+02   4.8713038819e+01    0.3991717    0.1395283 -66.28  0.001422556    2.082    0.520
       109  -9.9861    219.9909    124.3023   6.6451910875e+01   1.1683316128e+01    0.1982156    0.1911318  -2.84 0.0005387821    1.061    0.058
       110 -10.8963     22.2684    121.3312   1.1655430235e+02   4.7949923479e+01     0.324893    0.1885729  38.68   0.00110226    1.936    0.483
       111  -9.4942     33.4840    121.4722   1.1333580011e+02   4.6945019237e+01    0.1314222     0.109556 -71.96 0.0001608652    1.007    0.007
       112 -12.1621     23.4698    107.4071   1.1419554311e+02   5.1185222308e+01     1.066861    0.3218242  45.51  0.003871185    4.455    0.776
       113  -9.0645     15.7196    119.6612   1.1820724203e+02   4.8848272835e+01    0.1292542    0.1026511 -79.22 0.0001730219    1.044    0.042
       114 -11.2669     17.7204    114.8513   1.1700520775e+02   4.9846923014e+01      0.36753    0.2427687 -43.11  0.001424829    1.599    0.375
       115  -9.8496     11.5646    112.5171   1.1850586044e+02   5.0829210446e+01    0.2188238    0.1496415 -75.19 0.0005148818    1.175    0.149
       116 -12.1790     14.7322    108.9621   1.1709269544e+02   5.1456794022e+01    0.5803955    0.4033141  86.15  0.003400107    1.436    0.304
       117  -9.9494    219.8707    116.8519   6.4701122453e+01   1.3038797238e+01    0.2558713    0.2080929  58.58  0.001340306    1.373    0.272
       118  -9.1167    179.4820    116.5164   7.2447116278e+01   2.2127805512e+01    0.1546483    0.1512627 -30.47 0.0002067773    1.000    0.000
       119  -9.2406     86.2789    116.6586   9.6680300878e+01   4.1414340107e+01     0.148747    0.1130889  86.62 0.0007006602    1.625    0.385
       120  -9.4971    214.1523    115.6050   6.5411669898e+01   1.4496834595e+01    0.2021312     0.136705  37.72 0.0007073769    1.648    0.393
       121  -9.8184     35.1810    114.2184   1.1169490304e+02   4.8541053774e+01    0.2636899    0.1551619 -82.28  0.001230795    1.765    0.434
       122 -11.5159     36.3723    109.3640   1.1051037297e+02   4.9599574909e+01    0.3971901    0.2553554  77.18  0.001382294    1.948    0.487
       123 -11.0726    249.0486    112.5035   5.8999156957e+01   7.8137041361e+00     0.279028    0.1850569 -36.84 0.0005898963    1.314    0.239
       124  -9.5287     94.6969    112.3245   9.3166267450e+01   4.1033200302e+01    0.1513907    0.1171265  84.94 0.0004966682    1.639    0.390
       125 -12.9720     55.2744    110.3896   1.0479811502e+02   4.7319408048e+01    0.3091823     0.272898 -61.51 0.0005154036    1.009    0.009
       126  -9.5176      2.9560    112.5591   1.2100826324e+02   5.1348177068e+01    0.1401645    0.1210724  20.24 0.0004571362    1.499    0.333
       127 -11.9328      2.8857    106.3455   1.2030281330e+02   5.2801051010e+01    0.3389179    0.2596119 -74.29 0.0008222274    1.024    0.024
       128  -9.2619    103.7486    107.9964   8.9420772823e+01   4.0412341389e+01    0.1914571     0.126102 -49.91 0.0002514282    1.455    0.313
       129  -9.7661     69.8365    107.0928   9.9524543373e+01   4.6210518426e+01    0.2139038    0.1797468 -88.19 0.0004443623    1.313    0.238
       130  -9.9689     62.1462    106.7232   1.0186810706e+02   4.7343031389e+01    0.2740777    0.1546803 -37.25  0.001009248    2.042    0.510
       131 -10.8044    243.9429    104.5042   5.7921863164e+01   1.0137458153e+01    0.2272147     0.170917 -35.05 0.0007195203    1.182    0.154
       132 -10.8036    247.3830    102.2523   5.6905180194e+01   9.8135747889e+00    0.2460647    0.1847646  63.51 0.0009684345    1.567    0.362
       133  -9.5017    223.3702    103.8056   6.0957126156e+01   1.4580182858e+01    0.2026917    0.1316297 -27.66  0.000502447    1.577    0.366
       134  -9.2954     93.3164    104.2736   9.1569856012e+01   4.3165642657e+01     0.146667    0.1159836 -13.98 0.0002627184    1.563    0.360
       135 -10.7409     36.3136    102.3460   1.0926656016e+02   5.1288150880e+01    0.3259595    0.2298815  -1.79   0.00178248    1.884    0.469
       136 -11.0621    161.8851     99.7537   7.1900653415e+01   2.9610500781e+01    0.5665554    0.2977939 -36.91  0.002176595    1.941    0.485
       137  -9.8469    119.4122    101.7983   8.3282855996e+01   3.8727217460e+01    0.2278817    0.1428954 -34.50 0.0009426124    1.743    0.426
       138  -9.9094     79.1811    101.4041   9.5222504176e+01   4.6174336899e+01    0.2003805    0.1332905  49.17 0.0009403584    1.709    0.415
       139 -11.8168      2.9550     99.2734   1.1939463172e+02   5.4440190203e+01    0.4543746    0.2294554  84.64  0.001370524    2.294    0.564
       140 -10.3944      2.0043     91.7375   1.1867798002e+02   5.6227170273e+01     0.292877    0.1331141 -87.07  0.001375947    2.438    0.590
       141 -11.2548    144.3143     98.8342   7.5852169870e+01   3.3903332733e+01    0.5685067    0.3846199  78.94  0.002215422    2.315    0.568
       142  -9.6342     91.4820    100.5005   9.1151008494e+01   4.4360196214e+01    0.1492996    0.1395058 -40.38 -4.788628e-05    1.030    0.029
       143 -10.8917     62.1177     98.8112   1.0009095680e+02   4.9233529601e+01    0.3349161    0.2978423  28.15 0.0009891709    1.257    0.205
       144 -10.4339     66.7801     97.2561   9.8191830891e+01   4.8972135455e+01    0.3740456     0.165212 -48.54  0.001417992    2.026    0.506
       145 -10.7480     16.7240     98.0335   1.1485589442e+02   5.3897518444e+01    0.2637534    0.1895996 -63.18  0.001245486    1.107    0.097
       146 -10.5556     20.4819     95.4479   1.1320524540e+02   5.4239465764e+01    0.5661389    0.1140479 -61.97  0.002043857    3.198    0.687
       147 -10.3557     40.2261     97.2827   1.0699836489e+02   5.2114422688e+01    0.2940505    0.2098171  64.66  0.001467689    1.766    0.434
       148  -9.9849    250.0218     95.7131   5.5039109733e+01   1.0339233761e+01    0.1851811    0.1716607 -49.65 0.0005298831    1.076    0.071
       149  -9.6528     77.4944     95.0762   9.4148400565e+01   4.7910442152e+01    0.2211372    0.1338668 -53.23 0.0006886665    1.532    0.347
       150 -11.3301    156.4573     83.2747   6.8461137054e+01   3.4138328307e+01     1.023161    0.3941781  39.06  0.003012478    3.611    0.723
       151 -12.1989    158.5051     89.6858   6.9848618940e+01   3.2410863808e+01    0.6022562     0.418673 -21.00  0.002585254    1.753    0.430
       152 -11.3494    162.4006     91.9687   6.9612414718e+01   3.1029674465e+01    0.3287323    0.2753367 -29.12 0.0003325464    1.236    0.191
       153 -12.5118    164.8100     85.9048   6.7352492865e+01   3.1611261656e+01    0.7800292    0.6513678  47.23  0.002756164    1.210    0.174
       154 -11.6204     11.0194     90.9177   1.1559234403e+02   5.5921741846e+01     0.373003    0.2641378  50.24  0.002326263    1.722    0.419
       155 -10.3026    104.0230     91.9979   8.4990312233e+01   4.3980108426e+01    0.2258472    0.2105306 -23.83            0    1.067    0.063
       156  -9.7125     47.1575     92.0479   1.0353805941e+02   5.2624589746e+01    0.1936847    0.1426081 -23.02   0.00105594    1.562    0.360
       157 -10.0426     37.5262     91.3821   1.0668882998e+02   5.3766553314e+01     0.251729    0.1921859  39.26  0.001319178    1.533    0.348
       158 -10.2984     25.5279     91.1044   1.1073500949e+02   5.4874518653e+01    0.2756146    0.2171342 -71.91  0.001194669    1.159    0.138
       159 -10.8206     23.0631     86.6982   1.1074270760e+02   5.6087111028e+01    0.3092131    0.1873807 -39.26  0.000984534    1.612    0.380
       160  -9.3307     83.1367     88.8430   9.0631088041e+01   4.8428392666e+01    0.2015167    0.1619962 -25.67 0.0006149405    1.310    0.237
       161 -10.4010     97.6603     88.6367   8.5960889104e+01   4.5924187011e+01     0.382229     0.203042 -29.29  0.001401282    2.608    0.617
       162 -10.1736    111.9773     86.3327   8.0970733398e+01   4.3616496565e+01    0.3468985    0.2444933 -72.16  0.001477806    2.043    0.510
       163 -11.3144     67.1092     84.9403   9.4908148442e+01   5.1763013982e+01    0.4625343    0.2753275 -24.28  0.001376765    2.297    0.565
       164 -10.4838    132.9225     83.1518   7.4199601933e+01   3.9717617802e+01    0.2620073    0.2379607 -73.87 0.0005896133    1.219    0.180
       165 -11.2613     43.2912     82.8004   1.0272828319e+02   5.5176064019e+01     0.412975    0.2239222  41.21  0.002012108    2.204    0.546
       166  -9.9344     31.6386     93.0177   1.0902844881e+02   5.3920361904e+01    0.1903468    0.1342561 -62.36 0.0004033713    1.185    0.156
       167  -9.8182    117.7373     82.6951   7.8209496960e+01   4.3167347189e+01    0.2897297    0.1796994 -32.32  0.001021958    1.734    0.423
       168 -10.0795     85.9740     81.0175   8.7437405013e+01   4.9672921816e+01    0.2384312    0.1972179 -13.84  0.001254541    1.307    0.235
       169 -11.0251      4.5342     84.9358   1.1682839593e+02   5.7655675442e+01    0.3194335    0.1823076 -47.69  0.001070375    1.510    0.338
       170 -11.1078     36.7292     67.9423   1.0138247279e+02   5.9146617211e+01    0.5637981     0.377083 -75.95  0.002981441    1.921    0.479
       171 -10.7006     31.1632     67.7227   1.0349030951e+02   5.9707351412e+01    0.4352867    0.2180942 -34.58   0.00210998    2.050    0.512
       172 -12.3038     11.2089     62.4842   1.1011659718e+02   6.2297314442e+01    0.4429165    0.2106861 -31.31 0.0002863134    2.209    0.547
       173 -11.9751      3.5606     64.8364   1.1363365496e+02   6.2189933208e+01    0.5085509    0.3621117 -84.92  0.002497432    1.542    0.351
       174 -12.1183      5.2803     58.9988   1.1173206015e+02   6.3367036826e+01    0.2695179    0.2488377 -84.18 0.0003288143    1.305    0.234
       175 -11.7513     12.6799     78.5077   1.1286145360e+02   5.8662613004e+01    0.6969419     0.207091 -62.20  0.002559285    2.403    0.584
       176 -12.3680      8.1601     74.0155   1.1366477080e+02   5.9931148444e+01    0.8038039    0.4563038 -28.17  0.004580479    1.939    0.484
       177 -12.5655     16.3948     67.9264   1.0929542417e+02   6.0790857161e+01    0.3092077    0.2253812 -45.64 0.0003518934    1.131    0.116
       178 -11.6043     21.7711     66.6591   1.0690214227e+02   6.0695840354e+01    0.6831807    0.3998788  81.36  0.001618677    3.408    0.707
       179 -11.1147     31.3355     81.1702   1.0665532647e+02   5.6689835428e+01    0.4378628    0.2023503 -38.91  0.001475928    2.207    0.547
       180  -9.2725    146.3326     81.6504   7.0364203005e+01   3.6881616198e+01     0.164299    0.1238303 -76.97 0.0007047922    1.774    0.436
       181 -10.1390     21.6762     81.0372   1.1011353158e+02   5.7489314871e+01    0.3744442    0.1867113 -31.75  0.001563724    2.331    0.571
       182 -10.4560     18.5099     79.5171   1.1095007251e+02   5.8058613077e+01    0.2582743    0.1554833 -40.74 0.0007962284    1.534    0.348
       183 -10.5950     21.4696     76.9744   1.0934620670e+02   5.8425984230e+01    0.2244173    0.1719737  28.45 0.0005659416    1.575    0.365
       184  -9.1766    150.2752     79.2961   6.8716500371e+01   3.6384603443e+01    0.1523837    0.1227307  10.39 0.0002823024    1.528    0.346
       185  -9.9376    112.0072     79.3409   7.8826923836e+01   4.5060641718e+01     0.203255    0.1993504  30.84 0.0004914516    1.057    0.054
       186 -11.3050     50.0546     68.6642   9.6468707865e+01   5.7559986895e+01    0.3398699    0.2890965 -31.27  0.001127066    1.058    0.055
       187 -11.5500     58.8963     75.2861   9.5107183599e+01   5.5025016180e+01    0.5333603     0.372669 -75.21  0.001513347    1.957    0.489
       188 -10.7734     54.0339     74.0621   9.6533050532e+01   5.5910487001e+01    0.2992483    0.2465463 -70.27 0.0007169954    1.386    0.278
       189 -11.5444     61.8616     71.5501   9.2934449324e+01   5.5435789125e+01    0.3692294    0.3336731 -83.70  0.001226144    1.372    0.271
       190 -10.7541     90.8258     76.1196   8.4353738371e+01   4.9855375328e+01    0.4443153    0.3218543 -55.62  0.001163135    1.497    0.332
       191 -12.1863     45.0000     75.3022   1.0021015291e+02   5.6683062262e+01    0.2898124     0.248866  51.93  0.000429019    1.436    0.304
       192  -9.8343    137.9155     74.7082   7.0321788588e+01   4.0194294344e+01    0.2144455    0.1983823  61.72  0.000587317    1.115    0.103
       193  -9.5142     88.3373     83.6884   8.7461800495e+01   4.8685218139e+01    0.1453292    0.1176402  85.47 0.0007045321    1.688    0.408
       194  -9.8917    145.5088     73.9589   6.8226127017e+01   3.8526121883e+01    0.2426439    0.1522754 -37.46  0.001036568    1.601    0.375
       195 -12.3027    150.2235     71.9666   6.6504747584e+01   3.7746981187e+01    0.3576079    0.3018414 -45.81 0.0003594054    1.202    0.168
       196 -10.2617     93.8826     73.7187   8.2608303173e+01   4.9788956423e+01    0.2493323    0.1879428 -31.82            0    1.306    0.234
       197 -11.4440    102.2502     72.5544   7.9602443711e+01   4.8412699879e+01    0.4578344    0.3195361  67.52  0.002025936    2.076    0.518
       198  -9.9110    128.8779     71.8083   7.1738502748e+01   4.2837876559e+01    0.2217454     0.199079  17.55 0.0002824146    1.164    0.141
       199 -11.0060     77.6665     71.4771   8.7297823681e+01   5.3083388945e+01    0.3819162    0.2748542  42.47  0.001967142    1.528    0.345
       200 -11.6782    167.5975     69.9585   6.2118922175e+01   3.3807517563e+01    0.2630257    0.2400766  64.01 0.0003118168    1.090    0.082
       201  -9.8645    144.4861     69.5054   6.7088391732e+01   3.9581055559e+01    0.1525793    0.1491168  24.43 -3.552802e-05    1.024    0.023
       202  -9.7060    123.3393     68.1632   7.2047640447e+01   4.4774774986e+01    0.2095503    0.1360527 -46.66 0.0004779449    1.617    0.381
       203 -11.2007     94.3644     66.3502   8.0042346609e+01   5.1166412619e+01    0.3931994    0.2613415 -22.59 0.0005714631    1.726    0.421
       204  -9.5642     42.6354     67.7375   9.9040460448e+01   5.8591969484e+01    0.1817318    0.1130659 -60.28 0.0009414746    1.583    0.368
       205  -9.2168    180.4990     67.5267   5.8897970291e+01   3.0993590695e+01    0.1493171    0.1463792 -86.53 0.0008099628    1.025    0.024
       206 -10.7464     68.6486     62.8262   8.7697895946e+01   5.6266942438e+01    0.4314598    0.1407129 -43.24   0.00122153    2.813    0.645
       207 -10.5984     77.2230     64.2684   8.5109273726e+01   5.4622382664e+01    0.3460582    0.2721719 -45.51  0.001885958    1.251    0.200
       208 -10.9226    153.1025     63.8270   6.3339960918e+01   3.8461762318e+01     0.311566    0.2433776  38.55 0.0002720842    1.338    0.253
       209 -11.6543    155.8013     60.1733   6.1618856166e+01   3.8400094214e+01    0.2765833    0.2560766 -43.21 0.0003578413    1.099    0.090
       210 -11.2031     51.0061     63.2582   9.4479738722e+01   5.8588318397e+01    0.3478793     0.257497 -52.33  0.000875684    1.292    0.226
       211 -11.4763     46.2469     57.1453   9.4426208870e+01   6.0409145256e+01    0.3945867    0.2453034  33.68 0.0009697924    1.813    0.449
       212  -9.3791    109.6681     63.3214   7.4303920467e+01   4.8657624632e+01    0.1475222    0.1200672 -81.23 0.0007049484    1.698    0.411
       213 -10.9496     83.9554     61.7568   8.1929968787e+01   5.3964134505e+01    0.4110666    0.3058375  41.12  0.002156479    1.423    0.297
       214 -10.4376     86.2785     58.3518   7.9959412279e+01   5.4192850738e+01    0.3533592    0.2814458 -69.61  0.001812806    1.764    0.433
       215  -9.7611    201.2964     61.7053   5.3739831910e+01   2.6769625053e+01     0.186375    0.1684133  23.67 0.0004467976    1.304    0.233
       216  -9.7866    121.3384     62.2956   7.0651349873e+01   4.6288995038e+01    0.1553486    0.1150726  15.40 0.0003777712    1.654    0.395
       217  -9.5264    217.9037     61.1769   5.1156120069e+01   2.2852572229e+01    0.1857447    0.1689769  23.29 0.0004157527    1.332    0.249
       218 -10.8398     32.7556     44.2193   9.5800561296e+01   6.4404006945e+01    0.4890725     0.251874  -8.34  0.001698659    2.990    0.666
       219 -10.1477     44.7164     50.8595   9.2969625927e+01   6.1838116645e+01    0.3817051   0.08979254 -47.79  0.001323195    3.468    0.712
       220 -10.7763     27.1116     50.7529   1.0037927536e+02   6.3629658595e+01    0.4563813    0.2795844 -69.61  0.001968645    2.118    0.528
       221 -11.1258     30.1483     60.8251   1.0204489405e+02   6.1279362377e+01    0.5590125    0.2554791  11.41  0.002281441    3.006    0.667
       222 -12.9025     37.6313     50.3199   9.5750779902e+01   6.2721893750e+01    0.7563357     0.516315 -33.07  0.002705714    1.268    0.211
       223  -9.3402    183.7741     60.3674   5.6265768552e+01   3.1333755526e+01    0.2086713    0.1325009  51.07 0.0006181464    1.590    0.371
       224 -10.6774    103.3318     59.8178   7.4999358393e+01   5.0618328615e+01    0.3657756    0.2359327  -6.82  0.001141468    2.289    0.563
       225 -10.7730     63.8373     59.9645   8.8522530803e+01   5.7551090846e+01    0.2217327    0.1933829  11.99  0.000539835    1.175    0.149
       226 -11.3234     58.3488     58.7028   9.0182584936e+01   5.8572522930e+01    0.2725594    0.2551677  -0.59  0.001728763    1.139    0.122
       227 -11.8297     75.3717     56.1413   8.2969684046e+01   5.6501763059e+01    0.2397233    0.2150467 -23.13  0.000292986    1.046    0.044
       228 -12.1289    129.6302     49.6305   6.4185988287e+01   4.6482847789e+01    0.6605747    0.4298808   0.97 0.0004457729    2.278    0.561
       229 -10.8329     99.0179     55.8676   7.4942085455e+01   5.2202354715e+01     0.315513    0.1853232  36.74 0.0008620709    1.753    0.430
       230 -11.2669     70.9537     51.0950   8.2757837384e+01   5.8159134017e+01    0.5198065    0.3282317  57.87  0.002365811    2.543    0.607
       231 -10.4569    147.0778     56.8550   6.2477000281e+01   4.1105728556e+01    0.2362999    0.2155398 -35.74 0.0002967607    1.123    0.109
       232  -9.7324    120.0017     52.9658   6.7824575642e+01   4.8186542611e+01    0.2310385    0.1697686  18.04 0.0003245165    1.608    0.378
       233 -10.6454     87.3848     52.1962   7.7379265038e+01   5.5106385106e+01    0.3356267    0.2575293 -23.75  0.001797705    1.270    0.213
       234 -10.9929      5.7422     51.8832   1.0989882870e+02   6.4847852089e+01    0.3179446    0.1967102 -36.87  0.002005579    1.388    0.279
       235 -10.9765     12.1132     51.1736   1.0697966038e+02   6.4638777417e+01    0.2543987    0.2138999 -66.87 0.0005784573    1.290    0.225
       236 -10.9802     12.2441     44.1416   1.0497476007e+02   6.6063359985e+01    0.4148511    0.2554423 -39.63   0.00258812    1.288    0.224
       237 -10.8617    103.7998     49.4227   7.1156950573e+01   5.2319175142e+01     0.492515    0.2268531 -32.62  0.001973807    2.241    0.554
       238  -9.7922     17.1248     51.5808   1.0492637858e+02   6.4229769598e+01    0.1924675    0.1275424 -39.67 0.0003040385    1.226    0.185
       239 -11.0185     78.2756     47.3504   7.8715818835e+01   5.7597606767e+01    0.3819041    0.2210859 -33.94 0.0002896792    1.660    0.398
       240 -10.0177     53.2362     50.0238   8.9204013124e+01   6.0947433370e+01    0.2159602    0.1831049  12.72 0.0008277719    1.211    0.174
       241  -9.5874    166.9431     48.6816   5.5858277692e+01   3.7380463304e+01    0.2079103    0.1803829  64.01 0.0004425774    1.111    0.100
       242 -10.5675    149.1769     41.9812   5.7206827470e+01   4.2835633717e+01    0.4543149    0.2528797 -46.62  0.001256487    1.991    0.498
       243 -11.2694    151.8781     47.4813   5.8431789258e+01   4.1364058389e+01    0.4239673    0.3160986   6.09   0.00117733    1.736    0.424
       244 -10.3500    156.4160     46.5061   5.7202099412e+01   4.0366002764e+01    0.3497773    0.2643453 -15.39 0.0009787411    1.535    0.348
       245 -10.9092     92.8336     46.9102   7.3629569568e+01   5.4966335841e+01    0.4496881    0.2770213 -58.68  0.001824435    2.622    0.619
       246 -10.7254     91.5219     42.0063   7.2186699710e+01   5.6016898142e+01    0.4303896    0.3034182 -70.46  0.001919139    2.640    0.621
       247 -10.2608    109.4673     46.5462   6.8451630084e+01   5.1568419979e+01    0.2729828    0.1993558  30.48 0.0009094534    1.400    0.286
       248 -10.7808    113.5960     45.3158   6.6847488680e+01   5.0848870165e+01    0.3834865    0.3015766  -6.75 0.0005427287    1.385    0.278
       249 -10.1880    119.9635     47.0187   6.5743555430e+01   4.9144425611e+01    0.2145878     0.198656  27.15 0.0003829432    1.027    0.026
       250 -10.3051      3.9640     47.2937   1.0953545204e+02   6.5886524993e+01    0.1611172    0.1265133 -37.66  0.000914738    1.109    0.098
       251 -10.4775    143.0176     45.8032   5.9770424080e+01   4.3817869419e+01    0.3032531    0.2384076  89.66 0.0009631235    1.535    0.349
       252 -10.4988    130.1335     55.0909   6.5918805961e+01   4.5489412040e+01    0.2991205     0.250095   7.35 0.0007848754    1.330    0.248
       253 -10.2757     51.0964     44.9841   8.8246392286e+01   6.2170221581e+01        0.255    0.1700327 -24.14 0.0003727824    1.440    0.305
       254 -11.8995     51.4546     40.3038   8.6325884230e+01   6.2967891574e+01    0.5503333    0.2376665  40.18  0.000267792    2.669    0.625
       255 -10.9751    221.8477     43.1465   4.6117906168e+01   2.4536385693e+01    0.2234776    0.1974264 -24.61 0.0008224374    1.291    0.226
       256  -9.8262    174.6650     44.2770   5.3163592424e+01   3.6052415458e+01    0.2658729    0.1723862  67.50  0.001236169    1.522    0.343
       257  -9.1917     73.2182     44.3596   7.9394917878e+01   5.8978866788e+01    0.2095355    0.1650716  67.24    0.0011045    1.970    0.492
       258 -10.9464     64.2951     41.4815   8.1632186569e+01   6.0912303947e+01    0.3940452    0.2141886  46.68  0.001658215    2.266    0.559
       259 -10.1561     71.2977     41.2822   7.8903338874e+01   5.9820206714e+01    0.2027011    0.1683964  -3.07 0.0002018257    1.110    0.099
       260 -11.9261     69.4277     37.9349   7.8267275277e+01   6.0681781300e+01    0.4975962    0.2844332 -16.69  0.001376904    2.175    0.540
       261 -12.3830     27.6926     38.0222   9.5906167997e+01   6.6060049190e+01     0.473944     0.300246 -32.49  0.001150763    1.325    0.245
       262 -11.3063     24.6520     35.2914   9.6335921817e+01   6.6841284112e+01    0.2175393    0.1829186  -7.60 0.0006793584    1.179    0.152
       263 -10.4032      6.9990     41.5045   1.0661415255e+02   6.6899749875e+01    0.2674835    0.1046086 -50.20 0.0006080083    1.816    0.449
       264  -9.2782    163.2698     42.3173   5.4582516611e+01   3.9227920302e+01    0.1445188    0.1111903  25.55 0.0003556111    1.558    0.358
       265  -9.9902    109.4291     41.0131   6.6422598439e+01   5.2424869599e+01    0.3127489     0.190694  71.34   0.00128225    2.571    0.611
       266 -11.3213    111.5928     25.0399   5.9776825593e+01   5.4094039341e+01    0.3366862    0.3301449 -16.72 0.0004651263    1.142    0.124
       267 -11.9640    100.3072     37.3272   6.7656799844e+01   5.4934085473e+01    0.9654019    0.4967798  36.13  0.003770407    2.045    0.511
       268 -12.0667    232.8035    245.4039   8.8006339616e+01  -9.2076982897e+00     0.558754    0.2525386 -30.97  0.003052426    2.378    0.579
       269 -11.0023    104.0329     25.1418   6.1812647733e+01   5.5771543618e+01    0.4614126    0.3024705  78.60 0.0008166371    2.419    0.587
       270 -10.4960    104.1075     20.9076   6.0104614040e+01   5.6261103512e+01    0.3371527    0.2581645  83.53  0.001758957    1.805    0.446
       271 -10.1172    108.1049     17.9362   5.7885410611e+01   5.5702824194e+01    0.3910496    0.1714794  43.77  0.001667212    2.095    0.523
       272 -10.4755     98.4973     31.4878   6.5907224741e+01   5.6139948534e+01    0.2394367    0.2066838  47.02 0.0006413924    1.188    0.158
       273 -11.5850    101.3916     28.7427   6.3978401493e+01   5.5889305707e+01    0.3791923     0.303734 -43.86  0.001216944    1.451    0.311
       274  -9.8124     36.3145     38.7134   9.2250964385e+01   6.5074138820e+01     0.365022    0.2171538 -67.83  0.001623269    3.333    0.700
       275 -10.6198     41.6354     40.7024   9.0651792425e+01   6.4117684659e+01     0.324235    0.1827582  11.39  0.001632952    2.177    0.541
       276 -10.7887     41.7529     36.7584   8.9096281854e+01   6.4814400542e+01    0.4023921    0.2985125  54.75  0.002287937    2.208    0.547
       277  -9.3265    194.3368     47.2947   5.0886140779e+01   3.0652332397e+01    0.1450374      0.10948  32.92 0.0007028527    1.648    0.393
       278  -9.5690    188.2260     39.3979   4.9599206867e+01   3.3286182071e+01    0.1890916     0.131348  81.36 0.0002305603    1.492    0.330
       279 -11.6679     80.9201     36.1416   7.3405518476e+01   5.8951363548e+01    0.5783986    0.3587766 -16.58  0.002826123    1.802    0.445
       280 -10.4339     75.9950     35.5101   7.4878445424e+01   5.9939741441e+01    0.2767948    0.1946839   8.49  0.001081639    1.550    0.355
       281 -10.1654     78.4232     31.8177   7.2500941939e+01   6.0057498579e+01    0.3196642    0.1873335 -12.26  0.001187925    2.110    0.526
       282  -9.0628    123.6816     38.6895   6.1817888658e+01   4.9511717797e+01     0.150759    0.1054079  23.92 0.0007034297    1.642    0.391
       283 -11.5609     37.6536    243.9866   1.2401690154e+02   1.9560848246e+01    0.4971178    0.2622478 -85.61  0.002974286    1.787    0.440
       284 -10.7473     35.4982    239.5062   1.2412327000e+02   2.0628518165e+01    0.2543339    0.1864267 -57.51  0.001793409    1.902    0.474
       285  -9.9394    181.3528    247.3062   9.7622338398e+01  -1.8270410234e+00    0.1243558   0.08205297  13.99 0.0007042032    1.713    0.416
       286 -11.8472      9.7047     33.8511   1.0300034353e+02   6.8233442990e+01    0.5656401    0.3110916  30.67  0.002507783    2.264    0.558
       287 -10.7278     17.2654     31.0301   9.8333938474e+01   6.8235059667e+01    0.3685896    0.1987647  18.68  0.002151045    2.038    0.509
       288  -9.3175    115.5300    244.5355   1.0979366807e+02   8.9026165532e+00    0.1218478   0.09807754  49.49 0.0003269094    1.029    0.028
       289 -10.1024    109.9638    243.4411   1.1073811323e+02   9.9325492995e+00    0.2239663    0.1548108  81.22 0.0009638176    1.690    0.408
       290 -10.1213    179.3072    243.6654   9.7491663744e+01  -9.9565552545e-01    0.1154794   0.08950164  60.49 0.0007041071    1.671    0.402
       291 -11.2081     22.1872     25.5302   9.3792524039e+01   6.8806576908e+01    0.3666557    0.2222937 -33.07   0.00124512    1.331    0.248
       292 -10.3753     88.8771    241.2377   1.1452241225e+02   1.3421027249e+01    0.1985991    0.1489834 -37.40  0.001224601    2.132    0.531
       293 -10.3952    156.5194    241.5125   1.0154328211e+02   2.9482232549e+00    0.1250723    0.1017586  36.54 0.0004258812    1.019    0.019
       294 -10.1810    195.5263    238.6532   9.3702897354e+01  -2.8345499043e+00    0.2626764    0.1744879  18.15  0.001551341    1.470    0.320
       295  -9.9942    134.8977    238.5394   1.0535636813e+02   6.8865006540e+00    0.2525586    0.1366065 -37.25  0.001233788    2.805    0.644
       296 -12.0068     30.0177    233.9524   1.2475480213e+02   2.2280854413e+01    0.4275267    0.1833406  82.50  0.002271355    2.362    0.577
       297 -10.2210    159.8687    235.9064   1.0012956267e+02   3.2825666239e+00    0.1928765    0.1544107  19.49 0.0006198761    1.278    0.218
       298 -11.2209     57.2660     34.5245   8.1625112118e+01   6.3138599398e+01    0.2854957    0.2540091 -53.45   0.00180507    1.507    0.337
       299  -9.3673    198.4592     34.4718   4.6810767614e+01   3.1373666364e+01    0.1404122    0.1271542 -79.98  0.000137885    1.006    0.006
       300 -11.5233    192.9715     32.9245   4.7124784309e+01   3.2943507980e+01    0.2952339    0.2485564  44.93 0.0003440613    1.322    0.244
       301 -10.7560    247.1310     33.1157   4.1094284155e+01   2.0140723513e+01    0.2108938    0.1690017  85.04 0.0004178509    1.234    0.190
       302  -9.7521    244.3768     42.8214   4.3553916832e+01   1.9457087935e+01    0.1739465    0.1196252 -27.36 0.0004657022    1.586    0.369
       303  -9.9834    167.2262     32.4117   5.0844158441e+01   3.9539477602e+01    0.2591294    0.1753893  76.05  0.001250931    1.506    0.336
       304 -10.6375     49.0988     30.4195   8.3324692391e+01   6.4960644462e+01    0.4281377     0.217657 -25.83    0.0020628    2.069    0.517
       305  -9.4328    177.3023     31.6703   4.9021848975e+01   3.7065319398e+01    0.1495887    0.1017842 -66.08 0.0004800956    1.649    0.393
       306  -8.9721    157.5035     31.5011   5.2233323483e+01   4.2128632919e+01    0.1430916    0.1336063  75.20 -0.0001741844    1.026    0.026
       307  -9.3568    145.4315     31.4874   5.4495365965e+01   4.5174013647e+01    0.1412829    0.1339716  78.13 0.0001949505    1.066    0.062
       308 -11.8054     23.8257     42.3588   9.9164464227e+01   6.5571592745e+01    0.5848094    0.3960392 -84.25  0.003007358    2.844    0.648
       309  -9.0102     44.3199     31.3101   8.5775947484e+01   6.5438795417e+01    0.1305957   0.08371659 -11.63 0.0003416395    1.644    0.392
       310 -10.6593      5.4332    235.3226   1.2902173739e+02   2.4565413143e+01    0.2754842    0.1878192  71.54  0.001384665    1.013    0.012
       311 -10.2672    214.5033     26.5315   4.2816004183e+01   2.8451522394e+01    0.2444735    0.2097632 -73.57 0.0007063324    1.031    0.030
       312  -9.8392    209.0283     27.5473   4.3687382650e+01   2.9649445896e+01     0.193898    0.1249987  71.08 1.773506e-05    1.478    0.324
       313  -9.7146    184.2424     26.5724   4.6546996403e+01   3.5932026122e+01    0.2286845    0.1482382 -68.57  0.000559966    1.728    0.421
       314 -10.5307     70.7551     26.1046   7.2818441229e+01   6.2248507736e+01    0.2972966    0.2040949  33.98   0.00103444    1.387    0.279
       315  -9.7934     16.6719     26.8407   9.7067783085e+01   6.9038587662e+01    0.1575928    0.1147158 -38.64 0.0003701937    1.133    0.117
       316  -9.8819    139.3166     20.3405   5.1907743415e+01   4.8011720401e+01    0.4589103    0.1948346  38.48  0.001692874    2.899    0.655
       317 -11.2481    132.1929     25.7710   5.5243586326e+01   4.9143523758e+01    0.6138399    0.3102583  28.06 0.0003709889    2.940    0.660
       318  -9.7169    167.3300    233.5316   9.8336367887e+01   2.4372388519e+00    0.1879691    0.1192828 -44.95 0.0009561329    1.884    0.469
       319 -10.5641     10.1902     25.1618   9.9734296310e+01   6.9811485489e+01    0.2518134    0.1578085 -15.99 0.0007291982    1.511    0.338
       320 -10.2593    120.0955     22.0913   5.6589575959e+01   5.2471480814e+01     0.480677    0.2500404  -6.42  0.001926407    2.830    0.647
       321  -9.9999      2.1407     24.9068   1.0381524189e+02   7.0343375319e+01    0.3038018    0.1487543 -19.03   0.00172445    2.119    0.528
       322 -11.0615    153.7177    233.8017   1.0104333980e+02   4.6225954427e+00    0.2221049    0.1797459   0.73 0.0008231147    1.523    0.344
       323 -10.4626     86.6276    233.0927   1.1417492501e+02   1.5227857216e+01    0.2310519    0.1316731  51.70 0.0009681074    1.443    0.307
       324  -9.9103    177.4907    234.9507   9.6573466192e+01   5.6712489409e-01    0.1656273    0.1241545 -37.20 0.0009161269    1.567    0.362
       325 -12.1268    226.0968    245.9637   8.9270205049e+01  -8.3339537119e+00    0.5046923    0.2876351  -3.57  0.002782862    2.176    0.540
       326 -10.2043     98.9869     20.4922   6.1333140424e+01   5.7426901794e+01    0.2496135     0.179851  16.39  0.001345926    1.446    0.308
       327 -10.9083     83.2063     20.5777   6.6115723610e+01   6.0667093185e+01    0.4251197    0.2800066  74.29  0.001026128    2.826    0.646
       328 -10.6450     55.2040     22.6796   7.7361775172e+01   6.5272503996e+01    0.2578885    0.1458611 -10.17  0.001241146    2.194    0.544
       329  -9.8855     34.8619     23.0893   8.6588391037e+01   6.7920716624e+01    0.2819765    0.1406101  16.57 0.0008889416    2.393    0.582
       330 -10.2400    155.9208     21.9568   4.9466109617e+01   4.3666120484e+01    0.2054778    0.1896981  79.24 0.0002947012    1.044    0.042
       331  -9.1376    241.3065     21.6919   3.9060444289e+01   2.2845553331e+01    0.1364488    0.0794241 -62.79 0.0002662999    1.611    0.379
       332 -10.3240    161.9043     20.1555   4.7928186454e+01   4.2348941762e+01    0.2067334    0.1876839  73.57  0.000279251    1.007    0.007
       333 -12.2167     29.0374    248.1842   1.2571440317e+02   1.9780827544e+01    0.8325073    0.3102051  70.72  0.004224412    2.740    0.635
       334 -10.0671    190.5510    227.4780   9.2911000706e+01  -4.3728199053e-01    0.3360471    0.1231165 -40.63  0.001441103    3.126    0.680
       335 -10.0932     66.5698     21.5006   7.2340360537e+01   6.3604094372e+01    0.2595477    0.1175228  42.73  0.001054748    2.158    0.537
       336  -9.3500    249.2365    227.0112   8.2138426364e+01  -9.2865305168e+00    0.1430408   0.08712055 -25.80 0.0006070119    1.580    0.367
       337 -11.2928    120.2611    226.3363   1.0674972577e+02   1.1355242931e+01    0.1984776    0.1761888  77.12 0.0006404005    1.164    0.141
       338 -10.1679     66.3047    226.2241   1.1747836047e+02   1.9349478687e+01    0.2152128    0.1447491  45.13 0.0007344735    1.336    0.251
       339 -10.9829      4.9060    226.7028   1.2873223140e+02   2.6231803431e+01    0.3937846    0.1435581  66.15  0.002118065    2.316    0.568
       340 -10.0026     24.2242    232.3079   1.2567752183e+02   2.3221555935e+01    0.1723911    0.1437594  79.38 0.0006829102    1.249    0.199
       341 -10.1602    123.4470    222.2464   1.0558188576e+02   1.1590712163e+01    0.2084445    0.1249088 -52.03 0.0007109259    1.938    0.484
       342 -10.1122    141.6859    221.0079   1.0167301928e+02   8.7945078194e+00    0.2399575     0.171665  21.04  0.001312472    1.634    0.388
       343  -9.0122    250.3396    219.3138   8.0613796897e+01  -8.4881189897e+00    0.1267923   0.07643022   5.41 0.0007047046    1.699    0.411
       344  -9.7815    174.0251    219.5407   9.4891968233e+01   3.5535818688e+00    0.2101797    0.1126239  39.85   0.00103556    1.613    0.380
       345 -13.4555      6.8099    244.6395   1.2918786562e+02   2.2738188440e+01     1.078135    0.7201022  27.97  0.007025907    2.159    0.537
       346 -11.4883      9.5461    217.0624   1.2745941142e+02   2.7659246844e+01    0.2931309    0.1608516  62.12    0.0011501    1.417    0.294
       347 -11.2543    235.8107    215.0895   8.2397026499e+01  -5.8219988912e+00    0.3441683     0.208738 -10.04  0.001261403    1.791    0.442
       348 -11.3637    241.1113    211.8452   8.0880962523e+01  -6.1801423422e+00    0.5387357    0.2969662 -21.70  0.002898794    1.838    0.456
       349  -8.9388    186.6333     10.2702   4.1690982399e+01   3.7146388532e+01    0.1425532   0.09074768 -71.71 0.0006542893    1.662    0.398
       350  -9.1779    181.7509     10.3614   4.2293338576e+01   3.8360321248e+01    0.1391259   0.09020887 -59.75 0.0006949343    1.611    0.379
       351 -11.5464     30.2616    216.0888   1.2359655675e+02   2.5736144478e+01    0.3819181    0.2514884  15.98  0.002223477    2.664    0.625
       352  -9.9174     23.4878    216.6526   1.2489825642e+02   2.6346431639e+01    0.1907669    0.1061273  32.08  0.001142303    2.099    0.523
       353  -8.8421    201.6892    215.6467   8.8814632308e+01  -4.8939754789e-01    0.1350496   0.09092989   4.73 0.0007044355    1.726    0.420
       354  -9.5817    194.5151    215.4826   9.0175844501e+01   7.3241776714e-01    0.1314828    0.1112035  20.57 -0.0001072127    1.010    0.010
       355  -9.3423     41.6706    220.7056   1.2176042189e+02   2.3521119351e+01   0.09833394   0.08955945 -49.64   0.00070237    1.631    0.387
       356  -9.2849    115.2689    215.3311   1.0637937124e+02   1.4225195969e+01    0.1180676    0.1026011  -9.39 0.0002442338    1.584    0.369
       357  -9.6075     67.4568    215.0251   1.1623034104e+02   2.1421814103e+01    0.1606105   0.09219139 -47.03 0.0008085937    2.540    0.606
       358 -10.4846     21.4845    212.4498   1.2501363450e+02   2.7399907728e+01    0.3181282    0.1392736  51.22  0.001802583    1.866    0.464
       359 -10.1282    208.9540    212.0518   8.6801561233e+01  -1.1474658844e+00    0.1983376    0.1633099  12.15 0.0004947713    1.057    0.054
       360  -9.4474     76.3280    212.3078   1.1414726694e+02   2.0754996947e+01    0.1114478    0.1002252 -21.32 0.0005387272    1.657    0.397
