#   1 NUMBER                 Running object number                                     
#   2 MAG_AUTO               Kron-like elliptical aperture magnitude                    [mag]
#   3 X_IMAGE                Object position along x                                    [pixel]
#   4 Y_IMAGE                Object position along y                                    [pixel]
#   5 X_WORLD                Barycenter position along world x axis                     [deg]
#   6 Y_WORLD                Barycenter position along world y axis                     [deg]
#   7 A_WORLD                Profile RMS along major axis (world units)                 [deg]
#   8 B_WORLD                Profile RMS along minor axis (world units)                 [deg]
#   9 THETA_WORLD            Position angle (CCW/world-x)                               [deg]
#  10 FWHM_WORLD             FWHM assuming a gaussian core                              [deg]
#  11 ELONGATION             A_IMAGE/B_IMAGE                                           
#  12 ELLIPTICITY            1 - B_IMAGE/A_IMAGE                                       
         1  -8.6619     55.7654      9.9413   5.4588784497e+01   6.7059857197e+01    0.1969689    0.1693135 -39.61 0.0006863337    1.490    0.329
         2  -8.0014     47.5574     10.0366   5.7980606745e+01   6.8584258295e+01    0.1532542    0.1022131 -50.07 0.0008053906    2.392    0.582
         3  -8.1020     90.7984      8.5975   4.3276536723e+01   5.9731043081e+01    0.1787613    0.1149249  73.45 0.0006647839    1.660    0.398
         4  -9.4759      6.0842      8.2403   8.0409871420e+01   7.4715818677e+01    0.1989638    0.1469562  30.10  0.001178875    1.621    0.383
         5  -8.0562     64.9991      6.7683   4.9715776844e+01   6.5524680974e+01    0.1695206   0.09184971  53.04 0.0005084231    1.616    0.381
         6  -8.5076     33.0928      4.7737   6.1863241883e+01   7.1642116981e+01    0.2135839    0.1479379 -52.42   0.00116795    2.651    0.623
         7  -8.2857     79.0836      4.0353   4.4267188335e+01   6.2747829462e+01    0.1842475    0.1464381 -61.96  0.001106966    1.665    0.400
         8  -7.9470     15.7686      2.9887   7.0778203129e+01   7.4364780450e+01    0.1419534   0.08554617 -28.78  0.000393666    1.577    0.366
         9  -8.0925     28.2715      9.6367   6.7214827863e+01   7.1801511734e+01    0.1026803   0.09703998 -46.60 0.0004150723    1.658    0.397
        10  -8.1293     62.7171      1.4954   4.7870400317e+01   6.6455098614e+01    0.1570749    0.1120332  66.08 0.0009177826    1.558    0.358
        11  -8.0850    218.5882    247.8772   7.5834406618e+01  -6.3200555943e+00     0.142321    0.1019392 -39.43 0.0006691863    1.761    0.432
        12  -8.6506    232.6377    247.1286   7.3246216819e+01  -7.7955352200e+00     0.173391    0.1590151 -13.31 0.0005869996    1.659    0.397
        13  -8.2026    185.2413    250.2350   8.2436092759e+01  -2.6057187105e+00    0.1874221   0.07844276  38.94 0.0008843265    2.440    0.590
        14  -8.6714     26.1182    250.4632   1.1553394403e+02   1.7617982053e+01     0.230557   0.08843262  34.36  0.001178708    2.123    0.529
        15  -8.9025    175.6919    247.5198   8.3920656990e+01  -9.7338122362e-01    0.2645483    0.1936355  57.24  0.001213679    2.320    0.569
        16  -8.4185    156.0329    247.9907   8.7975228500e+01   1.5739578079e+00    0.1810116    0.1415693  52.88 0.0007222406    1.679    0.405
        17  -8.4579    132.0420    247.6291   9.2954422887e+01   4.9131479724e+00    0.1818581    0.1722995  85.01 0.0005503374    1.351    0.260
        18  -9.1322    103.8875    246.7255   9.8891705650e+01   8.9215892511e+00    0.3638634    0.2076229 -77.62  0.001788727    2.718    0.632
        19  -8.9863     40.6673    248.3293   1.1247086064e+02   1.6475501776e+01    0.2010231     0.102084  57.30  0.001059559    1.761    0.432
        20  -9.1593     21.3930    247.8660   1.1633469193e+02   1.8601807557e+01    0.1978962    0.1182041  45.90 0.0005548688    1.325    0.245
        21  -9.9854    223.8204    243.9110   7.4284173511e+01  -6.3951758131e+00    0.4234819    0.2026748 -44.11  0.002245776    2.661    0.624
        22  -9.2467    210.9682    246.4830   7.7002624104e+01  -5.2431572802e+00     0.194936    0.1546647 -40.76 0.0009923514    1.717    0.418
        23  -9.1713    146.8244    245.5496   8.9557665957e+01   3.2276485185e+00    0.2138352    0.1816603 -67.50 0.0008410414    1.642    0.391
        24  -9.0345    120.1367    245.3898   9.5225465150e+01   6.9430063799e+00    0.3273948    0.2193757  88.18  0.001673197    2.593    0.614
        25  -8.2341     76.7864    247.3689   1.0480050850e+02   1.2358772886e+01    0.1714862    0.1053198  24.35 0.0004532367    1.652    0.395
        26  -8.9508     34.3285    247.5742   1.1371843354e+02   1.7313274834e+01    0.2155436   0.08649996  36.81 0.0007379841    1.971    0.493
        27  -9.3008     11.1114    245.7590   1.1825852553e+02   2.0018012417e+01    0.2912926   0.08391501  54.39  0.001315193    2.808    0.644
        28  -9.4690     78.2749    243.4004   1.0410826260e+02   1.2928166827e+01    0.4283438    0.1823382  57.71  0.001760781    3.109    0.678
        29  -8.3651     67.5126    245.0238   1.0658011011e+02   1.3970248289e+01    0.1650719    0.1189764 -75.10  0.000576186    1.553    0.356
        30  -9.1062     45.5082    244.2731   1.1119218004e+02   1.6727025207e+01    0.3176929   0.06214155  35.20  0.001203563    3.375    0.704
        31  -9.7613    201.9189    240.4604   7.7753516659e+01  -3.2979953866e+00    0.3815883    0.2136287 -32.75  0.001732762    1.748    0.428
        32  -8.9263    203.2061    234.8551   7.6623831153e+01  -2.6463193842e+00     0.232715     0.186305 -53.85 0.0008805062    1.976    0.494
        33  -9.4638    182.6480    240.3587   8.1471800963e+01  -8.0161512574e-01    0.3589579     0.298131  31.15  0.001625192    1.340    0.254
        34  -9.3475    160.0435    240.1494   8.6036251540e+01   2.2930504182e+00    0.3103401    0.2441646 -81.14  0.001464221    2.270    0.559
        35  -9.2506     29.5522    241.4673   1.1432883572e+02   1.9026160370e+01    0.2469889    0.1722941  34.25  0.001037872    1.366    0.268
        36  -7.9273    214.0000    240.9968   7.5592635105e+01  -4.8527812844e+00    0.1774411   0.06024736 -39.24 0.0005373779    2.931    0.659
        37  -9.1049    241.1429    238.9514   7.0506431117e+01  -7.6746633584e+00    0.3887791    0.1503162 -20.31  0.001659745    3.523    0.716
        38  -8.9393    194.1786    239.3133   7.9053436678e+01  -2.1487206433e+00    0.1896608    0.1569288 -12.66 0.0005421701    1.171    0.146
        39  -8.3416     37.0891    240.5230   1.1270191349e+02   1.8409646940e+01    0.1807725   0.09942091  35.99  0.001021353    1.567    0.362
        40  -8.9627      3.3001    240.0136   1.1954102201e+02   2.1873968024e+01    0.2058234    0.1240702  49.37 0.0005035397    1.310    0.236
        41  -8.2883    146.1293    239.1996   8.8830946300e+01   4.3934543247e+00    0.1672907    0.1409414  46.66 0.0005448353    1.351    0.260
        42  -8.4514    135.5331    238.7399   9.1043522409e+01   5.9683204882e+00    0.1503345    0.1280649 -76.64  0.000928109    1.594    0.373
        43  -8.5805    125.9962    239.2174   9.3179436685e+01   7.2299394472e+00    0.1734592   0.09089137  32.25 0.0003789246    1.628    0.386
        44  -8.5326     52.7732    238.6163   1.0922406100e+02   1.7016861096e+01    0.2241494     0.123279  41.85 0.0008603989    1.496    0.331
        45  -8.9701    230.6786    236.8249   7.1953100839e+01  -6.2354016645e+00    0.2090753    0.1951371 -17.33  0.001096845    1.650    0.394
        46  -8.3806    169.0527    243.0971   8.4612658979e+01   5.9008405991e-01    0.1742241    0.1454976  52.33 0.0006020494    1.656    0.396
        47  -8.0244     83.9565    238.5258   1.0238014140e+02   1.3137352587e+01    0.1911779     0.108145  34.53 0.0005082169    1.509    0.337
        48  -9.1237     71.6781    238.1464   1.0505582433e+02   1.4799965772e+01    0.2437729    0.1653104  28.76 0.0007506682    1.406    0.289
        49  -8.5676     19.0610    237.7071   1.1627306284e+02   2.0851636767e+01    0.1638929     0.129697  52.39 0.0006181673    1.092    0.084
        50  -9.9207    214.7976    233.0065   7.4168276898e+01  -3.8284027482e+00    0.4323447    0.3495154 -84.18   0.00228411    3.606    0.723
        51 -10.0802    175.2500    232.9169   8.1815567724e+01   1.3672647619e+00    0.4597735    0.3759698 -75.22   0.00270258    2.152    0.535
        52  -7.5848    153.3040    235.6422   8.6797235045e+01   3.9886259657e+00    0.1220608   0.09771433  59.15 0.0007039381    1.720    0.419
        53  -9.3603    108.5637    234.1264   9.6394093095e+01   1.0634837070e+01     0.302158    0.2050503  65.16 0.0009115231    1.892    0.472
        54  -8.3285     99.8196    234.2440   9.8370256106e+01   1.1831596511e+01    0.2245843    0.1517995  89.07  0.001175906    2.072    0.517
        55  -8.8463     78.7781    234.4254   1.0311573967e+02   1.4630508867e+01    0.2463237    0.1569763  82.17   0.00129296    1.996    0.499
        56  -7.9610     44.6616    235.7130   1.1075422710e+02   1.8543547305e+01    0.1101354   0.09400694 -18.82  0.000242029    1.635    0.388
        57  -8.0959    122.9592    233.9853   9.3164987018e+01   8.6190011473e+00     0.205292    0.1453178  59.10 0.0008630281    1.744    0.426
        58  -8.4429     94.9082    234.1587   9.9464416215e+01   1.2523967605e+01    0.2110677    0.1565779  54.26  0.001233496    1.328    0.247
        59  -9.8267     68.7517    232.4112   1.0516594059e+02   1.6329214616e+01    0.4966181    0.2188637  60.49  0.002036971    3.001    0.667
        60  -8.0782      7.4922    234.5275   1.1846942699e+02   2.2599220237e+01    0.1151972   0.09086487  64.34 6.308981e-05    1.024    0.023
        61  -8.3224    194.2895    232.4303   7.7945668965e+01  -1.1289862595e+00    0.1692352    0.1505663 -51.22  0.000503189    1.661    0.398
        62  -9.3523    186.3870    230.4177   7.9177711635e+01   2.4064515268e-01     0.281312    0.2292384 -65.95  0.001300044    2.079    0.519
        63  -8.1411    132.5038    232.5129   9.0855201454e+01   7.5195878381e+00    0.1313937    0.1131075  28.79 0.0008100781    1.048    0.046
        64  -9.2878    236.1295    229.7165   6.9855050201e+01  -5.9019039206e+00     0.420796    0.1441859 -33.09  0.001982063    2.639    0.621
        65  -8.1932     88.3992    242.0257   1.0176143656e+02   1.1872830815e+01    0.1706218    0.1232357 -69.45 0.0006448731    1.614    0.381
        66  -8.3020      1.4600    230.5278   1.1951195640e+02   2.3959078124e+01    0.2008782   0.08470349  80.47  0.001015143    2.268    0.559
        67  -8.9610    151.3174    228.9611   8.6235802432e+01   5.4325438010e+00    0.2992079    0.2262688 -88.50  0.001362934    2.398    0.583
        68  -9.5397    148.6437    224.5510   8.6150925928e+01   6.6132379889e+00    0.3350936    0.3101612 -11.30  0.001345352    1.137    0.120
        69  -8.7799    140.2588    230.1375   8.8815046520e+01   6.8289246459e+00    0.2419133    0.1484828  51.05 0.0008800222    1.985    0.496
        70  -8.1408    229.6156    228.7896   7.0826583366e+01  -5.0197886960e+00    0.1507869   0.09921058 -37.82 0.0005095301    1.648    0.393
        71  -8.1847     32.7378    229.6207   1.1290336574e+02   2.1119478536e+01    0.1671577   0.09255442  42.27 0.0002957262    1.511    0.338
        72  -8.8322    199.4534    227.0923   7.6080800862e+01  -9.9482230733e-01    0.3207049    0.1813757  -6.36  0.001290143    2.192    0.544
        73  -8.6712    162.0380    227.7360   8.3756983579e+01   4.0957983803e+00    0.2295849    0.2128236  60.37  0.001013959    1.456    0.313
        74  -8.8067    127.8777    226.9194   9.1107353007e+01   9.2345080342e+00    0.2877866    0.2154575  70.70  0.001206879    1.886    0.470
        75  -8.7500     60.6936    227.8270   1.0655521737e+02   1.8286803656e+01    0.3904218   0.07486822  38.78  0.001355386    3.512    0.715
        76  -9.9002     49.2819    227.2152   1.0907421226e+02   1.9783228072e+01    0.3529804    0.2606395  47.83     0.002181    1.157    0.136
        77  -8.8300    206.1310    225.7805   7.4591909704e+01  -1.6718899316e+00    0.1982225    0.1552688 -37.09 0.0006455688    1.469    0.319
        78  -8.8393    216.4854    223.4522   7.2280665398e+01  -2.6538780472e+00    0.2242643    0.1892263 -46.66  0.001101916    1.723    0.420
        79  -8.7468    180.1806    224.1059   7.9408374477e+01   2.1185687937e+00    0.2133395    0.1715995  26.22 0.0003795477    1.207    0.171
        80  -8.4639    173.1310    223.2188   8.0714296282e+01   3.2709455831e+00    0.2051605    0.1740586 -82.99 0.0006050679    1.981    0.495
        81  -9.5050    138.7675    222.8224   8.8074175003e+01   8.3978242957e+00     0.300004    0.2242992  24.10 0.0007802932    1.205    0.170
        82  -8.6358    105.0078    223.7398   9.5901572222e+01   1.3186356420e+01    0.2823745    0.1886932  73.10  0.001393842    2.108    0.526
        83  -8.3702     59.9801    223.9731   1.0636233069e+02   1.9191675241e+01    0.2207892    0.1272591  59.04  0.000955659    1.740    0.425
        84  -7.4832    113.7041    223.7055   9.3890376230e+01   1.1933931354e+01    0.1293979   0.09999455  -6.58  0.000293404    1.562    0.360
        85  -9.1510    238.8291    221.1742   6.7970560390e+01  -5.0443234422e+00    0.2258481    0.1428594 -37.19  0.000784668    1.616    0.381
        86  -9.2852    225.2718    221.3759   7.0349543935e+01  -3.4482430557e+00    0.2082898    0.1699545 -23.69 0.0007056945    1.280    0.219
        87  -9.1481    192.3696    221.0978   7.6466501152e+01   9.0527838245e-01     0.272498    0.2331086 -54.84  0.001135654    1.689    0.408
        88  -9.1704    160.1000    220.9346   8.3101454544e+01   5.5692522063e+00    0.4734345    0.2232806  50.57  0.001809557    3.451    0.710
        89  -8.8539     82.7460    220.2943   1.0068238322e+02   1.7023297356e+01    0.2834094    0.1741234  87.83   0.00135563    2.210    0.548
        90  -8.8224     55.1284    221.1521   1.0721937293e+02   2.0390110412e+01    0.1761422    0.1671219  35.28 0.0004729747    1.187    0.157
        91  -7.9562     27.6202    221.1647   1.1345646845e+02   2.3461008328e+01    0.1679876    0.1013458 -65.83 0.0008155037    1.726    0.421
        92  -8.8228     94.0024    223.9741   9.8482900605e+01   1.4699168033e+01    0.3138261    0.1818148  73.75  0.001355462    2.777    0.640
        93  -7.9687    133.6564    220.3086   8.8849948488e+01   9.6401359164e+00    0.2419544    0.1120017  33.58 0.0008831125    1.924    0.480
        94  -9.2868    132.7312    215.7481   8.8375965982e+01   1.0666455821e+01    0.4972061    0.3197143  79.35  0.001998352    3.455    0.711
        95  -9.0618    120.3369    219.0756   9.1720948796e+01   1.1877603787e+01    0.3700526    0.2272438  67.12  0.001598927    2.736    0.635
        96  -7.9053     73.2960    220.6317   1.0293880820e+02   1.8214192781e+01    0.1405914   0.08833838  63.13 0.0007029604    1.726    0.421
        97  -8.8602     62.4157    217.7999   1.0520218136e+02   2.0224304658e+01    0.3635617    0.2000201  80.43  0.001664513    2.378    0.580
        98  -7.7499     18.5487    220.5581   1.1541460200e+02   2.4496696251e+01    0.1250536   0.09454459  63.31 0.0001395092    1.089    0.082
        99  -8.2504    210.1916    219.1387   7.2712317264e+01  -1.1942594411e+00    0.1525444    0.1375999 -18.63 0.0004178238    1.333    0.250
       100  -8.6281    248.9614    217.9433   6.5746779929e+01  -5.7614148109e+00    0.2553939    0.1921497  60.62  0.001381365    3.714    0.731
       101  -8.7615    142.9789    216.6704   8.6192217876e+01   8.9271107051e+00    0.2653371    0.1944123 -63.90  0.001156908    1.796    0.443
       102  -9.1010     51.6511    217.5782   1.0770237021e+02   2.1586589178e+01    0.2580746    0.1711003  74.45 0.0007706147    1.548    0.354
       103  -7.6569    179.2916    217.6554   7.8524957977e+01   3.3264504969e+00    0.1166148    0.1058896  68.72 0.0007027533    1.659    0.397
       104  -8.5004    169.3277    215.9998   8.0327933379e+01   5.0756081725e+00    0.2418538    0.2070085 -71.65 0.0008046179    1.739    0.425
       105  -8.0704    108.1708    217.3636   9.4322357739e+01   1.4029409699e+01    0.1972247    0.1089629  41.62 0.0004722367    1.650    0.394
       106  -8.9249     88.3323    215.7380   9.8818795106e+01   1.7225996307e+01    0.4812274    0.1356078  42.10  0.001684492    3.115    0.679
       107  -8.9617     93.2157    213.9165   9.7422195686e+01   1.6926758181e+01     0.342247    0.1875086  52.48    0.0014974    1.964    0.491
       108 -10.2816     72.9269    212.2448   1.0210802657e+02   2.0092413363e+01    0.8343996    0.3513986  52.91  0.003308921    2.697    0.629
       109  -8.9741    232.2057    214.3579   6.7935196914e+01  -3.2862948544e+00    0.2515549    0.1714585 -38.98  0.001067024    1.585    0.369
       110  -7.9477    154.4729    214.9808   8.3367367085e+01   7.4955232356e+00    0.1657854     0.123901 -83.08 0.0007052639    2.382    0.580
       111  -8.3394     12.7077    215.5660   1.1640370481e+02   2.6135963394e+01    0.1970424     0.114332  24.16 0.0006708339    1.910    0.476
       112  -9.3757    213.9936    212.0551   7.0783771580e+01  -6.0742697927e-01    0.3185578    0.2566757  51.95  0.001687056    1.977    0.494
       113  -8.8673    161.7760    211.8129   8.1248780003e+01   6.9672348136e+00    0.3308216    0.2017531 -56.24  0.001598013    2.147    0.534
       114  -7.7116     33.6586    213.7242   1.1155708828e+02   2.4468093913e+01     0.115252   0.09608185 -30.10 0.0001819207    1.619    0.382
       115  -8.1861    185.6449    214.3279   7.6665118397e+01   2.9707969613e+00    0.1726184    0.1566501  65.21 0.0008509828    1.667    0.400
       116  -7.4450    106.3457    212.6727   9.4112209259e+01   1.5278223120e+01    0.1449443   0.09860916  60.68 0.0007050307    1.749    0.428
       117  -9.0170    204.2296    210.6085   7.2362384793e+01   9.4923025907e-01     0.232797    0.1895905 -44.06 0.0007397365    1.522    0.343
       118  -8.2811    192.3159    210.4159   7.4649995594e+01   2.6657470160e+00      0.19368    0.1566306 -55.11 0.0006210607    1.722    0.419
       119  -9.4220    175.5608    209.9171   7.7984514127e+01   5.2195809082e+00    0.3768625    0.2566923  60.37  0.001639818    2.616    0.618
       120  -8.6323    148.0550    210.3842   8.4045989968e+01   9.3500197716e+00    0.2677332     0.206308  70.66  0.001289319    1.973    0.493
       121  -8.6298    116.3372    210.2258   9.1379746151e+01   1.4288263932e+01     0.296106    0.1739963  58.90 0.0008980234    2.342    0.573
       122  -8.5462     46.1065    210.4565   1.0836735424e+02   2.3824662420e+01    0.3442436    0.1437062 -66.09  0.001545747    2.349    0.574
       123  -8.8319      6.8252    209.3836   1.1736126272e+02   2.8029287586e+01    0.3922297    0.1149128  76.23  0.001215765    5.457    0.817
       124  -8.0250      3.5592    211.5105   1.1819217236e+02   2.7837417810e+01    0.1211875    0.0949185  69.94 5.362137e-05    1.023    0.023
       125  -8.5909     85.6716    209.3555   9.8669302681e+01   1.8990588747e+01    0.3023413    0.1866763  73.60   0.00137944    2.204    0.546
       126  -8.0427     32.3086    209.9823   1.1158327327e+02   2.5452191007e+01    0.2092811   0.08006381  78.21 0.0007038221    4.183    0.761
       127  -9.0760    236.6040    208.1503   6.6101812255e+01  -2.9254901412e+00    0.2551476    0.2100083 -58.18  0.001138151    2.129    0.530
       128  -9.5018    246.4553    207.1337   6.4291262168e+01  -3.9713235702e+00     0.252972    0.1687587 -30.17 0.0006929127    1.290    0.225
       129  -8.5912    138.3767    207.8786   8.5843951825e+01   1.1351547178e+01    0.3533043    0.2134314  29.22  0.001525233    1.556    0.357
       130  -8.4083    126.4330    208.2666   8.8691831150e+01   1.3139065598e+01     0.178377    0.1376736 -70.96 0.0006170598    1.633    0.388
       131  -9.1675     99.4422    206.0839   9.4866866816e+01   1.7720410365e+01     0.355413    0.2261045  72.58  0.001149912    2.281    0.562
       132  -8.4154     25.3565    206.9558   1.1298142590e+02   2.6851972977e+01    0.2568186    0.1075027 -87.20  0.001111845    2.577    0.612
       133  -9.2193     79.6550    205.9215   9.9718475381e+01   2.0596043999e+01    0.2968502    0.1739815  37.39 0.0005642988    1.546    0.353
       134  -8.5280     56.8084    205.5555   1.0530839782e+02   2.3668149055e+01     0.345619    0.1455522  54.70  0.001378564    2.655    0.623
       135  -8.1317    109.1847    205.1670   9.2356196201e+01   1.6453442364e+01    0.1928101    0.1588221  66.82 0.0007644233    1.375    0.272
       136  -9.3231    194.7110    203.0083   7.2860728036e+01   3.5679042179e+00    0.3236105    0.2349696 -46.16  0.001171943    1.586    0.369
       137  -9.1968    192.4803    197.1620   7.2239758622e+01   4.9095971253e+00    0.3644245    0.2940522 -69.79   0.00140838    2.030    0.508
       138  -8.9898    183.6927    203.7589   7.5216251646e+01   5.0817494222e+00    0.2572774    0.2265284  55.63  0.001096377    1.569    0.363
       139  -9.5788    163.9616    202.9312   7.9251309292e+01   8.2802662221e+00    0.4496801    0.2565717  50.37  0.001154927    2.338    0.572
       140  -8.7487    131.1846    203.9356   8.6885364519e+01   1.3284727082e+01    0.2588159    0.2227062  61.67  0.001102769    1.360    0.265
       141  -9.5190    250.0818    201.8350   6.2777109467e+01  -3.6483928882e+00    0.3626668    0.1583636 -39.11  0.001732687    2.056    0.514
       142  -9.4939    245.5036    193.1818   6.1961096853e+01  -1.8310890770e+00    0.3445112    0.2090119 -49.16  0.001571754    2.224    0.550
       143  -8.1377     41.7693    203.1796   1.0875549520e+02   2.5985190898e+01    0.2409928    0.1015222  60.37 0.0009520964    2.808    0.644
       144  -9.1919     12.1742    202.9380   1.1577577829e+02   2.9015068814e+01     0.288639    0.1310779  41.25  0.001041816    1.914    0.478
       145  -9.1470    243.0147    200.8118   6.3736001561e+01  -2.6446619614e+00    0.3032402    0.1475466 -36.02 0.0008904244    1.763    0.433
       146  -8.5249    211.0173    201.8073   6.9512042907e+01   1.4231736374e+00    0.2111797    0.1593018 -46.95  0.001025398    1.634    0.388
       147  -8.8169    140.4387    201.1920   8.4262462459e+01   1.2370022270e+01    0.3097881    0.2278636  84.03  0.001451734    2.288    0.563
       148  -8.7125     79.9806    201.1384   9.9035763267e+01   2.1638416181e+01    0.3344649    0.2012898  74.78  0.001469326    2.285    0.562
       149  -7.7965    222.1173    201.1593   6.7371242199e+01   2.9870734026e-04    0.1574066    0.1398453 -28.15 0.0005792023    1.335    0.251
       150  -9.2721    149.4915    198.3761   8.1689194315e+01   1.1476554933e+01    0.4044988    0.2946277 -86.64  0.001365436    2.462    0.594
       151  -8.7164    124.0988    199.3342   8.7833115625e+01   1.5376104577e+01    0.2841567    0.2072842  72.62  0.001151862    1.954    0.488
       152  -9.1155    237.1098    198.2964   6.4262339535e+01  -1.5302749790e+00    0.2634855    0.1471977 -39.27 0.0009643194    1.684    0.406
       153  -8.1186    177.0790    199.0335   7.5741510854e+01   6.9460534671e+00     0.188838     0.171138  82.73 0.0005294021    1.623    0.384
       154  -9.2024    112.8138    198.2897   9.0423928715e+01   1.7389048916e+01    0.4115916    0.2654234  63.23  0.001844757    2.107    0.525
       155  -8.9499     88.7200    198.5108   9.6484211136e+01   2.0994335869e+01    0.3480512    0.2297611  73.93  0.001274732    1.976    0.494
       156  -9.5836     61.5517    197.1771   1.0321309289e+02   2.5024512080e+01    0.5445041    0.2502588  62.93  0.001679918    3.091    0.676
       157  -8.3086    202.5219    197.7393   7.0377851555e+01   3.3135548040e+00    0.1683809    0.1196963 -45.68  0.000581962    1.595    0.373
       158  -8.1563    105.0088    198.4953   9.2391489768e+01   1.8556446132e+01    0.2144691    0.1314237  34.25 0.0004182633    1.520    0.342
       159  -8.5672     52.9585    197.0436   1.0537555407e+02   2.6122462808e+01    0.2146792    0.1592013 -33.56  0.001142211    1.752    0.429
       160  -8.2265     12.5120    197.0225   1.1532131710e+02   3.0350586456e+01    0.1922443   0.08031553  72.61 0.0008104795    2.625    0.619
       161  -8.5336    215.8578    195.5014   6.7466820244e+01   1.7649105798e+00    0.2326783    0.1580821 -50.93 0.0007493891    1.939    0.484
       162  -7.8925     36.2895    196.6234   1.0951263718e+02   2.8123103998e+01    0.1438434   0.08386868  65.14 0.0007019556    1.731    0.422
       163  -8.8498    224.5557    193.8247   6.5599890986e+01   8.2335641237e-01    0.3108979    0.1322701 -45.28  0.001376861    2.579    0.612
       164  -7.7734    209.2605    195.6066   6.8705537761e+01   2.6895779447e+00     0.118403    0.1014265 -58.58 0.0006970672    1.703    0.413
       165  -8.8296    185.2686    194.7684   7.3257297610e+01   6.4426328389e+00    0.2259881    0.1952344 -54.03  0.000705406    1.474    0.321
       166  -8.7651    160.9087    194.2451   7.8373945959e+01   1.0435620754e+01    0.2361058     0.202917 -80.66 0.0009169255    1.648    0.393
       167  -7.8936    133.2544    195.6493   8.5018268728e+01   1.4679738695e+01    0.1358706     0.112369  77.63 0.0005223937    1.598    0.374
       168  -7.7907    230.7241    194.3073   6.4618223545e+01  -8.7219666797e-02    0.1080003   0.09512869 -45.82 0.0002422661    1.550    0.355
       169  -8.8112     77.1136    193.8607   9.8818406142e+01   2.3729543875e+01    0.2408389    0.2092733  59.17 0.0006180901    1.101    0.092
       170  -9.0424     43.6575    193.1440   1.0733185997e+02   2.8139764038e+01    0.3991185    0.1924723  71.02   0.00161765    2.700    0.630
       171  -8.6466      6.0760    192.5294   1.1656693981e+02   3.1947685267e+01    0.3448325    0.1665524 -66.79  0.001761767    1.928    0.481
       172  -8.2373    241.3362    192.2808   6.2472081106e+01  -1.1674000201e+00    0.1246137   0.07939265  -6.14 0.0003194062    1.617    0.382
       173  -8.3960    199.0739    191.6869   6.9920620463e+01   4.8636173795e+00    0.2163197    0.1715266 -41.66 0.0006104303    1.365    0.267
       174  -8.5433    172.4824    191.6126   7.5355901709e+01   9.0597443877e+00    0.2428396     0.193485 -80.10 0.0009816368    2.064    0.516
       175  -8.2983    117.9499    191.6638   8.8083318608e+01   1.8031680680e+01    0.2032268    0.1741429  30.19  0.000340572    1.106    0.096
       176  -7.5929    205.3186    191.6525   6.8712650600e+01   3.9314707249e+00    0.1194092    0.1078067 -76.18 0.0007048653    1.731    0.422
       177  -9.0071    139.3302    190.2537   8.2626765514e+01   1.4814783580e+01    0.3023151    0.2441569  85.94  0.000974805    1.754    0.430
       178 -10.4449     92.1365    188.7236   9.4197770803e+01   2.2756410561e+01    0.9234304    0.3003486  45.80  0.002997265    3.350    0.701
       179  -8.4838     17.1843    191.3762   1.1380508850e+02   3.1261626545e+01    0.1851558   0.09770128  41.34 0.0009499417    1.738    0.425
       180  -9.1790    155.9168    187.5206   7.8260001403e+01   1.2598885239e+01    0.3577036     0.205305 -54.94 0.0008039356    2.074    0.518
       181  -8.3577    148.6171    189.1175   8.0235670329e+01   1.3498196218e+01    0.2116734    0.1809452 -72.01  0.001078837    1.493    0.330
       182  -8.7410    129.1340    188.4975   8.4779033776e+01   1.6890504897e+01    0.2802401    0.2216665  85.17 0.0009769654    1.745    0.427
       183  -9.5121    120.7962    186.3223   8.6466352294e+01   1.8754315025e+01    0.5190619    0.3056919 -74.72  0.002017538    2.801    0.643
       184  -8.9897     34.3321    188.0815   1.0922459024e+02   3.0378038370e+01    0.3585123    0.1723837  69.88  0.001257624    2.506    0.601
       185  -8.1389    237.4034    188.2775   6.2382968183e+01  -4.4358472753e-02    0.1647862    0.1018951 -40.55 0.0008439324    1.567    0.362
       186  -8.7220    216.6182    187.8472   6.5899890587e+01   2.9102037162e+00    0.2189317    0.1855497 -54.69   0.00098368    1.627    0.385
       187  -8.8833    191.3519    187.5879   7.0671693562e+01   6.7832053871e+00    0.2585865    0.2306274 -88.16  0.001280384    1.719    0.418
       188  -9.0234     54.6744    186.9178   1.0380666737e+02   2.8345855829e+01    0.4178894    0.2314903  69.04  0.001647196    2.219    0.549
       189  -9.2219    249.0824    185.4790   5.9989531144e+01  -1.1371763818e+00    0.2723755    0.2271051  49.61  0.001823488    1.854    0.461
       190  -8.1278    230.6822    187.3414   6.3336310433e+01   1.0083681760e+00    0.1136009   0.09857814 -57.60 0.0007049092    1.713    0.416
       191  -8.7518    164.8773    186.8214   7.6115463095e+01   1.1237301866e+01    0.2610547    0.1985271 -55.63 0.0008241721    1.564    0.361
       192  -9.0721    109.7063    186.1024   8.9240559580e+01   2.0617659855e+01    0.3959745    0.2590496  67.92  0.001387591    2.195    0.544
       193  -7.7058     49.6587    187.7451   1.0521696049e+02   2.8748971394e+01    0.1286065    0.1041964 -25.05  0.000229087    1.580    0.367
       194  -9.1599     28.4092    186.9202   1.1063564709e+02   3.1265142544e+01    0.2715916    0.1479868  42.12 0.0005964147    1.707    0.414
       195  -9.1468    210.1240    183.9496   6.6348004205e+01   4.5241196809e+00    0.2686885    0.1624835 -32.98 0.0005430527    1.484    0.326
       196  -8.4863    202.7038    184.4093   6.7835375923e+01   5.5760141992e+00    0.2184715    0.1560145 -46.59  0.000563333    1.547    0.354
       197  -8.6715    182.8771    185.0097   7.1907458492e+01   8.6136515333e+00     0.200358    0.1902899 -46.72 0.0007255307    1.285    0.222
       198  -8.9877     66.7747    184.5838   1.0030768580e+02   2.7365894618e+01     0.378005    0.1828995  55.30  0.001157569    2.439    0.590
       199  -8.4507    224.0405    183.4604   6.3749632699e+01   2.5612694092e+00    0.2061132    0.1431077 -31.55 0.0005234951    1.246    0.197
       200  -8.8007    174.3008    183.6035   7.3445932204e+01   1.0292309102e+01    0.2590371    0.2271222 -85.19 0.0007462458    1.644    0.392
       201  -8.9200     44.6042    182.2406   1.0594483207e+02   3.0685299338e+01    0.4108534    0.1982623  60.80  0.001133019    2.455    0.593
       202  -7.7378      1.5050    183.4775   1.1712079580e+02   3.4447962292e+01    0.1270761    0.1017343  75.71 5.948034e-05    1.046    0.044
       203  -8.8589    147.3967    180.4711   7.8906408651e+01   1.5508681709e+01      0.28315    0.2438657  83.83 0.0007980908    1.546    0.353
       204  -8.0712     59.9530    181.4718   1.0173589705e+02   2.9020452541e+01    0.2086759    0.1315764  34.43 0.0006183606    1.548    0.354
       205  -9.8291     25.5777    179.1087   1.1067291034e+02   3.3453747572e+01    0.5968633    0.2739441  70.06   0.00245841    2.628    0.620
       206  -7.5746    240.3200    180.2993   6.0419042270e+01   8.0000637885e-01    0.1269336   0.08242806  -8.51 0.0003215305    1.621    0.383
       207  -8.5917    137.5695    179.1772   8.1018698534e+01   1.7487821018e+01    0.2946709     0.220392  72.02  0.001117071    1.943    0.485
       208  -8.7069    250.4794    172.6676   5.7395051824e+01   6.1647197766e-01    0.2256484    0.1210911 -37.65 0.0005100581    1.548    0.354
       209  -9.4047    248.9247    177.3571   5.8510850294e+01   1.0712733507e-01    0.3672169    0.2332746 -40.86  0.001240264    1.493    0.330
       210  -8.8120    247.3092    173.6873   5.8071693698e+01   8.8257244953e-01    0.2018667    0.1291181 -40.12 0.0004010203    1.438    0.305
       211  -9.2553    191.3765    178.2312   6.8850925659e+01   8.4836243698e+00    0.2635661    0.2355467 -56.41 0.0006494192    1.406    0.289
       212  -9.1498     36.8249    178.2055   1.0759375879e+02   3.2542060758e+01    0.3823061    0.1775684  73.60  0.001452561    2.971    0.663
       213  -8.7516    205.0330    177.5337   6.6055368567e+01   6.4191114066e+00    0.2451938    0.1763339 -48.41 0.0006676362    1.566    0.361
       214  -7.8994    169.4752    178.5000   7.3496649618e+01   1.2103408406e+01    0.1408218     0.133017  -5.38 4.016779e-05    1.080    0.074
       215  -8.6293    129.2935    177.3000   8.2710083009e+01   1.9334342698e+01    0.2870452    0.2115721  77.47 0.0008604708    2.021    0.505
       216  -8.5624    231.1324    176.7325   6.1252398300e+01   2.6394645124e+00    0.2206549    0.1484547 -40.19 0.0006642101    1.412    0.292
       217  -8.3455    217.5108    177.1479   6.3688387217e+01   4.5662332518e+00    0.1893769    0.1788996 -48.87 0.0007104709    1.393    0.282
       218  -8.9705    183.1093    176.0370   7.0101445890e+01   1.0265427733e+01    0.2859077    0.2226778 -63.69 0.0007314385    1.768    0.434
       219  -7.8566     97.7750    177.4068   9.0912429649e+01   2.4567291228e+01    0.2036104    0.1407989  19.46 0.0006554587    1.638    0.389
       220  -8.5384     89.0469    176.7344   9.3153276080e+01   2.6090329632e+01    0.3042868    0.2059863  74.56 0.0007859683    1.951    0.487
       221  -9.9400     57.3959    173.1057   1.0134872298e+02   3.1431274408e+01    0.8907942    0.4115853  77.45  0.002621693    4.823    0.793
       222  -9.2252    158.9064    175.0770   7.5182165293e+01   1.4627667239e+01    0.3582627    0.2689551  86.82  0.001034794    2.313    0.568
       223  -9.1424    104.4760    174.7343   8.8664570990e+01   2.4123598404e+01    0.5538813    0.2946682  59.74  0.001983052    2.922    0.658
       224 -10.6304     75.9312    170.3900   9.5765249940e+01   2.9606455997e+01     1.248194    0.5029777 -76.53  0.003465649    4.927    0.797
       225  -9.8148     81.2562    155.4002   9.1719323373e+01   3.2596043283e+01    0.6284649    0.5441281 -29.83  0.002384287    1.265    0.210
       226  -8.6772     12.6724    176.3337   1.1381468078e+02   3.5291948317e+01      0.21953    0.1208986  61.67  0.001099881    1.773    0.436
       227  -8.0255    224.2125    174.1860   6.1936273379e+01   4.0615986015e+00    0.1666832    0.1410757 -41.63  0.000441199    1.324    0.244
       228  -9.4555    175.7798    171.9910   7.0831992784e+01   1.2299792545e+01    0.3651664    0.2142801 -46.16 0.0009468553    1.718    0.418
       229  -8.0620    143.0363    172.5150   7.8404547585e+01   1.7977872953e+01    0.2001263    0.1247756  58.91 0.0004997654    2.306    0.566
       230  -8.4411    134.6682    171.5568   8.0269196949e+01   1.9675372381e+01    0.2381401    0.1861776 -76.69 0.0008610943    1.681    0.405
       231  -9.1102     44.9737    170.7678   1.0452234818e+02   3.3514089166e+01    0.3618125    0.2075314  82.37  0.001310372    2.079    0.519
       232  -9.3740    121.3527    170.2878   8.3406516485e+01   2.2307940138e+01    0.3700773    0.2795403  88.76  0.001030916    1.856    0.461
       233  -8.8726    230.7595    169.8906   5.9991981818e+01   3.8050360628e+00    0.1999969    0.1492525 -16.50 0.0007628708    1.208    0.172
       234  -8.2856    205.9592    170.2226   6.4429392578e+01   7.5650069132e+00    0.1839993    0.1390964 -52.20 0.0003934152    1.573    0.364
       235  -8.4447    198.4807    169.9763   6.5801538654e+01   8.8292327361e+00    0.2070384    0.1251616 -41.16  0.000644455    1.553    0.356
       236  -8.0107    110.6519    170.2866   8.6217813584e+01   2.4149379559e+01    0.1545541    0.1147494  65.13 0.0007021736    1.656    0.396
       237  -8.9035    111.6009    167.2463   8.5396244513e+01   2.4708564746e+01    0.3736003    0.2753759  86.58  0.001681067    1.885    0.469
       238  -8.5305    244.5746    169.2713   5.7656669262e+01   1.9395590106e+00    0.1770018    0.1393889 -55.40 0.0005722882    1.728    0.421
       239  -8.3101    237.2818    169.0966   5.8773248812e+01   2.9906222369e+00    0.1871015    0.1364924 -31.84 0.0009827747    1.149    0.130
       240  -9.1610    166.8480    168.3635   7.2037762423e+01   1.4596558246e+01    0.2956877    0.2409711  80.34 0.0006078035    1.826    0.452
       241  -8.4905    149.8601    169.1723   7.6101951239e+01   1.7477648319e+01    0.2206195    0.2032335  86.20 0.0007570734    1.327    0.246
       242  -8.2769    218.8350    168.1654   6.1686502953e+01   5.8893800082e+00    0.1915693    0.1619712 -35.17  0.000488835    1.182    0.154
       243  -8.0320     88.5228    168.5034   9.1935601376e+01   2.8188496794e+01    0.1502195    0.1391532  67.96 0.0001577538    1.089    0.082
       244  -8.8575    192.0374    166.6673   6.6390428065e+01   1.0522149075e+01    0.2685615    0.2151333 -53.32 0.0008342075    1.453    0.312
       245  -8.8110    185.2659    166.5782   6.7738533606e+01   1.1703492324e+01    0.2501143    0.1638118 -50.49  0.000696413    1.675    0.403
       246  -8.5118     13.3320    167.6853   1.1294341197e+02   3.7381420059e+01    0.1411841   0.08302048  62.17 0.0007045857    1.682    0.406
       247  -9.6808    136.6424    164.1970   7.8305864694e+01   2.0965488935e+01    0.6080796    0.3127725  56.02  0.001880894    2.992    0.666
       248  -9.9451     94.8274    162.4241   8.9097914226e+01   2.8687619610e+01    0.9034862    0.5292902  82.02  0.003026712    3.520    0.716
       249  -9.4269     20.5464    165.9208   1.1081068870e+02   3.7212846751e+01    0.3620761    0.1686662  53.07  0.001603288    2.226    0.551
       250  -8.1317    233.8694    164.8592   5.8498391432e+01   4.1703296484e+00    0.1700636    0.1351038 -42.04 0.0005047402    1.304    0.233
       251  -9.8097     33.5481    163.4464   1.0689324431e+02   3.6610377885e+01    0.5402653    0.2130945  51.41  0.002051128    2.861    0.650
       252  -8.5266    213.0809    163.6321   6.1795674779e+01   7.5815183235e+00    0.2343272    0.1616953 -44.04 0.0005767323    1.429    0.300
       253  -8.5004    159.3992    164.0878   7.2832132329e+01   1.6823744959e+01    0.2498155    0.2100019  72.24  0.001148388    1.581    0.367
       254  -9.2483     62.8525    163.8685   9.8494090907e+01   3.3068647579e+01    0.5628224    0.1630746  37.84  0.001733486    3.116    0.679
       255  -8.6184     60.6788    160.1100   9.8561329181e+01   3.4318271144e+01    0.3385078    0.2128929  83.30  0.001275789    2.015    0.504
       256  -8.7693    246.0725    163.0038   5.6224748973e+01   2.7139094295e+00    0.1915601    0.1507277 -26.73 0.0004923334    1.027    0.026
       257  -8.3489    204.8604    162.6253   6.3091609241e+01   9.1053572476e+00    0.2191468    0.1496701 -41.80  0.000471882    1.384    0.278
       258  -9.3238      3.2609    162.2756   1.1524227989e+02   3.9496409533e+01    0.3927946    0.1821693  53.94  0.001658369    2.164    0.538
       259  -8.9722    177.3849    160.4828   6.8107053376e+01   1.4287420409e+01     0.282259     0.236266 -65.11 0.0008064279    1.502    0.334
       260  -8.5544    151.7876    161.0167   7.3959992398e+01   1.8876512420e+01    0.2245447     0.202592 -81.79 0.0007558112    1.354    0.262
       261  -8.6307    227.2330    158.7990   5.8381871027e+01   6.1755325759e+00    0.2898148    0.1787468 -52.67 0.0009427334    1.993    0.498
       262  -9.7442    250.2461    157.4908   5.4539711574e+01   2.9920257590e+00    0.3239892    0.1538754 -38.10 0.0009402503    1.705    0.414
       263  -9.5578    246.7281    155.6662   5.4704662401e+01   3.7774683021e+00    0.6553476    0.3459573  -7.34   0.00243013    4.384    0.772
       264  -8.5037    237.3737    159.1517   5.6816922014e+01   4.5821542087e+00    0.1863694    0.1013183 -44.34 0.0007849652    1.742    0.426
       265  -8.2289    128.1051    159.0074   7.9409411942e+01   2.3706779071e+01    0.2378044    0.1886852  80.03 0.0006876597    1.689    0.408
       266  -9.6916    106.0328    157.9635   8.5120635558e+01   2.7899323657e+01     0.518455    0.3279191  64.85  0.001281431    2.287    0.563
       267  -8.4854    196.8564    157.9313   6.3631983604e+01   1.1325593349e+01     0.208177    0.1725676 -73.38 0.0008272945    1.711    0.415
       268  -8.9855    167.5546    157.1692   6.9528296945e+01   1.6756672296e+01    0.2808032     0.235687 -89.82 0.0009412814    1.665    0.399
       269  -8.2974    218.0031    156.4497   5.9465022286e+01   8.0392701254e+00    0.2572535    0.1624025 -48.22 0.0007831167    1.661    0.398
       270  -7.9192    188.2851    157.6700   6.5262243884e+01   1.2881446647e+01     0.135215    0.1134481 -71.79  0.000525747    1.613    0.380
       271  -8.5718     41.8361    156.8506   1.0366919460e+02   3.7433244387e+01    0.1953703    0.1529945  63.23     0.000483    1.295    0.228
       272  -8.7146    157.7804    155.8189   7.1447642953e+01   1.8867067714e+01    0.2994282    0.2066767 -55.41  0.001379621    1.619    0.382
       273  -9.1452    119.3264    154.7770   8.0844496933e+01   2.6300499063e+01    0.3907808     0.258642 -74.95   0.00093562    2.176    0.540
       274  -9.3184     49.6582    155.0135   1.0107999188e+02   3.7013730207e+01     0.447273    0.2458846  68.43  0.001624884    2.463    0.594
       275  -8.7681    242.9566    154.9453   5.5128425211e+01   4.4387571301e+00    0.1962251    0.1560483 -29.44  0.000474253    1.035    0.034
       276  -7.8444    204.7326    155.3636   6.1608320987e+01   1.0441630249e+01    0.1336213    0.1052526 -61.75 0.0004808492    1.650    0.394
       277  -9.1556     98.8911    155.2488   8.6591304786e+01   2.9786067342e+01    0.4266509    0.1629273  41.21  0.001463982    2.589    0.614
       278  -9.4179     68.0107    153.7076   9.5358190636e+01   3.4973736205e+01     0.462032    0.2869346  66.51  0.001360622    2.097    0.523
       279  -8.2679    144.7113    154.5705   7.4284665204e+01   2.1608459849e+01    0.2073758    0.1434072  49.38 0.0009358005    1.582    0.368
       280  -9.6342    132.7801    152.8309   7.6897527335e+01   2.4256288645e+01    0.4526823    0.3507489  73.62  0.001372529    1.743    0.426
       281  -9.2135    133.3225    148.3319   7.5775188899e+01   2.5181862977e+01    0.4016173    0.2146307 -38.20  0.001565362    2.018    0.504
       282  -8.3291    113.1736    151.7915   8.1892966206e+01   2.8128989858e+01    0.2145203    0.1815319 -17.54 0.0007558403    1.318    0.241
       283  -9.9999     29.4564    150.5344   1.0657539272e+02   4.0342950049e+01    0.5706351    0.2665153  65.33  0.002169496    2.934    0.659
       284  -8.6470     98.4575    150.7700   8.5826118501e+01   3.0967798001e+01    0.3013364    0.2186415 -87.21  0.001145844    1.832    0.454
       285  -9.4124    248.9275    149.1083   5.3101964327e+01   4.4957972911e+00    0.3007278     0.148813 -36.88  0.000744931    1.628    0.386
       286  -8.8175    243.2639    149.8470   5.4076656959e+01   5.2109849643e+00     0.234942    0.1258513 -40.11 0.0009791689    1.562    0.360
       287  -8.6227    189.3852    150.0317   6.3403748401e+01   1.4148477046e+01    0.2244712    0.1986008 -73.47 0.0007008292    1.436    0.303
       288  -7.9643    162.4908    150.4901   6.9204676270e+01   1.9096454691e+01    0.1486613     0.142008 -22.71 0.0001158691    1.038    0.037
       289  -7.9128    212.8060    149.6062   5.8948691165e+01   1.0102038580e+01    0.1594235    0.1323989  54.37 0.0002180076    1.512    0.339
       290  -8.4110    198.7379    148.7782   6.1326855044e+01   1.2698802695e+01    0.1830715    0.1590954 -58.15 0.0004931351    1.338    0.253
       291 -10.0718     89.3719    146.3392   8.7593201050e+01   3.3599708716e+01     0.694778    0.4130252  84.15  0.002324268    3.404    0.706
       292 -10.8551     54.8226    144.9546   9.7943399630e+01   3.9001811129e+01    0.9142364    0.5622857  89.68  0.003547269    2.054    0.513
       293 -10.0018     39.6580    147.4510   1.0305132690e+02   4.0115247642e+01    0.5864349    0.3051426  68.45  0.002006253    2.677    0.627
       294  -9.2049    233.5796    147.5009   5.5080935562e+01   7.0734925684e+00    0.2534007    0.1332576 -39.40 0.0008287723    1.603    0.376
       295  -8.0821    223.3949    146.7237   5.6550968886e+01   8.8387681586e+00    0.1813127     0.110759 -30.83 0.0004020623    1.473    0.321
       296 -10.1117    149.0258    144.8666   7.1086248385e+01   2.2909283423e+01    0.5366271    0.3761691  88.09  0.001824484    2.598    0.615
       297 -10.1842    106.5764    144.3643   8.2163061472e+01   3.1119023879e+01    0.6495095    0.4040649  72.72  0.002268013    2.931    0.659
       298  -9.0256     77.9726    146.9351   9.1137612141e+01   3.5257249485e+01    0.2462269    0.1784452  71.57 0.0006135348    1.705    0.414
       299  -9.8396     13.6182    146.2921   1.1087668516e+02   4.2795541406e+01    0.3784806    0.2017083  57.16  0.001308926    2.039    0.510
       300  -8.1669    175.4890    146.0423   6.5370215308e+01   1.7525327348e+01    0.2197127    0.1383004 -43.89 0.0004873042    1.519    0.342
       301  -9.8319    139.0119    144.8649   7.3551420307e+01   2.4868555235e+01    0.4030161    0.2777372 -68.66   0.00115452    1.960    0.490
       302  -7.8846    182.4214    151.1816   6.5058109926e+01   1.5203318158e+01     0.202784    0.1310272 -51.99 0.0007627538    1.693    0.409
       303  -8.9360    240.3708    145.1745   5.3576374608e+01   6.4027198784e+00    0.2038781    0.1525604 -47.66 0.0005401849    1.362    0.266
       304  -9.6786    242.9798    143.0173   5.2758990711e+01   6.3530140403e+00    0.4464194    0.1541468 -35.54  0.001837208    2.499    0.600
       305  -8.5891    165.7646    143.9752   6.7012743173e+01   1.9822437000e+01    0.2258271    0.1990639 -71.71 0.0007208111    1.352    0.260
       306  -9.7340    124.9580    142.4336   7.6650362446e+01   2.8150140270e+01    0.5229694    0.3481763 -78.55  0.001355811    2.434    0.589
       307  -9.0195     31.3472    144.2294   1.0519571895e+02   4.1803444700e+01    0.3272833    0.1404688  32.87  0.001370887    2.334    0.572
       308  -7.5294    194.3367    143.7125   6.1060562657e+01   1.4445182961e+01    0.1356124    0.1133112 -78.88 0.0004396083    1.632    0.387
       309  -9.5044      2.9882    141.7859   1.1363809266e+02   4.4688533348e+01    0.3948263    0.2041557  72.15  0.001414339    2.093    0.522
       310 -10.6186     69.4730    140.8032   9.2604723238e+01   3.8099958024e+01    0.6055371    0.3565633 -79.33  0.002123488    2.203    0.546
       311 -10.5318     70.0567    134.1725   9.1129353496e+01   3.9727643097e+01    0.8465414     0.223851  29.57  0.002391817    4.207    0.762
       312  -8.3202    250.5004    140.9234   5.1270432044e+01   5.5558794713e+00    0.1934225     0.100507 -38.38 0.0006131515    1.543    0.352
       313  -9.2372     46.2081    139.9260   9.9858994739e+01   4.1357121955e+01    0.3657654    0.1909481  22.30  0.001500664    2.170    0.539
       314 -10.3333     23.1425    138.3775   1.0702599796e+02   4.4078264175e+01    0.6081268    0.3451474  44.92  0.002539298    1.871    0.466
       315  -8.4815    172.2551    138.1650   6.4273441824e+01   1.9741908164e+01    0.2700265    0.1927491 -58.40 0.0007859737    1.631    0.387
       316  -7.6981    218.6863    138.3452   5.5567598660e+01   1.1079581059e+01    0.1340888    0.1013174 -63.61 0.0007047121    1.712    0.416
       317  -8.1502    207.5436    137.7620   5.7338358358e+01   1.3142969117e+01    0.1915274    0.1197786 -48.23 0.0005540027    1.587    0.370
       318  -8.4955    197.6717    137.3518   5.9028385171e+01   1.5022923742e+01    0.2492815    0.1568246 -49.05 0.0005436557    1.605    0.377
       319  -8.8577    150.0938    136.6977   6.8943205960e+01   2.4475085781e+01    0.4544351    0.2822371  -3.77  0.001541154    3.312    0.698
       320  -8.9195    247.0437    143.6182   5.2291051833e+01   5.6434053463e+00     0.248129    0.1520759 -36.99 0.0006134062    1.319    0.242
       321  -8.0928     93.6397    137.2603   8.4416995700e+01   3.5159152030e+01    0.1578153    0.1181925  65.06 0.0002762217    1.629    0.386
       322 -10.4144     83.3205    133.1541   8.6700763589e+01   3.7927048035e+01    0.6265904    0.4295128 -59.18  0.001835207    1.448    0.309
       323  -9.0741    248.3994    135.2435   5.0435177893e+01   6.7699784802e+00    0.2561476    0.1667262 -42.48 0.0007440653    1.310    0.237
       324  -8.0678    162.8221    136.5534   6.5962345216e+01   2.1947084198e+01    0.2027826    0.1457036  57.17 0.0009313006    1.649    0.393
       325 -10.2094     62.7498    135.3004   9.3708156255e+01   4.0475531763e+01     0.383989    0.3465967 -37.91  0.001044614    1.135    0.119
       326  -9.2626     38.9990    135.7989   1.0154329517e+02   4.3236818766e+01    0.2890149    0.2146813  83.82  0.000849655    1.449    0.310
       327  -7.7262    188.2741    135.6672   6.0435510454e+01   1.7117233897e+01    0.1413674    0.1115819 -67.33 0.0004497334    1.597    0.374
       328  -8.5782    179.1790    133.6892   6.1795911359e+01   1.9272579401e+01    0.2578528      0.19166 -51.58 0.0008433278    1.387    0.279
       329  -8.9315    113.0075    133.4142   7.7867987551e+01   3.2572693952e+01    0.3399635    0.2573614  72.31  0.001037741    1.747    0.428
       330  -8.1599    237.3839    133.1952   5.1585035081e+01   8.8301834093e+00    0.1857589    0.1012063 -45.25  0.000507238    1.653    0.395
       331  -7.4759    231.3095    133.7274   5.2598596557e+01   9.7359125112e+00    0.1221545   0.09644255 -62.48 0.0002157239    1.548    0.354
       332  -9.9362    132.5930    131.3716   7.2045118253e+01   2.9192562253e+01    0.4891123    0.3484117  75.00  0.001471665    2.118    0.528
       333 -10.2380     97.9825    130.2206   8.1525535373e+01   3.6138263730e+01    0.6634302    0.3014625 -52.50  0.001648819    2.157    0.536
       334  -8.9055    143.0786    131.5390   6.9421970770e+01   2.7024751358e+01    0.3062918    0.2340257 -72.97 0.0007725315    1.702    0.412
       335  -9.0700    250.7459    129.5658   4.8983865858e+01   7.3081165511e+00    0.4186828   0.08660035 -38.86  0.001400668    3.814    0.738
       336 -10.3902     13.1073    129.1469   1.0913302700e+02   4.7264241507e+01    0.5591985    0.2720278  69.26  0.001977818    2.709    0.631
       337  -8.2507    246.8828    130.1355   4.9619984391e+01   7.8159566019e+00      0.18946    0.1425176 -45.81 0.0005662738    1.227    0.185
       338  -7.6431    192.6864    130.2662   5.8364387678e+01   1.7296328714e+01    0.1351728    0.1120326 -76.68  0.000184912    1.545    0.353
       339  -8.8502    168.3152    129.3350   6.3053308813e+01   2.2323893613e+01    0.2939138    0.2352516 -77.72 0.0007492771    1.640    0.390
       340  -9.3678    152.9254    128.7772   6.6380952008e+01   2.5599828533e+01    0.4188883     0.211822 -51.29 0.0008113541    2.116    0.527
       341 -10.1670     73.2063    128.9456   8.9031589953e+01   4.0598350950e+01    0.4935323    0.3161138 -82.38  0.001377161    2.148    0.534
       342  -8.2671      1.4992    129.9867   1.1298596035e+02   4.7792345394e+01    0.1867333   0.09140243  74.28 0.0008075775    2.360    0.576
       343  -7.8951    211.5165    129.0159   5.4743710754e+01   1.3990955326e+01    0.1948919    0.1068452 -56.78 0.0008088719    2.425    0.588
       344 -10.3545     60.3151    125.2993   9.2550017453e+01   4.3401650574e+01    0.7481129    0.4397678  72.22  0.002460481    2.871    0.652
       345 -10.8627     44.7252    123.3127   9.7503614139e+01   4.5873547698e+01     1.208481     0.640367  76.71  0.004128367    3.580    0.721
       346  -9.7858    117.9319    125.1763   7.4495145029e+01   3.3558715862e+01    0.5567279    0.3866679  79.80  0.001375061    2.361    0.576
       347  -7.6741    228.3016    125.6400   5.1352280674e+01   1.1600093295e+01    0.1344975   0.09440715 -60.42  0.000703713    1.719    0.418
       348  -8.7534    179.2304    124.5472   5.9644828932e+01   2.1058054628e+01    0.2778886    0.2253673 -77.69 0.0008307368    1.577    0.366
       349 -10.3774     28.4227    122.1388   1.0297007325e+02   4.7851109910e+01    0.8066848    0.3913974  75.38  0.002783863    3.667    0.727
       350  -8.6006     26.8206    113.3990   1.0210845474e+02   5.0260918494e+01    0.1859123    0.1302154  -7.28 0.0005138009    1.722    0.419
       351  -7.6818    204.6836    130.3103   5.6199774894e+01   1.5015611306e+01    0.1370388    0.1071174 -68.59 0.0004556224    1.637    0.389
       352  -8.5581    135.8036    124.1673   6.9446816339e+01   3.0151535962e+01    0.2299742     0.201952 -41.20 0.0006110782    1.115    0.103
       353  -9.6047    131.2018    118.5900   6.9229454279e+01   3.2347633870e+01    0.5934033    0.3856177  80.55  0.001790575    3.062    0.673
       354  -8.1953     84.3869    122.7243   8.4018305947e+01   4.0372373979e+01    0.2597142    0.1949019   0.28  0.001042877    1.703    0.413
       355  -8.4976    172.0807    121.6049   6.0399596951e+01   2.3103521958e+01    0.2517292    0.1942336 -51.71 0.0004497019    1.309    0.236
       356  -8.9754    158.6436    121.5636   6.3298516611e+01   2.5921101349e+01    0.3041037     0.222728 -60.71 0.0009567589    1.573    0.364
       357  -7.9443    202.7323    121.6760   5.4598072666e+01   1.6949166689e+01    0.1378191    0.1053725 -10.37 0.0002251957    1.568    0.362
       358  -9.7947    141.5379    118.3074   6.6521110948e+01   3.0230059028e+01    0.4397103    0.2908086 -62.33  0.001193736    1.888    0.470
       359  -9.6526     71.1627    119.5601   8.7646847231e+01   4.3299830509e+01    0.3499404    0.2548845  84.31  0.001105409    1.860    0.462
       360  -9.4104     20.6462    118.1165   1.0507701913e+02   4.9557352304e+01    0.3004315    0.1863613  16.89   0.00122911    1.851    0.460
       361  -9.8760      2.7076    116.7896   1.1117205791e+02   5.1098651885e+01    0.4811008    0.2336975  70.38  0.002052685    2.649    0.623
       362  -7.5550    231.4861    117.4953   4.9157659901e+01   1.2405911990e+01    0.1329055    0.1104929 -42.73 0.0001718977    1.057    0.054
       363  -8.0377    185.6162    115.8255   5.6323494082e+01   2.1428599501e+01    0.2087976    0.1260924 -48.89 0.0003962764    1.632    0.387
       364  -9.9182    109.4569    114.0809   7.4108744739e+01   3.7825671194e+01    0.5793819    0.3509666 -67.71  0.001306667    2.412    0.585
       365  -8.9468     59.1766    115.1813   9.0798221882e+01   4.6154199588e+01    0.4207548    0.2463355 -13.81   0.00156271    2.867    0.651
       366 -10.0786    248.4591    107.7641   4.4880017516e+01   1.1086786073e+01    0.3218001    0.2125697 -47.01  0.001905451    1.292    0.226
       367  -9.0318    250.1886    114.6363   4.6058560536e+01   9.7360108989e+00     0.164344    0.1532721 -32.59  0.001152843    1.166    0.143
       368  -8.0415    193.1527    115.1935   5.4786284064e+01   2.0015356973e+01    0.1955359    0.1570962 -59.10 0.0004051538    1.321    0.243
       369 -10.1353     92.7267    112.4470   7.8812979411e+01   4.1417005047e+01    0.5514953    0.3541077 -68.04  0.001282453    2.008    0.502
       370  -8.7012     26.8378    129.3439   1.0459958012e+02   4.6113830196e+01    0.1861256     0.131624   0.27 0.0009476596    1.744    0.427
       371  -7.6758    167.4978    114.4735   5.9606367557e+01   2.5480464397e+01    0.1497133     0.142334 -44.29 3.798236e-05    1.020    0.019
       372  -9.8898     78.8750    112.2225   8.3298369448e+01   4.3898706423e+01    0.5014542    0.3615125  84.88  0.001686878    2.041    0.510
       373 -10.3829    133.8013    109.0948   6.6066870638e+01   3.3866222138e+01    0.7405561    0.3194414 -49.83  0.002449787    2.466    0.595
       374 -10.0035    121.9941    112.2852   7.0061746140e+01   3.5676302880e+01    0.3713289    0.2483838 -56.24 0.0005283518    1.628    0.386
       375  -8.7430     51.4462    112.5394   9.2978490666e+01   4.7846582994e+01     0.244938    0.2389678 -34.38 0.0005419679    1.056    0.053
       376  -8.3664    174.7552    111.8806   5.7473030312e+01   2.4444909378e+01    0.2386601    0.1581665 -60.97 0.0006296028    1.833    0.455
       377  -8.5778    159.1343    111.6524   6.0697208539e+01   2.7838633797e+01    0.2593435     0.196805 -52.28  0.000519242    1.338    0.253
       378 -10.0910     66.4205    110.3368   8.7129025871e+01   4.6336622240e+01    0.4130259    0.3262905  85.93  0.001417878    1.599    0.375
       379  -9.0840     67.5406    104.8410   8.5378708125e+01   4.7526719575e+01    0.3223561    0.1955756  12.22  0.001305388    2.239    0.553
       380 -10.0765     14.2887    111.1419   1.0631788762e+02   5.1827820913e+01    0.3871638    0.2339178  64.50  0.001553325    2.053    0.513
       381  -9.2221      7.8641    109.3467   1.0840299400e+02   5.2702403844e+01    0.2460213    0.1044018  28.27  0.001087278    2.542    0.607
       382  -7.7593    153.4498    115.4716   6.2952144187e+01   2.8284375139e+01    0.1523668    0.1463437 -51.37 0.0001393111    1.041    0.040
       383  -9.1394     79.1696    104.8244   8.1303650101e+01   4.5647494847e+01    0.5034955    0.2710773  17.50  0.001697122    2.844    0.648
       384 -10.6434     22.7990    102.4913   1.0169708975e+02   5.3394322714e+01    0.7412387    0.4116464  70.90  0.002752057    2.797    0.642
       385  -9.2718    139.9371    104.3950   6.3260600463e+01   3.3518810994e+01    0.3577652    0.2685572 -80.96 0.0008251565    1.846    0.458
       386 -10.4208     45.4348    101.9599   9.2867224790e+01   5.1259120570e+01    0.7598578    0.4487666  73.94  0.002851465    3.158    0.683
       387  -8.3747    166.7645    104.1073   5.7136043537e+01   2.7662775740e+01    0.2300805    0.1921337 -63.98 0.0005571601    1.285    0.222
       388  -9.3632    150.6004    102.9176   6.0334516629e+01   3.1462233323e+01    0.3904741     0.261368 -65.61  0.001121681    1.974    0.493
       389 -10.1754    248.6549    102.2473   4.3731941022e+01   1.1906343938e+01    0.2841201    0.2688009 -32.41  0.002022526    1.192    0.161
       390  -9.6274    128.4031    101.8942   6.5512403576e+01   3.6568750280e+01    0.3153606     0.268869 -62.40 0.0008002117    1.269    0.212
       391  -9.2069      6.8255    102.9420   1.0788412005e+02   5.4388955566e+01    0.2444112     0.167657  82.75 0.0007788083    1.601    0.375
       392 -10.6574    109.4525     99.0013   6.9992906682e+01   4.1230550213e+01    0.8609936     0.490638  66.63  0.002612633    3.320    0.699
       393  -8.8664    108.0438     92.2750   6.8461110623e+01   4.2976839536e+01    0.6471053    0.2930499  29.81  0.002002411    3.484    0.713
       394  -8.0808    159.9315    100.9657   5.7753700168e+01   2.9774945319e+01    0.2367859    0.1767934 -70.23 0.0005588544    1.659    0.397
       395  -9.1978     82.1310    100.0367   7.9000368481e+01   4.6270691874e+01    0.3595895    0.2595602 -70.82 0.0009676808    1.751    0.429
       396  -8.5036     64.3146    101.3209   8.5647415791e+01   4.8876458388e+01    0.1567154    0.1105099 -23.43 0.0007039978    1.656    0.396
       397  -9.9638     63.8960     95.6415   8.4308997655e+01   5.0309998317e+01    0.5754614    0.3853681 -89.25   0.00160383    2.564    0.610
       398  -8.5433     64.4926     87.9775   8.1949685954e+01   5.2018300918e+01    0.3707868    0.1972915 -18.52  0.001162463    3.952    0.747
       399  -9.1082     94.9160     96.7379   7.3828888515e+01   4.4655776715e+01    0.2864535    0.2222184 -57.38 0.0006092559    1.382    0.276
       400  -8.1958    164.9661     94.2974   5.4949364593e+01   2.9917082860e+01    0.2006104    0.1918769 -88.48 0.0003780357    1.067    0.063
       401  -8.7538     56.4956     94.4979   8.6799207344e+01   5.1662929421e+01    0.2678279    0.1230872  41.92  0.001032947    2.430    0.589
       402 -10.0887    244.8836     91.5662   4.1982105067e+01   1.4181742528e+01    0.3050419    0.2235083   8.29  0.001692384    2.248    0.555
       403  -9.2440    139.0624     92.2389   6.0112936777e+01   3.6169107349e+01    0.3612747    0.2729972 -80.95 0.0006882542    1.777    0.437
       404 -10.0388    124.0273     91.1407   6.3616472899e+01   3.9759475878e+01    0.5088026    0.4078259  27.95  0.001144096    1.368    0.269
       405  -9.6982      5.1445     91.9953   1.0686682354e+02   5.7222481473e+01     0.344699    0.2093039  57.98  0.001168629    2.119    0.528
       406  -9.5573     34.8846     89.6296   9.4173461007e+01   5.5482697126e+01    0.5100307     0.297099 -85.64  0.001671883    2.734    0.634
       407  -7.9112    157.5568     91.5028   5.5732355513e+01   3.2109673985e+01    0.1490266    0.1422618 -59.50 0.0001245764    1.022    0.022
       408  -8.8150     46.7330     92.1705   9.0006941584e+01   5.3514097695e+01    0.4953339    0.2350381  10.32  0.001743115    3.361    0.702
       409  -9.0172     22.9172     89.8461   9.9171042687e+01   5.6546740295e+01    0.2694869    0.2119476 -11.97   0.00109185    1.357    0.263
       410  -9.8427     86.4703     86.4283   7.3568452376e+01   4.8556985936e+01    0.4583226    0.3400704  89.96  0.001133195    2.156    0.536
       411  -9.7642     48.4928     84.0324   8.7135837387e+01   5.5228174181e+01    0.5520517    0.3835466  80.33  0.002213659    2.429    0.588
       412  -8.1592    158.1102     83.8500   5.3527718807e+01   3.3385801619e+01    0.2230408    0.1882828 -68.29 0.0004585899    1.258    0.205
       413  -9.5820    104.7554     82.8617   6.6596470377e+01   4.5628646033e+01    0.4171223    0.2981364 -71.31  0.001044238    2.007    0.502
       414  -9.7485     10.0817     81.5756   1.0293327304e+02   5.9491124328e+01    0.4531083    0.2699825  81.20  0.002116108    2.408    0.585
       415  -9.1719    140.9090     82.2821   5.6824592966e+01   3.7647380256e+01    0.3534864    0.2007532 -49.99 0.0009866748    1.884    0.469
       416  -8.1154     64.0709     82.5278   8.0504277571e+01   5.3325344763e+01    0.2089281    0.1425056  33.72 0.0007068645    1.502    0.334
       417  -9.7034     24.9603     80.6585   9.6234234694e+01   5.8599604949e+01    0.4717251    0.3085495  71.04  0.001420713    2.392    0.582
       418  -8.3541    150.1962     80.5067   5.4248417414e+01   3.5816821208e+01     0.245989    0.1966417 -62.72 0.0007037274    1.350    0.259
       419  -8.4707    119.1864     80.2395   6.1654402688e+01   4.2996076873e+01    0.2733185    0.1909476 -66.09 0.0006998183    1.909    0.476
       420  -8.7727     74.7692     80.3523   7.5811693980e+01   5.2015705102e+01    0.3310024    0.1965391 -61.61 0.0009701928    2.234    0.552
       421  -8.0573    176.5740     92.8448   5.2324983783e+01   2.7598769708e+01    0.2134368    0.1267675 -49.70  0.000767341    1.678    0.404
       422  -7.8948     86.6594     80.7196   7.1729295133e+01   4.9741509892e+01    0.1531785    0.1160336   1.16  0.000290027    1.626    0.385
       423  -8.1416    166.6458     79.2918   5.0612398043e+01   3.2221932376e+01    0.1950439    0.1354321 -30.52 0.0004865313    1.530    0.347
       424  -8.4119    184.3479     78.1650   4.7216067620e+01   2.8401029029e+01    0.2052445    0.1175353 -46.23 0.0006390651    1.644    0.392
       425  -9.1348    128.1403     75.1890   5.7774948540e+01   4.1903234206e+01    0.3448249    0.2385428 -58.14 0.0007827531    1.695    0.410
       426  -8.3314    140.5089     75.1388   5.4823591195e+01   3.9033929566e+01    0.2210234    0.1447024 -41.02 0.0006986197    1.527    0.345
       427  -9.8853     63.1143     73.3477   7.8003018585e+01   5.5488710600e+01    0.4526393     0.272193 -57.40  0.001031309    1.936    0.483
       428  -9.5635     82.4073     72.5128   7.0528953257e+01   5.2246102475e+01    0.4010476    0.2756463 -67.07   0.00116392    2.150    0.535
       429  -8.1599    163.4235     73.2632   4.9572250082e+01   3.3988602778e+01    0.2045363    0.1285785 -48.59 0.0009374951    1.586    0.369
       430  -8.1933    151.4136     73.2247   5.1915061007e+01   3.6806927923e+01    0.2072368    0.1320838 -49.00 0.0003900062    1.606    0.377
       431  -8.5860    115.7534     72.8748   6.0282768282e+01   4.5156214559e+01    0.2639513    0.2023049 -58.82 0.0004636104    1.503    0.335
       432  -7.8600    175.5027     72.5167   4.7222038307e+01   3.1321987056e+01    0.1408293     0.133027 -65.98 0.0002565029    1.021    0.021
       433  -8.9341    105.9885     71.5985   6.2636282263e+01   4.7562850579e+01    0.2749284    0.2059868 -59.19 0.0006194758    1.592    0.372
       434  -9.0778     95.0435     70.9377   6.5771358171e+01   5.0025826278e+01    0.3380226     0.210074 -50.61 0.0008874839    1.796    0.443
       435  -8.1123     42.5497     72.5376   8.6312161598e+01   5.8612730414e+01    0.1374554    0.1270869 -29.32 5.097943e-05    1.067    0.063
       436  -9.4143     51.5601     69.7413   8.1559180812e+01   5.8020267545e+01    0.4072091    0.2771478 -75.46   0.00145949    2.382    0.580
       437  -8.9219     28.6744     70.4493   9.1918403973e+01   6.0632465346e+01    0.3228415    0.1458609 -32.97  0.001308793    2.489    0.598
       438  -8.8913     16.7880     70.0153   9.7322087058e+01   6.1768114178e+01    0.2250974      0.17894 -83.56  0.000824586    1.521    0.342
       439  -8.7940    147.2310     68.1208   5.1297240525e+01   3.8653869365e+01    0.2940858    0.2187952 -57.03 0.0005594498    1.437    0.304
       440  -8.8193    138.4587     65.7967   5.2479081651e+01   4.1119687508e+01    0.2701389    0.1370943 -41.83 0.0006093493    1.984    0.496
       441  -8.7983    121.7714     65.8744   5.6456128528e+01   4.5026856497e+01    0.2623623    0.1975625 -59.70   0.00061484    1.546    0.353
       442  -8.8520    110.0646     63.5208   5.8795667158e+01   4.8113267237e+01    0.2705783    0.2005104 -54.71 0.0006467368    1.550    0.355
       443  -8.5109     64.9670     62.8179   7.3688050246e+01   5.7340120493e+01    0.4399325    0.2425775   4.00   0.00138926    4.337    0.769
       444  -8.4812     37.2573     64.1069   8.6058354561e+01   6.1105297825e+01    0.2364004    0.1707856  55.00 0.0009479647    1.970    0.492
       445  -8.2963    158.1590     61.8445   4.7349836185e+01   3.7069890810e+01    0.2230124      0.17956 -69.89 0.0006347981    1.310    0.237
       446  -9.2793     97.9885     60.8210   6.1393702221e+01   5.1254441900e+01    0.3600486    0.2918153 -87.13  0.001183424    1.690    0.408
       447  -9.4740     73.4139     59.3846   6.9199743925e+01   5.6486928315e+01     0.336034    0.2436968 -55.81 0.0009985954    1.701    0.412
       448  -8.2107     88.9987     59.2645   6.3692655101e+01   5.3433810156e+01    0.2029808     0.161672 -63.97 0.0007075556    1.622    0.383
       449  -8.2066    130.7768     57.7724   5.1702190900e+01   4.4243450431e+01    0.2006069    0.1660675 -71.14 0.0004983533    1.362    0.266
       450  -9.9322     23.4062     56.2684   9.0206549839e+01   6.4263033180e+01    0.4141778    0.2907894  85.37  0.002020763    2.588    0.614
       451  -9.5030      7.5503     57.0696   9.8514030813e+01   6.5328957870e+01    0.2784719    0.2065295  76.09 0.0009766996    1.976    0.494
       452  -8.2284    139.9982     56.0244   4.9159758908e+01   4.2309429746e+01     0.229294    0.1669259 -70.05 0.0005705044    1.652    0.395
       453  -9.2371    118.9555     55.0609   5.3622879608e+01   4.7463670420e+01    0.4213869    0.1909964 -43.92  0.001454832    2.376    0.579
       454  -8.8130    147.9656     54.1623   4.7014077962e+01   4.0675219646e+01    0.2439485    0.2020637 -37.44 0.0005536856    1.248    0.199
       455  -8.8556     54.1037     53.9226   7.4923702836e+01   6.0841252127e+01    0.3155956    0.1909979 -54.94 0.0008891994    2.065    0.516
       456  -8.4222     43.9167     55.1826   7.9932476071e+01   6.2101089930e+01    0.1912919    0.1884538 -32.89  0.001058831    1.257    0.205
       457  -8.9527     62.8492     54.5379   7.1502066416e+01   5.9281315667e+01    0.2959978    0.1965818 -49.46 0.0008327357    1.694    0.410
       458  -8.6430    105.7406     52.9269   5.6362632516e+01   5.0850014840e+01    0.2556137    0.1919983 -55.07 0.0006795843    1.570    0.363
       459  -9.4282     92.4700     50.3803   5.9343913791e+01   5.4194884370e+01    0.3885666    0.2358877 -49.67  0.001171774    1.992    0.498
       460  -8.3701    144.6524     48.8053   4.6028818845e+01   4.2252027729e+01    0.2035335    0.1219383 -44.24 0.0006367732    1.709    0.415
       461  -8.4370    129.5584     49.0462   4.9171893181e+01   4.5855600391e+01       0.2094    0.1405954 -33.87 0.0005118264    1.568    0.362
       462  -9.3125    163.8522     48.0908   4.2488454711e+01   3.7739310168e+01    0.1865266    0.1675463  21.59  0.001079015    1.355    0.262
       463  -8.2997    120.9165     47.3005   5.0545977643e+01   4.8172033144e+01    0.1969943    0.1755994  54.41 0.0004320376    1.056    0.053
       464  -8.4080    112.3335     46.9042   5.2499885348e+01   5.0250854235e+01    0.2173774    0.1677343 -51.27 0.0005565715    1.453    0.312
       465  -8.6994     82.0408     46.2952   6.1179104224e+01   5.7044824885e+01    0.2323226    0.1951091 -63.36 0.0006777218    1.549    0.354
       466  -8.4591     45.0446     44.5246   7.5315058630e+01   6.3958347591e+01      0.23021    0.1837857 -55.68 0.0005929214    1.604    0.377
       467  -9.0939     16.6973     44.5115   8.9787120995e+01   6.7308793906e+01    0.2186062    0.1881238 -85.07 0.0006721152    1.678    0.404
       468  -8.3479    132.9892     43.2858   4.6588893548e+01   4.5840103308e+01    0.1996971    0.1762146  69.58 0.0004243404    1.075    0.070
       469  -9.1660     69.6717     41.4339   6.3652154362e+01   6.0272701670e+01    0.3405756     0.252968 -63.89   0.00108979    2.092    0.522
       470  -8.5755     58.1588     42.4480   6.8648058399e+01   6.2213116641e+01    0.2561824    0.1792951 -55.75  0.001263074    1.990    0.497
       471  -9.8116      5.1670     41.6014   9.5276575268e+01   6.8773577183e+01    0.3732021    0.2147259 -77.21  0.001804151    2.716    0.632
       472  -8.6606     93.1084     42.2367   5.6089889178e+01   5.5300341098e+01    0.2956369    0.1933521  24.54    0.0013909    1.818    0.450
       473  -8.7469    105.8836     41.1677   5.2116926992e+01   5.2567492855e+01    0.2061953     0.187412 -82.95 0.0005568712    1.254    0.202
       474  -8.3354     36.7638     40.4592   7.7648631663e+01   6.5854636052e+01     0.214586    0.1578072 -50.98  0.000861241    1.600    0.375
       475  -8.4098     95.6404     37.9915   5.3729732183e+01   5.5338111741e+01    0.1896226    0.1721685 -29.99 0.0007178836    1.188    0.158
       476  -7.9577     80.6447     36.7475   5.7851931183e+01   5.8765941482e+01    0.1800178    0.1250392 -40.47 0.0004278219    1.601    0.375
       477  -9.5125     26.1492     34.9953   8.0903960306e+01   6.8162095164e+01    0.3293913     0.216886 -50.34  0.001252232    1.686    0.407
       478  -8.1811    125.9424     35.3018   4.5407140703e+01   4.8587992849e+01     0.190694    0.1700482  63.33 0.0004125084    1.034    0.032
       479  -8.5981    111.8506     34.5289   4.8237183674e+01   5.2054418752e+01    0.2633584    0.1673418 -49.12 0.0007523992    1.839    0.456
       480  -8.8096     48.6306     33.2420   6.8842021542e+01   6.5300686340e+01    0.2017423    0.1929245 -11.90 0.0006452465    1.268    0.211
       481  -8.4240    119.3697     33.1861   4.6069084166e+01   5.0432226447e+01    0.1861324    0.1230563 -42.78 0.0005353868    1.642    0.391
       482  -8.6653     60.8313     32.7229   6.3385072516e+01   6.3254756951e+01    0.2178979    0.1726599 -61.73 0.0007559163    1.909    0.476
       483  -8.7411     72.1063     31.0627   5.8399897087e+01   6.1308400338e+01    0.1914782    0.1669492 -77.52 0.0005942048    1.621    0.383
       484  -9.3132     12.9137     30.0152   8.6411440352e+01   7.0429615931e+01    0.3019762    0.1755303 -61.52  0.001555955    2.354    0.575
       485  -8.4185    101.6566     29.3432   4.8812739607e+01   5.5079456897e+01     0.200635    0.1563606 -76.32 0.0006635602    1.664    0.399
       486  -8.8164     81.5925     27.3775   5.3672601703e+01   5.9807767804e+01    0.2628712    0.1984188 -63.78  0.000858144    1.915    0.478
       487  -9.2257      3.5579     27.5026   9.1199847423e+01   7.1644789319e+01    0.2172861     0.187121 -73.91 0.0008332724    1.665    0.399
       488  -8.6548     91.9679     26.4560   5.0246669672e+01   5.7635487630e+01    0.2430272    0.1796774 -48.28 0.0007505405    1.627    0.385
       489  -8.2125     34.2458     23.0000   7.1038307521e+01   6.9080711131e+01    0.1663042    0.1375511  46.45 0.0009406886    1.625    0.384
       490  -9.0024     63.6207     20.9620   5.6964071519e+01   6.4293134301e+01    0.2860701    0.1991748 -53.16 0.0008467354    2.134    0.531
       491  -8.7340     48.2105     21.3657   6.3459220936e+01   6.7091478754e+01    0.2063985    0.1923596  74.03 0.0008255167    1.586    0.369
       492  -8.6554     19.4441     21.2478   7.8485739575e+01   7.1272647347e+01    0.1549042    0.1116031 -45.69 0.0007912247    1.607    0.378
       493  -8.7240     74.0928     19.4473   5.2632346349e+01   6.2337224206e+01    0.2265911    0.1745107 -44.25 0.0007361015    1.598    0.374
       494  -8.2721     38.8841     18.1439   6.6232667761e+01   6.9067049996e+01    0.1761107    0.1620283  -2.14 0.0005811516    1.260    0.206
       495  -8.1143    112.6154     16.7783   4.1666260438e+01   5.3867034331e+01    0.1698629    0.1194305 -40.69 0.0003539205    1.584    0.369
       496  -8.2489     30.1783     15.9534   6.9612464653e+01   7.0682401544e+01    0.1710754    0.1436486 -59.91 0.0006693233    2.027    0.507
       497  -8.1059     97.3347     15.1423   4.4367450148e+01   5.7624708674e+01    0.1767388    0.1137668 -37.46  0.000490823    1.758    0.431
       498  -7.9870      7.6635     15.3298   8.3050663736e+01   7.3449388252e+01    0.1023476   0.09336624  45.37 0.0007052048    1.731    0.422
       499  -8.9737    190.3148     14.1647   3.0347642045e+01   3.5662015490e+01    0.2526056    0.1293846 -73.08  0.001236139    2.082    0.520
       500 -10.0178    248.6542    242.0298   6.9750766138e+01  -8.8562675126e+00    0.3958936    0.1751736 -37.65  0.002257219    2.231    0.552
       501  -9.4482    247.8330    234.1922   6.8628274635e+01  -7.7826860529e+00    0.2978098    0.1619171 -35.62  0.001847534    1.765    0.433
       502  -9.5829    246.4429    228.6695   6.7953231523e+01  -6.9155374549e+00    0.4307217    0.1564474 -31.54  0.001869635    2.408    0.585
       503  -7.8285    191.4970    249.5042   8.1118885961e+01  -3.2886094749e+00    0.1200733   0.09502085   9.03 0.0008101457    1.051    0.049
       504  -8.1024    113.3237    248.7907   9.7093227665e+01   7.2724669697e+00     0.207876    0.1202377 -71.18  0.001051212    2.550    0.608
       505  -8.1277     93.8105    249.2256   1.0132872297e+02   9.8083305695e+00    0.2073181     0.103539  59.09  0.000695741    2.685    0.628
       506  -9.5816     64.7947    248.5955   1.0746046928e+02   1.3616561476e+01    0.2949481    0.1566658  39.59  0.001051194    1.518    0.341
       507  -9.2297     51.8991    249.3225   1.1022024221e+02   1.5010919639e+01    0.2492213   0.07296558  37.67  0.001089279    2.489    0.598
       508  -9.2847    243.2000    246.1761   7.1306077545e+01  -8.8027221500e+00    0.3912172    0.1422497 -26.42  0.001910627    2.757    0.637
