#   1 NUMBER                 Running object number                                     
#   2 MAG_AUTO               Kron-like elliptical aperture magnitude                    [mag]
#   3 X_IMAGE                Object position along x                                    [pixel]
#   4 Y_IMAGE                Object position along y                                    [pixel]
#   5 X_WORLD                Barycenter position along world x axis                     [deg]
#   6 Y_WORLD                Barycenter position along world y axis                     [deg]
#   7 A_WORLD                Profile RMS along major axis (world units)                 [deg]
#   8 B_WORLD                Profile RMS along minor axis (world units)                 [deg]
#   9 THETA_WORLD            Position angle (CCW/world-x)                               [deg]
#  10 FWHM_WORLD             FWHM assuming a gaussian core                              [deg]
#  11 ELONGATION             A_IMAGE/B_IMAGE                                           
#  12 ELLIPTICITY            1 - B_IMAGE/A_IMAGE                                       
         1  -7.1560    233.2801     10.3809   2.8910206032e+02   6.3289926790e+00  0.007240044  0.004891393 -30.51  0.000562039    1.718    0.418
         2  -8.1768    227.2608    247.8587   2.9046920288e+02   3.6053256648e+00   0.01065917  0.008607539  79.53 0.0007230229    1.437    0.304
         3  -7.6946     49.8130    250.3737   2.9269287472e+02   4.5885615438e+00   0.01016592  0.006297599   9.69  0.000951713    1.776    0.437
         4  -8.1607    211.8144    246.0867   2.9065176973e+02   3.7142911325e+00  0.009714063  0.007847557 -27.95   0.00092891    1.340    0.254
         5  -8.8449    192.1015    245.2738   2.9089270130e+02   3.8364756355e+00   0.01824696  0.009615138 -50.71  0.001664742    1.956    0.489
         6  -7.7684    249.4758    245.9889   2.9018278694e+02   3.4999033411e+00   0.01007907  0.006824633 -64.79  0.001026576    1.574    0.365
         7  -7.7180    177.4097    244.2096   2.9106984103e+02   3.9328295916e+00  0.009241145  0.006668784 -87.13 0.0009430773    1.673    0.402
         8  -8.0715     44.0467    244.4880   2.9273305168e+02   4.6898294570e+00   0.01085271  0.006447049  23.24  0.001033374    1.595    0.373
         9  -9.2216    240.9022    240.0018   2.9025692627e+02   3.6185499195e+00   0.01713726   0.01529093 -14.19  0.002022546    1.165    0.142
        10  -8.2920    230.7196    236.4010   2.9036405082e+02   3.7186832155e+00   0.01203704  0.008524969 -84.76  0.001023816    1.701    0.412
        11  -8.2275    205.4652    236.2904   2.9067769502e+02   3.8644830063e+00   0.01751465   0.01063581  68.49  0.001562569    2.281    0.562
        12  -8.7444    229.7813    224.8705   2.9031317838e+02   3.8580560532e+00    0.0226432  0.003526416 -59.90  0.001298569    4.909    0.796
        13  -8.5090    238.2892    219.2649   2.9017691381e+02   3.8744789927e+00   0.01552976   0.01085136  83.45  0.001553234    1.821    0.451
        14  -8.0445    247.0002    215.1844   2.9004640293e+02   3.8719947223e+00    0.0118513  0.007551596 -15.97  0.001090646    2.029    0.507
        15  -7.4359    238.4840    227.4907   2.9021912956e+02   3.7777752024e+00  0.006830338  0.006410192   8.11  6.37437e-05    1.045    0.043
        16  -9.5520    124.0055    206.0077   2.9152843632e+02   4.6821609386e+00  0.009640928  0.009023631  26.88  0.001158401    1.012    0.012
        17  -7.2063      5.3122    198.3208   2.9296748618e+02   5.4470563481e+00  0.007124356  0.005012737 -25.31 0.0003774963    1.651    0.394
        18  -8.4245    249.0968    194.6520   2.8990880972e+02   4.0985486419e+00   0.01157026  0.009657534  88.52  0.001295777    1.363    0.266
        19  -7.8446    231.5081    195.4600   2.9013205432e+02   4.1899631261e+00  0.006839783  0.006384498  25.35 4.769516e-05    1.007    0.007
        20  -8.8109    237.4515    190.3879   2.9003053995e+02   4.2148462998e+00   0.03121419   0.01146633 -69.15  0.002264752    3.270    0.694
        21  -7.5502     16.3030    183.9585   2.9275292053e+02   5.5518470771e+00   0.01078952  0.005372008  83.02 0.0007039838    4.231    0.764
        22  -7.7132    242.4963    181.4789   2.8991935571e+02   4.2894505087e+00   0.01207001  0.006849378 -84.02  0.001038406    2.423    0.587
        23  -8.8861    224.6416    183.9475   2.9015499635e+02   4.3631042072e+00   0.01925728  0.008086458 -55.89   0.00135734    2.358    0.576
        24  -7.2932    245.3225    178.6854   2.8986900552e+02   4.3057042299e+00  0.007240653  0.004876251  55.11 0.0003540893    1.660    0.398
        25  -7.5118    233.5848    174.7934   2.8999393541e+02   4.4182275696e+00  0.009404623  0.006686812 -86.67 0.0009508599    1.709    0.415
        26  -8.1333    225.7727    172.5098   2.9007877787e+02   4.4895475475e+00   0.01294019  0.009643302 -61.21  0.001116026    1.414    0.293
        27  -7.7127    237.6970    170.0219   2.8991681729e+02   4.4500956619e+00  0.009353834  0.008941039 -71.26  0.001135059    1.121    0.108
        28  -7.8770    147.1653    168.4818   2.9103639858e+02   4.9863692124e+00   0.01124561   0.00923831  66.75 0.0009737141    1.358    0.264
        29  -7.4544     46.8007    161.9504   2.9225340618e+02   5.6346759667e+00  0.008899468  0.005415428 -63.66 0.0007613156    1.735    0.424
        30  -7.7884    246.5929    158.2631   2.8974216153e+02   4.5356921885e+00  0.009327271  0.006198279 -51.13 0.0007693885    1.562    0.360
        31  -7.5459    226.6369    156.6936   2.8998205510e+02   4.6683924099e+00  0.007285405  0.005014868 -21.47 0.0007038541    1.739    0.425
        32  -9.1046    243.7678    149.7685   2.8973112116e+02   4.6505897222e+00   0.03002759  0.009994837 -54.40   0.00199652    2.884    0.653
        33  -7.9988    249.9897    152.2915   2.8966740514e+02   4.5855753198e+00  0.009912308   0.00886626  20.46  0.001042072    1.056    0.053
        34  -7.1949     35.6609    150.3345   2.9232973300e+02   5.8331675446e+00  0.007420147  0.004823626  55.53 0.0007051529    1.750    0.429
        35  -7.8773    234.5349    147.5402   2.8983394084e+02   4.7294520241e+00  0.006869874  0.006333819  35.17 0.0008078341    1.046    0.044
        36  -8.1508    228.9862    147.4799   2.8990270336e+02   4.7619813455e+00   0.01022051  0.004551127  45.66 0.0008082847    2.402    0.584
        37  -8.5102     17.1540    147.1234   2.9254352290e+02   5.9756531747e+00   0.01060626   0.00919533 -10.88 0.0009635467    1.207    0.171
        38  -8.1663    230.5939    141.0772   2.8984785949e+02   4.8271520568e+00   0.01441112   0.00880249 -82.32   0.00133418    2.092    0.522
        39  -8.2243    125.0121    145.2398   2.9118669753e+02   5.3832653078e+00   0.01030321  0.009478317 -65.71 0.0003308432    1.161    0.139
        40  -7.5985    250.2630    140.5816   2.8960029043e+02   4.7200343201e+00  0.009304927  0.006393369  10.02 0.0007720506    1.536    0.349
        41  -8.7414    249.2002    134.4703   2.8958025887e+02   4.7971226578e+00   0.01219537  0.009690152 -64.89 0.0009001766    1.343    0.255
        42  -7.1688    233.6578    135.0104   2.8977670131e+02   4.8800586786e+00   0.01188417   0.00343705 -44.68 0.0007051078    4.449    0.775
        43  -8.4248    242.5950    133.5695   2.8965758255e+02   4.8455035857e+00    0.0131939   0.01166832  58.76 0.0008686803    1.192    0.161
        44  -9.5132    207.0337    126.4024   2.9006153168e+02   5.1328004079e+00   0.02521944  0.008841196  21.20  0.001789499    2.986    0.665
        45  -7.6180    243.4580    124.5117   2.8959753520e+02   4.9457637840e+00  0.006819317  0.006397889  26.97 0.0008090438    1.012    0.012
        46  -7.0534    161.3287    124.3431   2.9062018258e+02   5.4185855397e+00   0.00732214  0.004975855 -25.69 0.0007051039    1.745    0.427
        47  -7.9770    188.5179    123.5416   2.9027676220e+02   5.2721851825e+00  0.006830986   0.00638968  22.69  0.000231492    1.004    0.004
        48  -7.3554    221.9670    121.0149   2.8984615700e+02   5.1097386688e+00   0.00841816  0.007616441  24.22 0.0008639737    1.036    0.035
        49  -8.6498    217.5770    115.1582   2.8986897822e+02   5.2029694986e+00   0.01188511  0.008311967  16.30   0.00122464    1.419    0.295
        50  -8.9598    248.1083    112.6698   2.8947515890e+02   5.0565924954e+00   0.01536618   0.01246042 -23.59  0.001713003    1.342    0.255
        51  -9.3274    249.0123    106.4941   2.8943026620e+02   5.1231176082e+00   0.01293058   0.01042316 -13.05  0.001428736    1.354    0.262
        52  -8.4990    215.1367    108.6657   2.8986404992e+02   5.2923974552e+00   0.01184886  0.007972276  41.83  0.001206928    1.445    0.308
        53  -8.0031    183.3348    109.3190   2.9026404877e+02   5.4671745216e+00   0.00722532  0.005019873 -23.64 0.0005035745    1.700    0.412
        54  -9.2003    242.1281    104.9918   2.8950780490e+02   5.1801094064e+00   0.02061896  0.008231737 -71.79  0.001515539    3.212    0.689
        55  -8.2418    221.2320    100.3840   2.8974301009e+02   5.3536177790e+00   0.01030991  0.005648407  35.13 0.0009501917    1.673    0.402
        56  -9.3413    245.1753     98.3716   2.8943379428e+02   5.2394809766e+00   0.01270703  0.008485299 -81.85  0.001252987    1.819    0.450
        57  -8.4795    230.8646     94.6580   2.8959180976e+02   5.3648121627e+00   0.01205076   0.01022083 -85.32 0.0007066437    1.320    0.243
        58  -9.2143    226.3778     86.0882   2.8960102667e+02   5.4900996719e+00    0.0158665   0.01063213 -59.97  0.001630577    1.558    0.358
        59  -7.6643    175.5478     87.4428   2.9024216767e+02   5.7659985381e+00   0.00681179  0.006359042  26.10 9.424261e-05    1.009    0.009
        60  -8.1881    247.8304     86.7085   2.8933717578e+02   5.3596401130e+00   0.01367759  0.006182605  15.69  0.001062421    2.539    0.606
        61  -7.9605    198.5293     85.5035   2.8994497428e+02   5.6567489764e+00  0.006816324  0.006416474  16.82 7.820269e-05    1.019    0.019
        62  -9.8125    237.3595     83.4228   2.8944968462e+02   5.4579631174e+00    0.0199281   0.01212579  41.66  0.001945515    1.597    0.374
        63  -9.6555    243.7552     81.9491   2.8936198785e+02   5.4383188518e+00   0.01503293   0.01137593  23.83  0.001635579    1.243    0.195
        64  -9.9361    243.1442     76.6446   2.8934068307e+02   5.5034105584e+00   0.02405104   0.01341683  63.63  0.002018697    2.559    0.609
        65  -8.6390    231.2900     81.8917   2.8951695599e+02   5.5106133999e+00   0.01273714  0.008550071  36.20  0.000904225    1.393    0.282
        66  -8.1984    210.8526     81.2083   2.8976793864e+02   5.6359166754e+00  0.009780899  0.007795568 -19.38  0.001066317    1.381    0.276
        67 -10.3063    234.7510     72.8256   2.8942442308e+02   5.5959857258e+00   0.03296063   0.02069162  87.65  0.003051694    2.184    0.542
        68  -8.0355    224.7362     76.1529   2.8956734885e+02   5.6148958467e+00   0.01475945  0.008715272  46.32  0.001395696    1.746    0.427
        69  -9.0748    226.5211     73.4781   2.8953052811e+02   5.6356987015e+00   0.02158929   0.01065036  65.86  0.001511176    3.741    0.733
        70  -8.4857    216.0281     74.6569   2.8966773136e+02   5.6822807095e+00   0.01018215  0.008516991  22.89 0.0006801716    1.125    0.111
        71  -7.2287    163.6950     70.3498   2.9029704962e+02   6.0324989765e+00  0.007263714  0.004913535  58.06 0.0003663572    1.702    0.413
        72  -8.5706    241.2686     68.8362   2.8932147563e+02   5.6048339174e+00   0.01828147  0.007389117  26.35   0.00110614    2.264    0.558
        73  -9.0498    226.7093     67.4854   2.8949551834e+02   5.7041924534e+00   0.01733453   0.01290624 -19.85  0.001826443    1.536    0.349
        74  -9.0674    223.5136     65.5103   2.8952458039e+02   5.7454829915e+00   0.01110467   0.01068027  26.55  0.001209714    1.029    0.028
        75  -7.5800    211.4886     67.5230   2.8968544878e+02   5.7911840138e+00  0.006842974  0.006389141  27.27 2.126862e-05    1.013    0.012
        76  -8.0917    250.2745     65.9979   2.8919382360e+02   5.5859936719e+00  0.009529813  0.009096674 -68.36  0.001156963    1.121    0.108
        77  -9.4785    206.4411     61.6686   2.8971648074e+02   5.8881416603e+00   0.01646234   0.01140258 -73.30   0.00169707    1.624    0.384
        78  -9.8726    218.0337     60.0000   2.8956284888e+02   5.8409349608e+00   0.03230648  0.007391993  38.24  0.002039023    3.723    0.731
        79  -7.7268    235.3229     59.6707   2.8934557379e+02   5.7454006293e+00  0.007298126  0.004875234  56.08 0.0003337561    1.696    0.410
        80  -8.2684    173.6869     58.5136   2.9010790260e+02   6.1127113932e+00   0.01139635  0.006338718 -64.90  0.001052984    1.918    0.479
        81  -8.4096    196.1961     58.3688   2.8982626993e+02   5.9852687105e+00   0.01057823  0.005540353  35.06  0.000881336    1.743    0.426
        82  -8.0940    134.4855     59.9832   2.9060534131e+02   6.3201722528e+00   0.00964278  0.005706949  75.38 0.0008102238    2.533    0.605
        83  -7.7717    250.5031     54.9705   2.8913082726e+02   5.7126493661e+00   0.01029993  0.006779283 -63.04  0.000976703    1.605    0.377
        84  -7.7226    236.8142     53.8001   2.8929497505e+02   5.8049611369e+00   0.01560371  0.003899972 -57.93  0.001040734    3.576    0.720
        85  -9.0857    245.0230     51.8278   2.8918194368e+02   5.7806406455e+00   0.01321738   0.01051918  44.98  0.001470568    1.247    0.198
        86  -9.1181    228.0055     52.2981   2.8939655626e+02   5.8730337983e+00  0.009827464  0.008734005  18.43 0.0008040432    1.070    0.065
        87  -8.9778    197.1500     51.4291   2.8977655239e+02   6.0603669586e+00   0.01723796  0.004300541  33.81  0.001151872    3.192    0.687
        88  -8.0226    249.8744     48.2452   2.8910196499e+02   5.7943020576e+00   0.01321514  0.009419128  -3.64  0.001344296    1.611    0.379
        89  -8.0299    199.3876     47.7657   2.8972867278e+02   6.0900497820e+00  0.009486168  0.006105101 -51.38 0.0008504479    1.611    0.379
        90  -8.6447    244.1503     42.1800   2.8914017598e+02   5.8976040800e+00   0.01733997   0.01333544 -27.86  0.001658853    1.439    0.305
        91  -8.4873    216.3721     41.7813   2.8948422306e+02   6.0619520886e+00  0.009701157  0.006068501 -52.53  0.000951233    1.652    0.395
        92  -8.7128    229.8499     36.4931   2.8928735220e+02   6.0458394017e+00   0.01728924  0.009240788  51.14  0.001509152    2.148    0.534
        93  -8.0096    241.7328     34.1716   2.8912659264e+02   6.0044209077e+00   0.01495191  0.006393817  37.77  0.001233609    2.145    0.534
        94  -8.6915    249.0084     33.5190   2.8903238403e+02   5.9701233966e+00   0.02714469   0.01372449  69.01   0.00192185    3.733    0.732
        95  -8.7422    224.0252     22.7695   2.8928507358e+02   6.2385496961e+00   0.01924302  0.007077317  35.90   0.00149929    2.398    0.583
        96  -7.6540    199.5011     23.5222   2.8959505164e+02   6.3707707089e+00   0.00682966  0.006400637  21.85 0.0008102692    1.005    0.005
        97  -7.7892    240.4137     18.9006   2.8905966787e+02   6.1891394916e+00   0.01349059  0.007999632 -24.49  0.001185937    2.250    0.556
