#   1 NUMBER                 Running object number                                     
#   2 MAG_AUTO               Kron-like elliptical aperture magnitude                    [mag]
#   3 X_IMAGE                Object position along x                                    [pixel]
#   4 Y_IMAGE                Object position along y                                    [pixel]
#   5 X_WORLD                Barycenter position along world x axis                     [deg]
#   6 Y_WORLD                Barycenter position along world y axis                     [deg]
#   7 A_WORLD                Profile RMS along major axis (world units)                 [deg]
#   8 B_WORLD                Profile RMS along minor axis (world units)                 [deg]
#   9 THETA_WORLD            Position angle (CCW/world-x)                               [deg]
#  10 FWHM_WORLD             FWHM assuming a gaussian core                              [deg]
#  11 ELONGATION             A_IMAGE/B_IMAGE                                           
#  12 ELLIPTICITY            1 - B_IMAGE/A_IMAGE                                       
         1  -9.5315    209.7462     36.2924   4.1743122623e+01   2.8552596202e+01     1.044673    0.5733337 -14.71  0.004348693    3.125    0.680
         2  -9.9348    219.4096     33.3241   3.9963746556e+01   2.6702392625e+01    0.6454526    0.3873875 -67.07  0.003323823    1.689    0.408
         3  -8.4810    188.3129     23.7836   4.1174584921e+01   3.5225278489e+01    0.6100054    0.2634115 -53.92  0.002366485    2.618    0.618
         4 -10.7161     27.3753     30.9002   8.8975835304e+01   6.7671443493e+01    0.5773382    0.4453623  14.53  0.002209085    1.307    0.235
         5  -8.3227    228.0065     23.2245   3.6831272569e+01   2.6019074198e+01    0.5040062    0.2009885 -44.57  0.002346606    2.162    0.538
         6 -10.2024    105.1464     23.0914   5.6039974751e+01   5.5541738111e+01     0.619159    0.4587706 -78.82  0.003177281    2.035    0.509
         7  -9.4493    136.4250     16.9747   4.6990157793e+01   4.8803154683e+01     0.464697    0.2239488 -40.98  0.001596464    2.315    0.568
         8  -8.6914    132.2083     13.3083   4.6545839009e+01   5.0194443853e+01    0.2611274    0.2093761  74.39 0.0008764098    1.197    0.165
         9 -10.4116    219.1083     16.9098   3.6228660067e+01   2.8749745592e+01    0.4793818    0.3039379 -64.37  0.001941715    1.446    0.308
        10  -8.2184    213.4949     11.9936   3.5617246677e+01   3.0576123518e+01    0.2635639    0.1347692 -55.13   0.00133329    1.842    0.457
        11  -8.5261     51.8525     19.1629   7.2386359888e+01   6.6316151425e+01    0.2947477    0.1560513  31.83   0.00154985    1.766    0.434
        12  -8.4419    209.4345     14.6445   3.6609417494e+01   3.1223101492e+01    0.2196942    0.1562568 -52.70  0.001012932    1.308    0.235
        13  -7.9636    197.1805     14.2370   3.7738652557e+01   3.4152410547e+01    0.3047274    0.1564674 -53.61  0.001480838    1.939    0.484
        14  -9.6173    204.2187     15.4143   3.7303315155e+01   3.2357134249e+01    0.4649739    0.3323379  49.59  0.002108009    1.635    0.388
        15  -8.0198    206.4915     10.9630   3.6022876588e+01   3.2306654666e+01    0.1771064     0.149675 -71.82 0.0004109317    1.065    0.061
        16  -9.7617    200.4614      9.4205   3.6231335699e+01   3.3883288237e+01    0.5573776      0.24374  71.73  0.002165768    2.020    0.505
        17  -9.2962    175.3672     16.6391   4.0898353571e+01   3.9196173841e+01    0.2704791    0.2066606 -54.02 0.0008866806    1.331    0.249
        18  -8.4543     89.7931     12.7819   5.6112249102e+01   5.9996342048e+01    0.2688816     0.189208 -35.18  0.001097538    1.649    0.393
        19  -9.3761     86.4490     16.6173   5.8693452571e+01   6.0297550379e+01    0.3367987    0.2435787 -70.92  0.001312456    2.467    0.595
        20  -9.4065     85.6279     10.8807   5.6515539467e+01   6.1059732845e+01    0.4644846    0.2678414  16.17  0.002286159    2.092    0.522
        21  -9.9821    118.0510     15.0747   4.9990788400e+01   5.3415822209e+01     0.620012    0.4102601  64.02  0.003301419    1.405    0.288
        22  -8.6318    227.1036     14.7537   3.5050708806e+01   2.7204096399e+01     0.213804    0.1780666 -28.54 0.0003696718    1.469    0.319
        23  -9.3521    156.5524     14.4825   4.2882845951e+01   4.4081730948e+01    0.3087327    0.2209993  58.64  0.001537214    1.252    0.202
        24  -8.2196    238.0628      9.7913   3.3134930044e+01   2.5380868037e+01    0.2853914    0.1277613 -47.01  0.001342304    1.879    0.468
        25  -8.7996    188.1330     12.5136   3.8280194487e+01   3.6509127952e+01    0.4194684    0.2517245  47.44  0.001526732    1.904    0.475
        26  -8.3723    193.2955     11.3203   3.7421307957e+01   3.5390146007e+01    0.1959609    0.1643881  66.01 0.0009643101    1.208    0.172
        27  -8.3209     64.1492     12.6626   6.4438167969e+01   6.5048644181e+01     0.205363    0.1654167 -26.19  0.001313853    1.381    0.276
        28  -9.0317     30.3450     12.1324   7.9127862690e+01   7.0247983326e+01    0.2494477    0.1747329  23.60  0.001136258    1.360    0.265
        29  -8.3779    106.2301     14.8855   5.2629257096e+01   5.6172566280e+01    0.3243358     0.209634  88.00  0.001515063    2.409    0.585
        30  -8.1893     91.0538      1.4994   5.1063650549e+01   6.0744611391e+01    0.3129106    0.1026495  57.31  0.001293221    2.502    0.600
        31  -8.1684    100.1903     11.8033   5.2926784976e+01   5.7831954696e+01    0.3439009    0.1921838 -35.33  0.001734569    2.042    0.510
        32  -9.5684    107.0424      4.2907   4.8384955310e+01   5.6954109548e+01    0.5548903    0.2512707  53.83  0.002638474    1.775    0.436
        33  -9.4332     99.9825      5.0132   5.0285735136e+01   5.8491121377e+01    0.4601076    0.2689453   9.99  0.002006213    2.149    0.535
        34  -9.1186     96.1155      3.6647   5.0683389970e+01   5.9462446137e+01    0.2877395    0.2540136 -80.26  0.001164202    1.443    0.307
        35  -9.2648    247.2180     10.4448   3.2612847706e+01   2.3390057262e+01    0.2204224    0.1906003 -78.96 0.0004915771    1.172    0.147
        36  -8.8237    247.6710      5.1505   3.1531171094e+01   2.3880484656e+01    0.2726164    0.1890403  41.43  0.001634594    2.321    0.569
        37  -8.5209    145.3242      9.1911   4.2977642807e+01   4.7368906576e+01    0.4121152    0.3369388  -9.31  0.002472266    1.472    0.321
        38 -10.1179    120.3458      5.1757   4.5973004209e+01   5.3776932531e+01    0.8283808    0.3771813  77.98  0.003301897    2.899    0.655
        39  -8.6272    135.6128      9.7843   4.4765069771e+01   4.9696167997e+01    0.2270999    0.1748786  87.38 0.0009815075    1.355    0.262
        40  -8.8413    131.0298      9.4790   4.5472158425e+01   5.0838413146e+01    0.4204934    0.1932034  64.42  0.001429991    1.881    0.468
        41  -9.3094    139.4810      7.7210   4.3443849378e+01   4.8937191252e+01    0.5004423    0.3292097 -37.38  0.002730925    1.696    0.410
        42  -7.9711    136.6913      4.2857   4.2784812814e+01   4.9916691395e+01    0.1642741    0.1286091 -50.71 0.0002742798    1.449    0.310
        43  -8.9428     18.0172     10.4876   8.4958167596e+01   7.1841599127e+01    0.2129083    0.1482355 -33.84 0.0007879225    1.354    0.262
        44  -8.5183     14.6671      9.3422   8.6311523856e+01   7.2330532742e+01    0.1850128    0.1618949 -65.56  0.001290124    2.126    0.530
        45  -8.3956      8.5961     10.6534   9.0486603245e+01   7.2655328271e+01    0.1914947    0.1162974  16.01 0.0006757436    1.612    0.380
        46  -9.2005    219.6300      8.4426   3.4285320590e+01   2.9564533264e+01    0.2920338    0.2456918 -64.31  0.001203087    1.111    0.100
        47  -8.8416    223.5328      3.6713   3.2929686772e+01   2.9194504995e+01    0.3671241    0.1170694 -38.52  0.001652394    2.662    0.624
        48  -8.7474    151.6346      8.9174   4.1936425070e+01   4.5837450069e+01    0.2933734    0.2376919  23.59  0.001736447    1.475    0.322
        49  -7.6618    177.6588      8.3188   3.8369055411e+01   3.9480809417e+01    0.1401624   0.08651108 -69.18 0.0007049489    1.715    0.417
        50  -8.6467     69.6770      6.4725   5.9594799728e+01   6.4671767727e+01    0.2925524    0.2080542  10.93  0.001776875    1.351    0.260
        51  -8.0158    157.3678      7.1036   4.0581998151e+01   4.4588569176e+01    0.1739718    0.1600623 -75.46  0.000934371    1.132    0.116
        52  -9.6057    238.9317      4.3630   3.1959334277e+01   2.5786242288e+01    0.3762479    0.2498026  76.24  0.002391668    1.424    0.298
        53 -10.0836     80.9925      3.0945   5.4498908445e+01   6.2735870130e+01    0.4810878    0.3329556  55.39   0.00167747    1.374    0.272
        54  -8.4082     57.0506      5.6941   6.3823076771e+01   6.7049008548e+01    0.2849734    0.1477531  46.32  0.001523936    1.812    0.448
        55  -9.3128      4.3747      4.6657   9.0212140603e+01   7.3892437787e+01    0.1992241    0.1190194   9.29  0.001274448    1.561    0.359
        56  -9.0821    181.2521      2.7966   3.6517511552e+01   3.9132037807e+01    0.2954037    0.2099137 -59.16  0.001502666    1.390    0.281
        57  -7.8088    132.9264      3.6454   4.3192432546e+01   5.0885098633e+01    0.1849015    0.1516846  68.23 0.0005245719    1.070    0.065
        58  -9.4396     46.6860      3.3749   6.6918002415e+01   6.9013154456e+01    0.2560193    0.2042788 -28.14  0.001205378    1.491    0.329
        59  -7.9293     42.5006      1.4582   6.7768819812e+01   6.9869567962e+01    0.1807813   0.08995918  32.29  0.000610373    1.773    0.436
        60  -7.9121     28.6439      3.7078   7.5708226421e+01   7.1555826950e+01    0.1219846   0.07222491   3.67 0.0007029513    1.687    0.407
        61  -8.2531    217.0133      1.6469   3.2990589450e+01   3.0857899753e+01    0.3206684   0.08404575  55.31  0.001138745    4.432    0.774
        62  -8.0205    170.4601      2.0458   3.7506102006e+01   4.1826200287e+01    0.2084518    0.1534101  75.48  0.001229812    1.155    0.134
        63  -8.1038    157.1441      1.7051   3.9032079180e+01   4.5121162288e+01    0.3010492   0.09971531  48.98  0.001149714    3.039    0.671
        64  -8.1912      9.8406      1.8200   8.5387952995e+01   7.3847706160e+01    0.1366038    0.1143636  -0.62 0.0005685515    1.314    0.239
        65  -7.7048    174.5082      1.4666   3.6894231703e+01   4.0890418150e+01     0.129487     0.109005  76.91 8.930017e-05    1.056    0.053
        66  -8.2284    163.2941      1.4389   3.8184890168e+01   4.3634280235e+01     0.238493    0.1046722  66.96 0.0007197506    1.878    0.467
        67  -7.5165    143.7475      1.3541   4.0766089060e+01   4.8437040349e+01    0.1276828   0.09022313 -63.33 0.0005279151    1.601    0.376
        68  -9.0109     37.3173      5.6052   7.2354373026e+01   7.0167340018e+01    0.3415335    0.2167269  55.34  0.001783706    3.030    0.670
        69  -9.3011    209.0000     77.0584   5.1871121256e+01   2.2713647319e+01    0.5695856    0.1669242 -38.47  0.001901418    3.085    0.676
        70  -9.3841    219.5609     84.4713   5.2066742705e+01   1.9116514950e+01    0.5137954    0.3072214  86.10  0.002060649    2.568    0.611
        71  -8.8355    225.3012     83.9922   5.1112263240e+01   1.7943495660e+01    0.4916626    0.2393099  69.35  0.001984223    2.714    0.632
        72  -8.3524    214.4435     85.3177   5.3049347341e+01   2.0110194674e+01    0.2682997     0.135585 -33.76  0.001123693    1.984    0.496
        73  -9.1695    194.5931     81.7964   5.5429618568e+01   2.5272679840e+01    0.6348736     0.244727 -38.05   0.00230229    2.485    0.598
        74  -8.0164    197.2959     80.3410   5.4591485427e+01   2.4885021949e+01    0.2284405    0.2050916  42.46  0.000550081    1.226    0.184
        75  -8.4969    171.4408     85.9025   6.0910507822e+01   3.0078267861e+01    0.2943072    0.2112988  73.91  0.001329686    1.637    0.389
        76  -7.5513     74.0192     86.6832   8.8285633196e+01   5.0666763079e+01     0.232079    0.1018294  53.15  0.000704817    4.286    0.767
        77  -8.4288    249.0861     84.6839   4.8090427015e+01   1.2921788302e+01    0.2087221    0.1598924 -77.17  0.001202857    1.445    0.308
        78  -8.3920    183.3521     84.6360   5.8214709207e+01   2.7447015092e+01    0.3038744    0.2187974  16.71  0.001327073    2.056    0.514
        79  -9.3461    148.6102     83.4078   6.5254620005e+01   3.6030329263e+01    0.3955172    0.2356931  54.77  0.001502702    1.697    0.411
        80  -8.0307    126.3184     84.6422   7.1298004007e+01   4.0965911566e+01    0.1594217    0.1239383 -81.67 0.0007044643    1.757    0.431
        81  -8.8770    156.1533     81.8719   6.3070311067e+01   3.4508047287e+01    0.2197122    0.1887433  10.10  0.001088126    1.373    0.272
        82  -7.8874     56.3172     82.3340   9.3457393851e+01   5.4167704437e+01    0.1475658   0.09725781 -25.31 0.0007047971    1.693    0.409
        83  -9.3405    179.7871     78.7084   5.7301706340e+01   2.9346054305e+01    0.2894996    0.2457128 -54.94  0.001208633    1.172    0.147
        84  -9.5618    236.8780     76.1608   4.7741407802e+01   1.6730546975e+01    0.4338658    0.3398935 -47.58  0.002522541    1.122    0.109
        85  -8.6103    227.2997     74.0341   4.8508982793e+01   1.9106956972e+01    0.3132308    0.2524608  68.93  0.001747925    1.309    0.236
        86  -9.3633    146.1332     77.6157   6.4142894106e+01   3.7700189760e+01    0.4444698    0.3164323  70.31  0.001995367    1.656    0.396
        87  -8.5154    139.4958     77.9673   6.5858255853e+01   3.9213678460e+01    0.2441401    0.2039989  51.01 0.0007217593    1.174    0.148
        88  -7.6038     22.3899     78.1654   1.0543455147e+02   5.8552523071e+01    0.1712563    0.1104081 -71.69 0.0003819119    1.594    0.373
        89  -8.7652    184.8519     74.8238   5.5321267864e+01   2.8786619498e+01    0.4381142    0.3558572 -29.10  0.002258474    1.320    0.242
        90  -8.5846    121.1777     75.1996   6.9821385369e+01   4.3951461647e+01    0.4078715     0.218178 -53.86  0.001548273    2.391    0.582
        91  -9.2246    247.6426     75.7555   4.6324298028e+01   1.4587758587e+01    0.2637466    0.2039132 -75.99 0.0007905345    1.351    0.260
        92  -8.5471    229.0606     77.5569   4.9089002597e+01   1.8169815272e+01    0.3130079     0.206931 -80.83  0.001118161    1.920    0.479
        93  -8.9588    219.0978     73.5278   4.9520170213e+01   2.0995611872e+01    0.3985306    0.2922286 -88.15  0.002076613    1.540    0.350
        94  -9.1846    199.7962     72.6582   5.2214398916e+01   2.5574798703e+01    0.4575119    0.2535196 -57.70 0.0009816109    2.106    0.525
        95  -8.5026    107.1544     73.9159   7.3484007956e+01   4.7233080946e+01    0.2283321    0.2134106 -83.82  0.001234713    1.250    0.200
        96  -9.0889    192.0956     71.3511   5.3141602710e+01   2.7619893488e+01    0.4220783    0.2632244 -24.42  0.001865115    1.944    0.486
        97  -9.2283    195.5551     66.0285   5.1187250371e+01   2.7647659732e+01     0.575807    0.3690638 -28.23   0.00232866    1.742    0.426
        98  -8.2844    176.7304     72.3440   5.6143067864e+01   3.1178131608e+01    0.3906417     0.234038  82.46  0.001514032    2.474    0.596
        99  -8.8441    148.1270     73.1600   6.2350838101e+01   3.8024204457e+01    0.2332093    0.2049627  28.61 0.0005722069    1.216    0.178
       100  -9.2761    134.3200     72.3781   6.5452781855e+01   4.1458420452e+01    0.3072834     0.249589 -40.12 0.0007951071    1.263    0.208
       101 -10.0233    161.9406     67.7660   5.7754960507e+01   3.5578444790e+01    0.6138964    0.3635834  64.92  0.002163022    1.808    0.447
       102  -8.4089    164.1980     63.7971   5.6151349494e+01   3.5674932805e+01    0.3238209    0.2001224  57.14  0.001391909    1.561    0.359
       103  -8.5703    158.3540     61.6867   5.6710316037e+01   3.7460711471e+01    0.4042711     0.275511 -65.53  0.001304764    1.838    0.456
       104  -8.3878    129.5189     70.5214   6.6107479792e+01   4.2914856752e+01    0.2884198    0.2198435  61.34  0.001290468    1.398    0.285
       105  -8.4522     83.6118     71.2993   8.0266331009e+01   5.2316226089e+01    0.2486774     0.173709  13.19 0.0008231748    1.723    0.420
       106  -9.2537    244.3904     62.5070   4.3811128960e+01   1.7231922532e+01     0.741526    0.3116657 -61.95   0.00267617    3.678    0.728
       107  -7.7634    246.9615     60.0000   4.2984831051e+01   1.7068309496e+01    0.2276849    0.1682779  66.06 0.0009109721    1.472    0.320
       108  -9.0395    235.4158     66.8008   4.5811366672e+01   1.8474335208e+01    0.3229244    0.1992441 -32.24   0.00112007    1.645    0.392
       109  -7.5443    236.2596     59.1405   4.3988316601e+01   1.9430296949e+01    0.3289354    0.1541105  53.45  0.001494465    2.402    0.584
       110  -8.7408    222.2897     57.5788   4.5307379105e+01   2.2718674139e+01    0.4784035    0.2577443  88.19   0.00201923    2.583    0.613
       111  -8.7012    228.7554     66.3497   4.6536715901e+01   1.9977205287e+01    0.4025368    0.1608353  54.04  0.001654023    2.679    0.627
       112 -10.3940    230.1814     61.6892   4.5286444427e+01   2.0366261244e+01    0.4612761    0.3503412 -69.13  0.001469154    1.274    0.215
       113  -7.5315     12.3044     69.2824   1.0751035531e+02   6.1209406784e+01     0.127894   0.07295931 -37.77 0.0003070566    1.556    0.357
       114  -7.3529    182.2808     68.2976   5.4023161411e+01   3.0493732764e+01    0.1411067     0.115818  21.18 0.0002549176    1.540    0.351
       115  -7.7498    207.0273     65.7281   4.9355294660e+01   2.4982376772e+01    0.1914951    0.1725721 -89.47 0.0003262444    1.074    0.069
       116  -8.1569    127.1003     65.8490   6.5257127196e+01   4.4305028469e+01    0.2269445    0.2097604 -80.29 0.0007540295    1.215    0.177
       117  -8.4008    187.4341     65.5291   5.2387098452e+01   2.9685546273e+01    0.4221386    0.1372644  58.47   0.00101371    2.992    0.666
       118  -9.1570    174.5596     63.7155   5.4154576234e+01   3.3128211551e+01    0.3767517    0.2589372  41.68  0.001406581    1.614    0.380
       119  -7.9059    150.0438     64.7171   5.9382398280e+01   3.9009910547e+01    0.2206483    0.1893674  60.68  0.001130818    1.134    0.118
       120  -7.7889      5.4927     65.5262   1.0950960640e+02   6.2403425173e+01    0.1219613   0.09585936 -49.54   0.00013246    1.004    0.004
       121  -9.2995    113.4486     63.7059   6.8296704309e+01   4.7770147480e+01    0.4188264    0.1896286  50.16 0.0005631149    2.195    0.544
       122  -9.8442    119.0112     59.2511   6.5259960518e+01   4.7292485811e+01    0.5675446    0.4160601  17.07  0.002046237    1.659    0.397
       123  -8.9955    114.3622     57.2588   6.5874058175e+01   4.8672923991e+01    0.4092851    0.2505801 -50.18  0.001440036    1.948    0.487
       124  -8.6450     89.5092     63.2676   7.5585653341e+01   5.2780099487e+01    0.3649938    0.2306069 -35.19 0.0009544488    1.582    0.368
       125  -9.2805    214.5510     59.5111   4.6771423569e+01   2.4189262338e+01    0.2712174    0.2287883 -55.37  0.001206193    1.088    0.081
       126  -9.2411    216.9525     62.8956   4.7265814614e+01   2.3131092963e+01    0.4089302    0.1969849  62.09  0.001050122    2.121    0.529
       127  -8.9624    211.6467     62.9275   4.8001342734e+01   2.4342002385e+01    0.4559333      0.32079  87.10  0.002328831    1.564    0.361
       128  -8.0495    188.9955     61.7363   5.1118092807e+01   2.9902941541e+01    0.2019232    0.1795459  63.47 0.0008922588    1.127    0.113
       129  -8.8468    126.0617     60.3717   6.3756317460e+01   4.5482683204e+01    0.2146078    0.1882608  48.78 0.0007492701    1.097    0.088
       130  -7.9601    134.4942     58.9779   6.1191807795e+01   4.3721992108e+01    0.2227752    0.1476462 -35.54  0.001026949    1.573    0.364
       131  -8.3042     55.5937     56.8499   8.5921548458e+01   5.9587892859e+01    0.3124475    0.1266495 -55.05  0.001152151    3.271    0.694
       132  -8.4595     15.7932     58.0174   1.0332977338e+02   6.3412432589e+01    0.2135282   0.09452116 -40.60 0.0005953202    1.894    0.472
       133  -9.5452    203.3332     53.9921   4.6943671510e+01   2.7624148600e+01     0.544132    0.3707498 -82.01  0.002702363    1.647    0.393
       134  -7.4873    191.2826     57.6717   4.9676551255e+01   2.9970166131e+01    0.1489882    0.1025977 -66.77 0.0003299599    1.604    0.377
       135  -7.6812    178.5261     48.9557   4.9359976935e+01   3.4383530810e+01    0.1870592    0.1279644   5.88 0.0008077355    2.399    0.583
       136 -10.2401    173.2098     53.2626   5.1460728601e+01   3.5074688244e+01    0.7179311    0.5317137 -85.88  0.003564392    1.523    0.344
       137  -8.3939     50.1812     56.4240   8.7991960715e+01   6.0391153798e+01    0.2655528    0.1820792 -18.14  0.001204805    1.507    0.336
       138  -8.6788     42.3021     56.4943   9.1324628943e+01   6.1332985586e+01    0.2461688    0.2023595 -23.08 0.0007777202    1.054    0.051
       139  -7.9954    199.6735     52.6553   4.7121245777e+01   2.8690617530e+01    0.2591197    0.1974137  -5.05  0.001081398    1.858    0.462
       140  -9.0785    142.7728     53.9472   5.7671750182e+01   4.2515356670e+01    0.3312747    0.2741365 -44.33  0.001743502    1.273    0.214
       141  -8.2066    250.5503     52.4186   4.0992125789e+01   1.7413206670e+01    0.3289517    0.1165946 -33.48  0.001342593    2.785    0.641
       142  -9.0806    240.5627     53.1388   4.2179562572e+01   1.9378190145e+01    0.4872298     0.242702  69.27  0.002361758    2.142    0.533
       143  -8.3486    185.0500     53.8146   4.9633997479e+01   3.2067714168e+01    0.3867529    0.1893164  64.37  0.001204107    2.022    0.505
       144  -8.7259    160.8508     53.5046   5.3795912820e+01   3.8113829163e+01    0.4087421    0.2224801  69.70  0.001675006    2.059    0.514
       145  -8.9903    120.1780     51.2310   6.2245561840e+01   4.8321511305e+01    0.4109027    0.2021163 -42.60  0.001678723    2.211    0.548
       146  -7.3623    226.2323     53.8288   4.3951505116e+01   2.2382868996e+01    0.2924589    0.1028493  71.41  0.001023936    3.645    0.726
       147  -8.6789     33.2720     53.3851   9.4238096654e+01   6.2914338888e+01     0.395824    0.1369834  29.12  0.001682443    3.017    0.669
       148  -7.9829    128.5432     52.0794   6.0400898644e+01   4.6233020765e+01    0.2134115    0.1455044 -32.29  0.001015785    1.551    0.355
       149  -8.5489    213.5034     51.0129   4.4850160408e+01   2.5671624643e+01    0.2496117    0.1789188 -85.97 0.0008395418    1.445    0.308
       150  -8.9686    245.4388     47.7496   4.0507268567e+01   1.9107877603e+01    0.3128203    0.1886011 -41.57 0.0008267617    1.463    0.316
       151  -9.4889    241.7358     43.4845   3.9956434863e+01   2.0462634387e+01    0.6795608    0.2942187  54.50  0.003107194    2.662    0.624
       152  -8.6899    189.2518     49.0819   4.7715516021e+01   3.1725718080e+01    0.3027489    0.1898596 -54.70  0.001442194    1.649    0.393
       153  -8.3020    185.2049     46.0568   4.7517814925e+01   3.3144351529e+01    0.3824936    0.2093773  72.43 0.0005898308    1.901    0.474
       154  -7.7208     94.4939     64.4998   7.4358852742e+01   5.1586973641e+01    0.1452886    0.1356408   3.94 -0.0002323823    1.002    0.002
       155  -8.8500    220.1680     46.8558   4.3042191800e+01   2.4728780768e+01    0.4940005    0.1742932 -44.24  0.001976451    2.517    0.603
       156  -9.4602    164.5447     45.9924   5.0902206832e+01   3.8284747302e+01    0.4833318    0.3006862 -61.86  0.001815476    1.966    0.491
       157  -8.8098    159.5403     46.9941   5.2112476640e+01   3.9392530656e+01    0.3892244     0.180575 -30.06  0.001551486    2.379    0.580
       158  -8.6523    156.9769     42.1604   5.1140362824e+01   4.0705059334e+01    0.5219892    0.2490269  75.59  0.001237853    2.881    0.653
       159  -8.6933    154.1283     49.0146   5.3761730665e+01   4.0450269211e+01    0.2507239    0.1981735  57.73 0.0004340125    1.187    0.158
       160  -8.1611      2.1310     48.8039   1.0714037694e+02   6.6095528491e+01    0.1675828    0.1044326 -37.96 0.0005543317    1.291    0.225
       161  -7.6804    227.4675     48.5137   4.2584491223e+01   2.2860634311e+01    0.1341216    0.1138409 -66.97 0.0001533301    1.020    0.020
       162  -9.7699     27.1611     44.7001   9.4156707140e+01   6.5190500787e+01    0.4549631    0.3430229  61.12  0.002610754    2.303    0.566
       163  -9.0229    214.2979     43.0539   4.2835040335e+01   2.6595522089e+01    0.4242996    0.3676775  84.12  0.002596244    1.108    0.097
       164  -7.7745    204.1445     31.1623   4.1143895611e+01   3.0525685725e+01    0.5912879    0.3435836  25.70  0.002320962    3.767    0.735
       165  -8.4943    247.3631    248.8110   8.0723505229e+01  -1.1703638576e+01     0.157148   0.08727182 -19.26 0.0009506873    1.710    0.415
       166  -9.6381    205.3493     42.0017   4.3676866696e+01   2.8831812911e+01    0.5257427    0.3750301  -4.27  0.002086716    2.170    0.539
       167  -9.3089    202.5042     38.7920   4.3236338441e+01   2.9936020753e+01    0.3779772    0.3737979 -42.42  0.002247375    1.214    0.176
       168  -8.4982    216.0020     35.7670   4.0905328623e+01   2.7168712435e+01    0.2765021    0.1910853 -79.86 0.0008343656    1.424    0.298
       169  -7.7637    250.3092    223.3179   7.5950625370e+01  -8.9008835347e+00    0.1241795    0.0755869  -0.60 0.0006371212    1.638    0.389
       170  -8.3349     78.1171     47.1471   7.3755786146e+01   5.7730610408e+01    0.2478419    0.1866577  40.65  0.001355104    1.343    0.256
       171  -7.7870    101.4996     46.4489   6.5806784063e+01   5.3215997674e+01    0.1416536    0.1301819  24.48 6.504328e-05    1.015    0.015
       172  -9.0501    226.2303     43.5367   4.1582322151e+01   2.3820154624e+01    0.3261722    0.2098777 -67.00  0.001248771    1.543    0.352
       173  -8.4705    139.0619     45.3588   5.5752789723e+01   4.4695015788e+01    0.2078942    0.1674033  63.98 0.0005381089    1.203    0.169
       174  -8.9458     56.0781     42.1403   8.0348431560e+01   6.2192053124e+01    0.6340523    0.2257932 -45.92  0.002494201    2.994    0.666
       175  -8.5974    231.2541     43.4350   4.1017165367e+01   2.2723657242e+01     0.218512    0.1606337 -41.40 0.0004947585    1.299    0.230
       176  -8.2294    190.8662     43.6725   4.6049630889e+01   3.2087297479e+01    0.2225067     0.192619 -14.53 0.0008016393    1.411    0.291
       177  -8.7870    128.8555     42.8318   5.7238071837e+01   4.7521644791e+01    0.4785582    0.2139157  43.94   0.00187843    2.231    0.552
       178  -8.0797    130.4762     39.4900   5.5738908985e+01   4.7592840063e+01    0.2361466    0.1361448  69.50 0.0006782091    2.012    0.503
       179  -8.3381     83.7142     42.8458   7.0159873260e+01   5.7379566382e+01     0.229478    0.1652549  -6.41  0.001190096    1.537    0.350
       180  -8.6204    196.0277     41.4074   4.4743828856e+01   3.1141665211e+01    0.2886199    0.1960286 -66.33  0.001170697    1.531    0.347
       181  -7.9465    169.2837     42.3311   4.9021554529e+01   3.7607211379e+01    0.2192941    0.1340443  62.31 0.0005091146    1.521    0.343
       182  -9.1093    169.8466     38.3202   4.7779781903e+01   3.8001792827e+01    0.4597456    0.2918941 -42.00  0.001719965    1.616    0.381
       183  -9.1044    167.5259     34.4647   4.7047097787e+01   3.9077245436e+01    0.2458413    0.2314022  63.54 0.0006745675    1.091    0.083
       184  -9.1316      3.9417     40.8446   1.0413639401e+02   6.7602660575e+01    0.2774564    0.2353074  87.00  0.001849608    1.683    0.406
       185  -8.9759      3.7701     36.5707   1.0295900063e+02   6.8441582893e+01     0.214638    0.1858156  69.36  0.001523178    1.754    0.430
       186  -7.7420     70.4886     40.4659   7.3983043256e+01   6.0162659860e+01    0.1329596    0.1193726   4.28 0.0004138628    1.065    0.061
       187  -7.9968    223.2848     39.0244   4.0867031313e+01   2.5084452965e+01    0.1869453     0.148093 -51.54  0.000624811    1.158    0.136
       188  -9.4197    111.5806     34.7769   5.8712013105e+01   5.2654515609e+01    0.6467506     0.322414 -51.58  0.002500032    3.084    0.676
       189  -8.5461    112.9992     29.1626   5.6299375752e+01   5.3041048439e+01     0.403289    0.2485569  16.49  0.001823799    2.200    0.545
       190  -8.6204    140.0658     39.6819   5.3702891348e+01   4.5233746257e+01    0.2418268    0.1942206 -51.15  0.001020539    1.368    0.269
       191  -8.5332    228.0235     37.5180   4.0022609532e+01   2.4223782077e+01    0.2503998     0.168047 -71.99  0.001387983    1.439    0.305
       192  -8.6783    102.5829     37.8142   6.2307599812e+01   5.4248397833e+01    0.2509649    0.1963134  40.97 0.0007901164    1.170    0.145
       193  -9.0370    104.5679     32.8395   5.9885761409e+01   5.4482538507e+01     0.524235    0.2255652 -36.69    0.0021813    2.480    0.597
       194  -8.8218     93.7157     38.1467   6.5090247860e+01   5.6085969565e+01    0.4385866    0.1854249  36.91  0.001431342    2.558    0.609
       195  -8.9557     89.5108     34.4708   6.4991327043e+01   5.7466605985e+01    0.3375123    0.1640379 -41.80  0.001054306    2.375    0.579
       196  -8.6459     67.1138     36.8435   7.3821723265e+01   6.1306053633e+01    0.4476187    0.2380876  -9.57   0.00173137    3.281    0.695
       197  -7.4116    191.3174     37.2819   4.4310982351e+01   3.2830827477e+01    0.1334275    0.1021505  39.78 0.0005788393    1.581    0.367
       198  -9.2415    185.3028     33.7667   4.4204848211e+01   3.4753885089e+01    0.8318244    0.3954612  34.99  0.002819239    4.225    0.763
       199  -9.5600    182.3369     30.7341   4.3799969276e+01   3.5861687653e+01    0.3855034    0.2332247 -41.61  0.001029317    1.662    0.398
       200  -9.4090    185.1107     26.0724   4.2181820998e+01   3.5740601167e+01    0.3859115    0.3067288 -47.01   0.00136706    1.277    0.217
       201  -8.2243     22.5152    193.4763   1.2044437417e+02   3.1101043880e+01    0.1206387   0.09970118  85.21 9.714691e-05    1.075    0.070
       202  -9.2637    159.0386     34.7509   4.8545073597e+01   4.1162691905e+01    0.3164054    0.2506874 -47.25   0.00092261    1.328    0.247
       203  -8.2442    154.0039     35.3215   4.9608390527e+01   4.2347900691e+01    0.2812494    0.2116483 -24.92  0.001481005    1.499    0.333
       204  -9.7792    243.4452     33.5749   3.7675907680e+01   2.1403424017e+01    0.5761359    0.2832026 -35.71  0.002933275    1.928    0.481
       205  -8.7088    248.7113     34.5393   3.7412570779e+01   2.0184831908e+01    0.2430001    0.1838955  72.71  0.001105158    1.385    0.278
       206  -9.3846    246.8904     25.0690   3.5605881496e+01   2.1746698656e+01    0.6888968    0.2685815  76.92  0.003142837    2.715    0.632
       207  -9.5011    241.8308     20.1475   3.4993971640e+01   2.3396666848e+01     0.318717    0.2553368 -20.55  0.002049193    1.668    0.401
       208  -8.6123    242.9995     16.5112   3.4150468543e+01   2.3576569475e+01    0.2355716    0.1852331 -84.82 0.0009549174    1.127    0.113
       209  -8.5673    236.2908     34.3362   3.8498879324e+01   2.2828504092e+01    0.2831784    0.1585815 -74.68  0.001424635    1.930    0.482
       210  -8.4977    121.0187     34.8124   5.6350118971e+01   5.0463985012e+01    0.2226157    0.2043419 -15.22   0.00061459    1.168    0.144
       211  -9.2632     75.3994     34.1369   6.9638412241e+01   6.0248414421e+01    0.3178169    0.2695948  59.38  0.001874917    1.528    0.345
       212  -9.4254     60.8047     33.6204   7.4987605598e+01   6.2840868610e+01    0.4280117    0.2338367  -0.84  0.001712824    3.198    0.687
       213  -8.9210     41.2645     32.4939   8.2965396341e+01   6.5826783861e+01    0.3190181     0.197781  25.11  0.001112768    1.587    0.370
       214  -8.6795    224.9146    184.9143   7.3389350185e+01   5.3912876508e-01     0.202143    0.1833752  -8.56  0.001065155    1.117    0.105
       215 -10.1960     30.7577     24.3229   8.4551371639e+01   6.8395863112e+01    0.4891688    0.2690367  -0.58  0.002495331    2.240    0.554
       216  -8.5284    191.6119     33.7986   4.3363302564e+01   3.3206545358e+01    0.2486365    0.1741464  68.74 0.0006066396    1.329    0.248
       217  -8.9088     98.4796     32.0439   6.1312725785e+01   5.5915352132e+01    0.2320452    0.1756924  25.50  0.001268232    1.296    0.228
       218  -9.7375    131.6209     33.2284   5.3378182498e+01   4.8131889392e+01    0.4310204    0.3617976  58.37  0.002304174    1.096    0.088
       219  -7.4907    123.2489     31.5833   5.4692470586e+01   5.0345865154e+01    0.1397764    0.1029355 -60.96 0.0006294701    1.731    0.422
       220  -7.8457     82.6680     31.3015   6.5964348460e+01   5.9267045909e+01     0.123338    0.1089707 -85.60 0.0007034267    1.652    0.395
       221  -8.5232    250.0655     29.3292   3.6221981590e+01   2.0566351175e+01    0.1903665    0.1551045 -37.43  0.000582884    1.350    0.259
       222  -8.4176    176.7058     30.3326   4.4483802292e+01   3.7303599266e+01    0.2132185    0.1778701 -80.50 0.0005235719    1.154    0.133
       223  -8.6429    173.5130     28.0286   4.4304458228e+01   3.8373874995e+01    0.3533691     0.222681 -52.64 0.0009236484    1.669    0.401
       224  -8.7504    155.7393     28.2536   4.7153621369e+01   4.2781079985e+01    0.4305542    0.2063349  44.94  0.001803907    2.233    0.552
       225  -9.5889    151.2133     26.9267   4.7524188812e+01   4.4064715605e+01    0.4934877    0.3407243  85.14  0.002096237    1.575    0.365
       226  -9.7499    161.4588     22.5236   4.4522645073e+01   4.2010023815e+01    0.6346735    0.3609759 -86.52  0.002650377    2.257    0.557
       227  -9.8455    167.2186     28.0409   4.5245013983e+01   3.9939975513e+01    0.4047124    0.3066267 -55.63  0.001418427    1.376    0.273
       228  -8.9552    164.3093     24.6669   4.4713542850e+01   4.1057920291e+01    0.2535945    0.2070771  85.62 0.0006592132    1.160    0.138
       229  -8.0630     46.6125     28.7697   7.8969276667e+01   6.5709945537e+01    0.1639935    0.1109478 -41.74 0.0004319537    1.611    0.379
       230  -9.0546     19.2564     28.8567   9.2292230254e+01   6.8783879614e+01    0.2233393    0.1217567 -13.90 0.0008052174    1.976    0.494
       231  -7.7340    120.6453     27.3066   5.3790036525e+01   5.1479356985e+01    0.1385656    0.1060755 -77.79 0.0006354729    1.718    0.418
       232 -10.4378    101.0025    175.9936   9.9508629105e+01   2.4828109316e+01    0.2044843    0.1911576  68.61  0.001160104    1.000    0.000
       233  -7.8269    209.6664     26.4105   3.9373344209e+01   2.9809751199e+01    0.1764195    0.1106386  62.11 0.0009339268    1.568    0.362
       234  -9.2560    242.8313    174.2258   6.8064849165e+01  -6.3880458666e-01       0.2277    0.1802939  47.73 0.0006547918    1.591    0.371
       235  -8.2818     69.6872     25.9370   6.8299363413e+01   6.2426768734e+01      0.17983      0.15412   7.20 0.0006600413    1.035    0.034
       236  -7.8469    125.3915     25.1581   5.1972016830e+01   5.0598615277e+01    0.1863809    0.1242376 -40.75 0.0007363187    1.680    0.405
       237  -7.3470     77.3483     24.6688   6.5026246323e+01   6.1168715704e+01    0.1222692    0.1064957 -79.73 0.0007048909    1.766    0.434
       238  -8.6155     39.5674     22.9700   7.9666514958e+01   6.7535595916e+01    0.2591756    0.1873167 -42.66  0.001597734    1.623    0.384
       239  -9.1916    147.9380     21.2532   4.6325929645e+01   4.5515050051e+01    0.3298504    0.2866795  64.82   0.00156238    1.024    0.023
       240  -7.6760     87.7576     23.0063   6.0941699748e+01   5.9301879259e+01    0.1541738    0.1092446 -22.46 0.0003401486    1.481    0.325
       241  -8.4464    212.9188     21.6033   3.7899387532e+01   2.9625506408e+01    0.2456401     0.167043 -50.40  0.001405517    1.361    0.265
       242  -8.5126    199.0755     21.3971   3.9306944927e+01   3.2903140321e+01    0.2295212    0.1879551  -3.05 0.0007892435    1.685    0.406
       243  -8.4041    250.5157    170.4836   6.6025262503e+01  -1.2584346773e+00    0.1304024     0.108808 -16.52 0.0001209419    1.009    0.009
       244  -8.8858    239.3945    170.1693   6.7842274416e+01   5.7134642568e-01    0.2949187    0.1404109  27.61  0.001231227    2.757    0.637
       245  -8.2339     59.0332     21.5106   7.0471743445e+01   6.4853514993e+01    0.2744353    0.1133561  41.89   0.00123919    2.293    0.564
       246  -8.4122     62.8081     20.1687   6.8375716065e+01   6.4388645037e+01    0.2045251    0.1680082  40.41 0.0006763423    1.321    0.243
       247  -8.0393      3.3956     21.2030   9.7933940449e+01   7.1279058699e+01     0.143999   0.09578558 -55.14 0.0003841847    1.592    0.372
       248  -9.0848    246.0148    158.9911   6.4444394314e+01   1.3045758232e+00    0.1637103    0.1399877 -18.45  0.001006834    1.009    0.009
       249  -8.9452    235.4620    156.7209   6.5754857082e+01   3.4715643871e+00    0.3725399    0.1561606  41.72  0.001560964    2.585    0.613
       250  -7.9521     42.9788     19.9429   7.6695248531e+01   6.7515405716e+01    0.1476592    0.1180107  -2.72  0.000326558    1.016    0.016
       251  -8.7849    127.0918     18.5112   4.9310756744e+01   5.0912862500e+01    0.2344006    0.1800468 -51.18   0.00130344    1.518    0.341
       252  -8.7495    240.6581    148.2917   6.3103652287e+01   3.9881427868e+00    0.2597834    0.2086041 -17.26 0.0007975308    1.175    0.149
       253  -7.8573    224.6553    148.6709   6.5940476181e+01   6.8104993216e+00     0.260484    0.1769166  71.60  0.001157425    2.557    0.609
       254  -9.8425    235.2002    146.0833   6.3548082501e+01   5.3315082391e+00    0.5065717    0.3084263  -0.25   0.00209287    2.824    0.646
       255 -10.5244    241.7334    139.4469   6.1049153265e+01   5.2893576710e+00    0.5324312    0.4524245 -40.03  0.003131072    1.130    0.115
       256  -8.3430    211.3046    143.7061   6.7305604674e+01   1.0268615032e+01    0.3047992    0.2080074 -57.28 0.0007662751    1.808    0.447
       257  -8.3828    208.4046    141.5340   6.7370166805e+01   1.1249278077e+01    0.4593689    0.1931367  33.22  0.001513684    3.533    0.717
       258  -8.6801    230.0596    143.5098   6.3872397689e+01   6.7153706283e+00     0.199831    0.1376279  42.92  0.001030169    1.583    0.368
       259  -9.6782    231.8584    137.7081   6.2302648111e+01   7.3929067011e+00    0.4027193    0.2579125  25.12  0.001157407    2.019    0.505
       260  -8.3581    230.7065    133.1352   6.1492850988e+01   8.4084980678e+00    0.3744806    0.1995119 -50.63   0.00139096    2.092    0.522
       261  -8.0997    239.1436    131.8863   5.9836408210e+01   7.0430016999e+00    0.1970557    0.1723249 -48.42 0.0004756227    1.173    0.147
       262  -9.1302     18.4323     17.2062   8.7861297607e+01   7.0785161339e+01    0.3007573    0.1884225  24.79  0.001599579    1.661    0.398
       263 -10.2054    248.0942    128.4032   5.7693844772e+01   6.0008301998e+00    0.4992307    0.3518564 -23.44  0.002358262    1.413    0.292
       264  -7.6614    111.2171     15.6599   5.1736732787e+01   5.4952705268e+01    0.1908517    0.1309456  39.64 0.0003945894    1.342    0.255
       265  -7.2899    195.5215    131.4532   6.7571426111e+01   1.5833170775e+01    0.1498096    0.1415562 -15.02 0.0001224388    1.040    0.039
       266  -7.5908    166.4560     15.4900   4.1761839040e+01   4.1521034787e+01    0.1344398    0.1176364  79.02  0.000292267    1.005    0.005
       267  -8.3349    236.5253    125.4690   5.8850854079e+01   8.6313869844e+00    0.2503552    0.2120424 -31.10 0.0008192443    1.062    0.058
       268  -8.2220    237.0791     13.0000   3.3875746952e+01   2.5232476249e+01    0.2331682    0.1305299 -86.02 0.0007696413    1.711    0.416
       269  -8.0910      6.5346    126.5125   1.1839791111e+02   4.8177636213e+01     0.125227    0.1008208 -78.57 6.797504e-06    1.022    0.022
       270  -9.9311    241.2377    121.8901   5.7328763964e+01   8.3511433478e+00    0.5777772    0.2391712 -47.39  0.001926093    2.461    0.594
       271  -8.3219    232.2289    121.0117   5.8548730938e+01   1.0227829540e+01    0.2174245    0.1825996  -9.83 0.0006224013    1.300    0.231
       272  -8.6541     71.3958     13.0212   6.1997753028e+01   6.3672435302e+01    0.2318471    0.1723654  47.98 0.0006723168    1.353    0.261
       273  -8.8754    235.5953    118.8291   5.7527891885e+01   9.9491206704e+00    0.2659786    0.2213699  38.14 0.0005925748    1.354    0.261
       274  -7.8115    154.3644    123.7633   7.4786982220e+01   2.6438367845e+01    0.2292547    0.1470217 -35.11 0.0009519493    1.663    0.399
       275  -9.1154    206.0023    119.8708   6.2812391714e+01   1.5806128382e+01    0.3902366    0.2406344 -49.96  0.001264552    1.670    0.401
       276  -9.5852    248.3416    119.9732   5.5847855970e+01   7.3540615162e+00    0.4049865    0.2961514  43.77   0.00228983    1.577    0.366
       277  -8.5209    221.8315    119.0085   5.9809018238e+01   1.2656097900e+01    0.2345665    0.2071648  54.66 0.0007384091    1.248    0.199
       278  -9.2906    178.1590    116.1544   6.7444284056e+01   2.2672819852e+01    0.4798515    0.2861083  71.79  0.001729733    2.794    0.642
       279  -8.5779    174.1474    112.8075   6.7460360585e+01   2.4255898517e+01    0.5006656    0.2491826 -59.37  0.001604157    3.259    0.693
       280  -8.2893    244.1820    115.3998   5.5467069344e+01   8.8872585425e+00    0.2523613    0.2269689  89.11  0.001544218    1.310    0.237
       281  -8.7030    248.0603    114.2985   5.4663470087e+01   8.3438278282e+00    0.2426005    0.1709722 -25.00 0.0005662491    1.443    0.307
       282  -7.9462    217.3421    112.8852   5.9151112718e+01   1.4679471424e+01    0.3040845    0.1697717 -37.17  0.001349254    1.670    0.401
       283  -8.8324    223.7758    114.9698   5.8555962698e+01   1.2975176705e+01     0.272261    0.2239537 -59.15  0.001071231    1.283    0.220
       284  -9.5676    221.0201    110.2642   5.7922699935e+01   1.4375139980e+01    0.3065157    0.2803237 -58.17 0.0004809792    1.098    0.089
       285 -10.0939    245.6618    109.1478   5.3886553157e+01   9.6450376626e+00    0.4663865    0.4046434  58.88  0.001841677    1.327    0.246
       286  -8.7274    228.0000    108.8956   5.6479884249e+01   1.3172584904e+01     0.229485    0.1831324 -41.72 0.0003496298    1.130    0.115
       287  -7.6497    211.6893    109.6477   5.9359190820e+01   1.6464082635e+01    0.1483079    0.1144273   2.03 0.0007044583    1.723    0.420
       288  -8.5764    193.9431    101.5341   6.0583199289e+01   2.1893600811e+01    0.4331834    0.2401976 -29.52  0.001747507    2.046    0.511
       289  -8.9238    194.2389    107.6893   6.2067610069e+01   2.0676943283e+01     0.462084      0.31453  62.94  0.001982481    1.670    0.401
       290  -9.0310    236.8752    105.9338   5.4451741398e+01   1.1889060696e+01    0.2963536    0.2669407 -60.89  0.001201997    1.124    0.110
       291  -9.3491    230.8275    103.4949   5.4806966146e+01   1.3520623756e+01    0.3569707      0.24192  32.20  0.001564565    1.943    0.485
       292  -9.0873    236.9211    100.5381   5.3233433939e+01   1.2782823055e+01     0.381606    0.2534939  24.19  0.001782479    2.351    0.575
       293  -8.1081    141.4799    104.5165   7.2970115157e+01   3.3452120371e+01    0.1564146    0.1537906   4.24 1.419927e-05    1.029    0.028
       294  -9.1936    211.6514    100.8048   5.7246110775e+01   1.8055054299e+01    0.3922843    0.3042485  65.31  0.002034555    1.418    0.295
       295  -8.9864    185.2133     99.0596   6.1633269472e+01   2.4369619261e+01    0.5138236    0.2953232 -29.68  0.001319487    1.969    0.492
       296  -9.1651    186.8038     93.2638   5.9823523547e+01   2.5071932253e+01    0.3853378    0.3269456 -75.98  0.001977443    1.287    0.223
       297  -8.2210    227.5351     99.7115   5.4439261579e+01   1.4843970419e+01    0.2421418    0.1620366  45.14 0.0007428124    1.699    0.411
       298  -9.2436    231.0394     96.3214   5.3134220860e+01   1.4687100878e+01    0.4656536    0.2332298 -54.71   0.00156696    2.312    0.567
       299  -9.1276    228.1555     90.2875   5.2165874133e+01   1.6296349273e+01    0.2478231    0.1934129 -43.35 0.0004935549    1.155    0.134
       300  -8.2285    116.0826     97.7106   7.7993490795e+01   4.0464858966e+01    0.2656287    0.2066192 -56.00 0.0007460481    1.371    0.271
       301  -9.6550    241.4529     91.4490   5.0566321553e+01   1.3363558808e+01    0.6671073      0.28712  44.32  0.002660511    3.065    0.674
       302  -8.8275    247.6206     96.2367   5.0795580683e+01   1.1375119929e+01    0.3144431    0.2168652 -42.59  0.001242077    1.246    0.198
       303  -9.2644    248.8789     91.6801   4.9637720049e+01   1.1859699305e+01    0.3193457    0.2536875  11.87  0.001556983    1.777    0.437
       304  -8.1685    181.4046     93.8710   6.1034323464e+01   2.6231253744e+01    0.2919605    0.2088605  86.64  0.001278015    1.880    0.468
       305  -8.2444    160.8786     92.7948   6.5080329265e+01   3.1311359996e+01    0.2308056    0.2041735  24.79 0.0004622455    1.241    0.194
       306  -9.0456    198.4892     90.9956   5.7095401114e+01   2.2758441287e+01    0.4099957    0.1393772 -38.09  0.001380216    2.802    0.643
       307  -7.7068    123.3161     92.6439   7.4485063117e+01   3.9997794195e+01    0.1601507    0.1251477 -84.39 0.0007045115    1.747    0.427
       308  -7.8979    234.3892     89.1030   5.1006361199e+01   1.5185027916e+01     0.197414    0.1582511 -48.47 0.0004191644    1.110    0.099
       309  -8.5503    233.0901     84.6503   5.0170842649e+01   1.6178074262e+01    0.2723065    0.1933627 -51.13   0.00089126    1.289    0.224
       310  -9.1752    177.0691     86.9834   6.0063786010e+01   2.8528987382e+01    0.6261812    0.3396551 -41.91  0.002585521    1.807    0.447
       311  -9.6289    207.3077     85.8746   5.4320032618e+01   2.1625700441e+01     0.837713      0.51272  -1.27  0.002841067    4.021    0.751
       312  -9.9838    206.4774     72.6452   5.1163061360e+01   2.4013649272e+01     0.762316    0.4936727 -72.75  0.003474426    1.940    0.485
       313  -8.3952    207.3223     81.2920   5.3182547760e+01   2.2396799381e+01    0.2119569    0.1910966 -26.34 0.0002933057    1.199    0.166
