#   1 NUMBER                 Running object number                                     
#   2 MAG_AUTO               Kron-like elliptical aperture magnitude                    [mag]
#   3 X_IMAGE                Object position along x                                    [pixel]
#   4 Y_IMAGE                Object position along y                                    [pixel]
#   5 X_WORLD                Barycenter position along world x axis                     [deg]
#   6 Y_WORLD                Barycenter position along world y axis                     [deg]
#   7 A_WORLD                Profile RMS along major axis (world units)                 [deg]
#   8 B_WORLD                Profile RMS along minor axis (world units)                 [deg]
#   9 THETA_WORLD            Position angle (CCW/world-x)                               [deg]
#  10 FWHM_WORLD             FWHM assuming a gaussian core                              [deg]
#  11 ELONGATION             A_IMAGE/B_IMAGE                                           
#  12 ELLIPTICITY            1 - B_IMAGE/A_IMAGE                                       
         1 -14.3001    219.4590     23.0949   1.7100535184e+01   2.7373380770e+01    0.9562494    0.5358809 -17.52  0.004242094    2.329    0.571
         2 -14.1284    214.0736     21.4518   1.7286738431e+01   2.8931858878e+01     1.047416     0.562704 -17.37  0.004510546    2.452    0.592
         3 -13.0483     60.1795      2.6360   4.3573442738e+01   6.7042448518e+01    0.3244264    0.1544652  37.25   0.00168613    1.942    0.485
         4 -12.6483     53.2607    231.2696   9.5550633690e+01   2.1304287081e+01    0.3981358    0.1607171 -63.33  0.002168841    2.671    0.626
         5 -16.7584    120.2333    233.5872   8.3623603498e+01   1.1239663943e+01     4.863432     3.580524 -81.32   0.03130747    1.571    0.364
         6 -12.0914     58.1392    233.3303   9.4852873910e+01   2.0316488332e+01    0.2284795    0.2081102 -83.69  0.001802837    1.485    0.327
         7 -10.7389    165.0115    210.5700   7.1826905486e+01   7.3956783766e+00    0.1840997     0.175117 -47.65 0.0006450862    1.245    0.197
         8 -11.6217     53.8469    205.0519   9.3411513474e+01   2.6224268786e+01    0.3607058    0.1209338  55.09  0.001602758    2.770    0.639
         9 -10.2881     66.8920    202.2373   9.0612642352e+01   2.5099526928e+01    0.1590735    0.1166891  60.57  0.000254431    1.139    0.122
        10 -10.8738     71.1674    200.2016   8.9557542521e+01   2.4929976717e+01    0.1661482    0.1362986  78.65 0.0003646202    1.060    0.057
        11 -11.0363     86.3092    240.6845   9.0505923724e+01   1.5200226180e+01    0.1831267    0.1184544 -66.99 0.0007557004    1.764    0.433
        12  -9.8004     69.3320    195.2901   8.9424542606e+01   2.6188925220e+01    0.1068624    0.0983723 -33.66 0.0007019307    1.628    0.386
        13 -11.0012     57.3498    194.0880   9.1737390393e+01   2.8015607193e+01    0.1645691    0.1219914  84.70 0.0004238602    1.129    0.114
        14 -11.7254     95.4252    192.1696   8.3616264688e+01   2.3001196891e+01    0.2558542    0.1679928  77.91  0.001016184    1.628    0.386
        15  99.0000     27.3297    192.0143   9.7471326848e+01   3.1889087998e+01     6.625665    0.4098841 -67.77   0.02094856    6.286    0.841
        16  99.0000     47.8914    216.0708   9.5400280442e+01   2.4798747588e+01     2.649724      1.49002  30.31   0.01515432    2.421    0.587
        17 -12.7480     59.0144    182.4049   9.0225790503e+01   3.0271179409e+01    0.4447739    0.3362102   0.83  0.002484354    2.508    0.601
        18 -11.8182     52.5002    182.8124   9.1640693580e+01   3.0995759289e+01    0.2948682    0.1734863  71.07  0.001140985    1.605    0.377
        19 -13.6342     99.0200    180.9821   8.1334108167e+01   2.4779619389e+01    0.4913238    0.3329148  79.19 0.0009226064    1.611    0.379
        20 -11.9462     97.7453    177.3454   8.1101203855e+01   2.5767965964e+01    0.2535415    0.1942825  79.27 0.0007031653    1.273    0.214
        21 -11.8711     79.0223    183.9258   8.6108238132e+01   2.7219298391e+01    0.3665784    0.2996705  74.85  0.001711439    1.033    0.032
        22 -11.5482     74.5832    182.5349   8.6902020543e+01   2.8152693780e+01    0.3000347    0.1979953 -67.08  0.001014555    1.475    0.322
        23 -11.4305     72.6612    179.3322   8.6938224263e+01   2.9114861508e+01    0.2645065    0.1579395  54.12 0.0007010129    1.539    0.350
        24 -12.5192    172.7045    177.8881   6.4583410797e+01   1.1705290557e+01    0.3620942    0.2772827 -57.14 0.0007877464    1.536    0.349
        25 -18.7184     16.0502     90.5910   8.9440552276e+01   5.5323721105e+01     13.69318    0.6853971 -68.09   0.02607391   13.151    0.924
        26 -11.0614     84.7645    225.1797   8.9380555687e+01   1.8168069236e+01    0.2205833    0.1407662  89.02 0.0007815005    1.608    0.378
        27 -12.9173    181.2489    173.9142   6.2006042804e+01   1.0711563508e+01    0.4865552    0.3954349  33.89   0.00262266    1.151    0.132
        28 -10.6815     62.3792    238.8492   9.4523831602e+01   1.8791081035e+01    0.1117666    0.0537594  54.26 0.0003487599    1.587    0.370
        29 -11.0358     47.0909    234.2540   9.6810014667e+01   2.1525640569e+01    0.1758797    0.1256885 -64.45  0.001258502    1.767    0.434
        30 -12.4740     85.5023    174.9681   8.3526821488e+01   2.8202285373e+01    0.3478727    0.2265439 -74.56  0.001247159    1.515    0.340
        31 -12.5608     88.4231    173.1933   8.2620893748e+01   2.8146464592e+01    0.2724806    0.2202033  76.90  0.000737848    1.122    0.109
        32 -10.8276     51.6510    186.2960   9.2156261368e+01   3.0357154350e+01     0.338647    0.1615806  47.12  0.001400826    1.884    0.469
        33 -13.5473    104.1381    172.2291   7.8885780627e+01   2.5825653822e+01    0.5121148    0.3094959  77.58  0.002025101    2.219    0.549
        34 -12.2484    101.8464    164.3898   7.8181105872e+01   2.7939976462e+01    0.4477422    0.1830967 -56.87  0.001108228    2.432    0.589
        35 -13.3686    111.6980    168.5960   7.6559944582e+01   2.5320870080e+01      0.49188    0.3030986 -84.34  0.001511323    2.204    0.546
        36 -11.0163      3.3968    170.6784   1.0068516777e+02   3.8497174790e+01    0.2192047    0.1228187 -50.04 0.0007594001    2.414    0.586
        37 -12.1163     89.7181    222.1656   8.8156723888e+01   1.7996612265e+01    0.2735024    0.2556265  23.75  0.001243181    1.545    0.353
        38 -11.9685     97.5673    162.5360   7.8896788464e+01   2.9064584870e+01    0.2382032    0.2109528  76.89 0.0002206253    1.014    0.014
        39 -10.7217     57.5583    225.8308   9.4396940420e+01   2.1757070232e+01    0.1364858   0.09555647 -83.43 0.0004397419    1.353    0.261
        40 -12.2950     90.3256    150.3920   7.8665364759e+01   3.2999863814e+01    0.2664827    0.2455739  48.11  0.001152225    1.184    0.155
        41 -13.1362     95.7639    145.2592   7.6404972767e+01   3.3308206027e+01    0.5086632    0.3694792 -31.65  0.001500734    1.882    0.469
        42 -12.5478    133.7320    145.2462   6.6919837461e+01   2.6324279248e+01     1.069264    0.2560528 -55.23   0.00241249    6.637    0.849
        43 -11.3768    111.8810    150.1209   7.3265258004e+01   2.9407200142e+01    0.2226591    0.1840772  74.56 0.0003822655    1.227    0.185
        44 -12.9797    106.5223    131.8063   7.0999367290e+01   3.4578675872e+01    0.5953227    0.4065174 -63.63  0.002378717    1.488    0.328
        45 -12.3677     95.8946    132.0557   7.3865077628e+01   3.6362708700e+01    0.2813446    0.2525568 -55.89 0.0003689025    1.122    0.109
        46 -12.1616    133.5561    127.9159   6.3124215609e+01   3.0209210157e+01    0.4585362    0.2821077  56.08  0.001788636    1.782    0.439
        47 -11.4937    102.4302    121.4563   6.9862891032e+01   3.7710914723e+01    0.2735991    0.2410911 -24.04  0.001467814    1.323    0.244
        48 -10.3798    110.1600    116.1827   6.6529069163e+01   3.7517314228e+01    0.1982906    0.1711496  84.21 0.0002799378    1.265    0.210
        49  -9.9441     68.2018    229.2257   9.2762877936e+01   1.9740019412e+01   0.08735509   0.07826428  77.97 0.0006413798    1.325    0.245
        50 -11.1476    114.9570    126.0537   6.7519486116e+01   3.4345166878e+01    0.2335651    0.1883947 -11.19 0.0008942309    1.674    0.403
        51 -10.7820    205.3898    110.2528   4.2422306913e+01   1.7276959898e+01    0.2074336     0.192909  35.01 0.0008101547    1.087    0.080
        52  -8.5247     54.3035    223.4307   9.4796106137e+01   2.2615105040e+01    0.1834966    0.1467342  66.27  0.001354348    1.149    0.130
        53 -11.8965     65.9601    100.4925   7.5777730370e+01   4.8235648905e+01    0.2610411    0.1991216  45.27 0.0008102593    1.462    0.316
        54 -10.3063     95.4907     86.5009   6.3089971544e+01   4.6862096293e+01    0.1451559    0.1373901 -47.09 0.0008103522    1.036    0.035
        55 -13.2680    174.4838     64.4779   3.5849877259e+01   3.3179978737e+01    0.4168005    0.4041841  72.89  0.000828523    1.014    0.014
        56  -8.9173     54.3331    240.8397   9.6026206544e+01   1.9470757819e+01    0.3710313     0.225009 -53.55  0.002336389    2.537    0.606
        57 -14.2985    190.4788     51.5365   2.9030789250e+01   3.1045969939e+01     1.144473    0.8857394  37.72  0.003421055    1.430    0.301
        58 -13.2411    196.3503     46.0573   2.6483401977e+01   3.0309732129e+01    0.6665876    0.4686086  29.06  0.001767504    1.828    0.453
        59 -10.3483     63.5269     45.4378   6.0823921224e+01   6.0193864092e+01    0.1310634    0.1130512 -20.40 0.0001492794    1.017    0.017
        60 -16.9248     67.8208    141.6685   8.2928476648e+01   3.8318881310e+01     4.224871     2.622648  87.42     0.013202    1.869    0.465
        61 -11.6029     59.7830    245.9508   9.5461714896e+01   1.7900319520e+01    0.1376109    0.1061621 -57.49 0.0009990727    1.917    0.478
        62 -11.5504     60.6522     21.0346   5.2103476537e+01   6.4615344817e+01    0.1796525    0.1397712 -16.67 0.0004519723    1.108    0.098
