#   1 NUMBER                 Running object number                                     
#   2 MAG_AUTO               Kron-like elliptical aperture magnitude                    [mag]
#   3 X_IMAGE                Object position along x                                    [pixel]
#   4 Y_IMAGE                Object position along y                                    [pixel]
#   5 X_WORLD                Barycenter position along world x axis                     [deg]
#   6 Y_WORLD                Barycenter position along world y axis                     [deg]
#   7 A_WORLD                Profile RMS along major axis (world units)                 [deg]
#   8 B_WORLD                Profile RMS along minor axis (world units)                 [deg]
#   9 THETA_WORLD            Position angle (CCW/world-x)                               [deg]
#  10 FWHM_WORLD             FWHM assuming a gaussian core                              [deg]
#  11 ELONGATION             A_IMAGE/B_IMAGE                                           
#  12 ELLIPTICITY            1 - B_IMAGE/A_IMAGE                                       
         1 -14.3210     68.7824    144.1607   1.0029211821e+02   3.7012319671e+01      4.70996     2.164738  61.98   0.01358426    5.146    0.806
         2 -13.3080    198.7632     42.0023   4.2508228770e+01   3.0652711508e+01     1.075114    0.9583147 -60.53  0.003214095    1.057    0.054
         3 -13.7829    208.4397     32.4277   3.9009914744e+01   2.9685104694e+01     1.305843    0.9063904 -12.65  0.001441653    1.989    0.497
         4 -10.8005     17.7986     16.0078   8.3649122178e+01   7.0227488610e+01    0.1968492    0.1410813  28.91  0.001307831    1.657    0.397
         5 -12.9382    233.4743      6.2515   3.0958966998e+01   2.7279211875e+01    0.8031502    0.6137121 -84.66  0.004941951    1.135    0.119
         6  -9.7602     60.9866      8.0092   6.0518759608e+01   6.5140676672e+01    0.1529541    0.1221511  18.30 0.0004592237    1.001    0.001
         7  -9.3475     89.5822    211.7075   1.0517286938e+02   1.8170402273e+01    0.2493216    0.2015525  89.91  0.001064836    1.295    0.228
         8 -10.6300    140.1360    249.8438   9.9313025427e+01   3.4765507519e+00    0.3280219    0.1860421  42.55  0.001512509    1.560    0.359
         9 -11.2901    129.0147    248.8574   1.0142899254e+02   5.2642338452e+00     0.794854    0.5040671  86.76  0.003818815    3.072    0.674
        10 -11.5450    115.4476    245.1526   1.0373082583e+02   7.8755084061e+00    0.4467896    0.3054958 -37.84  0.002599539    1.863    0.463
        11 -11.4736    120.3672    245.3520   1.0275299567e+02   7.1283793783e+00    0.7260104    0.3357316  58.92   0.00280614    3.788    0.736
        12 -13.9221     43.3968    196.5689   1.1387992583e+02   2.7450851562e+01     3.197139     1.217234  62.14  0.009315401    3.975    0.748
        13 -17.3248     14.4489    242.8208   1.2306067299e+02   2.0786256088e+01     5.786511     2.121004  25.70   0.02415527    3.860    0.741
        14 -11.0882    193.1397    195.6383   7.9564786674e+01   4.5873988146e+00    0.8609343    0.4358965 -59.33    0.0028612    4.628    0.784
        15 -10.6828    121.2828    196.6544   9.5704524237e+01   1.6541776270e+01    0.4402084     0.250664 -70.46  0.001304768    2.504    0.601
        16 -10.3941     60.7688    198.1151   1.1009124189e+02   2.5046467356e+01    0.2488149    0.2267619  20.08 0.0008385059    1.315    0.240
        17  -8.2714     82.3652    195.2759   1.0469869286e+02   2.2815298112e+01    0.1313972    0.1057662 -16.32 0.0007007053    1.671    0.402
        18  -8.5829     24.4960    193.8525   1.1783319900e+02   3.0028783706e+01    0.1665283    0.1041339 -80.66 0.0003060526    1.395    0.283
        19  -8.9660     69.2707    183.2778   1.0624302187e+02   2.7388702619e+01    0.2219553    0.1490563  71.66  0.001022242    1.680    0.405
        20 -12.9083     55.7958    185.9848   1.0985299002e+02   2.8457137520e+01    0.8782879    0.6848198  55.22  0.005195371    1.241    0.194
        21 -10.2085     65.6021    179.3840   1.0662609838e+02   2.8792265784e+01    0.3548464    0.2723146 -51.14 0.0008141562    1.358    0.264
        22  -9.3147    147.8041    186.8050   8.7790383227e+01   1.4126510818e+01     0.337942    0.1800644 -39.22  0.001430899    2.014    0.503
        23  -8.6158     72.4525    188.5056   1.0616449705e+02   2.5739247590e+01    0.1363207    0.1211639  77.38 8.977453e-05    1.053    0.051
        24  -8.4060     77.2551    185.6665   1.0461395698e+02   2.5745120459e+01    0.1383104   0.09882592  75.72 0.0003653446    1.565    0.361
        25 -16.3757      6.4954    204.8267   1.2239472195e+02   2.9241433634e+01     16.00693     1.034203 -75.30   0.01859671   10.261    0.903
        26  -9.0591     79.9417    183.5242   1.0365162190e+02   2.5871111428e+01    0.2525102    0.1852538  88.83 0.0007497044    1.504    0.335
        27  -9.7948     99.4446    180.9353   9.8417962861e+01   2.3570819353e+01    0.2550774     0.245472  -3.41 0.0006234333    1.132    0.117
        28  -8.9965     38.0103    181.4420   1.1358789806e+02   3.1536587781e+01    0.1891847    0.1515721 -83.93 0.0002222557    1.091    0.084
        29  -8.6960     89.8684    180.8689   1.0079256469e+02   2.5051860261e+01    0.1901524    0.1569047  70.25  0.000346593    1.268    0.212
        30  -9.7596     42.6204    179.8198   1.1231040331e+02   3.1426645601e+01     0.245481    0.2237999 -74.93 0.0004255021    1.123    0.109
        31  -9.9092     45.5114    176.4938   1.1122874253e+02   3.1900516400e+01    0.4806203    0.2013455 -52.95   0.00207664    2.377    0.579
        32 -10.0054    187.4101    175.8298   7.6827735029e+01   9.2565306670e+00    0.3534309    0.2994673 -51.70  0.001296767    1.365    0.268
        33  -8.7370    148.1413    174.8624   8.5414470266e+01   1.6598961000e+01    0.2216111    0.2012564  83.27   0.00083541    1.325    0.246
        34 -13.5183     48.8721    108.2330   9.9395964404e+01   4.8367310317e+01     2.319084     1.414701  81.78  0.009419739    2.953    0.661
        35  -9.0540     93.3043    249.4066   1.0865059119e+02   1.0220125577e+01    0.1710167   0.09289955  44.85 0.0004232632    1.543    0.352
        36  -8.7168    193.5723    170.7518   7.4488268030e+01   9.1222509996e+00     0.199614    0.1328295 -48.92 0.0009459631    1.647    0.393
        37 -10.0221    240.9713    169.4751   6.5300178643e+01   1.3414645833e+00    0.1874074    0.1277746  35.05  0.001039904    1.615    0.381
        38  -9.2333    185.0494    168.4974   7.5798308420e+01   1.1108457042e+01    0.2141531    0.1416151  38.11  0.000689125    1.540    0.351
        39  -9.9390     33.7866    166.1000   1.1294621400e+02   3.5635056330e+01    0.5175055     0.213938  45.95   0.00227998    2.511    0.602
        40  -9.5439     36.0186    158.4734   1.1146922790e+02   3.7272403814e+01    0.2294031     0.163029 -88.08 0.0006082443    1.341    0.254
        41 -10.0888     32.9253    156.0497   1.1198288074e+02   3.8169447539e+01    0.2525344    0.2097711 -33.64  0.001111655    1.426    0.299
        42  -7.9690     45.6614    158.3229   1.0890702712e+02   3.6302058316e+01      0.14294   0.09383982  68.98  0.000705083    1.719    0.418
        43 -11.5232     89.6790    152.3039   9.5942430984e+01   3.1958389947e+01    0.6975045    0.4888343 -22.04  0.003176955    1.916    0.478
        44 -10.5418    134.3271    147.3414   8.3004813668e+01   2.5311124968e+01    0.8549585    0.2822978 -53.64  0.002499942    3.616    0.723
        45 -10.3100    133.0000    141.0369   8.1913383887e+01   2.7008290178e+01    0.5516405    0.2163548 -51.82  0.001833848    2.699    0.629
        46 -11.0924     54.1725    148.0212   1.0507918974e+02   3.7892260584e+01    0.6950669    0.4466549 -68.20  0.003494731    1.433    0.302
        47  -9.3138    174.7811    148.9103   7.3729094583e+01   1.7014395258e+01    0.2729598     0.205978  75.39 0.0009613411    2.027    0.507
        48  -8.5440    110.7144    148.9906   8.9554618425e+01   2.9273541646e+01    0.2684548    0.1537282  66.62  0.000892332    3.353    0.702
        49 -10.3977     38.6266    146.2592   1.0915618438e+02   4.0027885305e+01    0.3225939    0.2336922  55.46 0.0007915818    1.501    0.334
        50 -10.1663    102.9359    138.3986   8.9417878565e+01   3.3172565002e+01    0.5415928    0.3466398 -23.01  0.002193747    2.216    0.549
        51 -11.6534     90.5619    137.9303   9.2825821979e+01   3.5345746012e+01    0.2944875    0.2484621 -43.27 0.0004883928    1.150    0.130
        52 -10.1258    105.9494    130.8659   8.6869491695e+01   3.4451953890e+01    0.3696321    0.3187402 -63.48  0.001399048    1.208    0.172
        53 -10.7430     43.4974    129.6549   1.0518263227e+02   4.3666495000e+01    0.2982712    0.2301321 -88.07 0.0009675141    1.373    0.271
        54  -9.7861    112.1179    129.3481   8.4778359116e+01   3.3693059688e+01    0.3388358    0.2578796  16.23 0.0008851975    1.543    0.352
        55  -9.2752    161.3191    128.5327   7.1953965706e+01   2.4019286503e+01    0.2925153     0.138586 -42.77  0.001091836    2.036    0.509
        56 -10.3129     99.2495    125.2042   8.7468085586e+01   3.6982259188e+01    0.3087963    0.2536682 -19.83 0.0007540609    1.343    0.255
        57 -10.5147    118.9415    122.7650   8.1278492676e+01   3.3937395904e+01    0.6374162    0.3932552  -5.60  0.002132881    3.334    0.700
        58  -9.0722     91.8670    124.5025   8.9476185623e+01   3.8401864130e+01    0.2175754    0.1491156  38.39  0.001005116    1.535    0.349
        59  -9.9446    136.0817    128.9565   7.8240595884e+01   2.9138167719e+01    0.3478025    0.1967402 -48.31  0.001406119    1.751    0.429
        60  -9.2793    108.1415    118.3327   8.3211165316e+01   3.7007350936e+01    0.2394429    0.1995408 -32.04 0.0003332848    1.193    0.162
        61 -11.1862     69.5033    172.5451   1.0468687376e+02   2.9921627299e+01    0.3225344    0.2729309 -36.39 0.0008827004    1.352    0.261
        62  -9.9208    231.2962    113.9373   5.4960608136e+01   1.2491308111e+01    0.2737102    0.2437145 -37.06 0.0008213209    1.026    0.025
        63  -9.9060    134.8680    111.7400   7.4150412639e+01   3.3187324207e+01    0.5023026    0.1006514 -42.34  0.001188542    5.037    0.801
        64  -9.3587    205.4418    110.1825   5.8384259128e+01   1.8303591820e+01    0.2959679    0.2081999  38.87 0.0009259196    1.595    0.373
        65 -10.7826    115.1212    108.4531   7.8639961163e+01   3.7925361591e+01    0.5258556    0.4747622 -71.60  0.002721521    1.261    0.207
        66 -11.3810     31.7778     99.7086   1.0342522581e+02   5.2132796640e+01    0.4178245      0.38414 -66.18  0.002667392    1.137    0.120
        67  -8.4413    139.5241    106.4923   7.1544259737e+01   3.3318232711e+01    0.1545672    0.1502515 -34.35 4.905733e-05    1.040    0.038
        68  -9.5860    243.6736    110.3322   5.2318626415e+01   1.0792990670e+01    0.1367009   0.09545553 -62.00 0.0007051257    1.711    0.416
        69 -11.7463     31.4705    107.9568   1.0513339212e+02   5.0172739568e+01    0.4291968    0.3284051 -44.55  0.002506221    1.180    0.153
        70 -12.1683     82.5605    159.3503   9.9155475312e+01   3.1308116603e+01     1.143687    0.6962911  68.03   0.00062176    2.348    0.574
        71  -9.1178    127.8662     95.1844   7.1428127232e+01   3.8160079663e+01    0.2305673     0.211616  81.06 0.0007471505    1.273    0.214
        72 -13.0815     70.8992    154.0637   1.0142246570e+02   3.4263523237e+01    0.6295454    0.5371038 -48.22  0.001091827    1.170    0.145
        73  -9.3269    155.5767     87.6939   6.2481897571e+01   3.3486645610e+01     0.363566    0.2297584 -68.34  0.001206309    2.568    0.611
        74 -11.6565     74.2498    167.5704   1.0271180641e+02   3.0484402182e+01    0.5145719    0.3596915 -35.87  0.001945411    1.715    0.417
        75  -8.3651    116.4928     85.5382   7.1719927727e+01   4.2504232260e+01    0.1514862    0.1439472  -5.86 0.0001792639    1.003    0.003
        76  -9.1871    158.3366     82.5820   6.0432808797e+01   3.3790430034e+01    0.2934726    0.1863027 -34.45 0.0008650558    1.583    0.368
        77  -8.3490    184.5995     77.1861   5.3780478816e+01   2.8670630773e+01      0.19891    0.1373577 -24.01 0.0007348761    1.626    0.385
        78 -13.0241    187.9369     50.2918   4.6138417011e+01   3.2023972286e+01    0.9743195    0.8196657  30.92  0.001254956    1.418    0.295
        79 -11.0762    107.5937    203.7583   9.9987751358e+01   1.7192209878e+01    0.3406807    0.2307379 -59.80  0.001535336    1.560    0.359
        80  -8.2485    224.2936    206.7089   7.5564503098e+01  -2.1455887848e+00    0.1074846    0.1056753 -55.24 0.0001945487    1.552    0.356
        81 -11.3483     23.2071     34.3144   8.8591758626e+01   6.6723276134e+01    0.2870618    0.2237418  30.89  0.001311544    1.613    0.380
        82  -8.5574     69.4968     52.9222   7.6035037322e+01   5.7449183279e+01     0.194555    0.1259595 -36.33 0.0003961527    1.472    0.321
        83  -9.6483     31.3407    202.9802   1.1711052994e+02   2.7304137038e+01    0.3186726    0.1919825  70.03   0.00180409    1.586    0.370
        84  -9.2042    198.4092     23.3496   3.7944036593e+01   3.3009480069e+01    0.2148027    0.1252573 -24.99 0.0006890995    1.986    0.496
        85 -11.9417    111.9073    197.9954   9.8116130678e+01   1.7762020698e+01    0.5821695      0.42156  18.32  0.002972623    1.610    0.379
        86 -11.3513    111.4976    204.2144   9.9154492442e+01   1.6487502919e+01    0.4184936    0.3110293  66.65 0.0008811157    1.554    0.356
        87 -10.9481    136.1185    211.7187   9.4725043122e+01   1.1015644395e+01    0.3167296    0.2621577  36.08  0.001833543    1.114    0.102
        88  -9.0277    189.7963     15.0923   3.6859162496e+01   3.5871781621e+01    0.2001565    0.1529825 -69.94 0.0008270535    1.252    0.201
