#   1 NUMBER                 Running object number                                     
#   2 MAG_AUTO               Kron-like elliptical aperture magnitude                    [mag]
#   3 X_IMAGE                Object position along x                                    [pixel]
#   4 Y_IMAGE                Object position along y                                    [pixel]
#   5 X_WORLD                Barycenter position along world x axis                     [deg]
#   6 Y_WORLD                Barycenter position along world y axis                     [deg]
#   7 A_WORLD                Profile RMS along major axis (world units)                 [deg]
#   8 B_WORLD                Profile RMS along minor axis (world units)                 [deg]
#   9 THETA_WORLD            Position angle (CCW/world-x)                               [deg]
#  10 FWHM_WORLD             FWHM assuming a gaussian core                              [deg]
#  11 ELONGATION             A_IMAGE/B_IMAGE                                           
#  12 ELLIPTICITY            1 - B_IMAGE/A_IMAGE                                       
         1 -12.0199     14.9384     72.9851   1.0048750080e+02   6.0492738230e+01     0.924062    0.6866701  29.05  0.005715347    1.559    0.358
         2 -10.7783     50.4484     37.2768   7.3566961357e+01   6.3265991232e+01     0.804874    0.6135369 -87.83  0.003920125    3.214    0.689
         3 -10.6216     38.9540      8.3860   6.5833837358e+01   6.8814685967e+01    0.5859213    0.3352442  -3.02  0.003250784    2.025    0.506
         4 -12.4074     44.9851     22.9504   6.9906835107e+01   6.6135197149e+01    0.9846036    0.8823397 -55.91  0.006617575    1.721    0.419
         5 -12.0007    144.0815      3.8307   3.7274323624e+01   4.7313654134e+01     1.358408     0.681307 -81.58  0.006023375    2.698    0.629
         6 -12.1930    173.7061     18.1977   3.7334938794e+01   3.8970008751e+01    0.6994309    0.4830091  38.75  0.003909936    1.884    0.469
         7 -13.1864    166.3964     14.7435   3.7344799699e+01   4.1042658848e+01     1.533575    0.9664736 -73.19   0.00833174    1.677    0.404
         8 -13.3574    167.1201      4.9682   3.4754483993e+01   4.1821020076e+01     2.653278     1.501325  58.40   0.01466947    1.631    0.387
         9 -11.6266     84.0095      3.7821   4.8474240509e+01   6.0918534826e+01    0.8672485     0.373015  58.76  0.003569856    2.001    0.500
        10  -9.9721    116.3918     16.4900   4.5768726581e+01   5.2636317080e+01    0.6090525    0.2262147 -39.21  0.002561399    3.033    0.670
        11  -9.2189    111.6804     16.6546   4.6792647151e+01   5.3699067178e+01    0.3245344    0.1992763  33.89  0.001476944    1.774    0.436
        12  -9.5144    129.3650     12.9254   4.2219280094e+01   4.9959994015e+01    0.3912415    0.2269825  54.31   0.00203197    1.485    0.327
        13  -9.3892    228.9960     16.4645   3.1612540026e+01   2.6954684610e+01    0.2715106   0.09387356 -50.88  0.001275147    2.455    0.593
        14 -10.3015     69.5861     14.9298   5.7196815369e+01   6.2803753806e+01    0.3282526     0.240205 -26.04  0.002037964    1.507    0.336
        15  -9.6830     20.8515     13.8221   7.7193946459e+01   7.0604451696e+01    0.4333796    0.2150982 -16.79  0.002218501    2.398    0.583
        16  -9.1298    104.8674     11.8423   4.6582799434e+01   5.5692933987e+01    0.2045158    0.1526485  41.27  0.001051045    1.228    0.185
        17 -10.4397    249.8454      6.7014   2.8344159204e+01   2.3930674035e+01    0.6459744   0.08173209 -41.00  0.002587376    4.025    0.752
        18  -8.7174    229.6556      6.6910   2.9646985301e+01   2.7898026060e+01     0.103901    0.0828625  53.78 0.0007044427    1.699    0.411
        19 -11.1235    108.6062      4.9839   4.3421944538e+01   5.5441888048e+01    0.8925818    0.3227886  64.24  0.003845698    2.367    0.578
        20 -10.8194    121.0044      4.2796   4.0919987799e+01   5.2663205545e+01    0.6243504    0.3786363  73.45   0.00296432    1.517    0.341
        21  -8.8008    212.1824      4.8429   3.0552832065e+01   3.1732157518e+01    0.1487317    0.1316664  71.77  0.001074725    1.341    0.254
        22 -10.1469    203.7700      4.0777   3.1057923182e+01   3.3623756891e+01    0.2496448    0.2108581 -74.16    0.0012186    1.114    0.103
        23 -10.5810     60.7426      2.4905   5.4695241879e+01   6.5659296500e+01    0.5425659    0.2235334  43.28  0.002723326    1.956    0.489
        24  -9.1968    208.5148      4.0630   3.0675366420e+01   3.2597670927e+01    0.1657534    0.1087677 -38.49  0.001037079    1.606    0.377
        25  -8.8305     17.5876      2.3049   7.3216889185e+01   7.2441491253e+01    0.2391999   0.09604996 -38.22   0.00124804    2.702    0.630
        26 -10.7782     71.1918      5.6952   5.2801329896e+01   6.3371981731e+01    0.5200343    0.2171066  49.57  0.002201734    1.926    0.481
        27 -11.2202     77.7195     17.6630   5.5771817798e+01   6.0921930613e+01     1.304436    0.4704327 -18.71  0.004785244    4.284    0.767
        28 -11.1411     39.7207     29.9405   7.5200144275e+01   6.5927129630e+01    0.4962715    0.3258522 -34.68  0.002512817    1.511    0.338
        29 -10.8498    131.2305      3.6668   3.9075478495e+01   5.0337487325e+01     0.780698    0.2324542  57.95  0.003247951    2.510    0.602
        30  -8.2788     83.4850     89.4556   7.8936788759e+01   4.8195228869e+01    0.1452106    0.1390223  -9.50 0.0001579292    1.008    0.008
        31 -10.3765     24.9906     65.0718   9.4144010809e+01   6.1335460520e+01    0.5065481    0.2659548 -54.14  0.002020566    1.739    0.425
        32  -9.6605      2.5003     88.0410   1.0855265166e+02   5.7913440187e+01    0.4543238    0.2062466 -70.24  0.002197291    1.997    0.499
        33 -11.1467      4.5511     76.1215   1.0548379982e+02   6.0479340724e+01    0.6195052    0.5072786 -83.76  0.003780868    1.408    0.290
        34  -8.6884      3.3197    230.6703   1.2205084316e+02   2.4456214440e+01    0.1263129   0.06267729  63.16 0.0007048026    1.689    0.408
        35  -8.6601    144.6230     81.2173   5.9505801211e+01   3.6901035295e+01    0.2117686    0.1925981  71.19  0.001141136    1.095    0.087
        36 -10.7071     46.8755     76.0787   8.8277582625e+01   5.6646118042e+01    0.4337555    0.3818981  53.90  0.002594733    1.421    0.296
        37  -8.3078    169.6628     76.3224   5.3041253565e+01   3.1904173134e+01    0.1530665    0.1084593 -76.02 0.0007050649    1.714    0.417
        38 -10.2941     75.7930     68.8684   7.5258148964e+01   5.3703717594e+01    0.5089045    0.3781534  19.09  0.002660535    1.419    0.295
        39  -9.5860     83.5813     69.0276   7.2656207268e+01   5.2261060879e+01    0.3152328     0.247013  48.35  0.001675168    1.357    0.263
        40 -10.2107     46.7579     62.4506   8.4158763540e+01   5.9417630969e+01    0.6395029    0.3184571  13.50  0.002597443    2.937    0.659
        41  -9.1193     76.4185     59.6816   7.1980380755e+01   5.5265248368e+01    0.2577715    0.1312537 -44.34  0.001027859    2.070    0.517
        42  -8.9295    100.9919     83.4902   7.1642058247e+01   4.6084709807e+01     0.244445    0.1984732 -40.89    0.0012499    1.245    0.197
        43  -8.8847    197.9018     55.6701   4.3391396795e+01   2.8631096882e+01    0.2717763    0.1043021  56.65  0.001108084    2.558    0.609
        44  -9.6602     66.3788     53.7696   7.3518908450e+01   5.8043026428e+01    0.3636258    0.1654064 -45.75  0.001557327    2.397    0.583
        45  -9.2976     34.6919     52.8718   8.6109732573e+01   6.2725986068e+01    0.2853128    0.1616022  26.68  0.001206191    1.787    0.440
        46  -8.2412     23.6834     52.3044   9.0880615487e+01   6.3992499336e+01    0.1096238   0.09852908  63.40 0.0003368523    1.624    0.384
        47 -10.2143     85.2033     48.2929   6.5060691475e+01   5.5471033686e+01    0.7109966     0.373248  54.56  0.002994076    2.159    0.537
        48 -10.1961     81.4784     36.4929   6.1930571969e+01   5.7909724278e+01    0.4136796    0.2893698  64.57  0.002162372    1.852    0.460
        49 -10.1632     81.4117     41.8205   6.3935583872e+01   5.7178421951e+01    0.5909916    0.3194172 -42.99  0.002794865    2.124    0.529
        50 -10.6302      3.1900     40.7341   9.7115043029e+01   6.7800755134e+01    0.4225591    0.3703415 -71.54  0.003035651    1.538    0.350
        51  -9.3914      5.5124     35.0789   9.4065361605e+01   6.8678177081e+01     0.229083    0.2119957  58.17  0.001500019    1.655    0.396
        52 -11.5849    206.5107    221.4918   7.7385443741e+01  -2.4936753102e+00    0.5640339    0.3077347   0.82  0.002359401    3.034    0.670
        53  -8.7746     67.6918    217.3338   1.0729320629e+02   1.9947405738e+01     0.142005   0.08832604  65.33 0.0007041597    1.671    0.402
        54 -10.2497    183.1638    215.9951   8.1094793743e+01   1.9927491609e+00    0.2310678    0.1454071 -14.82  0.001100916    2.019    0.505
        55  -9.6870    185.9885     40.9885   4.1446449173e+01   3.3388139486e+01    0.4959171     0.214495 -61.47  0.001846768    3.310    0.698
        56  -9.1297     66.8808     35.6132   6.6547474499e+01   6.0782996760e+01    0.2528061    0.1625516  55.26  0.001300855    1.933    0.483
        57  -9.1868    182.3279     41.3381   4.2024887181e+01   3.4192212810e+01    0.2354864   0.08863976  55.14 0.0009473888    2.557    0.609
        58  -9.6138     11.7746     34.1890   9.0492249451e+01   6.8353936456e+01    0.3644454      0.17516 -43.66  0.002013568    1.758    0.431
        59  -9.9130    197.3742     35.0598   3.8621313594e+01   3.1548268367e+01    0.3328477    0.1683988  64.32  0.001653342    1.848    0.459
        60  -8.6438     33.3117     34.9334   8.0161994395e+01   6.6000268481e+01    0.1736675    0.1395809 -16.74 0.0007661857    1.079    0.073
        61 -10.4445     86.1711     31.1906   5.8489005140e+01   5.7653985102e+01    0.2657887    0.2459762  86.07  0.001555811    1.360    0.265
        62 -10.8846     89.8917     28.5341   5.6411160166e+01   5.7206773882e+01    0.3889922    0.3431408 -86.98  0.002395216    1.467    0.318
        63 -10.0712     66.8692     29.3983   6.4081931096e+01   6.1624830883e+01    0.2523465    0.1762238 -14.73  0.001443557    1.510    0.338
        64  -9.5155    226.5396     28.9526   3.4334106066e+01   2.5983803050e+01    0.2409559    0.1672895  80.64   0.00151768    1.340    0.254
        65  -8.4704    202.6537    197.3114   7.3784928338e+01   2.1996060811e+00    0.1252012    0.1101694  81.60 0.0007045853    1.709    0.415
        66  -9.1094    196.3231    186.6591   7.3010398185e+01   5.1811721342e+00    0.1323343    0.1131629 -87.66 0.0007050794    1.725    0.420
        67  -8.9568     36.9992    185.4944   1.1118124746e+02   3.1221596419e+01    0.1944238    0.1275375  32.84 0.0007848998    1.609    0.379
        68  -8.2678     33.6460    161.3073   1.0928677386e+02   3.7548519881e+01     0.144635   0.09118997  65.07 0.0007042402    1.718    0.418
        69  -8.5577    132.6498     26.6936   4.5887758833e+01   4.7772696921e+01    0.1401835   0.09107134  37.75 0.0007042528    1.707    0.414
        70  -8.7363    102.9527     26.0527   5.2050407045e+01   5.4675318166e+01    0.2191911    0.1383455  32.94  0.001124531    1.670    0.401
        71  -9.1525    220.9800    157.0000   6.2405867534e+01   6.4120620436e+00    0.2092142   0.07831094  44.16 0.0008055125    2.964    0.663
        72  -8.5203     19.7949     22.5958   8.1703662118e+01   6.9472567888e+01     0.152772   0.09848178  32.13 0.0009449475    1.693    0.409
        73 -11.7488     11.3290    142.5858   1.1332595599e+02   4.4227262599e+01    0.9199535    0.3018474 -77.47  0.003437732    3.016    0.668
        74  -9.0540     53.6611    143.5921   1.0093602224e+02   3.9725814007e+01    0.2908522    0.1725683 -66.96  0.001341204    1.601    0.376
        75  -9.4835    187.1459     19.0712   3.6013035992e+01   3.5766899847e+01    0.2294213    0.1629936  78.88 0.0009491743    1.228    0.186
        76  -9.6598    128.0632     18.1326   4.4072268142e+01   4.9760617660e+01    0.3053983    0.2596517  50.08  0.001392075    1.120    0.107
        77  -9.4558     39.7425    141.2524   1.0474947789e+02   4.1952438236e+01    0.3195455    0.2086924  53.60  0.001596341    1.698    0.411
        78  -9.6204     94.3875     17.3623   5.1040961780e+01   5.7474967653e+01    0.3516285    0.2225455  76.48   0.00164261    2.090    0.522
        79  -7.9655     24.6622    141.3462   1.0927779056e+02   4.3429530919e+01     0.142836   0.09152321  67.99 0.0007048043    1.779    0.438
        80 -11.8436    242.1642    133.7365   5.4225366203e+01   6.8736068034e+00    0.9108961    0.4873594  53.92  0.004501507    2.318    0.569
        81  -9.5060     64.2943     15.9041   5.9380042063e+01   6.3699729371e+01    0.2126664    0.1584566  50.96   0.00131103    1.387    0.279
        82 -12.5315    237.9956    126.2580   5.3312815883e+01   8.8728590998e+00     1.506752    0.8161373  51.56  0.007495917    2.166    0.538
        83  -8.4865      4.6411    124.3234   1.1315754432e+02   4.9177805136e+01    0.1321673   0.08530335  65.57 0.0005829477    1.774    0.436
        84  -8.7099     58.5233    124.4962   9.5867902027e+01   4.3894926200e+01    0.1444122    0.1337791 -53.68 6.193344e-05    1.013    0.013
        85  -8.5872     97.4302     27.3239   5.3908831228e+01   5.5740839438e+01    0.2422328    0.1231449  -8.31 0.0009552354    3.365    0.703
        86  -9.8952     17.8278    127.5131   1.0946164693e+02   4.7455892672e+01    0.2647488    0.1674723 -70.42  0.001415522    1.368    0.269
        87 -11.3379    243.5693    110.0351   4.9196993445e+01   1.0622629621e+01    0.6177123    0.3450759 -64.66  0.002807401    2.515    0.602
        88  -9.1434     94.6497    111.3067   8.1314558698e+01   4.1309311096e+01    0.1556229    0.1208034  76.76 0.0007042685    1.707    0.414
        89  -8.5975     86.6875    110.6664   8.3628928209e+01   4.2888565039e+01    0.1563782    0.1161244 -17.24 0.0005301573    1.681    0.405
        90  -9.0734    108.5926    108.7801   7.6496743497e+01   3.9199474717e+01    0.2176824    0.1466095 -57.73 0.0009491942    1.626    0.385
        91  -9.6574     68.9753    105.9695   8.8232290371e+01   4.6888625148e+01    0.2320492    0.1810956  76.23   0.00113485    1.708    0.415
        92  -9.5558     17.1537    104.3103   1.0604036166e+02   5.3164103433e+01    0.2980714    0.2546069 -41.89  0.001446965    1.110    0.099
        93  -9.4439     30.4015    102.0482   1.0088026708e+02   5.2581952692e+01    0.3814781    0.1891408 -37.28  0.001664903    2.146    0.534
        94  -9.6964     47.0826    100.0827   9.4438493753e+01   5.1257738417e+01    0.4121667    0.1478525 -51.45  0.001578845    2.392    0.582
        95  -8.9688     64.2249     98.9887   8.8098667676e+01   4.9219498118e+01    0.1984377    0.1130242 -52.90 0.0008789781    1.672    0.402
        96 -12.2106     41.8354     82.2821   9.1963898081e+01   5.5922014238e+01     0.923209    0.8224478 -14.36  0.005260096    1.082    0.076
