#   1 NUMBER                 Running object number                                     
#   2 MAG_AUTO               Kron-like elliptical aperture magnitude                    [mag]
#   3 X_IMAGE                Object position along x                                    [pixel]
#   4 Y_IMAGE                Object position along y                                    [pixel]
#   5 X_WORLD                Barycenter position along world x axis                     [deg]
#   6 Y_WORLD                Barycenter position along world y axis                     [deg]
#   7 A_WORLD                Profile RMS along major axis (world units)                 [deg]
#   8 B_WORLD                Profile RMS along minor axis (world units)                 [deg]
#   9 THETA_WORLD            Position angle (CCW/world-x)                               [deg]
#  10 FWHM_WORLD             FWHM assuming a gaussian core                              [deg]
#  11 ELONGATION             A_IMAGE/B_IMAGE                                           
#  12 ELLIPTICITY            1 - B_IMAGE/A_IMAGE                                       
         1 -12.9884    173.9576    113.6433   1.8454285480e+01   2.5291343789e+01     2.284341     1.305206 -67.04  0.006495361    2.486    0.598
         2 -14.6322    178.8664    168.1530   2.8028702106e+01   1.4459575607e+01     3.208606     1.546389 -47.08   0.01548551    1.949    0.487
         3 -14.8392    244.3208     92.2916   5.1414808843e+00   1.7139303579e+01     4.299333      1.86983 -63.08   0.01954571    3.645    0.726
         4 -14.7654    239.6589    122.8750   1.0923946515e+01   1.3381443801e+01     1.555063    0.9208989 -42.50  0.009392325    1.315    0.239
         5 -14.8626    207.3953    115.7617   1.3693020866e+01   1.9204497722e+01     4.220613     1.836141 -39.37   0.01848881    2.078    0.519
         6 -11.3742    179.0787     23.9480   3.5765761516e+02   3.7974724468e+01    0.5801805     0.318442 -67.92  0.003151402    1.644    0.392
         7 -11.1328    247.4682      2.7121   3.4932847029e+02   2.7619861234e+01    0.7268912    0.2789866  78.19  0.004550728    2.630    0.620
         8 -11.9948    194.9077     20.2227   3.5552372308e+02   3.5172395125e+01     2.117178     1.025813  40.50  0.002597432    9.019    0.889
         9 -10.2594    208.3519     20.1791   3.5456227481e+02   3.2573828227e+01    0.2771479    0.1651316 -60.80 0.0004581929    1.292    0.226
        10 -11.4739    203.2110     14.2712   3.5369907368e+02   3.4214263712e+01     0.458326    0.2678602 -46.79 0.0009476978    1.430    0.301
        11 -11.9381    226.4751     11.4874   3.5181747526e+02   3.0233615405e+01    0.7990462    0.2877125  56.34  0.003305162    4.598    0.783
        12 -12.2603    225.3349      7.0989   3.5105892474e+02   3.0899950577e+01     1.284357    0.3541982  58.96  0.005371769    5.673    0.824
        13 -10.9815    248.6497     22.8689   3.5272064299e+02   2.5280051615e+01    0.7988175    0.3228891 -29.28  0.004000838    3.596    0.722
        14 -10.6009    244.4491     11.3568   3.5093519788e+02   2.7209018493e+01    0.4394089    0.1156973 -60.43  0.002100224    3.272    0.694
        15 -10.3357    192.8730      9.6759   3.5341057870e+02   3.6742271933e+01     0.182656    0.1480615 -44.27  0.001043719    1.390    0.281
        16  -9.7043    120.3372      8.7393   1.8735195968e-01   5.2980766151e+01    0.3458263    0.2284498 -37.85  0.001920142    1.674    0.403
        17 -10.2611    181.5217      4.0140   3.5292371304e+02   3.9646952455e+01    0.1879153    0.1270716 -87.26 0.0009540562    1.216    0.178
        18  -9.4018    171.9915      2.7717   3.5330128618e+02   4.1781648938e+01     0.217133    0.1112141 -53.25 0.0008711305    1.628    0.386
        19 -10.2136    175.6642    213.3248   3.5941711802e+01   6.9396626783e+00    0.2251299    0.2011539  72.45  0.001503961    1.738    0.425
        20 -10.9498    247.2981    235.2190   2.7219845470e+01  -3.1802634764e+00    0.4536664    0.3358968 -53.10  0.003422513    2.299    0.565
        21 -10.2815    249.1589    249.8071   2.8885230864e+01  -5.0878569230e+00    0.3651273    0.2109801  27.82  0.002810229    2.036    0.509
        22 -10.0925    248.4825    244.5398   2.8293336020e+01  -4.4102960362e+00    0.2861457    0.1743016 -27.25  0.002142293    1.235    0.190
        23 -10.6720    242.4983    244.0051   2.9079634688e+01  -3.8939066787e+00    0.3460494    0.1667521 -37.28  0.002250988    1.736    0.424
        24 -10.8513    238.7762    242.5784   2.9434121623e+01  -3.4288402007e+00    0.2498153     0.221763 -12.80  0.001528266    1.523    0.344
        25  -9.5551    249.9966    211.0546   2.3494138776e+01  -3.1154044248e-01    0.2037365    0.1528013   6.92  0.001495354    1.357    0.263
        26 -11.4493    241.5588    206.3460   2.3980947147e+01   1.0727678404e+00    0.3566507    0.2436947  38.05  0.002632891    2.007    0.502
        27  -8.7759    234.0240    208.4852   2.5373337719e+01   1.4819115942e+00    0.1644006    0.1154591 -27.17  0.001053439    1.103    0.094
        28  -9.6308    213.6418    205.7379   2.8093476118e+01   3.9130257533e+00     0.242232    0.1937537  50.75  0.001348812    1.968    0.492
        29 -10.2602     11.1178    205.9443   7.6409158091e+01   2.8105492514e+01    0.3608978     0.136095  32.88  0.001548123    2.070    0.517
        30 -14.2470    193.5816    194.4034   2.9724555292e+01   7.9582740709e+00     5.452271     3.072237  60.50   0.01834737    7.253    0.862
        31 -12.0976    191.7068    119.4902   1.6715438470e+01   2.1147347936e+01    0.8333676    0.4625933  62.65  0.002902001    2.415    0.586
        32  -8.9053    215.5203    248.5097   3.3817656203e+01  -2.2878080597e+00    0.1053399   0.07650403 -10.25 0.0001609506    1.017    0.016
        33 -10.3316    182.4942    201.8284   3.2902245097e+01   8.0591272493e+00    0.4022188    0.2473452 -25.25  0.001046055    1.645    0.392
        34  -9.0075    187.2275    199.2519   3.1627467751e+01   7.9196163956e+00    0.2294403    0.1553497 -50.74 0.0008963729    1.635    0.388
        35  -9.6141    245.0336    193.5173   2.1608537213e+01   2.5089046222e+00    0.2030549    0.1183537  22.43  0.001084388    2.011    0.503
        36  -8.9956    250.1832    202.7744   2.2277882984e+01   7.6928841055e-01    0.3228349    0.1192112  37.96  0.001802971    3.549    0.718
        37 -10.0509    250.3956    198.5341   2.1631229264e+01   1.3191423083e+00    0.2266442    0.1317523 -33.13  0.001619153    1.304    0.233
        38 -10.2480    244.5209    198.4488   2.2410999816e+01   1.8775749309e+00    0.2568243        0.194  -2.40  0.001182675    1.286    0.223
        39  -9.8662    240.6637    196.6965   2.2683113775e+01   2.4894765461e+00    0.2581273    0.1582372 -16.85  0.001757029    1.602    0.376
        40  -9.4506      3.2775    202.9074   7.8446920102e+01   2.9459923537e+01    0.2269826      0.18095  15.74 0.0004720053    1.311    0.237
        41  -9.0731    226.0488    201.1151   2.5463737704e+01   3.3122810476e+00    0.2031561     0.135331 -47.44 0.0006968164    1.629    0.386
        42 -12.3297    188.3267    175.6971   2.7597015475e+01   1.1800789165e+01     0.828492    0.3349496 -45.29  0.003105012    2.254    0.556
        43  -8.7171    216.1333    198.5345   2.6602075755e+01   4.7325168245e+00    0.3279944    0.1047179 -47.85  0.001427147    3.310    0.698
        44  -9.0624    229.4657    197.8936   2.4468152227e+01   3.4317783328e+00    0.1645575    0.1338897   0.24 0.0003643935    1.210    0.174
        45  -8.2472    190.0049    244.0129   3.7579371093e+01   6.3727813040e-01    0.1335549    0.1032994  -6.74 0.0003627269    1.012    0.012
        46 -11.6087     17.2790    194.7432   7.4052568917e+01   3.0316055012e+01     0.586504    0.4246533 -21.57  0.002386861    1.750    0.429
        47 -13.3661    243.6988    179.6026   1.9676010908e+01   4.5968408246e+00      1.14878    0.8090925 -54.94  0.006575204    1.791    0.442
        48  -8.2871    149.4709    192.9355   3.8178565901e+01   1.3964548150e+01    0.1889305     0.125554 -47.91 0.0005192082    1.530    0.346
        49 -13.4764    249.6824    116.9866   8.8285200552e+00   1.2914436494e+01    0.9133255    0.2177082 -42.81 0.0009803243    3.103    0.678
        50  -8.8932     80.4584    190.3356   5.5169411019e+01   2.4265215304e+01    0.3091376    0.2067928 -27.02  0.001189207    1.920    0.479
        51 -12.9941    225.5519    167.1042   2.0190328475e+01   8.4690364186e+00    0.8286477    0.5874318 -63.02  0.002087671    1.980    0.495
        52  -8.8334     18.9512    181.5122   7.2697039594e+01   3.3516214112e+01    0.2058098    0.1312344  21.88 0.0005152007    1.514    0.339
        53  -9.9125    122.3586    172.6782   4.1199422034e+01   2.2172277297e+01    0.2233241    0.1696244  66.88 0.0009428214    1.681    0.405
        54 -10.8602    128.8910    169.5532   3.9038305158e+01   2.1826454565e+01    0.5355135    0.2016632 -54.38  0.001973454    2.799    0.643
        55 -10.0010    117.3677    170.5764   4.2114231905e+01   2.3424084797e+01    0.2734015    0.1784898 -51.52 0.0008047149    1.574    0.365
        56  -7.7264     48.3377    162.7422   6.1455762297e+01   3.5388709559e+01    0.1584691    0.1000636  51.88 0.0005064751    1.577    0.366
        57 -12.4054    194.1496    101.7938   1.2819340107e+01   2.3717635592e+01     1.754416    0.7075384 -40.39   0.00787062    2.284    0.562
        58 -12.5885    133.9190    147.0022   3.3637078581e+01   2.5881140578e+01     1.770669    0.5487331 -57.24  0.005056312    4.599    0.783
        59 -11.9814    144.4706    146.7043   3.1120440065e+01   2.4110297659e+01    0.7281286    0.4286243 -63.42   0.00165182    2.135    0.532
        60 -11.4669    142.7610    136.8559   2.9538466852e+01   2.6465235654e+01    0.4904564    0.4005577 -46.11  0.002053456    1.202    0.168
        61 -10.4618    131.5356    122.5576   2.9134331704e+01   3.1578426452e+01    0.5746654    0.2412821 -51.86  0.002167832    2.428    0.588
        62 -10.2073    134.9929    119.7524   2.7691709884e+01   3.1500802218e+01    0.3256609    0.2369934 -49.64 0.0008890466    1.356    0.263
        63 -10.8591    137.0631    137.2582   3.0936185360e+01   2.7411529865e+01    0.7284356    0.2748411 -56.69  0.002396076    3.277    0.695
        64 -12.3233    138.0660    127.7859   2.8721442013e+01   2.9229015890e+01    0.8436749    0.6828975 -43.17  0.003509136    1.248    0.199
        65  -8.4830      4.9961    155.1969   7.5476531436e+01   4.1530860424e+01    0.1808443    0.1071604  17.67 0.0003170635    1.704    0.413
        66  -9.0741    127.0129    153.0457   3.6497119348e+01   2.5753076430e+01    0.1811215     0.159264 -50.75 0.0006525127    1.148    0.129
        67 -10.2366    158.1418    147.1361   2.8246446112e+01   2.1691631515e+01    0.2548814    0.1751612 -43.10 0.0007207774    1.395    0.283
        68 -10.3407    154.5122    144.5034   2.8494926088e+01   2.2832309738e+01    0.2343144    0.1788267 -39.85  0.000871602    1.286    0.222
        69 -10.5223    161.9139    144.1501   2.6896349453e+01   2.1644940231e+01    0.2802835    0.2436894 -61.60  0.001032482    1.189    0.159
        70 -10.6110     68.1064    144.0875   5.2107910780e+01   3.7639515704e+01    0.7191886    0.3957548  56.17   0.00277713    2.155    0.536
        71 -11.0244    150.8436    140.3738   2.8462150923e+01   2.4302232626e+01    0.4742811    0.1934316 -43.87  0.001789322    2.429    0.588
        72  -9.3308     90.9618    141.5465   4.4292483034e+01   3.4640647001e+01    0.3444331    0.2143793 -59.18 0.0009441039    1.672    0.402
        73 -11.4754    152.0087    130.5020   2.6204334042e+01   2.6087730460e+01    0.5377079    0.4005598  88.06  0.002697361    1.820    0.450
        74  -8.7892    168.7507    132.3435   2.3228633579e+01   2.2749278339e+01    0.2147413    0.1313505  31.59 0.0002245661    2.074    0.518
        75 -10.5800    160.9792    137.7398   2.5823808822e+01   2.3058328938e+01    0.3280187    0.2481011 -43.13  0.000507443    1.260    0.206
        76 -10.0316    164.5115    130.5236   2.3674554102e+01   2.3838502255e+01     0.319637    0.2104747 -61.86  0.001532099    1.707    0.414
        77 -12.2644    160.2438    128.5740   2.4115370228e+01   2.4976634877e+01    0.7466211    0.5484101 -67.58  0.003948859    1.549    0.355
        78  -8.6264    124.8139    133.2141   3.3092063611e+01   3.0537539477e+01    0.2024831    0.1726533 -24.09 0.0008996607    1.349    0.259
        79  -9.8978    125.0618    127.1087   3.1728496138e+01   3.1834916659e+01    0.3469308    0.2543257 -54.35  0.001718908    1.371    0.271
        80  -9.7163     79.1706    127.1998   4.5233515519e+01   4.0210397736e+01    0.3253499    0.2407407 -55.41 0.0005536695    1.393    0.282
        81  -8.4975     73.9807    126.9634   4.6946506627e+01   4.1133654736e+01    0.1812797    0.1724872  51.49 0.0009613081    1.003    0.003
        82  -9.1260    129.1908    242.2539   4.9535950157e+01   7.3553762565e+00     0.285516    0.1994955 -84.02  0.001546127    2.564    0.610
        83 -11.8493    157.4431    115.5008   2.1913151141e+01   2.8024884694e+01    0.8490374    0.6058574  -3.52  0.003880634    2.526    0.604
        84 -10.8288    156.3181    110.7480   2.1098365106e+01   2.9151040829e+01    0.3636088    0.2950917 -86.01 0.0007803275    1.360    0.265
        85  -9.6089    114.7069    118.1603   3.2456676120e+01   3.5809956783e+01     0.418596    0.2891713  64.46  0.001907161    1.689    0.408
        86 -10.4167    148.3231    114.4678   2.3549581049e+01   2.9980745793e+01    0.4242867    0.2907527  63.28  0.001451871    1.643    0.392
        87 -10.5019    141.2113    107.8646   2.3590988066e+01   3.2698436867e+01    0.4687631    0.3282011 -79.78  0.001387031    1.846    0.458
        88 -10.9675    134.7288    108.8219   2.5273517454e+01   3.3812334201e+01     1.064597    0.2216843 -47.10  0.002894159    4.756    0.790
        89 -10.4150    133.6912     97.0452   2.2710733903e+01   3.6386836853e+01     0.307478    0.2466557 -46.77 0.0004905774    1.272    0.214
        90 -11.7250     56.2431    107.3981   4.9420667762e+01   4.8932855885e+01    0.6147986    0.5566621  12.59   0.00122013    1.160    0.138
        91 -13.0210     49.1661    103.2283   5.1397920314e+01   5.1036332276e+01     2.557614    0.9291111  32.87  0.006099878    2.501    0.600
        92 -10.1490    125.4288     95.6968   2.4319432920e+01   3.8395217230e+01    0.3867686    0.2700839 -40.82  0.001021033    1.553    0.356
        93 -11.8164    124.5113    104.4681   2.6695211078e+01   3.6793355353e+01    0.7693417    0.4536749 -51.59  0.003451646    1.709    0.415
        94 -11.1891    120.4696    101.9611   2.7105829781e+01   3.8150638434e+01    0.4053953    0.3616287 -52.95  0.001428421    1.149    0.130
        95  -7.8742     93.4423    108.4558   3.6403392793e+01   4.2165053384e+01    0.1516409     0.144039  64.39  0.000112693    1.003    0.003
        96 -12.4374      9.5074     99.3996   6.8498222264e+01   5.6236936186e+01    0.9299526    0.8647671 -49.43  0.004004774    1.055    0.053
        97  -7.9054    111.2968    100.3652   2.9142881127e+01   4.0388339950e+01    0.1478945    0.1209095  -8.01 0.0007031676    1.720    0.419
        98 -10.4445    184.6904     94.0113   1.2590464743e+01   2.6723920486e+01     0.387749    0.3349095 -24.48  0.001532254    1.426    0.299
        99  -9.4887    216.6612     93.6570   8.3074499954e+00   2.1184594184e+01    0.2452763    0.1943849  18.58  0.001556341    2.073    0.518
       100 -10.4018    219.8360     90.6060   7.3659807773e+00   2.1126570802e+01    0.3319736    0.2602248 -88.83 0.0009993738    1.396    0.283
       101 -10.3609    200.2674     93.2308   1.0252915551e+01   2.4029618289e+01    0.2348596    0.1790318 -41.56 0.0005054299    1.246    0.197
       102  -8.0432    154.4205     94.4455   1.7778403658e+01   3.2578617897e+01    0.1373117    0.1233618 -74.07 0.0001183327    1.018    0.018
       103 -11.2756     39.5692    102.1081   5.5252613259e+01   5.2612330190e+01    0.5357316    0.3189232  27.86 0.0009277604    1.618    0.382
       104  -8.8897    167.4322     89.9990   1.4437606017e+01   3.0739258802e+01    0.1870727    0.1681019 -88.63 0.0003248233    1.077    0.071
       105  -9.4917    211.4683     85.9092   7.4177817521e+00   2.3223377934e+01    0.3651081    0.2333689 -27.14  0.002057664    2.038    0.509
       106  -7.8876    144.5463     88.5468   1.8309459709e+01   3.5714930717e+01    0.1381435    0.1288114 -82.58 0.0003427938    1.049    0.046
       107  -8.4745    190.2129     86.5270   1.0224718135e+01   2.6918070750e+01     0.224836    0.1215322  66.95  0.001135911    2.143    0.533
       108 -10.1621    176.4383     68.2985   8.1445684159e+00   3.2474593375e+01    0.3861755    0.2433331 -71.68  0.002053321    1.691    0.409
       109 -10.3677    173.1858     81.5219   1.1605502941e+01   3.1020637215e+01    0.3218368    0.2928953 -38.43  0.001110652    1.278    0.217
       110 -10.0914    173.2039     74.6848   1.0056816628e+01   3.2127750322e+01    0.4206162    0.2769482 -20.63   0.00111745    2.503    0.600
       111  -9.2982    128.6776     81.1452   1.9833440943e+01   4.0511041251e+01    0.2686142    0.2337033 -41.25 0.0006374635    1.281    0.219
       112  -8.5448    202.6042    231.5030   3.3666665721e+01   1.2275197553e+00    0.1836597    0.1436828  48.39  0.001254643    2.119    0.528
       113 -14.9952    206.0223    178.2028   2.4996924587e+01   9.0927516058e+00     3.249478     2.215007  38.92   0.02073573    1.709    0.415
       114  -8.3760    203.1376     78.3164   6.8826970868e+00   2.5827541813e+01    0.1856087      0.14121 -42.07 0.0003126662    1.276    0.216
       115 -10.0408    200.1021     68.2921   5.1813954046e+00   2.7870599964e+01    0.4690594    0.3210073 -27.21  0.002727401    1.916    0.478
       116  -9.6789    198.6495     78.0096   7.3592133795e+00   2.6689063589e+01    0.3219482    0.1971037 -32.98  0.001242226    1.840    0.457
       117  -9.6615    196.8102     74.3312   6.8209678658e+00   2.7586114825e+01    0.2750559    0.1907948 -20.26  0.001062306    2.240    0.554
       118 -10.6873    183.1302     78.1744   9.4139650081e+00   2.9598055100e+01    0.4451367    0.3437271 -69.83  0.001540599    1.189    0.159
       119  -9.5553    151.9301     68.5383   1.1984056661e+01   3.7604421691e+01    0.3023914    0.1972487 -34.21 0.0004552064    1.791    0.442
       120  -8.1143    121.5455     71.4915   1.8873755442e+01   4.3862683839e+01    0.1420878    0.1313838  78.29 0.0001526917    1.060    0.057
       121  -8.1536    169.8651     70.1444   9.5074716481e+00   3.3534105285e+01    0.1622396    0.1563678 -29.01  0.000491615    1.342    0.255
       122  -9.6992     57.9021    231.3734   6.5565336809e+01   1.7685808249e+01    0.2098991    0.1929254 -27.22 0.0003016376    1.276    0.217
       123  -9.7531    189.0715     66.8018   6.1676460613e+00   3.0188435118e+01    0.2738785    0.2116198 -88.20 0.0008211625    1.243    0.196
       124  -9.7780    191.3543     62.0935   4.8792709242e+00   3.0436468675e+01    0.2500638    0.1977655 -39.85 0.0005067672    1.363    0.266
       125 -15.8898    243.8409    140.1861   1.3350762845e+01   1.0298094484e+01     2.141887     1.732715 -15.20  0.008889109    1.381    0.276
       126  -9.0767    243.2977     61.4429   3.5980623009e+02   2.1461351106e+01    0.2859797     0.114585 -39.58  0.001148563    2.031    0.508
       127  -8.3830     93.8425     62.1883   2.3450126127e+01   5.1778290643e+01    0.1858453    0.1674947  30.49 0.0003688626    1.281    0.219
       128  -9.5070    174.2099     61.1502   6.8130772106e+00   3.4017685524e+01     0.261187    0.1666183  81.78  0.001232067    1.627    0.386
       129  -9.4778    187.2428     59.2906   4.7531639488e+00   3.1649217928e+01      0.23356    0.2097902 -17.01   0.00100403    1.579    0.367
       130  -9.4063    144.3054     59.5286   1.1005476956e+01   4.0737925115e+01     0.254365    0.2135343 -70.84 0.0006058287    1.089    0.082
       131  -8.4589    111.9028     59.8170   1.7819037360e+01   4.8099492683e+01    0.1979087    0.1882812  54.09 0.0005582082    1.189    0.159
       132  -9.5432    247.3730     57.1823   3.5875122397e+02   2.1381093421e+01    0.1890508    0.1576079 -23.69 0.0009098302    1.714    0.417
       133  -9.9374    234.0209     51.4493   3.5872103564e+02   2.4229446223e+01    0.3886027    0.2002429  62.72   0.00175312    2.293    0.564
       134  -9.5417    227.9461     48.6432   3.5866922747e+02   2.5602230279e+01    0.2183869    0.1372038 -46.13 0.0006401148    1.297    0.229
       135 -11.4437    223.7659     41.1633   3.5757591240e+02   2.7265363193e+01    0.6298679     0.446492 -69.75  0.004072286    1.150    0.130
       136 -11.1172    215.2199     32.4014   3.5651342809e+02   2.9865480381e+01    0.6904593    0.3389021  89.17  0.003876302    2.139    0.532
       137 -10.6183    212.7777     26.0132   3.5542638044e+02   3.1073997955e+01    0.2327612    0.2031238 -57.63 0.0004760661    1.311    0.237
       138  -9.8961    160.9196     47.6063   5.3757422719e+00   3.8824617445e+01    0.2765383    0.2373929 -22.01 0.0007008439    1.599    0.375
       139  -8.5022    244.5194     48.5202   3.5743440324e+02   2.2910880900e+01    0.1410907   0.09164788  60.79 0.0006489802    2.013    0.503
       140  -9.1944    232.4042     42.9360   3.5727691400e+02   2.5569205888e+01     0.184525    0.1447315  84.24  0.001282987    1.383    0.277
       141  -8.5502    198.8507     37.1905   3.5880240425e+02   3.2355113265e+01    0.1420932    0.1303754 -89.43 0.0004588381    1.331    0.249
       142  -9.8004    197.4355     33.1208   3.5806538308e+02   3.3139318395e+01    0.2021124    0.1729603 -72.71 0.0004742929    1.174    0.148
       143  -8.4919    249.3145     34.0243   3.5460493751e+02   2.3902620108e+01     0.143004    0.1006486 -56.32 0.0004963658    1.049    0.047
       144  -9.5667    239.3462     33.7650   3.5515168668e+02   2.5529093737e+01    0.1955937    0.1582779 -18.24   0.00124275    1.986    0.496
       145  -8.4703     81.6908     31.0315   1.6279101692e+01   5.9563570538e+01    0.1772386    0.1667203 -82.36 0.0004297351    1.142    0.124
       146  -8.9951    170.1237     29.7882   3.5990833376e+02   3.9176689817e+01    0.1966522    0.1502837 -58.52 0.0003832066    1.164    0.141
       147 -10.0137    216.9981     23.0025   3.5455318438e+02   3.0649217860e+01    0.2462389    0.1780843 -68.13  0.001194565    1.045    0.043
       148  -9.9076    240.2279    229.0198   2.7385962135e+01  -1.8248116218e+00    0.2229417    0.1565833  25.52  0.001763175    1.669    0.401
       149  -9.7475    232.3544    224.7758   2.7955128800e+01  -5.9196833666e-01    0.3088027    0.1697873  42.43  0.001875041    3.016    0.668
       150  -8.6384    151.3504    226.2116   4.2690024595e+01   7.5951971202e+00    0.1495682    0.1161581 -54.79 0.0004348253    1.578    0.366
       151 -10.3412    178.5172    221.0213   3.6520965265e+01   5.3459430996e+00    0.1820249    0.1603707  28.80  0.001288122    1.358    0.263
       152 -10.4663    248.0481    221.4249   2.5223600211e+01  -1.4952250638e+00    0.2024764    0.1924932   6.68  0.001825592    1.672    0.402
       153  -9.1206    204.4296    221.2392   3.1901410717e+01   2.5501085970e+00    0.1944984    0.1694488  -7.03 0.0007143241    1.199    0.166
       154 -10.1108    200.5466    220.4487   3.2450975900e+01   3.0654773838e+00    0.2669257    0.1888222 -19.87  0.001305393    1.204    0.169
       155 -10.3330    236.0507     21.1282   3.5307456080e+02   2.7530525460e+01    0.2016568    0.1892283  70.91  0.001285666    1.634    0.388
       156  -9.7794    239.5115    221.5170   2.6445056413e+01  -7.8303931552e-01    0.2275991    0.1748907  31.80  0.001270186    1.762    0.433
       157  -7.7479     97.2479     16.6455   6.9051000672e+00   5.7696088173e+01    0.1307992   0.08954772 -69.72 0.0003266678    1.594    0.373
       158  -8.8937    189.9993     15.4780   3.5486530914e+02   3.6690673474e+01    0.1664367   0.09706786  82.39  0.000692779    1.549    0.354
       159  -8.7685    234.4318    217.1957   2.6573108282e+01   2.4604517768e-01    0.2158924     0.168441  63.04  0.001410377    3.114    0.679
       160  -9.0690    225.3601    218.7074   2.8155098686e+01   8.7337561939e-01    0.1736368     0.148735  34.25  0.001370368    1.673    0.402
       161 -10.0203    220.9425    216.1969   2.8478786259e+01   1.6477522337e+00    0.2463428    0.2184692 -26.02 0.0008866448    1.343    0.255
       162 -10.4597    215.9237    212.6822   2.8760276978e+01   2.6501076906e+00    0.2572778    0.2146678  55.03  0.001071196    2.056    0.514
