#   1 NUMBER                 Running object number                                     
#   2 MAG_AUTO               Kron-like elliptical aperture magnitude                    [mag]
#   3 X_IMAGE                Object position along x                                    [pixel]
#   4 Y_IMAGE                Object position along y                                    [pixel]
#   5 X_WORLD                Barycenter position along world x axis                     [deg]
#   6 Y_WORLD                Barycenter position along world y axis                     [deg]
#   7 A_WORLD                Profile RMS along major axis (world units)                 [deg]
#   8 B_WORLD                Profile RMS along minor axis (world units)                 [deg]
#   9 THETA_WORLD            Position angle (CCW/world-x)                               [deg]
#  10 FWHM_WORLD             FWHM assuming a gaussian core                              [deg]
#  11 ELONGATION             A_IMAGE/B_IMAGE                                           
#  12 ELLIPTICITY            1 - B_IMAGE/A_IMAGE                                       
         1 -14.5916     68.4444    144.3791   1.0317077073e+02   3.7444090275e+01     5.340854     2.337161  62.63  0.002960338    3.718    0.731
         2 -14.3885    215.7069     25.2581   4.0188025097e+01   2.7613306663e+01     1.353544    0.9893705  27.55  0.007399214    1.869    0.465
         3 -14.5731    202.5088     38.1892   4.4932705927e+01   2.9163869502e+01     2.189438     1.545788  24.15  0.008627219    1.956    0.489
         4 -11.1441     56.0103      5.6786   6.3097125188e+01   6.9739481060e+01    0.3198888    0.2240785  67.82  0.001322111    1.846    0.458
         5 -12.5542    240.7104      2.8355   3.3005302745e+01   2.4467405334e+01    0.6803801    0.3181884  81.87  0.003537382    2.258    0.557
         6 -10.6194      1.8236      3.1028   9.8606408167e+01   7.7983490277e+01    0.2942177    0.1223259 -50.87  0.001494109    1.917    0.478
         7 -10.8951     62.0397    200.1866   1.1105258623e+02   2.6125659507e+01    0.2439562    0.1927474  73.37 0.0004190188    1.210    0.173
         8 -10.4849    139.7967    249.8906   9.9790424119e+01   7.6801576146e+00    0.1812304    0.1449925  58.91  0.001347312    1.571    0.364
         9 -15.4877     84.5698    223.0115   1.0809748266e+02   1.9045314941e+01     6.544886    0.5041771  39.42   0.02057801    4.885    0.795
        10 -15.6862      7.4318    160.2304   1.2166857443e+02   4.0327486054e+01      5.29227     1.737433 -84.98   0.02290093    2.820    0.645
        11 -16.5625      8.5924    240.9922   1.2428025863e+02   2.4302698960e+01     5.937672     2.062609  23.31   0.02863612    3.617    0.724
        12 -10.2127     66.0406    194.4928   1.0962344696e+02   2.6755728060e+01     0.304579     0.196373  33.69   0.00078733    1.415    0.293
        13 -13.9571     58.4195    242.3830   1.1482362598e+02   1.8972596435e+01    0.5541069    0.3488296  47.89 0.0008277548    1.162    0.140
        14 -15.5710     46.2325    249.7263   1.1755831341e+02   1.9137099967e+01     6.605287     1.690262  25.22   0.01589655   12.385    0.919
        15  -9.4269     72.0923    188.2523   1.0758220822e+02   2.7233302087e+01    0.1780467    0.1379803  53.03 0.0004428658    1.092    0.084
        16  -9.2257     69.8404    183.8745   1.0767266969e+02   2.8435568191e+01    0.1781686     0.127796  62.10 0.0003942429    1.294    0.227
        17 -14.3838     40.4351    201.8491   1.1607904196e+02   2.8309237775e+01     1.238314    0.7534349  75.25  0.007288528    1.575    0.365
        18  -9.0928     91.2961    182.9230   1.0235596099e+02   2.5633245085e+01    0.1723454    0.1589659  71.83  0.000659688    1.117    0.105
        19 -10.5752    150.4795    178.9213   8.8154840711e+01   1.6914898058e+01    0.3361914    0.2352216 -72.58  0.001591654    2.345    0.574
        20  -9.9568     99.4589    180.6633   1.0009871418e+02   2.4868107280e+01    0.2361836    0.1798057  46.31 0.0005807152    1.146    0.127
        21 -11.3244    143.9557    178.7929   8.9549234021e+01   1.8031961814e+01    0.4002858    0.3109906 -83.55  0.001758779    1.920    0.479
        22 -12.2403     65.7824    176.3680   1.0788521643e+02   3.0560700291e+01    0.4273223    0.3079073 -39.03  0.001169681    1.892    0.471
        23 -12.0322     70.4221    171.2228   1.0613100407e+02   3.1057476376e+01    0.3040253    0.2700198  16.98  0.001069276    1.332    0.250
        24  -9.7082    204.1407    176.4892   7.7166027867e+01   8.4605404873e+00    0.1917735    0.1729759 -34.61  0.001150367    1.388    0.280
        25  -9.3223    196.7290    176.6022   7.8525144439e+01   9.6221197166e+00    0.1720004    0.1109662  43.96 0.0007816833    1.631    0.387
        26  -9.5015    188.4932    174.9910   7.9768065332e+01   1.1196598477e+01    0.1826378    0.1219664 -35.67 0.0006230569    1.573    0.364
        27 -12.6586     86.6167    155.1927   9.9725394582e+01   3.2260820339e+01     1.213486    0.6967545 -67.89  0.002313484    1.926    0.481
        28 -12.8802     79.4454    161.6993   1.0257485159e+02   3.1885505392e+01      1.13041    0.4738255  53.08 0.0005411552    2.669    0.625
        29 -13.7269     67.5156    157.4444   1.0521572399e+02   3.4533565461e+01    0.6453739    0.5376208  -2.56  0.003677871    1.603    0.376
        30 -11.9716    194.8566    196.9649   8.2369411098e+01   7.0576898563e+00    0.9748538    0.6825515 -70.70  0.004521139    4.103    0.756
        31 -10.4849    230.4772    166.5210   7.0889421089e+01   5.7410433858e+00    0.2099594    0.1000004 -41.16  0.001034912    2.400    0.583
        32  -9.6073    157.6554    160.0654   8.3233602373e+01   1.8985881980e+01    0.2081431    0.1783117 -74.77  0.001172218    1.548    0.354
        33 -10.8192     33.4444    156.2543   1.1444206132e+02   3.8894250992e+01    0.2796127    0.2000363  49.90 0.0007757802    1.236    0.191
        34  -9.4892    187.6708    151.6977   7.5455056678e+01   1.4969656626e+01     0.139023   0.09771119   7.46 0.0007033476    1.648    0.393
        35  -9.9373     59.1015    150.9316   1.0672291762e+02   3.7163385941e+01    0.2072466    0.1617053 -30.75 0.0006464052    1.723    0.420
        36 -11.1490    133.5907    144.3590   8.5669014725e+01   2.6440115317e+01      1.07799    0.2713573 -53.59  0.002728943    6.078    0.835
        37 -10.6299    174.4123    149.0661   7.7534143482e+01   1.7835037775e+01    0.2950003     0.230552  33.14 0.0009759346    1.212    0.175
        38  -9.6191     34.7126    171.9072   1.1536713684e+02   3.5208690664e+01     0.174878    0.1374713  78.42 0.0005147202    1.135    0.119
        39 -11.4103     54.5941    147.6852   1.0760192363e+02   3.8503623015e+01     0.686777    0.2588984 -54.58  0.002733333    2.792    0.642
        40 -10.8845    101.0619    140.2308   9.3271211274e+01   3.3258469161e+01    0.5230951    0.3566011 -20.34  0.002278975    2.341    0.573
        41 -12.2627     88.2622    140.1969   9.6829639295e+01   3.5416775712e+01    0.2763527    0.2592385 -46.61 0.0005016557    1.183    0.155
        42  -9.9040     81.7967    141.5765   9.8902058559e+01   3.6123730180e+01    0.3008498    0.1866183  61.57 0.0004942677    1.816    0.449
        43  -9.6941     31.4940    137.6052   1.1327391491e+02   4.3529352179e+01      0.23348    0.1427254  36.32 0.0006560946    1.580    0.367
        44 -10.2362     25.4482    137.2054   1.1505597808e+02   4.4204191716e+01    0.3593385     0.114773  38.14  0.001484794    2.635    0.620
        45 -10.3233    110.6075    130.5321   8.8739975420e+01   3.3711507427e+01    0.3712668    0.2586627  15.19 0.0009627988    1.985    0.496
        46 -10.4632    105.9127    130.6764   9.0060711169e+01   3.4545964624e+01    0.3415774    0.3010676  80.18  0.001203423    1.199    0.166
        47 -11.4051    135.7106    127.7224   8.1598705402e+01   2.9423990881e+01    0.6124509    0.1917314 -49.96  0.001899081    3.601    0.722
        48 -10.9083    138.2686    169.7120   8.9289146706e+01   2.0652445214e+01    0.3921767     0.219219  46.05  0.001554631    1.708    0.415
        49 -10.8462     97.9761    126.5740   9.1458923413e+01   3.6915435946e+01    0.3118841    0.2601561  13.96 0.0008604784    1.430    0.301
        50 -10.0871    160.8646    127.5581   7.5720405264e+01   2.4331064718e+01    0.2941779    0.1945472 -58.31  0.001328412    1.933    0.483
        51 -10.0773    116.6955    124.6417   8.5814618548e+01   3.3853247556e+01      0.23063    0.1793292  -0.70  0.001079408    1.759    0.432
        52  -9.1565     86.4600    119.9839   9.3515994882e+01   4.0469693611e+01    0.1959178    0.1264852  88.75 0.0003819923    2.222    0.550
        53  -9.8692    107.2068    119.2186   8.7221757918e+01   3.6892120223e+01    0.2049418    0.1965227  15.95 0.0003862887    1.120    0.107
        54  -9.5905    167.9397    112.8341   7.0705872078e+01   2.5556797234e+01    0.2794276    0.1903877 -65.04  0.001222839    2.089    0.521
        55 -10.7346    135.0000    111.9715   7.8029535687e+01   3.2816172039e+01     0.412571    0.0864401 -44.52  0.001043476    4.863    0.794
        56 -14.3540     24.4995    225.9793   1.2071400376e+02   2.5408136408e+01     1.233377    0.4654489  57.86  0.003158936    2.129    0.530
        57 -15.4003      9.4493    208.1780   1.2313833621e+02   3.0124562259e+01     1.917108     1.347243 -39.30  0.004488523    2.331    0.571
        58  -9.4573    114.6117    110.2232   8.2999002320e+01   3.7444712368e+01    0.2207567     0.142295 -39.24 0.0009582515    1.691    0.409
        59 -10.3312     33.9753    108.5042   1.0895162744e+02   5.0528674562e+01    0.2215868    0.1728723 -76.00 0.0008718091    1.166    0.143
        60 -10.1829    205.4133    110.1337   6.3101810929e+01   1.8199415076e+01    0.2850612    0.2026894  42.44 0.0009047907    1.477    0.323
        61  -8.5592    139.3418    106.6596   7.5600724111e+01   3.2962401662e+01    0.1582823    0.1216338 -87.65 0.0007049086    1.774    0.436
        62  -9.9972     40.2046    113.2547   1.0746670539e+02   4.8671963418e+01     0.195805    0.1456528  68.14 0.0006751307    1.343    0.255
        63 -10.1479     42.1684    103.8702   1.0527461208e+02   5.0825534486e+01    0.2328123    0.1945917  42.79 0.0007675496    1.232    0.188
        64 -10.5171     36.3220    101.2112   1.0697827217e+02   5.2136985881e+01    0.2939309     0.220852  79.50 0.0009310124    1.347    0.257
        65 -12.1183    241.5832     99.8732   5.5500436167e+01   1.2796746572e+01     0.368068    0.1800716 -39.56  0.001092297    1.829    0.453
        66  -9.9934    125.2117     92.5212   7.5385925127e+01   3.8982274299e+01    0.3608168    0.2190432  86.80  0.001075512    4.254    0.765
        67 -10.3800     42.3098     91.8736   1.0301668936e+02   5.3844027103e+01    0.3412786    0.2042681  19.97 0.0009998179    1.973    0.493
        68 -10.2145     53.0810     90.6230   9.8584866953e+01   5.2813006688e+01    0.2956246    0.1950626 -54.81  0.001066783    1.433    0.302
        69  -8.6192    114.3288    169.3219   9.4848624535e+01   2.4788750750e+01    0.1358668    0.1064357  -3.31 0.0007048787    1.692    0.409
        70  -9.6709    159.2796     81.9489   6.4279186575e+01   3.3080680625e+01    0.2142334    0.1942619 -32.45 0.0004446997    1.100    0.091
        71  -9.6804    112.2788     81.9744   7.5887640846e+01   4.4060056460e+01    0.2833371    0.2145738  77.85  0.001277583    1.679    0.404
        72 -10.3629    243.2456     77.5819   5.0262637069e+01   1.5419688534e+01    0.1575229    0.1178644  43.47 0.0006799416    1.565    0.361
        73  -8.7215    184.6881     77.2630   5.8215889760e+01   2.7864668325e+01    0.1427817    0.1098569 -69.80 0.0002737681    1.536    0.349
        74 -10.0527     51.8529     64.1828   9.2106964881e+01   5.9409495272e+01    0.3435905    0.1917224  50.61  0.001479813    2.177    0.541
        75 -14.7987     49.6993    192.5159   1.1328826784e+02   2.9147497006e+01      2.01019      1.20604  71.13   0.00995263    1.643    0.391
        76 -10.5793     13.5300     59.9193   1.0930679712e+02   6.4463520294e+01     0.260134    0.2039309 -70.89  0.000464724    1.133    0.117
        77 -10.1428    172.5661    240.4186   9.2689953980e+01   4.5698796892e+00    0.2470477    0.1852612 -63.37  0.001496641    2.423    0.587
        78 -12.4009    193.7499     44.3668   4.7684273208e+01   3.0471215901e+01    0.6689926    0.5110606  58.38  0.001160686    1.381    0.276
        79 -10.6801    109.7596    201.2735   1.0036741473e+02   1.9396638913e+01    0.2615585    0.1921444  13.76 0.0002171637    1.624    0.384
        80 -11.0270    139.2227     44.9291   5.6688923456e+01   4.4239060853e+01    0.3780554    0.2823941 -75.62 0.0005169957    1.575    0.365
        81 -10.2548      2.3697     25.1830   1.0733900998e+02   7.3277571438e+01    0.1723856    0.1064817 -78.05 0.0004434853    1.699    0.411
        82  -9.7575    189.5149     15.0152   3.9716061308e+01   3.4969993029e+01    0.2068854    0.1769278 -88.42 0.0006277671    1.119    0.106
        83 -10.2196    142.7654     40.0946   5.4284787887e+01   4.4026332142e+01     0.264134    0.2098203  61.23 0.0002757182    1.227    0.185
        84  -9.6698     63.3125    196.6923   1.1045737203e+02   2.6659751076e+01    0.2523787    0.1260292  49.44  0.000809799    1.687    0.407
        85 -13.3462      7.7309    188.4044   1.2280599758e+02   3.4212364036e+01    0.6670153    0.3634976 -58.36  0.003850083    2.286    0.563
