#   1 NUMBER                 Running object number                                     
#   2 MAG_AUTO               Kron-like elliptical aperture magnitude                    [mag]
#   3 X_IMAGE                Object position along x                                    [pixel]
#   4 Y_IMAGE                Object position along y                                    [pixel]
#   5 X_WORLD                Barycenter position along world x axis                     [deg]
#   6 Y_WORLD                Barycenter position along world y axis                     [deg]
#   7 A_WORLD                Profile RMS along major axis (world units)                 [deg]
#   8 B_WORLD                Profile RMS along minor axis (world units)                 [deg]
#   9 THETA_WORLD            Position angle (CCW/world-x)                               [deg]
#  10 FWHM_WORLD             FWHM assuming a gaussian core                              [deg]
#  11 ELONGATION             A_IMAGE/B_IMAGE                                           
#  12 ELLIPTICITY            1 - B_IMAGE/A_IMAGE                                       
         1 -13.6241    249.1992     31.4213   2.0095089054e+01   1.8356111244e+01     1.164744    0.2725918 -26.05  0.003250808    5.245    0.809
         2 -13.8682     12.1909     22.9849   7.7647116897e+01   6.8667097341e+01    0.7158824    0.2400863 -40.26  0.003609987    2.323    0.569
         3 -12.1435      1.7411     25.1290   8.2973288829e+01   6.8870899860e+01    0.4452502    0.1193528 -59.39  0.002047162    2.886    0.653
         4 -13.8268    247.5607      7.1279   1.4400248190e+01   2.1591348342e+01     1.172886    0.5275679 -37.82  0.005442389    1.992    0.498
         5 -12.4082     13.2501     12.6925   7.3380595336e+01   7.0372107288e+01    0.3489373    0.1546597 -39.78  0.001764356    1.681    0.405
         6 -12.7143     15.6655      6.8617   6.9785031479e+01   7.1135400787e+01    0.4280188    0.2236023 -26.76  0.002368457    1.668    0.400
         7 -13.4237      6.8242     10.5298   7.5641266150e+01   7.1161288542e+01    0.7932882    0.3468865 -38.50  0.004768287    1.699    0.411
         8 -12.6622     10.3734      2.0758   7.0317178726e+01   7.2282686973e+01    0.8068752     0.189767  23.36   0.00344021    5.080    0.803
         9 -12.4870     19.8537     13.8337   7.0719766995e+01   6.9679963210e+01    0.3716129    0.1354657 -38.02  0.001896122    2.186    0.543
        10 -13.0915     24.9313      4.2446   6.4094117593e+01   7.0722968436e+01    0.5032808    0.2857145   1.78  0.003014981    2.016    0.504
        11 -11.7613     26.3826     15.8674   6.8549706149e+01   6.8785436228e+01    0.2435919    0.1057868 -35.45  0.001302126    1.907    0.476
        12 -11.8655      6.5990    236.3844   1.0531696337e+02   2.6617013103e+01    0.3695578    0.1583883  78.33  0.001768146    1.827    0.453
        13 -12.3720    249.9036    232.8804   6.4186845919e+01  -9.1271848551e+00     0.332145    0.2095519  -5.00  0.001936776    1.688    0.408
        14 -13.3997    242.9941    245.6336   6.7303974788e+01  -9.3181390094e+00    0.9758943    0.4116081  24.42  0.004676895    2.783    0.641
        15 -11.9818    249.1251    249.6233   6.6916496841e+01  -1.0612276873e+01    0.4473104    0.1744629  37.22  0.002450811    1.908    0.476
        16 -13.0538    247.4537    239.2906   6.5604043861e+01  -9.3841947418e+00     0.409712    0.2516946  -1.01  0.002322187    1.789    0.441
        17 -11.5419     74.5068    250.4975   9.5861457701e+01   1.6480366778e+01    0.3008856   0.06538715  45.93  0.001362294    3.131    0.681
        18 -12.0445     65.3064    249.0058   9.7191359682e+01   1.7922930142e+01     0.339831    0.1580137  56.05  0.001931682    1.565    0.361
        19 -11.5662     50.7630    250.1243   9.9484498188e+01   1.9569861398e+01    0.3670088    0.1002271  45.14  0.001942366    2.655    0.623
        20 -12.1617     36.8671    248.6066   1.0147069557e+02   2.1446092490e+01    0.3882188    0.1605456  60.66  0.002522884    1.770    0.435
        21 -11.8776     20.3802    249.0463   1.0387954881e+02   2.3185009763e+01    0.3151371    0.1474978  56.74  0.001794814    1.474    0.322
        22 -11.2385      3.4335    250.2543   1.0628800245e+02   2.4707816159e+01    0.2330745    0.1003677  44.93  0.001691875    1.976    0.494
        23 -11.9144     12.1991    248.9809   1.0502999312e+02   2.4039835821e+01    0.3396522    0.1361138  53.52  0.001690549    1.715    0.417
        24 -12.4504      3.4104    243.2172   1.0603461259e+02   2.5819703795e+01    0.4029726     0.175459  72.83  0.002128223    1.671    0.402
        25 -11.8685      2.2816    220.8366   1.0530893759e+02   2.9635418953e+01    0.3155933    0.1404204  89.10  0.001585183    1.761    0.432
        26 -12.3007     98.2157    244.9175   9.1609990169e+01   1.4023129433e+01    0.3137478    0.1574772  63.46  0.001837916    1.839    0.456
        27 -11.9340     73.0289    240.2447   9.5344656059e+01   1.8303748290e+01    0.2705441    0.1390186  58.78  0.001613336    1.487    0.328
        28 -10.9400     38.4015    240.6448   1.0081050881e+02   2.2552330983e+01     0.232797    0.1046345  65.89  0.001310357    1.754    0.430
        29 -12.5023     85.0505    244.3511   9.3715355949e+01   1.5997461847e+01    0.3247022    0.1414376  55.00  0.001888996    1.760    0.432
        30 -11.1050    108.1915    240.4067   8.9533946482e+01   1.3234008231e+01    0.1738728   0.07804825  52.76 0.0009533843    1.733    0.423
        31 -10.6919     64.9772    239.9859   9.6621145852e+01   1.9409154008e+01    0.1833601   0.09120192  66.79 0.0009877443    1.719    0.418
        32 -11.3783     45.2403    237.2926   9.9561939487e+01   2.2305835483e+01     0.242235    0.1272379  63.77  0.001400988    1.420    0.296
        33 -11.5595     81.6891    236.3298   9.3616010296e+01   1.7756292537e+01    0.2671595    0.1128275  60.45  0.001428579    2.141    0.533
        34 -11.3863     95.7766    235.8735   9.1212502689e+01   1.5810804342e+01    0.2398053    0.1059353  60.49  0.001256952    2.133    0.531
        35 -11.3776    231.4937    234.5125   6.7496680810e+01  -6.3865441579e+00    0.1911243    0.1039559 -14.95   0.00104275    2.439    0.590
        36 -11.9196      4.8877    228.2580   1.0523240071e+02   2.8129991899e+01     0.355736    0.1548021  73.30  0.001598256    1.743    0.426
        37 -11.5250     14.2213    231.9583   1.0400992042e+02   2.6596956731e+01    0.3247786    0.1526135  67.93  0.001841273    1.559    0.359
        38 -11.1792     11.1671    225.7176   1.0418259879e+02   2.7954123978e+01    0.3105229    0.1423641  65.70  0.001551474    1.603    0.376
        39 -11.0592     59.6668    232.1855   9.6923931415e+01   2.1386746551e+01    0.2499522    0.1144806  61.95  0.001491091    1.801    0.445
        40 -11.1836     39.6785    230.7850   1.0004060718e+02   2.4048743558e+01    0.2653089    0.1366039  74.97  0.001688264    1.613    0.380
        41 -12.2087     25.7376    228.7070   1.0210175705e+02   2.5951245975e+01    0.4401213    0.1972853  79.71  0.002783888    1.942    0.485
        42 -10.9223     48.6676    230.3356   9.8579045571e+01   2.3064418354e+01    0.2436883    0.1183003  68.11  0.001506686    1.734    0.423
        43 -11.8347    244.9803    230.0138   6.4533855649e+01  -8.0665056929e+00    0.1957228    0.1139497  16.77  0.001140508    1.719    0.418
        44 -10.4931     32.3541    229.3238   1.0110654215e+02   2.5125704513e+01    0.2191292   0.09083231  66.40  0.001142904    2.016    0.504
        45 -11.3570    237.2520    227.7406   6.5454897169e+01  -6.5885568732e+00    0.1706785   0.09073402 -14.97 0.0009009029    2.431    0.589
        46 -10.7000     32.9680    236.1317   1.0138971163e+02   2.3911613776e+01    0.2282889   0.08875424  66.87   0.00132621    2.213    0.548
        47 -12.2495    248.9755    225.0968   6.3065993465e+01  -8.1854997924e+00    0.2921735    0.1679708 -24.32  0.001768986    1.910    0.476
        48 -11.4330     18.6491    221.8033   1.0284246516e+02   2.7879332287e+01    0.2596203    0.1257259  75.17  0.001675756    1.630    0.387
        49 -10.6127     54.6746    222.3239   9.7037261530e+01   2.3713741196e+01      0.11799   0.05999175  67.81 0.0004807389    1.689    0.408
        50 -10.9797     43.8869    221.6148   9.8780504797e+01   2.5143871581e+01    0.2228791    0.0906764  54.39  0.001304982    1.902    0.474
        51 -11.3849     34.8309    217.6456   1.0001341014e+02   2.6883822153e+01     0.281177    0.1341647  78.06  0.001716566    1.874    0.466
        52 -12.0247     12.1137    216.8297   1.0361431760e+02   2.9399532773e+01    0.3705719    0.1796067  66.35  0.002092134    1.544    0.352
        53 -10.7260     24.1923    217.2713   1.0172017035e+02   2.8101012924e+01    0.2084027   0.08984251  73.85  0.001237412    2.042    0.510
        54 -12.1137    248.6973    214.5874   6.1328493281e+01  -7.0094195664e+00    0.3172422    0.1788704 -13.41  0.001758583    2.028    0.507
        55 -11.7268      2.6104    212.4035   1.0488988078e+02   3.1073601263e+01    0.3071135    0.1484632  82.17  0.001614749    1.566    0.361
        56 -10.7958     28.9537    211.2505   1.0058640205e+02   2.8674987391e+01    0.2003019    0.1011317  82.06  0.001243873    1.682    0.405
        57 -10.8390     21.3855    211.2588   1.0183473798e+02   2.9465724634e+01    0.2126357    0.1224451  81.87   0.00151847    1.330    0.248
        58 -10.0416     36.4874    207.9765   9.9103210588e+01   2.8448491026e+01    0.1558115   0.06633358  78.17 0.0006529195    2.444    0.591
        59 -12.5968     12.7987    205.4782   1.0292063939e+02   3.1363908384e+01    0.4347342    0.1916511  65.78  0.002751678    1.820    0.451
        60 -10.9474      1.6290    205.4695   1.0472643707e+02   3.2397333497e+01    0.1915475   0.09454533 -81.41  0.001110723    1.623    0.384
        61 -12.3632      3.4975    196.9660   1.0400842156e+02   3.3782136665e+01    0.3491648    0.1541199  75.84  0.001983834    1.848    0.459
        62 -11.7422     17.5169    195.7415   1.0157072967e+02   3.2712321867e+01    0.2524928    0.1038072  49.76  0.001538145    2.016    0.504
        63 -12.6131      4.2348    188.7516   1.0345181437e+02   3.5252935979e+01    0.4259071    0.1642821  67.25  0.002426565    2.282    0.562
        64 -11.6286     16.5830    189.0620   1.0131932262e+02   3.4071642176e+01    0.2835988    0.1251935  74.18  0.001634161    2.051    0.512
        65 -10.5674     24.1944    186.0353   9.9751599385e+01   3.3915020768e+01    0.1887183   0.08887154  76.44  0.001077975    1.956    0.489
        66 -12.4654     11.5848    184.2674   1.0190627171e+02   3.5458354664e+01    0.3043921    0.1298101  85.48  0.001736543    2.070    0.517
        67 -10.7830     17.3795    181.2140   1.0066252011e+02   3.5517914494e+01    0.1573015   0.07714187  89.45 0.0009501847    1.697    0.411
        68 -10.6478     23.4877    179.9846   9.9447349156e+01   3.5173657547e+01    0.1613047   0.06789717  79.23  0.000809693    2.474    0.596
        69 -10.3623     11.6466    172.3170   1.0112150134e+02   3.7795126398e+01    0.1166872   0.05836392  68.65 0.0007046451    1.742    0.426
        70 -12.3817      6.5943    171.2243   1.0199299182e+02   3.8444468250e+01    0.2499736    0.1024999 -81.40  0.001443646    1.925    0.481
        71 -11.5158     11.1208    166.8517   1.0084374999e+02   3.8933681988e+01    0.1792352    0.1105445  75.31  0.001239665    1.307    0.235
        72 -12.1029      1.8919    178.1437   1.0326926171e+02   3.7480577130e+01    0.2859008    0.1151602 -83.98  0.001682896    1.953    0.488
        73 -11.3903      5.6913    161.0009   1.0148447369e+02   4.0562988067e+01    0.1599705    0.1064345  89.36  0.001163303    1.104    0.094
        74 -11.6973     10.1399    155.4345   1.0019991862e+02   4.1337465147e+01    0.2367303    0.1104153  85.02  0.001342202    1.929    0.482
        75 -11.7087      4.0299    153.2064   1.0126338424e+02   4.2276706212e+01    0.2046106    0.1200629 -82.85  0.001395159    1.280    0.218
        76 -11.6243      4.2595    136.6391   9.9931583783e+01   4.5690701177e+01    0.2139709    0.1031378 -86.99  0.001219585    1.704    0.413
        77 -11.1373      3.2082    127.7272   9.9396114055e+01   4.7638621895e+01    0.2808133    0.1141722  88.72  0.001407164    2.450    0.592
        78 -11.1743      5.9847    122.4695   9.8264568934e+01   4.8566939920e+01    0.2510688    0.1077054  86.97  0.001258316    2.446    0.591
        79 -11.1395    248.6084    118.2382   4.1487150378e+01   5.9818439208e+00    0.2041871     0.128944 -20.40 0.0009538329    1.640    0.390
        80 -11.3290    249.4900     97.9751   3.6497190053e+01   8.8700959944e+00    0.2271288    0.1324522 -32.28  0.001035481    1.600    0.375
        81 -10.7279    248.3067     92.6531   3.5375637503e+01   9.9403457272e+00    0.1489543    0.1063047 -60.13 0.0007042922    1.699    0.412
        82 -10.6001    249.3219     87.6633   3.4000780184e+01   1.0464648604e+01    0.1494447    0.1058601 -61.43 0.0007050472    1.712    0.416
        83  -9.8718      9.3224     68.3368   9.0110266658e+01   5.9925082521e+01     0.120872   0.06260485 -44.72 0.0007050619    1.713    0.416
        84 -12.4721      3.1081     49.6526   8.8591306192e+01   6.4080328713e+01    0.4738138    0.1499519 -61.74  0.002377995    2.198    0.545
        85 -10.7029     16.0000     47.9772   8.3390008220e+01   6.3692372081e+01    0.1963894   0.05137409 -60.33 0.0008081972    2.983    0.665
        86 -11.1210      8.4247     43.7050   8.5223658407e+01   6.4988539135e+01    0.2193914   0.09101363 -65.21  0.001141428    2.126    0.530
        87 -12.1980    226.1018    248.1603   7.0441608411e+01  -6.9530232170e+00    0.2568049    0.1579139  21.84  0.001641916    1.514    0.339
        88 -12.1967     12.6993     36.7230   8.1685984675e+01   6.6094253719e+01    0.3239066    0.1238654 -58.14  0.001678454    2.066    0.516
        89 -12.2611      3.6092     32.7005   8.4317395129e+01   6.7365348673e+01    0.5770037   0.03232121 -48.62  0.002167511    4.104    0.756
        90 -12.0620    212.9411    247.7307   7.2563150256e+01  -4.8122147939e+00    0.3694032    0.1878133  22.82  0.001912649    2.426    0.588
        91 -11.5599     18.8927     30.6960   7.7287448263e+01   6.6811635498e+01    0.2792241    0.1182973 -36.50  0.001472305    2.080    0.519
        92 -10.8155     27.2472    248.5806   1.0287368630e+02   2.2522836652e+01    0.2319599    0.1018964  59.46  0.001068254    1.587    0.370
        93 -11.4711     77.3470    246.6369   9.5130963745e+01   1.6699978660e+01     0.175653    0.0907553  65.68  0.001105442    1.649    0.394
        94 -11.6730     45.1004    245.0341   1.0004284127e+02   2.1058847522e+01    0.3143124    0.1500554  62.35  0.001649995    1.556    0.357
        95 -13.0524    234.4082    244.2196   6.8494047513e+01  -7.8560414051e+00    0.3552625    0.2129836  14.61  0.002067931    1.759    0.431
        96 -10.9828    116.2372    244.4075   8.8564279388e+01   1.1389999663e+01    0.1733573   0.07849403  52.32 0.0009562511    1.705    0.414
        97 -12.4080     57.0799    241.9326   9.8004289473e+01   2.0099647420e+01    0.4150954    0.1600357  57.75    0.0023981    2.018    0.505
        98 -12.0340     29.6908    240.7468   1.0212848131e+02   2.3514584828e+01    0.3504394    0.1622224  70.24  0.001750957    1.700    0.412
        99 -12.3814     16.0472    240.4225   1.0412181568e+02   2.5016140305e+01    0.4823337    0.1846981  56.32  0.002580682    1.819    0.450
