#   1 NUMBER                 Running object number                                     
#   2 MAG_AUTO               Kron-like elliptical aperture magnitude                    [mag]
#   3 X_IMAGE                Object position along x                                    [pixel]
#   4 Y_IMAGE                Object position along y                                    [pixel]
#   5 X_WORLD                Barycenter position along world x axis                     [deg]
#   6 Y_WORLD                Barycenter position along world y axis                     [deg]
#   7 A_WORLD                Profile RMS along major axis (world units)                 [deg]
#   8 B_WORLD                Profile RMS along minor axis (world units)                 [deg]
#   9 THETA_WORLD            Position angle (CCW/world-x)                               [deg]
#  10 FWHM_WORLD             FWHM assuming a gaussian core                              [deg]
#  11 ELONGATION             A_IMAGE/B_IMAGE                                           
#  12 ELLIPTICITY            1 - B_IMAGE/A_IMAGE                                       
         1 -13.2133    186.4949     22.6413   7.2357935136e+01   3.4990116473e+01     1.591407     1.169773  -3.35  0.006162806    1.623    0.384
         2 -13.0684    192.7235     16.4210   6.9748054484e+01   3.3993237891e+01      1.37731    0.8800839 -49.34  0.004985768    1.507    0.336
         3 -13.2928    199.4845      9.1830   6.6934030065e+01   3.2936550831e+01     1.461702    0.8597211  55.65   0.00186398    1.772    0.436
         4 -12.1125     32.6732      8.9231   1.1214396162e+02   7.4066141878e+01     1.068327    0.3097452 -46.70  0.004008718    3.214    0.689
         5 -10.1748    121.3121    244.4449   1.3303179624e+02   1.2767842837e+01    0.2855422    0.1464178  58.80  0.001595949    2.470    0.595
         6  -8.2937    234.6601    250.3153   1.1423351731e+02  -2.9462235441e+00   0.08847263   0.06831855  35.97 0.0007047908    1.703    0.413
         7 -10.5760    143.8605    249.3081   1.2936830625e+02   9.0816030171e+00    0.2058853     0.155799  38.98  0.001196522    1.125    0.111
         8 -10.5741    134.4255    249.3819   1.3108166333e+02   1.0353900688e+01    0.3067885    0.1479641  39.98  0.001899653    1.440    0.306
         9 -11.5566    109.0723    248.3099   1.3563539219e+02   1.3880886512e+01    0.4962396    0.2258969  39.65  0.003014326    1.502    0.334
        10 -10.9369     98.8201    246.3037   1.3737913231e+02   1.5492407898e+01    0.5086684    0.1152895  42.97  0.002280467    2.811    0.644
        11 -11.5714     87.7071    249.0798   1.3964335631e+02   1.6512107736e+01    0.4211297    0.2974575  86.02   0.00320419    1.757    0.431
        12 -10.9628     81.6606    247.0720   1.4062808149e+02   1.7548540474e+01    0.3680911    0.2460924 -87.64  0.002723011    1.885    0.470
        13 -10.8477     86.3313    236.7118   1.3902269457e+02   1.8492680744e+01    0.1947093    0.1243781  50.36 0.0005011012    1.189    0.159
        14 -12.2343     51.6495    228.3370   1.4522874297e+02   2.4006818422e+01     0.373315    0.3392547 -55.83 0.0009773551    1.640    0.390
        15 -16.2705     59.9398    215.4225   1.4280067786e+02   2.5220379709e+01     22.15029     8.202294  85.20   0.08702327    5.115    0.805
        16 -10.1164    149.9933    222.3192   1.2525357392e+02   1.1665301209e+01     0.177055    0.1586093  18.05 0.0001797491    1.236    0.191
        17 -11.5357    142.1245    220.4632   1.2655464422e+02   1.3094831307e+01     0.363648    0.3193536 -76.40  0.002268387    1.588    0.370
        18  -9.5202    104.9291    218.7125   1.3380402021e+02   1.8781467649e+01    0.2928668    0.1687438 -80.51  0.001641682    2.629    0.620
        19  -8.6432    110.9201    222.5167   1.3296435450e+02   1.7344014367e+01    0.1853002   0.08935494  37.66  0.001021634    1.559    0.358
        20 -10.4050     91.2279    219.2383   1.3665086204e+02   2.0586993480e+01    0.3659507    0.2418591  45.21    0.0013549    1.122    0.108
        21 -12.9118     45.7241    246.3443   1.4721077939e+02   2.1818247453e+01    0.7458545    0.4698392  32.67  0.003325908    1.489    0.328
        22  -9.9524    100.7478    211.9584   1.3400671192e+02   2.0463168439e+01    0.4182689    0.2461976  36.36  0.001972125    1.374    0.272
        23 -11.8167     40.5918    213.1546   1.4665256871e+02   2.7816937456e+01    0.3481014    0.2991907  89.04  0.002761519    1.365    0.268
        24  -9.0867    221.3663    245.3053   1.1565616111e+02  -8.7314664446e-01    0.1117097   0.05843112  16.48 0.0007036193    1.745    0.427
        25  -8.7883    233.4572    216.5218   1.0968216241e+02   2.2535250073e-01     0.111687   0.07921481  16.46 4.052257e-05    1.011    0.011
        26  -9.5232    183.5568    214.1461   1.1786951575e+02   7.6628679544e+00    0.2657298     0.159874  52.09 0.0009040659    2.117    0.528
        27  -9.5971    177.5284    218.4197   1.1956845847e+02   8.0443824106e+00    0.2189992    0.2032119  27.93  0.001105129    1.332    0.249
        28  -9.0017    152.0367    212.0500   1.2356737258e+02   1.2774173478e+01    0.1900661     0.167036  12.29 0.0007995933    1.235    0.190
        29  -9.9854    105.0214    222.8218   1.3417801757e+02   1.8124913826e+01    0.2552413     0.175763  17.65 0.0008939616    1.840    0.456
        30 -10.2070    152.4805    243.6975   1.2722981086e+02   8.5736852102e+00    0.1532131    0.1138723 -55.94  0.001123735    2.026    0.506
        31 -11.3295    146.1473    240.4267   1.2803519867e+02   9.8600609214e+00      0.28531    0.1922264  37.25 0.0004277664    1.064    0.061
        32  -8.9048    134.6558    208.3285   1.2657653186e+02   1.6005860002e+01    0.2271448    0.1574825   7.77  0.000918046    2.011    0.503
        33  -8.1901    197.6876    208.2570   1.1445797798e+02   6.2344870573e+00    0.1056399    0.0816568  45.96 0.0001932571    1.528    0.345
        34 -10.0631    174.9585    205.5732   1.1824151587e+02   1.0081603455e+01    0.2750741     0.198548  15.76  0.001480592    1.346    0.257
        35  -9.9340     93.4758    204.7038   1.3483444636e+02   2.2716906579e+01    0.5610222    0.2407386  51.19  0.002750818    2.080    0.519
        36  -9.0718     88.9934    204.5036   1.3578128224e+02   2.3377607829e+01    0.2536728    0.1275146  43.75 0.0008563033    1.515    0.340
        37 -10.4490    166.4956    206.4610   1.1998968264e+02   1.1294077736e+01     0.454983     0.169606  49.21  0.001830475    3.274    0.695
        38  -9.3742    166.9891    202.9945   1.1939857000e+02   1.1692681015e+01    0.1742547    0.1380227  31.97 0.0005358804    1.032    0.031
        39  -9.1514    125.8914    205.5752   1.2804802590e+02   1.7783190446e+01     0.191929    0.1432879  51.92 0.0005859681    1.239    0.193
        40  -8.1960    114.4418    206.5045   1.3055605383e+02   1.9367077506e+01    0.1237289   0.09678565  42.67 5.168591e-05    1.014    0.014
        41 -10.2568    115.8045    240.0867   1.3366928811e+02   1.4107319501e+01    0.2113622    0.1544604  55.18 0.0009172346    1.316    0.240
        42 -12.4792     43.0578    237.1761   1.4730378213e+02   2.3527720967e+01    0.3708079     0.273888  28.52  0.000303752    1.537    0.350
        43  -9.9428    248.6649    205.1587   1.0554772766e+02  -7.2439425812e-01    0.2197039   0.09894808  28.95 0.0007558687    1.843    0.458
        44  -9.0139    148.4935    205.2104   1.2336838339e+02   1.4313751059e+01    0.1995941    0.1421608  25.13   0.00072796    1.309    0.236
        45  -9.8307    108.6423    202.9360   1.3138934867e+02   2.0823992569e+01    0.2490887    0.2035845 -33.90 0.0009208173    1.685    0.407
        46 -10.8799    249.6267    241.7862   1.1083295391e+02  -4.0415316522e+00    0.2144842    0.1798854 -31.10  0.001782619    2.168    0.539
        47  -8.9962    103.2248    203.4050   1.3260339902e+02   2.1542196750e+01    0.2124144    0.1654458  14.67 0.0009660543    1.618    0.382
        48 -10.3476    133.2745    202.5259   1.2613122563e+02   1.7120277751e+01    0.2246526    0.1987885  13.90 0.0002144575    1.268    0.211
        49  -8.4791    224.5385    202.4154   1.0893698432e+02   2.9070263982e+00    0.1155266   0.08642906  18.51 0.0001332008    1.025    0.025
        50 -10.2563    196.8829    200.6057   1.1342946788e+02   7.2794466237e+00     0.298842    0.2144246  42.50  0.001923105    1.412    0.292
        51 -10.8394    101.1607    250.1775   1.3724213867e+02   1.4654796492e+01    0.4932162    0.1136493  36.11  0.002130759    3.065    0.674
        52  -8.8750    192.0314    198.2082   1.1393674646e+02   8.3398113460e+00    0.1699625    0.1307898  28.03 0.0004750945    1.050    0.047
        53  -8.8432    169.6748    200.1362   1.1845837174e+02   1.1658655914e+01    0.1630231    0.1363959  22.39 0.0003819862    1.092    0.084
        54  -8.7671    123.0431    200.5004   1.2802868209e+02   1.9042209798e+01    0.1925562     0.100423  38.28 0.0004542246    1.519    0.342
        55  -9.9005    141.5339    198.2493   1.2384919256e+02   1.6479001061e+01    0.2957564    0.2017822  14.65 0.0009840354    1.804    0.446
        56  -9.3901    100.7032    198.1511   1.3258386623e+02   2.2821227690e+01    0.2010321    0.1648218  40.21  0.000262442    1.112    0.101
        57 -11.3907    134.5220    235.7094   1.2970574609e+02   1.2107815772e+01    0.2415267    0.2047651 -79.44  0.001847755    1.683    0.406
        58  -9.1775    173.3661    239.6834   1.2303060858e+02   6.1291002360e+00    0.1996367    0.1699027 -70.54  0.001071306    2.049    0.512
        59  -9.2872    119.0410    236.5229   1.3272550090e+02   1.4159677475e+01    0.2153091    0.1485131  74.43  0.001247242    1.979    0.495
        60  -8.8991    134.9406    195.7095   1.2488630254e+02   1.7942603214e+01    0.2793257    0.1481096 -31.54  0.001271321    3.200    0.687
        61  -9.9845    104.0361    237.7359   1.3570292104e+02   1.6026421897e+01    0.1626434    0.1087909  41.72 0.0006158414    1.065    0.061
        62 -11.0943     73.8927    194.5843   1.3819238215e+02   2.7218658203e+01    0.3324624    0.2658769 -50.73  0.001659111    1.670    0.401
        63 -11.0617     78.5276    187.7235   1.3649132127e+02   2.7892545293e+01    0.2560702     0.239787 -37.39 0.0008773732    1.444    0.308
        64  -8.7327    114.2717    196.2066   1.2939214935e+02   2.1118014502e+01    0.2129767   0.07076563  43.96 0.0005070141    2.401    0.584
        65  -8.2096    217.7386    194.9834   1.0887130870e+02   4.7358655500e+00    0.1259937   0.09261359 -14.92  0.000236377    1.375    0.273
        66 -10.5012    172.9545    193.5077   1.1681447859e+02   1.2050890198e+01    0.3763085    0.2404972 -16.12  0.001586539    2.096    0.523
        67  -8.2612     82.2625    194.2969   1.3628380390e+02   2.6143433814e+01     0.103991   0.09383776   2.16 0.0006910074    1.508    0.337
        68  -9.7626    191.5627    191.3571   1.1292795496e+02   9.2963810211e+00     0.232092    0.1886146  28.97 0.0005821231    1.098    0.090
        69 -11.4758     96.3208    239.0731   1.3728751688e+02   1.6851485876e+01    0.3625379    0.2565916  57.48  0.001884907    1.290    0.225
        70  -9.1919    135.7091    189.8584   1.2391581745e+02   1.8773172083e+01    0.2538546    0.1857162  12.34  0.001128126    1.687    0.407
        71  -8.2647    197.9839    189.7708   1.1148669003e+02   8.4607683208e+00    0.1595536   0.08501804  37.46 0.0003259336    1.559    0.358
        72 -10.2816    117.2262    224.4090   1.3189533313e+02   1.6162812251e+01    0.3460136    0.1653203  35.06  0.001906043    1.647    0.393
        73 -10.0921    250.0959    187.3596   1.0238582199e+02   8.1978739727e-01    0.2622744    0.1274887 -16.46  0.001470895    2.085    0.520
        74 -11.1516     98.8084    231.4091   1.3617910001e+02   1.7660081426e+01    0.3422088    0.2627543  28.07  0.001016888    1.352    0.261
        75  -9.9506    159.8464    194.2172   1.1952332504e+02   1.4108019553e+01    0.2509136    0.1759776  43.83 0.0003103624    1.264    0.209
        76  -8.6208    110.3106    233.6436   1.3413625885e+02   1.5770371423e+01    0.1646684   0.08153187  46.07  0.000961483    1.535    0.349
        77  -8.8194     67.5030    186.4798   1.3892812106e+02   2.9600007509e+01    0.1239841   0.09939027  53.88 0.0001661324    1.025    0.024
        78  -8.5486     88.4754    183.4911   1.3373550689e+02   2.7301373216e+01    0.3154195    0.1169374  53.65  0.001242561    2.953    0.661
        79 -11.6568    111.4295    229.3420   1.3352032165e+02   1.6246083819e+01    0.6777764    0.2360105  38.03  0.003233239    2.071    0.517
        80  -9.5063    134.8726    179.4464   1.2258033622e+02   2.0672509002e+01    0.2858945    0.1583309 -55.77  0.001419314    2.272    0.560
        81  -9.7243     37.0235    179.5593   1.4554280702e+02   3.4563958806e+01    0.1992181    0.1488986  79.63 0.0003896457    1.211    0.175
        82  -8.8721    128.9110    179.3094   1.2388858714e+02   2.1704547098e+01    0.1845737    0.1409037  40.62 0.0002595077    1.088    0.081
        83 -10.3149    101.4175    241.9610   1.3654991319e+02   1.5767439091e+01    0.2442196    0.1121976 -70.45    0.0013743    3.294    0.696
        84 -11.1787     87.1120    176.0475   1.3320912379e+02   2.8949755810e+01    0.4300226    0.2459525  33.07  0.002228237    1.646    0.393
        85 -10.6204     74.3087    173.4779   1.3603188072e+02   3.1282676582e+01    0.4033604    0.2577271 -46.54  0.002039257    2.109    0.526
        86 -10.8794    248.8992    171.3048   9.9731357351e+01   2.6630487537e+00    0.3105739    0.2511156  40.20  0.002172639    1.535    0.349
        87  -8.8449    100.6081    170.2276   1.2921074281e+02   2.8044918972e+01    0.2032389    0.1422143  36.69  0.000244933    1.292    0.226
        88 -10.1199    121.7498    232.4532   1.3181350651e+02   1.4354766684e+01    0.2159317     0.150121  17.99  0.001025589    1.692    0.409
        89  -9.9440    107.4593    168.2887   1.2728112234e+02   2.7323833641e+01    0.3110975     0.195159  26.85  0.001142538    1.762    0.433
        90  -9.6401     84.9541    166.5034   1.3258691103e+02   3.1193784667e+01    0.3579092    0.1849911 -68.53 0.0003645213    2.198    0.545
        91  -8.2267     92.4749    232.4615   1.3750451307e+02   1.8340931272e+01    0.1146168   0.08285599  44.42 0.0008088052    1.020    0.020
        92  -9.1804    175.8673    166.1427   1.1161644495e+02   1.5583491773e+01    0.1918225    0.1674473  47.00 0.0002573955    1.238    0.192
        93 -14.4047     26.4455    248.3229   1.5074414322e+02   2.3508380166e+01     0.984093     0.516939  32.53  0.006915038    1.683    0.406
        94  -8.0579    124.3263    165.2896   1.2279278745e+02   2.5047933962e+01    0.1320559    0.1032555  10.31 0.0002308585    1.614    0.380
        95 -11.4636     92.8276    167.2210   1.3071704061e+02   2.9859631515e+01    0.6055921    0.4455781 -36.20  0.002582913    1.888    0.470
        96 -11.1384    244.7160    161.8868   9.8619676095e+01   4.3347089515e+00     0.335743    0.2045734   6.78   0.00192963    1.678    0.404
        97 -10.1906    249.4996    160.5151   9.7638780999e+01   3.7474230429e+00    0.2774146    0.1044118 -23.20  0.001259984    2.717    0.632
        98 -11.2080    243.6174    155.0089   9.7470674431e+01   5.2922328180e+00    0.2663389    0.2278832  45.90  0.001807843    1.524    0.344
        99  -8.5723    203.6465    160.7009   1.0525273610e+02   1.1361288630e+01    0.1625095    0.1175267 -35.82  0.000704013    1.550    0.355
       100  -9.9564     96.4042    159.7656   1.2879573415e+02   3.0823956232e+01    0.3306537    0.1854736 -55.47  0.001618487    1.995    0.499
       101  -8.0471    171.4722    159.4116   1.1126296191e+02   1.7452340125e+01    0.1363833    0.1174505  33.03  0.000107745    1.043    0.041
       102  -8.7931    119.9589    158.9801   1.2281571722e+02   2.7022756589e+01    0.2060848    0.1515706  66.44 0.0003969691    1.532    0.347
       103  -8.5949     82.5873    159.2275   1.3226326187e+02   3.3063192217e+01    0.1653526    0.1238724 -57.18 0.0004178016    1.519    0.342
       104  -8.7275     59.1774    159.5109   1.3839335113e+02   3.6215031185e+01    0.1797281    0.1125941  37.84 0.0004763277    1.446    0.309
       105 -15.1786     10.1067    248.1215   1.5359444439e+02   2.5085530997e+01     2.625883    0.9347949  87.62   0.01182676    2.893    0.654
       106  -8.4232    115.5641    157.4785   1.2364563793e+02   2.8087124166e+01    0.1387575    0.1214859  48.43 0.0001273868    1.007    0.007
       107  -8.7841     88.8855    156.8634   1.3031339957e+02   3.2610699964e+01    0.1861055    0.1725033  33.32 0.0002763721    1.203    0.168
       108  -9.4511     74.6780    156.7057   1.3400616729e+02   3.4748048504e+01    0.3178744    0.1381552  46.19 0.0008900289    1.991    0.498
       109  -8.7544    134.4818    155.9014   1.1880880955e+02   2.4993979565e+01    0.1865285    0.1410666 -50.29  0.000383815    1.511    0.338
       110  -8.4065    124.9470    154.2120   1.2079539838e+02   2.7062316395e+01     0.189605    0.1010762  41.53 0.0003466169    1.643    0.391
       111  -9.0145    113.8915    152.3069   1.2320528734e+02   2.9417056019e+01    0.2263327    0.1897583 -84.15 0.0006056216    1.350    0.259
       112 -10.8358    249.6113    150.2526   9.5646419631e+01   4.8803358416e+00    0.2696659    0.2404686 -33.16  0.001887206    1.484    0.326
       113  -8.6764    146.1071    152.1326   1.1541265586e+02   2.3509025181e+01    0.1871125    0.1552634  60.69  0.001034753    1.303    0.233
       114  -9.6522    103.7634    150.7564   1.2553441342e+02   3.1485646061e+01    0.3378527     0.283445 -21.37  0.001792708    1.581    0.367
       115  -8.9857    106.5927    145.9173   1.2399261715e+02   3.2014022779e+01    0.3076055    0.2237964 -15.13 0.0006581258    2.212    0.548
       116  -8.5317    119.8314    151.1937   1.2152776651e+02   2.8583127409e+01    0.1727066     0.159042   3.43  0.000307635    1.263    0.208
       117 -10.1164    182.2778    176.6549   1.1221999335e+02   1.2876435728e+01    0.2738947    0.1945139  20.66  0.001363333    1.338    0.253
       118 -13.7087      2.1069    242.8866   1.5488248185e+02   2.6599287921e+01     1.468099    0.1706037 -86.55  0.002537179    9.778    0.898
       119 -12.5876     67.6349    143.6874   1.3425849200e+02   3.8605824782e+01    0.8524173    0.5922942  85.52   0.00424577    1.498    0.333
       120 -11.3252     73.2265    139.7638   1.3214127714e+02   3.8707645131e+01     0.485458    0.4044509  75.87   0.00169125    1.130    0.115
       121  -8.5016     86.0101    147.5509   1.2973545015e+02   3.5056914072e+01    0.1976237    0.1232962  38.51 -4.182274e-05    1.468    0.319
       122 -10.9448     21.3494    144.3283   1.4727108944e+02   4.3622257889e+01     0.227426    0.1719295 -72.63  0.001296094    1.354    0.262
       123 -10.0742    142.6912    228.5011   1.2737464187e+02   1.1905150688e+01    0.2405259    0.1865836  87.52  0.001342025    2.025    0.506
       124 -11.2592    249.0512    140.7213   9.3831018024e+01   6.0671690407e+00    0.6199194    0.2737643  34.05  0.002980242    2.363    0.577
       125 -11.7428    248.8069    136.0081   9.2906036449e+01   6.6592104821e+00    0.6828827    0.6324787 -53.09  0.004704018    1.551    0.355
       126 -11.1578    248.5050    132.0127   9.2123955840e+01   7.1820101695e+00    0.4115713     0.280766 -13.58  0.002472727    1.315    0.240
       127  -9.5566    190.9307    227.9980   1.1845357486e+02   4.9603053881e+00    0.1692573    0.1241477  27.31 0.0003131359    1.038    0.036
       128  -9.7751    164.4814    225.9608   1.2296620867e+02   9.0430702679e+00    0.2099967    0.1174257 -46.50 0.0008609659    2.450    0.592
       129  -9.3415    119.2752    138.2048   1.1928529192e+02   3.1327852157e+01    0.2340487    0.1831383  33.98 0.0004193355    1.257    0.204
       130 -10.9968     59.1434    134.5784   1.3550418735e+02   4.1823651573e+01     0.511637    0.2077712 -71.70  0.001762878    2.569    0.611
       131  -9.5198    163.9223    221.3053   1.2248057577e+02   9.7185547552e+00    0.1835238    0.1487077   5.31 0.0009754237    1.340    0.254
       132 -10.1296    113.1726    136.2845   1.2051467791e+02   3.2866271663e+01    0.4208135    0.2897233  43.73  0.001640331    1.320    0.242
       133 -10.3916    133.3348    142.2825   1.1654132479e+02   2.7824365888e+01    0.7686935    0.2868297 -53.00  0.002740885    3.254    0.693
       134  -9.2172    137.0900    134.1183   1.1396622422e+02   2.8685455321e+01    0.2149545    0.1863539  21.19 0.0002715212    1.221    0.181
       135 -11.5369     45.0323    129.8973   1.3914267770e+02   4.4617929371e+01    0.5093939    0.2791978 -79.23   0.00202489    1.780    0.438
       136  -8.5597    129.8400    132.1455   1.1536041333e+02   3.0525651687e+01    0.1927158    0.1662966  17.85  0.001026789    1.284    0.221
       137 -10.7070    136.5384    227.1731   1.2840709410e+02   1.2981231972e+01     0.238054    0.1371736  34.54   0.00145454    1.330    0.248
       138  -8.5227    107.9614    130.4752   1.2079422233e+02   3.5070054773e+01    0.2153009    0.1104632  58.44 0.0008092777    2.485    0.598
       139 -10.8989     32.7896    127.2268   1.4258321463e+02   4.6521486167e+01    0.4147565    0.1936866  89.89  0.001758317    2.218    0.549
       140  -9.0622    118.4994    128.5090   1.1754781941e+02   3.3501977698e+01    0.1468437    0.1364973  40.73 -6.952403e-05    1.063    0.060
       141  -8.2575     93.4172    127.4887   1.2431362219e+02   3.8313593239e+01    0.1439013     0.130109  66.53 5.653584e-05    1.032    0.031
       142  -8.9136     86.0277    126.6266   1.2630995022e+02   3.9743828193e+01    0.2378853    0.2019422   7.65   0.00108728    1.501    0.334
       143  -9.9601     66.1406    126.2258   1.3221661831e+02   4.2842359380e+01     0.251985    0.1961399  82.84  0.001088884    1.268    0.211
       144  -9.5244    209.8850    125.6693   9.6834983348e+01   1.5133941023e+01    0.2389613    0.1837138 -27.22 0.0005114871    1.280    0.219
       145  -9.8253    155.8915    231.9618   1.2528781543e+02   9.5392768257e+00    0.2089957    0.1255636  33.64  0.001338573    1.232    0.189
       146 -10.2440    249.4406    117.7607   8.8970742358e+01   8.7252179872e+00    0.2123875     0.177237  20.91 0.0006629347    1.170    0.146
       147 -11.4555    248.5380    112.5817   8.7965877930e+01   9.5123579364e+00    0.4605509    0.3504042 -10.32   0.00202267    1.172    0.147
       148  -8.7945    238.4886    122.0217   9.1450797421e+01   1.0164458030e+01    0.1940062    0.1144348 -25.65 0.0004862127    1.554    0.357
       149  -8.6750     50.2996    122.6608   1.3661641534e+02   4.5728942248e+01    0.1439391   0.08891016  66.26 0.0007035242    1.664    0.399
       150 -11.6676     32.5807    115.4045   1.4141549527e+02   4.9362792156e+01    0.8528035     0.175955 -73.63  0.002670921    4.455    0.776
       151  -8.8427    130.6364    118.8852   1.1223998469e+02   3.3063972667e+01    0.1964776     0.141496 -60.92 0.0001359416    1.613    0.380
       152  -8.7641     85.4160    117.8285   1.2484374514e+02   4.1874489189e+01    0.3477699     0.136402  49.29  0.001239513    2.715    0.632
       153  -8.6892    112.0093    116.0573   1.1663262547e+02   3.7441078331e+01    0.1761242    0.1678198  64.45 0.0003440482    1.024    0.023
       154  -9.7937    168.4480    113.3066   1.0192637249e+02   2.5896920835e+01    0.3599877    0.2805696  83.83  0.001395305    1.783    0.439
       155  -9.1617     82.2680    114.0497   1.2507381483e+02   4.3274766555e+01    0.1965989    0.1787044  89.43 0.0001806255    1.068    0.064
       156 -10.7707     60.4840    112.9914   1.3188414816e+02   4.6769332521e+01     0.353367    0.2751551  52.19  0.001963634    1.227    0.185
       157 -10.1527     58.0132    109.4773   1.3211220722e+02   4.7946009121e+01     0.268962    0.1944958  39.26  0.000923758    1.373    0.272
       158  -8.7223     79.9468    108.7587   1.2473998372e+02   4.4898520117e+01    0.1962066     0.173532  59.23 0.0002418506    1.077    0.071
       159  -9.7569     70.0460    111.0340   1.2840255422e+02   4.5893759872e+01    0.2120053    0.1937793  72.01 0.0002955974    1.016    0.016
       160 -10.9066    248.2400     99.7712   8.5149548781e+01   1.1128264930e+01    0.4962252    0.3352858   8.65  0.002719436    1.682    0.405
       161  -9.3857    134.4852    104.5322   1.0773215278e+02   3.5160219572e+01    0.3143835    0.1531552 -43.73   0.00120858    2.158    0.537
       162  -9.0619    112.4884    104.4673   1.1375093158e+02   3.9875729861e+01    0.1509237    0.1442563  51.93 0.0001271273    1.028    0.027
       163  -9.5711     76.2216     98.9789   1.2387374951e+02   4.7823084354e+01     0.229585    0.2002411  46.99 0.0004088999    1.135    0.119
       164 -10.6180     98.4257    222.9194   1.3551458115e+02   1.9020089984e+01    0.3022676    0.2205058  46.30 0.0003588437    1.031    0.030
       165  -8.7406    102.0074     87.9937   1.1257719140e+02   4.5644041444e+01    0.2252239    0.1800532  86.77 0.0003199702    1.505    0.336
       166 -14.2882     14.4954    239.4592   1.5262786586e+02   2.6025528784e+01     1.138598    0.4681179 -66.93  0.001287539    3.183    0.686
       167 -12.1444    126.3456    240.6916   1.3174123489e+02   1.2581795967e+01    0.5564748    0.3716853 -61.62  0.003475104    2.144    0.534
       168  -8.2176    219.8042    223.0437   1.1285414288e+02   1.4387401450e+00    0.1186279   0.07916661 -21.86 0.0003124125    1.658    0.397
       169 -10.2963     33.0000     41.9164   1.2699837015e+02   6.7161838699e+01    0.5191893   0.06832292 -61.02  0.001246166    6.866    0.854
       170 -10.5035    247.8109    247.7913   1.1191633984e+02  -4.3041474267e+00    0.2329778     0.136645  -6.81  0.001778475    1.609    0.379
       171  -9.1724    238.5256    249.5271   1.1354113970e+02  -3.3456722093e+00    0.1030436   0.06733866  18.96 0.0001708247    1.001    0.001
       172  -9.2840    204.9873    249.4819   1.1883174441e+02   8.4426789151e-01    0.1591609   0.07436036  34.19 -0.0001290356    1.512    0.339
