#   1 NUMBER                 Running object number                                     
#   2 MAG_AUTO               Kron-like elliptical aperture magnitude                    [mag]
#   3 X_IMAGE                Object position along x                                    [pixel]
#   4 Y_IMAGE                Object position along y                                    [pixel]
#   5 X_WORLD                Barycenter position along world x axis                     [deg]
#   6 Y_WORLD                Barycenter position along world y axis                     [deg]
#   7 A_WORLD                Profile RMS along major axis (world units)                 [deg]
#   8 B_WORLD                Profile RMS along minor axis (world units)                 [deg]
#   9 THETA_WORLD            Position angle (CCW/world-x)                               [deg]
#  10 FWHM_WORLD             FWHM assuming a gaussian core                              [deg]
#  11 ELONGATION             A_IMAGE/B_IMAGE                                           
#  12 ELLIPTICITY            1 - B_IMAGE/A_IMAGE                                       
         1 -14.4754    101.2413     50.1531   2.4246690338e+01   5.2476244460e+01     1.626354    0.9797023  41.02  0.005782159    1.696    0.410
         2 -14.0504     64.0226     53.6474   3.9040442593e+01   5.9894297203e+01     2.766564     1.167047 -29.05  0.007906508    4.983    0.799
         3 -14.9840      6.7288     71.2015   7.2843889840e+01   6.2795843255e+01     1.177855    0.8434455 -65.84  0.004470094    1.271    0.213
         4 -13.4739     32.8259     24.4666   4.2373328370e+01   7.0421342903e+01     2.087084    0.9169301  18.05    0.0072957    3.973    0.748
         5 -14.1099     41.5354      5.0951   2.6622110794e+01   7.1755896375e+01     1.089233    0.6595099  10.61  0.005542927    2.095    0.523
         6 -13.2748      8.6011      3.0142   4.8023285709e+01   7.6970138656e+01    0.7185619    0.4972048  39.01   0.00372268    1.797    0.444
         7 -15.9065     11.8874     22.2797   5.5545307003e+01   7.3293822191e+01     2.007372     1.053046 -26.61  0.009339164    1.968    0.492
         8 -14.0931     26.5417     13.1459   4.0375124720e+01   7.3159329661e+01     0.786896    0.4747005   9.42  0.004069686    1.912    0.477
         9 -13.1765    229.8526      2.6916   3.5279216928e+02   2.7871714328e+01    0.8241243    0.2472307  74.14  0.003853689    3.108    0.678
        10 -14.8537    212.4291     40.6934   2.1865724230e+00   2.7044727514e+01     2.068012    0.7707855  73.49  0.008843796    2.915    0.657
        11 -14.8255    189.5555     20.7735   3.5965882483e+02   3.4571572740e+01     1.563583    0.7278574 -46.15  0.007693971    1.890    0.471
        12 -14.1064    122.3339     36.8023   1.4129915649e+01   4.9262973785e+01     1.060809    0.5158363  42.71  0.002601477    2.398    0.583
        13 -13.3690    242.9766     35.1113   3.5848034773e+02   2.1669330098e+01     0.572714    0.4871811  84.85  0.002922535    1.319    0.242
        14 -14.4308    166.9216     29.7583   4.4792576306e+00   3.8903744186e+01     1.034592    0.7463244  81.64  0.003542389    1.255    0.203
        15 -15.2739     99.6254     12.0908   9.9729632700e+00   5.7955711240e+01     1.556863    0.8037195  60.10  0.003270062    1.610    0.379
        16 -11.9891     48.3955     19.9460   3.1410064264e+01   6.8540652145e+01    0.6985213    0.2604597  47.35  0.002811036    2.576    0.612
        17 -11.7756     71.0227     16.2472   1.9961498046e+01   6.4348916327e+01    0.3396949    0.2575978  -9.92  0.001543269    1.527    0.345
        18 -11.7085     74.4884     10.4652   1.6022436363e+01   6.4201505611e+01    0.2930647    0.2245737  24.16 0.0009373063    1.387    0.279
        19 -11.8100     61.3270     14.6812   2.2853693727e+01   6.6655432383e+01    0.6739967    0.2622252  38.95  0.002643664    2.660    0.624
        20 -14.4442    147.7429     29.6627   7.1474799091e+00   4.3710583552e+01     1.412477    0.6628613  70.49  0.005058518    1.979    0.495
        21 -11.7925     46.8879     12.8528   2.8367622408e+01   6.9792036749e+01    0.3832738    0.2618335  50.27  0.002126442    1.464    0.317
        22 -12.1749     85.4117     13.6806   1.4233262596e+01   6.1283917877e+01    0.3751716    0.3569483  -1.19  0.001740574    1.193    0.162
        23 -10.7437    124.0413     11.3486   4.9857212969e+00   5.1821391962e+01    0.2068684    0.1507375  74.57  0.001137012    1.177    0.151
        24 -11.8785    152.6409      8.5691   1.8292993247e-01   4.4812864615e+01    0.2774493    0.2259113  63.07  0.001684119    1.256    0.204
        25 -13.2161    223.6055     20.7746   3.5690780348e+02   2.7158057431e+01     0.372507    0.2862591  57.71  0.001618576    1.665    0.400
        26 -10.6332    192.5808      2.7151   3.5504444971e+02   3.5808135919e+01    0.1622128   0.09628676 -48.14 0.0004763688    1.480    0.324
        27 -11.1252     67.7735      2.7974   1.4390720896e+01   6.6495318487e+01    0.2941951    0.1905903  37.47  0.001609498    1.446    0.308
        28 -11.9085     80.5710      1.7368   1.0113840402e+01   6.3591307187e+01    0.6731191    0.1115612  60.14  0.002116027    3.836    0.739
        29 -11.6286     61.6554      1.5463   1.5824868634e+01   6.7984825513e+01    0.4056455    0.1321093  59.78  0.001569304    2.766    0.639
        30 -15.0622    217.0320     12.9989   3.5569492332e+02   2.9390358820e+01     1.760864    0.8641228 -38.94   0.00897046    1.787    0.440
        31 -12.0514    119.8287      3.0311   2.7342924890e+00   5.3667586968e+01    0.5665349    0.2454076  90.00   0.00213993    2.972    0.664
        32 -12.3558    200.9021    191.2422   3.5840307280e+01   4.7632259519e+00    0.3455834    0.2500087   6.69  0.001308202    1.355    0.262
        33 -12.7926    107.6347    247.8769   6.4067832888e+01   8.3904631515e+00    0.6347391    0.3957043  64.85  0.003348838    2.282    0.562
        34 -13.2042     99.2704    238.6319   6.4980228366e+01   1.1171305844e+01    0.8948144    0.4127657  26.87  0.004165485    1.939    0.484
        35 -14.2744     92.7919    231.3860   6.5718573507e+01   1.3425347592e+01    0.8011909    0.6649851  78.46  0.005000604    1.412    0.292
        36 -12.3882     51.7090    248.4163   7.6585612371e+01   1.5347898224e+01     0.494887    0.3988931  16.59  0.003290119    1.420    0.296
        37 -12.5362     57.5384    246.8661   7.5188160120e+01   1.4956348139e+01    0.4756016     0.323934  19.34  0.002834107    1.566    0.362
        38 -10.9749     41.3013    250.0090   7.8959764443e+01   1.6228974793e+01    0.2410126    0.1395826  37.00  0.001430164    1.325    0.245
        39 -11.1032     41.0000    245.9503   7.8793019527e+01   1.7037528863e+01    0.2390263    0.1459945 -75.22  0.001432539    1.882    0.469
        40 -13.2506     28.2105    246.5236   8.1609438793e+01   1.8307931138e+01    0.5567557     0.458549  35.06  0.003529485    1.226    0.184
        41 -12.1545      2.8189    249.4658   8.7045093023e+01   2.0227477643e+01    0.3723651    0.2109439  44.36  0.001862157    1.277    0.217
        42 -14.0357      9.4377    245.5549   8.5558396616e+01   2.0362904227e+01    0.9513489    0.3662026  47.73  0.003797838    1.816    0.449
        43 -12.7957     98.7620    186.7805   5.8610924837e+01   2.2001471800e+01     0.455231    0.3418043   8.61  0.002256445    1.574    0.365
        44 -11.2306     80.7111    192.7358   6.4284057783e+01   2.3366953756e+01    0.4015659    0.1508578  38.04  0.001536653    2.224    0.550
        45 -12.3083     48.3728    181.7971   7.1979578051e+01   3.0322341141e+01    0.4848743    0.3198268 -43.68  0.002375953    1.872    0.466
        46 -11.4580    109.4572    183.5001   5.5261463117e+01   2.1021973221e+01    0.3198368    0.1356951  33.10  0.001210353    2.167    0.539
        47 -13.0404    198.0624    180.4479   3.4431177500e+01   6.9703578230e+00    0.4433962    0.3756253 -82.27  0.002564469    1.953    0.488
        48 -11.2768    122.2584    181.1839   5.1546027424e+01   1.9398584998e+01    0.4137309    0.2533129  72.61  0.001527719    3.182    0.686
        49 -12.0813     84.4986    179.4886   6.1456404009e+01   2.5925646127e+01    0.3027075    0.1475487 -63.10  0.001229559    2.230    0.552
        50 -12.9810    124.8288    167.9834   4.8543575146e+01   2.1877196646e+01    0.6536034    0.3331464 -53.74  0.002656112    2.124    0.529
        51 -12.7043    238.4498    159.4392   2.3659406194e+01   4.4029340625e+00    0.5692854    0.1278317  38.78  0.001950193    5.553    0.820
        52 -15.2177     15.5806    175.1008   8.0700859817e+01   3.5407290514e+01     2.553451    0.9679288  59.59   0.01013135    2.694    0.629
        53 -12.6255     85.5059    152.9615   5.6940472867e+01   3.2309132858e+01    0.8275881    0.6791338  25.07  0.004152372    1.251    0.201
        54 -12.5865     77.3056    156.9477   6.0124261943e+01   3.2608291665e+01    0.5952211    0.4590792  28.94  0.001916148    1.290    0.225
        55 -13.4900     74.0093    153.4879   6.0579269897e+01   3.3998350024e+01    0.8292217    0.5872034  32.43   0.00204085    1.367    0.269
        56 -12.0780    121.1066    156.6024   4.7363503771e+01   2.5142888038e+01    0.2971124    0.2001069 -14.76   0.00120122    2.265    0.558
        57 -12.8637    112.0925    155.9464   4.9711470744e+01   2.6950469543e+01    0.5963992    0.3857277  64.97  0.002440757    2.108    0.526
        58 -12.3246     55.1427    155.6481   6.6842454416e+01   3.6113830491e+01    0.5765402    0.3689396 -13.40  0.002389014    2.445    0.591
        59 -12.8839    208.2967    154.3523   2.7570575490e+01   9.7831164464e+00    0.6551791    0.3597022  34.39   0.00323162    2.012    0.503
        60 -11.3382     12.6613    148.6783   7.9653892190e+01   4.2361820384e+01    0.2350844    0.2026001 -47.49 0.0009975828    1.293    0.226
        61 -11.7906    103.6389    149.4827   5.0870310550e+01   3.0036622765e+01     0.417398    0.3073014 -24.58  0.001404122    1.739    0.425
        62 -12.7407      9.0117    149.7606   8.0888351597e+01   4.2355968323e+01    0.6894993     0.436333  58.54  0.003611693    1.493    0.330
        63 -12.1962     59.4759    149.0109   6.4497223633e+01   3.7267319338e+01    0.2789809    0.2175327   4.30   0.00104096    1.551    0.355
        64 -11.7237     38.0764    145.6915   7.1069234370e+01   4.0783708534e+01    0.2588022    0.2291774 -58.95 0.0006629615    1.171    0.146
        65 -12.3132     42.6247    138.4701   6.8578736078e+01   4.2188634849e+01    0.5200494     0.302719  21.13  0.002303113    1.854    0.461
        66 -11.0377     47.4248    133.3051   6.6146327774e+01   4.2991112626e+01    0.4228872    0.1270922 -64.69  0.001369613    3.075    0.675
        67 -12.1126     44.3934    132.7792   6.7132008930e+01   4.3497435241e+01    0.2934841     0.203981  -4.32  0.001186795    1.877    0.467
        68 -12.4516    246.5022    133.9724   1.7723265142e+01   7.0919631649e+00    0.3283137    0.2786554 -66.71  0.002246857    1.501    0.334
        69 -13.7935    233.8399    130.6926   1.8824743770e+01   9.5330759474e+00    0.8645169    0.4422289 -35.61  0.004461097    1.679    0.404
        70 -12.8188    223.1390    127.8311   1.9810788265e+01   1.1740788495e+01    0.4453059    0.3291341 -65.66   0.00252011    1.750    0.428
        71 -10.9939      5.3403    128.6793   8.0457623745e+01   4.8086668169e+01    0.2921672    0.1539757 -43.13  0.001346371    2.098    0.523
        72 -14.6389    106.7524    121.6455   4.3911764838e+01   3.6201810837e+01     1.821752     1.150749  35.73   0.00770034    1.590    0.371
        73 -11.2301     59.0159    125.0760   6.0616773188e+01   4.3640808056e+01    0.2272979    0.2150693  85.83  0.000523957    1.043    0.041
        74 -12.8331    181.4413    121.2387   2.5474179858e+01   2.0636461572e+01    0.5511609    0.3989592  77.05  0.002631443    1.930    0.482
        75 -13.3249     32.2427    112.2966   6.8446850541e+01   5.0285814571e+01    0.7799077    0.3708016 -54.40  0.003267491    1.953    0.488
        76 -14.8044    106.2104    104.4507   3.9743356105e+01   4.0362246932e+01     1.541349     1.285703  32.53  0.007505294    1.232    0.188
        77 -10.3076     10.8564    133.8930   7.9002539890e+01   4.6356742960e+01    0.1864378    0.1406782  56.45 0.0004403926    1.292    0.226
        78 -11.7923     79.2364    118.7871   5.2177403546e+01   4.2084106504e+01    0.3827396    0.2684048 -58.20   0.00136249    1.452    0.311
        79 -13.0655     84.1393    114.5985   4.9524679089e+01   4.2270787021e+01     1.086234    0.5753818  45.50  0.003702038    1.899    0.473
        80 -11.8844     88.6168    109.8408   4.6842609784e+01   4.2616837548e+01    0.4566752    0.2709354 -57.30  0.001623833    1.775    0.437
        81 -11.0219     73.7198    120.0354   5.4373295861e+01   4.2697788096e+01    0.3982901    0.2160555  18.33  0.001439335    2.520    0.603
        82 -12.7620      5.1074    118.7563   7.9669950914e+01   5.0697326180e+01    0.7070609    0.4640655 -37.98  0.003704092    1.663    0.399
        83 -11.7215     42.8283     90.1772   5.9707698796e+01   5.4858767993e+01    0.3771475    0.2667105 -65.20 0.0008971379    1.426    0.299
        84 -13.0589     21.3392     86.0278   6.8492108712e+01   5.8113030458e+01    0.9661748    0.5987979   7.12  0.004715255    1.798    0.444
        85 -14.3307     18.1766    111.0013   7.3807832265e+01   5.1867324903e+01     1.001667    0.8620352 -38.18  0.003628625    1.207    0.172
        86 -13.7832     10.9931    103.2046   7.5689174902e+01   5.4414633468e+01    0.7789599    0.6461278  34.50  0.004093296    1.289    0.224
        87 -13.6281      2.4154     97.0413   7.8515984761e+01   5.6485990384e+01    0.9996616    0.4429789 -78.59  0.003360725    2.078    0.519
        88 -12.2913     36.9560     92.7479   6.2842635685e+01   5.4894714242e+01    0.5065805     0.335247  14.20  0.001612773    1.653    0.395
        89 -14.4152     23.2631     95.3254   6.9316068338e+01   5.5567417870e+01     1.669233    0.7562917  11.24   0.00670761    2.614    0.617
        90 -12.6427     29.8464     89.5000   6.5305754409e+01   5.6467483313e+01    0.5000498    0.3500082  73.56   0.00192907    1.773    0.436
        91 -12.0721    186.2733    116.2710   2.3432728856e+01   2.0582240387e+01    0.2420727    0.1744515  46.97 0.0008092339    1.475    0.322
        92 -11.4394      1.9875    114.2428   8.0419737119e+01   5.2046968516e+01    0.1790156    0.1685266 -80.41 0.0004276138    1.058    0.055
        93 -12.7134    121.3550    111.8521   3.7217735892e+01   3.5433484163e+01     0.425013    0.3451874  72.78  0.001212613    1.411    0.291
        94 -11.2672     45.8581    110.1140   6.2697179463e+01   4.9338141418e+01    0.4016414    0.2147969 -40.98  0.001532412    2.108    0.526
        95 -10.6032     42.7828    107.3657   6.3383833552e+01   5.0433480324e+01    0.2077256    0.1905197  23.01 0.0004469952    1.127    0.113
        96 -11.6049     62.8707    110.6634   5.6263613489e+01   4.6839465141e+01    0.4023997    0.3113917  74.78  0.001899822    1.521    0.342
        97 -11.4888    222.3849    109.1214   1.6041763937e+01   1.4903425068e+01     0.212726    0.1777425  38.04  0.001323079    1.415    0.293
        98 -13.3937    134.9672    102.7625   3.1204381610e+01   3.4398419978e+01     1.059432    0.3719468  49.70  0.002959498    2.874    0.652
        99 -13.4231    120.4983    102.3283   3.4959775721e+01   3.7739719840e+01    0.7599972     0.362125  43.45  0.002811107    2.064    0.515
       100 -13.1767    137.3382     95.2363   2.8590344800e+01   3.5411788707e+01    0.5140504    0.4252086  81.34  0.001288616    1.349    0.259
       101 -11.3260     64.5275    101.5352   5.3516375461e+01   4.8910697672e+01    0.5178563    0.3499759 -11.47  0.001800224    2.151    0.535
       102 -12.0030     62.0334     98.2186   5.3676598650e+01   5.0137977140e+01    0.5845578    0.3423002  49.64  0.001823921    1.904    0.475
       103 -12.1757     48.9539     93.0856   5.7768153782e+01   5.3334447536e+01    0.8742982    0.5708059 -42.85  0.002859116    1.563    0.360
       104 -11.2843     48.5930    101.1954   5.9768462294e+01   5.1312745075e+01    0.4899711    0.3342784  54.94  0.001918307    1.667    0.400
       105 -11.9617     52.0296     98.1677   5.7685247046e+01   5.1625918553e+01    0.4518943    0.2851922 -13.01  0.001590304    2.323    0.569
       106 -12.8204    136.4692    132.0176   3.8047175336e+01   2.7718747945e+01    0.7571365     0.338294  39.98  0.002757716    2.238    0.553
       107 -12.7164    163.7167     97.4916   2.3268981687e+01   2.8918641352e+01    0.4043523     0.313565  47.99 0.0009394461    1.331    0.249
       108 -12.9224     28.7077    122.0021   7.1257964906e+01   4.8047850261e+01    0.5491288    0.3785029 -55.20  0.002768049    1.403    0.287
       109 -10.4913     74.4546     95.5134   4.8187582429e+01   4.8725475695e+01    0.2765766    0.1515188  23.08 0.0006616703    2.316    0.568
       110 -11.3566    101.0881     89.2966   3.7125950678e+01   4.4877739116e+01    0.4032359    0.1804415  49.31  0.001423314    2.270    0.559
       111 -14.0683    188.3240     83.0751   1.5233762039e+01   2.5992650927e+01     1.062301    0.8856256  54.36  0.004445947    1.295    0.228
       112 -13.9824    198.6614     70.1718   1.0614566203e+01   2.5812843320e+01     1.013258     0.723945  41.98  0.003795868    1.784    0.439
       113 -15.0687    165.6062     78.7302   1.8031041495e+01   3.1891185888e+01     2.315974    0.8653356  44.84  0.007732769    3.333    0.700
       114 -14.0317    164.8649     71.1774   1.6152019119e+01   3.3355260330e+01      1.22607    0.8979532  88.59  0.006070737    1.523    0.344
       115 -12.6412    242.5155     83.5219   8.2663180096e+00   1.5250150244e+01    0.3890067    0.2255032  64.99  0.002138955    2.077    0.518
       116 -13.0757    237.6636     79.9132   8.0526908694e+00   1.6629867522e+01    0.3979779    0.3136301 -89.19    0.0020766    1.416    0.294
       117 -11.1046     98.0903     83.9799   3.6514397031e+01   4.6686714010e+01    0.2420701    0.2314669  44.97 0.0006368306    1.015    0.015
       118 -12.7600     39.6651     67.5344   5.5204898825e+01   6.0749611696e+01     2.408925    0.5051671  27.46  0.006666264    4.923    0.797
       119 -11.4670    235.7951    248.3924   3.8832142863e+01  -7.3825234005e+00    0.1546737   0.07830793  15.46 0.0009608713    1.743    0.426
       120 -14.5276    119.7193     54.7720   2.0816339216e+01   4.7203387389e+01     1.077371    0.5974191  44.94  0.001772505    1.841    0.457
       121 -12.8229    136.1059     50.4134   1.5672873745e+01   4.3790503554e+01    0.6297818    0.5225539 -32.96    0.0018668    1.344    0.256
       122 -13.8623    171.0888    241.9458   4.9767405889e+01   9.0165283815e-01    0.8675206    0.5323201  18.58  0.005119639    1.394    0.283
       123 -13.7736     74.6668     73.6459   4.1655375469e+01   5.3738455295e+01       1.6072    0.8104994  20.95  0.005038038    3.707    0.730
       124 -13.5279     87.3102     65.2838   3.4146801788e+01   5.2899081975e+01    0.9172012    0.6161966 -11.68  0.002696088    2.362    0.577
       125 -12.9986     55.0954     81.0995   5.2020192413e+01   5.5404110685e+01    0.6605732    0.4617143 -30.14  0.002358626    1.614    0.380
       126 -13.8677     61.1582     75.8897   4.7882862051e+01   5.5659365585e+01    0.8835213    0.5666225 -38.82   0.00241163    1.654    0.396
       127 -12.4005    214.4318     71.5145   8.9061534807e+00   2.2306343341e+01    0.5285208     0.373653 -81.26  0.002414763    1.561    0.359
       128 -13.0448    216.8486     80.6552   1.0638516435e+01   2.0438010891e+01    0.6669237    0.4796507 -27.21    0.0027022    1.529    0.346
       129 -12.6024    210.2195     77.4692   1.0773971562e+01   2.2257781346e+01    0.6029028    0.3362161 -63.10  0.002811623    2.129    0.530
       130 -11.8482    114.1832     80.0647   3.0383015962e+01   4.3883395747e+01    0.4852145    0.3441897 -51.24  0.002222992    1.490    0.329
       131 -12.8899    135.3160     79.2664   2.4591041573e+01   3.9026007842e+01    0.8310095    0.3938486  54.66  0.002885478    2.072    0.517
       132 -10.6526     90.0196     80.9927   3.8321309787e+01   4.9053585339e+01    0.2521612    0.1944651  80.77  0.001139745    1.709    0.415
       133 -12.4143    147.7900    238.8794   5.4196652948e+01   4.4690856370e+00    0.3250061    0.2541247  61.80  0.001376089    1.871    0.466
       134 -14.2796      6.3115     63.3426   7.1586256009e+01   6.4724929363e+01    0.8467946    0.5509481  14.80  0.004656321    1.626    0.385
       135 -11.1817     42.5109     79.4756   5.7192408070e+01   5.7551440203e+01    0.2851487    0.2356157 -44.47  0.000824065    1.168    0.144
       136 -11.2740     41.6313     76.1498   5.6709769711e+01   5.8466841159e+01    0.3273878    0.2042356 -52.32  0.001550172    1.533    0.348
       137 -11.5778     27.4635     76.4331   6.3560514138e+01   5.9973954980e+01     0.366507    0.2560843  87.10  0.001351498    1.827    0.453
       138 -11.5022    241.2557     70.3897   5.7360597457e+00   1.7343154513e+01    0.2034012    0.1494283 -86.57  0.001299289    1.502    0.334
       139 -12.8419    135.0927     65.8728   2.0666061874e+01   4.1512845661e+01    0.6022797    0.4795463  34.18  0.001697258    1.463    0.317
       140 -12.9736     79.0345     60.2819   3.5413303638e+01   5.5633809379e+01    0.8054716    0.5133733 -51.67  0.003649975    1.763    0.433
       141 -11.8785     83.2299     54.7512   3.1844394795e+01   5.5792629197e+01    0.5448887    0.3355246 -13.26  0.002081196    2.850    0.649
       142 -13.7357    177.9868     57.3104   1.0337172906e+01   3.2447299201e+01    0.8014768    0.5454934 -55.16   0.00223261    1.403    0.287
       143 -11.9083    100.2475     64.5322   2.9582941026e+01   5.0154688102e+01    0.3857803    0.3508566  -8.51   0.00148178    1.241    0.194
       144 -12.0166     38.7633     59.7779   5.3249737401e+01   6.2627525440e+01    0.4727602     0.290922  58.07  0.002049792    2.487    0.598
       145 -11.1525     34.3856     60.7883   5.5831685564e+01   6.2942455501e+01    0.3824812    0.2261951 -47.83  0.001574173    1.598    0.374
       146 -12.2533     35.3465     54.9043   5.3425241607e+01   6.4135024582e+01    0.3762147    0.2765925  -0.83  0.001051349    1.444    0.307
       147 -10.2247     78.6251     86.8855   4.4207351275e+01   5.0004164383e+01    0.2048216    0.1474657 -64.99 0.0004028085    1.605    0.377
       148 -12.0371     24.7633     59.4672   6.0566315493e+01   6.4277342913e+01    0.4565797    0.2480015 -46.76  0.001699442    1.682    0.405
       149 -10.7621     47.3677     56.4987   4.7808497448e+01   6.2135155925e+01    0.2798195    0.1852939  58.95  0.001263628    2.183    0.542
       150 -12.6363    248.4258     52.3645   1.4824430464e+00   1.8494595517e+01    0.6009527    0.3009528 -35.51  0.003346927    1.772    0.436
       151 -11.6222    231.2486     55.0732   3.5339072666e+00   2.1321129858e+01    0.2846189    0.1950531  89.18  0.001737238    1.545    0.353
       152 -11.2561     17.5170     55.0488   6.3366791058e+01   6.5933173122e+01    0.3155598    0.2240665 -70.28  0.001728385    1.531    0.347
       153 -10.4475     23.5307     50.0006   5.8386136446e+01   6.6527351956e+01    0.1899807     0.123771 -54.67 0.0004653928    1.487    0.327
       154 -10.5241      9.5738     49.2926   6.6477638473e+01   6.7816608466e+01    0.1851561    0.1015662 -51.09 0.0009423712    1.567    0.362
       155 -12.5758    154.5369     46.5100   1.1052948224e+01   3.9737154846e+01    0.4677643    0.2564191  61.27  0.002122225    1.701    0.412
       156 -13.2518    158.7727     43.0962   9.3824670198e+00   3.9166353041e+01    0.6965247    0.4841994  57.53  0.002817435    1.424    0.298
       157 -10.9701     29.9032     46.2807   5.3427004644e+01   6.6639476596e+01    0.2697158    0.1782503 -40.21  0.001425005    1.438    0.305
       158 -10.4042     38.4963     46.4721   4.8697754691e+01   6.5501325473e+01    0.1380675    0.1224161  -5.75  0.000809801    1.033    0.032
       159 -12.2080     27.8900    235.4716   8.1131350887e+01   2.0526591660e+01     0.881685    0.4139766  22.02  0.004346211    2.264    0.558
       160 -12.6853     25.0555    217.1840   8.0806624203e+01   2.4664993556e+01    0.7898883    0.3270253  46.21  0.003816667    1.882    0.469
       161 -13.3749      6.0820     43.2226   6.7005129929e+01   6.9386266139e+01    0.9828929    0.5007369   8.23  0.004799419    2.021    0.505
       162 -13.9214     26.5658    225.7823   8.0923239123e+01   2.2666452288e+01    0.9588462    0.4269185 -53.98  0.004487804    2.983    0.665
       163 -12.6989      3.0980     34.3857   6.6426962357e+01   7.1472663090e+01    0.3271133    0.2663654 -77.65  0.001026099    1.464    0.317
       164 -13.9654     20.6844    224.5510   8.2220817334e+01   2.3523537307e+01    0.7164596    0.5176932  46.86  0.003652143    1.103    0.094
       165 -12.6820    236.5612    229.2025   3.5838840609e+01  -5.1355576162e+00    0.2790048    0.1660282  30.59  0.001840703    1.747    0.428
       166 -13.5662     57.3180    203.5934   7.1700375517e+01   2.4035861698e+01    0.8105115    0.4810497 -71.64  0.004081602    1.825    0.452
       167 -14.4050     62.6644    214.0711   7.1319049011e+01   2.1016318949e+01      1.00983    0.5298279  39.09  0.004956958    1.556    0.357
       168 -11.1389    249.0051    224.9958   3.3197444369e+01  -5.9146883548e+00    0.1417195    0.1321153  -1.74  0.001145352    1.709    0.415
       169 -12.8643    131.3440     33.4387   1.1164052173e+01   4.7414283992e+01    0.5423993     0.402089  33.35  0.001628984    1.673    0.402
       170 -12.6788    110.1377     41.9415   1.8822551857e+01   5.1597767996e+01    0.5475562    0.2424172  53.68  0.001095601    2.008    0.502
       171 -12.9012     64.2214    224.0423   7.1837027508e+01   1.8687193463e+01    0.8124663    0.3491439  40.63  0.003757394    1.831    0.454
       172 -13.0960    113.4863     37.8203   1.6511082690e+01   5.1358366389e+01    0.4804384    0.3346073  67.42  0.001577102    1.358    0.264
       173 -12.2352     36.7079     34.2682   4.4670701830e+01   6.8122485055e+01    0.5450559    0.2796202  13.89  0.002196586    2.830    0.647
       174 -12.6221     46.1131     33.3283   3.9102411442e+01   6.6818948512e+01    0.5749853    0.4296231   4.96  0.003149104    1.436    0.304
       175 -13.3854     57.3589     26.9219   3.0614211695e+01   6.5805489931e+01     1.048438    0.3570513  43.37  0.002727558    2.645    0.622
       176 -12.2452     40.5723     40.3343   4.5118082651e+01   6.6416177598e+01    0.5359497    0.3011506  32.68  0.002594606    1.695    0.410
       177 -12.6555     32.7759     40.2439   4.9462157291e+01   6.7518172637e+01    0.4019678    0.3105783  11.63  0.000705037    1.234    0.189
       178 -12.8294     75.9744     37.1051   2.7540854507e+01   6.0380323262e+01    0.5790582    0.3191424  47.04  0.001230155    1.640    0.390
       179 -11.7167     70.9785     36.0000   2.8982497794e+01   6.1628101148e+01    0.3149304    0.1880591  44.88   0.00109803    1.518    0.341
       180 -12.6476     94.2893    218.2209   6.3895758186e+01   1.5843302425e+01    0.3589835    0.2303835  33.51  0.001411611    1.312    0.238
       181 -11.4063    104.5430     36.8036   1.8402759148e+01   5.3730506595e+01    0.3292259    0.1392569 -36.10  0.001286485    2.539    0.606
       182 -12.7652    140.2368     21.2438   5.6963029610e+00   4.6621378006e+01    0.6123822    0.3198134  65.88  0.001141921    1.664    0.399
       183 -10.7481      5.5891    219.2437   8.5458926414e+01   2.6073834285e+01    0.1554749    0.1029031 -75.00 0.0009476422    1.619    0.382
       184 -12.3795    120.6380     26.5668   1.0931827335e+01   5.1020434208e+01    0.5941946    0.3227569  58.63  0.002592258    1.605    0.377
       185 -11.3226     85.5065    215.1640   6.5714509818e+01   1.7717738986e+01    0.2433754    0.1628045  47.66  0.001288307    1.345    0.256
       186 -12.5643      4.7299    211.8156   8.5374051321e+01   2.7758544313e+01    0.4950047    0.2345778 -72.28  0.002576636    2.162    0.537
       187 -10.5929    248.6651     18.2925   3.5483813482e+02   2.2592466689e+01    0.1208372   0.06027886 -61.37 0.0003548111    1.639    0.390
       188 -12.0581    144.9838    232.4463   5.3939802131e+01   5.9208272832e+00     0.236751    0.2021079 -39.82   0.00153696    1.389    0.280
       189 -10.8514    136.5356    210.9656   5.2787278589e+01   1.1004337272e+01    0.1888925    0.1364404 -49.22   0.00102854    1.586    0.369
       190 -10.3470     60.3095     18.3371   2.5120577563e+01   6.6410935035e+01    0.1862945    0.1183991  37.08 0.0006489379    1.439    0.305
       191 -11.1453     39.8850    210.6837   7.6754844227e+01   2.4511019203e+01    0.3204627    0.1566842  26.06   0.00150658    1.962    0.490
       192 -12.4856     46.7210    208.9033   7.4893957673e+01   2.4123236320e+01    0.5313891    0.2339014  67.50  0.002131097    2.872    0.652
       193 -10.7811     25.8994     44.1430   5.4993536317e+01   6.7540776447e+01    0.1980288    0.1827251  37.96  0.001239677    1.267    0.211
       194 -12.5648     68.5879    221.3143   7.0526535996e+01   1.8700060508e+01    0.5168124    0.3342342 -85.86  0.002765276    1.841    0.457
       195 -11.3841     13.3209    205.7242   8.3044764365e+01   2.8348992418e+01    0.3333823      0.19406 -39.93  0.001537554    2.619    0.618
       196 -13.3299     16.1753    197.3014   8.1889515701e+01   3.0016512757e+01     0.950462    0.3456436 -51.07  0.003628325    3.862    0.741
       197 -11.0273    150.5423    206.5125   4.8896587520e+01   9.6927422641e+00    0.2529291    0.1195408  23.20  0.001034033    2.353    0.575
       198 -12.0084    134.9935     39.7068   1.2499073518e+01   4.5637810466e+01    0.5416937    0.3105723  80.22  0.001544697    1.994    0.499
       199 -13.9458     40.5494    195.9731   7.5435988194e+01   2.7818112882e+01     0.917967    0.4544339  52.43  0.003851959    1.843    0.457
       200 -14.8621     30.1624    168.9315   7.6013443998e+01   3.5578459716e+01     2.144347     1.326774 -37.40   0.01011403    2.141    0.533
       201 -14.0968     22.3153    180.9020   7.9220615327e+01   3.3361228247e+01    0.9947717    0.5424209 -54.99  0.004583947    2.054    0.513
       202 -15.2164      8.1502    183.2278   8.3218770768e+01   3.4053370657e+01     1.403113     1.094015  86.88   0.00866313    1.176    0.150
       203 -10.6545    212.6550    199.6723   3.5147101882e+01   1.8098290178e+00    0.1308976   0.08186924  -4.40  0.000705052    1.748    0.428
       204 -13.3355    164.5754    195.1579   4.3908361419e+01   9.5967723547e+00    0.5691952    0.4047628 -79.95  0.002597924    2.861    0.650
