#   1 NUMBER                 Running object number                                     
#   2 MAG_AUTO               Kron-like elliptical aperture magnitude                    [mag]
#   3 X_IMAGE                Object position along x                                    [pixel]
#   4 Y_IMAGE                Object position along y                                    [pixel]
#   5 X_WORLD                Barycenter position along world x axis                     [deg]
#   6 Y_WORLD                Barycenter position along world y axis                     [deg]
#   7 A_WORLD                Profile RMS along major axis (world units)                 [deg]
#   8 B_WORLD                Profile RMS along minor axis (world units)                 [deg]
#   9 THETA_WORLD            Position angle (CCW/world-x)                               [deg]
#  10 FWHM_WORLD             FWHM assuming a gaussian core                              [deg]
#  11 ELONGATION             A_IMAGE/B_IMAGE                                           
#  12 ELLIPTICITY            1 - B_IMAGE/A_IMAGE                                       
         1 -13.6135     12.9079     47.8415   6.8462077472e+01   6.8121797447e+01    0.8696166    0.3674385 -46.38 0.0008127777    1.902    0.474
         2 -12.4936     56.1501     38.4900   4.1489086301e+01   6.4885510236e+01     1.115531    0.4693023 -35.10  0.004381017    2.419    0.587
         3 -11.4409      7.3723     29.4113   6.5461998028e+01   7.2647473206e+01    0.6643804    0.2863879 -65.45  0.002840065    2.450    0.592
         4 -12.5301     14.9152     18.1640   5.4715640769e+01   7.4304367255e+01    0.9297979    0.6076675 -71.20  0.002745556    2.742    0.635
         5 -12.9491      3.1171     13.6829   6.1354526415e+01   7.6159564850e+01    0.8946776    0.3036692 -49.11 0.0009815076    2.225    0.551
         6 -12.3911    249.0650     20.1600   3.5895851844e+02   2.3164049766e+01    0.5436618    0.1969729 -39.54 0.0003599481    1.944    0.486
         7 -12.3061    249.3350      8.7704   3.5645422864e+02   2.4359646567e+01    0.6941525    0.3170681 -24.96  0.003566887    2.275    0.560
         8 -12.1536      7.6548     14.9081   5.8380961472e+01   7.5577344543e+01     0.290618    0.2061778 -34.35 0.0004550095    1.130    0.115
         9 -12.3515    240.2316     14.6876   3.5825060705e+02   2.5501802703e+01    0.4148608    0.2769961 -47.05  0.001280276    1.151    0.131
        10 -12.4486    234.7895      9.4636   3.5736827281e+02   2.7158737532e+01    0.3512681     0.310183 -41.42   0.00166631    1.236    0.191
        11 -12.7368    241.9822      4.7678   3.5593748518e+02   2.6207124400e+01    0.5530061    0.4800314  82.59  0.002275782    1.363    0.266
        12 -12.1282     28.7932     19.8549   4.6304759153e+01   7.2388433910e+01    0.2618445      0.20278 -13.45 0.0003027497    1.147    0.129
        13 -11.4476    131.9626     16.7641   9.3994280036e+00   5.0668070203e+01    0.3883781    0.2547823 -47.47  0.001939716    1.568    0.362
        14  -9.7478     99.4691     14.5393   1.4771702102e+01   5.9015191983e+01    0.2520959    0.1362716 -18.62 0.0006329933    2.003    0.501
        15 -10.1960     99.2426     11.1537   1.3256528937e+01   5.9406109644e+01    0.3780327    0.1958318  31.99  0.001284514    2.313    0.568
        16 -11.0056    165.3589     17.0716   4.9821713267e+00   4.2196894605e+01    0.2366405    0.1997888  32.17 0.0004596719    1.425    0.298
        17 -10.7975    137.2974     15.1869   7.9840164474e+00   4.9473048621e+01    0.2839227    0.2052509 -50.75   0.00044288    1.402    0.287
        18 -12.4523     76.1993     10.4874   1.8981069774e+01   6.4880885659e+01    0.5018625     0.320913  39.24  0.001599583    1.477    0.323
        19 -10.7018    227.3341     10.5173   3.5804281037e+02   2.8584133139e+01    0.2117169   0.09851202 -30.50 0.0009004008    1.909    0.476
        20 -10.6494     59.8386     11.5338   2.5315827412e+01   6.8275310979e+01    0.4951502    0.1438259 -33.14  0.001828015    3.286    0.696
        21 -10.3650     27.0301     12.6253   4.2965315033e+01   7.3823041179e+01    0.4402556    0.2269295 -24.74  0.002141809    2.040    0.510
        22 -10.1036     31.5568      9.9826   3.8359807223e+01   7.3562417732e+01    0.4511477     0.184351 -21.78  0.001645003    3.772    0.735
        23  -9.6522     36.8923      5.7671   3.2354171622e+01   7.3267688093e+01    0.3687419    0.1636256  26.14  0.001495885    3.085    0.676
        24  -9.9781    177.9366     12.0591   2.1466227884e+00   3.9625926258e+01    0.1959203    0.1760259 -69.30 0.0003148004    1.034    0.033
        25 -10.5505     65.1099     11.9230   2.3523137232e+01   6.7140456982e+01    0.2600029    0.2258944   5.78  0.001126051    1.069    0.065
        26 -10.5974    139.7445     10.9100   6.0734025821e+00   4.9269017855e+01    0.2426548    0.1852018  83.25 0.0002480077    1.263    0.208
        27 -10.0156    119.3953     11.2374   9.3214982450e+00   5.4395598226e+01    0.2048745    0.1671358  17.56 0.0005903258    1.367    0.268
        28 -10.9859    160.1996      8.6132   2.8389518106e+00   4.4329046586e+01    0.3512578    0.2194615  78.54  0.001596222    1.526    0.345
        29 -10.0150    154.4214      8.4656   3.4164037937e+00   4.5788745120e+01    0.2382968    0.1962343  78.73 0.0004610537    1.145    0.127
        30 -11.0935    145.9683      7.1201   3.9328464336e+00   4.8040862075e+01    0.4066488    0.2546815  59.83   0.00130913    1.530    0.346
        31 -10.6451    150.9473      5.8781   2.9335331125e+00   4.6896532326e+01    0.2007711    0.1841992 -47.86 0.0003452846    1.109    0.098
        32  -9.1248    113.8356      8.6130   9.2070905811e+00   5.6032350876e+01    0.1832575    0.1241429  84.94  0.000377022    1.582    0.368
        33  -9.0831     24.2593      8.6338   4.2122325728e+01   7.4821491909e+01    0.1108993   0.09607012 -51.39 0.0006975453    1.639    0.390
        34 -10.1160     82.1167      6.9390   1.5385461167e+01   6.3873513039e+01    0.1960344      0.17077  36.31  0.000381857    1.044    0.043
        35  -9.9894    222.9988      5.2635   3.5704492017e+02   3.0040490065e+01    0.2042442    0.1436133 -42.45 0.0009324238    1.201    0.167
        36 -10.3449     68.3009      5.4863   1.8691117290e+01   6.7123360794e+01    0.2189714    0.1847298  20.79 0.0004631369    1.085    0.079
        37 -10.4173    164.3623      4.6362   1.1566099061e+00   4.3661239368e+01    0.2228806     0.179376 -52.62 0.0002402399    1.160    0.138
        38 -11.1181    179.8835      3.6615   3.5951629966e+02   3.9968318888e+01    0.4212683    0.2309945  53.53 0.0007055826    2.040    0.510
        39 -12.4764     31.5319      2.0832   3.2762215968e+01   7.4617463770e+01    0.4323629    0.1865099  40.81 0.0004451169    2.221    0.550
        40 -11.1104     22.3950      1.7263   3.8359775153e+01   7.6072093526e+01    0.6069498     0.258644  25.27  0.002530325    2.996    0.666
        41 -10.2071    126.1469      2.3032   4.7005538074e+00   5.3460824009e+01    0.2370468    0.2059472 -54.17  0.001173787    1.182    0.154
        42 -10.4937     97.9650      3.0566   9.7420178403e+00   6.0425450547e+01    0.2009165    0.1841314  44.88 0.0004859191    1.023    0.023
        43  -9.8371     91.0312      2.3564   1.0869818052e+01   6.2157881475e+01    0.2058119    0.1690312  21.24 0.0004552343    1.227    0.185
        44  -9.3170     14.2300      1.9916   4.4617385342e+01   7.7120804967e+01    0.1483152   0.08649468 -34.93 -0.000430966    1.535    0.349
        45  -9.6336    120.9742      1.5315   5.1271674930e+00   5.4825282868e+01    0.2016235     0.121408  70.49  0.000663424    1.522    0.343
        46 -10.2973     73.5817      1.4469   1.4767222455e+01   6.6303949836e+01    0.2455852    0.1183395  61.15 0.0006809208    1.943    0.485
        47 -10.0899    134.8374    196.4487   5.8595467691e+01   1.4579573365e+01    0.2207595    0.1825959 -48.10 0.0004712153    1.290    0.225
        48 -11.6649    248.6709    248.5794   4.5286213293e+01  -8.1120596400e+00    0.4636886     0.203634 -17.62  0.002683436    2.269    0.559
        49 -11.8095    225.0841    246.8917   4.8842898188e+01  -5.4404379824e+00    0.6212624    0.2764731 -16.92  0.003211027    2.749    0.636
        50 -10.5655     10.4996    248.0230   8.9845542285e+01   1.9857403984e+01    0.4059572   0.09227196  47.50  0.001960671    2.584    0.613
        51  -8.9374     56.4792    197.4938   7.7194194279e+01   2.5405296226e+01    0.1292864    0.1134986  67.35 0.0001187414    1.033    0.032
        52  -9.7474     40.4785    197.0259   8.0942308521e+01   2.7331240125e+01    0.1855605    0.1143183 -80.35 0.0003613469    1.545    0.353
        53 -11.9980     15.6214    192.1068   8.6422790419e+01   3.0911547422e+01     0.368123    0.3449045 -25.69  0.001853189    1.479    0.324
        54  -9.3663    186.3956    193.2442   4.7120850289e+01   7.1728681586e+00    0.1735623    0.1202092 -45.86 0.0009311604    1.615    0.381
        55  -9.7772     60.9846    192.1244   7.5584015282e+01   2.6087740088e+01    0.2704199    0.1548478  32.99  0.001357692    1.697    0.411
        56  -9.1889    145.3430    190.2860   5.5227800736e+01   1.4144015954e+01    0.1397663    0.1026333  -2.65 0.0006525891    1.643    0.391
        57 -10.7806    244.2894    188.2561   3.5934235394e+01  -1.9676013091e-01    0.1963378    0.1348335  20.52 0.0008906695    1.459    0.315
        58  -9.4569      2.3148    187.3146   8.9257168093e+01   3.3128786084e+01    0.1132002   0.08455244 -55.45 0.0005040874    1.643    0.391
        59  -9.8998     61.8945    184.6872   7.4571749556e+01   2.7716715954e+01    0.2224417    0.1746154 -64.11 0.0007887757    1.310    0.237
        60 -11.7679     15.8755    182.4057   8.5806123550e+01   3.3158692553e+01    0.4398502    0.2110831  65.17  0.002173522    1.898    0.473
        61 -10.7406     23.3433    180.4080   8.3849513626e+01   3.2962300290e+01    0.3454944    0.1596981  56.27   0.00104925    1.976    0.494
        62  -9.3345    225.5662    188.4728   3.9045677158e+01   2.2537764259e+00    0.1279947   0.09794033  -9.90 -1.523956e-05    1.065    0.061
        63  -9.5079      1.4868    180.4748   8.9149511733e+01   3.4788127142e+01    0.1234246   0.09839804  79.15 0.0008095169    1.049    0.047
        64 -10.4817     18.1432    173.1757   8.4655039214e+01   3.5189790060e+01    0.1875067    0.1243046  65.74 0.0006087602    1.312    0.238
        65 -11.0825      7.8336    172.4784   8.7206275605e+01   3.6214752532e+01      0.24594    0.1562438 -86.76  0.001402889    1.321    0.243
        66 -10.2963    250.5148    172.4999   3.1999358017e+01   1.2137023442e+00    0.1242758   0.09396995 -17.43 -3.143931e-05    1.005    0.005
        67  -9.1716    116.3107    170.3679   5.8649686791e+01   2.3134141691e+01    0.1514057    0.1115585 -20.01  0.000703689    1.764    0.433
        68 -10.3185     67.5131    165.9222   7.0809349368e+01   3.1583101417e+01    0.2136739    0.1332309 -69.80 0.0006111052    1.547    0.353
        69  -9.4072    117.2967    161.7091   5.6823606524e+01   2.4970442846e+01    0.1463917    0.1145397  73.39 0.0002240581    1.557    0.358
        70  -9.5819     55.3040    159.3411   7.3322299432e+01   3.4816636010e+01    0.1430355    0.1028032 -40.67 0.0005283849    1.679    0.404
        71  -9.7306     19.7940    157.8749   8.3085343203e+01   3.8881782360e+01    0.1812677    0.1622048 -70.45  0.001144613    1.212    0.175
        72  -9.1580     67.2962    157.7077   6.9716584181e+01   3.3698851082e+01    0.1483348    0.1021157  67.99 0.0002250254    1.559    0.358
        73 -10.2089    250.6532    155.4822   2.8625165313e+01   3.6677430331e+00     0.231846   0.09470695 -33.94  0.001089685    1.948    0.487
        74 -10.5334    216.3933    154.5884   3.3889232798e+01   9.0122509366e+00    0.2341714    0.1940103 -21.54  0.000172213    1.016    0.016
        75  -9.9117    158.5297    153.8349   4.5227587287e+01   1.9326227532e+01    0.2949173    0.1925979  20.26  0.001303178    1.895    0.472
        76 -12.3546     13.6747    148.1399   8.4018595335e+01   4.1889070073e+01    0.4417854    0.2397244 -65.60 0.0002530736    1.639    0.390
        77 -10.4132     17.5140    143.5283   8.2513208522e+01   4.2792833755e+01    0.3153478    0.1435897  62.13  0.001095871    2.324    0.570
        78 -10.8887     14.0559    140.1760   8.3243860689e+01   4.3942369056e+01      0.45043    0.1906149 -51.52   0.00157566    2.486    0.598
        79  -9.5363    221.8320    151.2278   3.2251266063e+01   8.6921882787e+00     0.208514    0.1502924 -73.56  0.000960658    2.913    0.657
        80  -9.0522    145.2949    151.6663   4.7832043787e+01   2.2241287947e+01    0.1478509    0.1206793 -89.63 0.0004391872    1.641    0.391
        81  -9.8594     81.8266    150.3837   6.4410113069e+01   3.3510897064e+01     0.203447    0.1455914  17.44 0.0009327169    1.732    0.423
        82  -9.0406    143.7279    148.6417   4.7551516857e+01   2.3200523413e+01    0.1555157    0.1150566 -17.17  0.000700033    1.648    0.393
        83  -9.8341     91.4739    147.5118   6.1134360999e+01   3.2742707433e+01    0.2892746    0.1216945 -48.37  0.001036955    2.412    0.585
        84  -9.6274    233.9751    146.7162   2.9331082180e+01   7.4939317346e+00    0.1823216     0.147724 -21.97 0.0006001667    1.016    0.015
        85 -10.8695     40.3085    146.0282   7.5994810429e+01   4.0015130664e+01    0.3927341    0.1515785  30.71  0.001560364    2.620    0.618
        86 -10.6309     30.0151    145.3815   7.8990142453e+01   4.1216931867e+01    0.2422286    0.1710062 -79.01  0.001298774    1.226    0.184
        87 -10.3014     24.6888    146.6069   8.0690249925e+01   4.1379967721e+01    0.2391648    0.1388857  14.60  0.001143533    2.228    0.551
        88 -10.3136    217.5454    144.9815   3.1628014779e+01   1.0446069348e+01    0.2843751     0.160627  22.90  0.001268984    2.441    0.590
        89 -10.5603      6.9245    145.2828   8.5734178676e+01   4.3122399087e+01    0.3069036    0.1567048  18.33  0.001244206    2.392    0.582
        90  -9.2168    155.6972    144.6795   4.3850588826e+01   2.1794074556e+01     0.154062    0.1157989  -9.51  0.000350297    1.629    0.386
        91 -10.9659    239.7564    140.1579   2.7056823880e+01   7.6272829866e+00    0.2348575    0.1840268  -6.40 0.0005866454    1.263    0.208
        92 -10.2616    235.4740    137.9946   2.7235759970e+01   8.6496271966e+00    0.1921284    0.1765572 -32.36 0.0003533433    1.234    0.189
        93  -8.9813    188.5302    139.5413   3.5689196268e+01   1.6586696028e+01    0.1459541    0.1305828 -27.57 0.0001151201    1.031    0.030
        94 -10.6496     44.1049    137.5918   7.3724240582e+01   4.1856745142e+01    0.3006383    0.1859875 -65.51  0.001442887    1.432    0.302
        95 -13.0291     37.5525    135.2514   7.5463211951e+01   4.3182809603e+01    0.3856345    0.2695681 -85.78   0.00125658    1.316    0.240
        96 -11.6046    241.6575    134.2580   2.5514014752e+01   8.2548929184e+00    0.2989141     0.191537 -23.46  0.001100205    1.383    0.277
        97  -9.8124     20.6118    134.7785   8.0728063622e+01   4.4861727554e+01    0.2737809    0.1237723 -83.77  0.001151923    2.042    0.510
        98 -10.8604     17.0492    131.2062   8.1478976652e+01   4.6096148277e+01    0.3217763    0.2491832  39.22  0.001198987    1.415    0.293
        99 -11.7211     57.6212    132.5607   6.8671310655e+01   4.1600701313e+01    0.3896619    0.3015118 -36.61 0.0008018356    1.488    0.328
       100 -10.7428     53.1342    133.0479   7.0183982757e+01   4.2030511455e+01    0.3419532    0.2180224 -54.35 0.0002540567    1.489    0.329
       101 -12.8241     81.4797    124.9719   5.9594728779e+01   4.0186877219e+01     1.062993    0.5625256 -50.53  0.004306906    1.784    0.439
       102 -10.8961     67.4011    127.7559   6.4662962142e+01   4.1572730552e+01    0.3454881    0.1804207 -66.02   0.00135773    1.833    0.454
       103 -10.3468    217.0289    129.1949   2.8187279977e+01   1.3236882751e+01    0.2405318    0.1744714 -32.99  0.000410702    1.162    0.139
       104 -10.6617      4.8188    130.0501   8.5210355096e+01   4.7243608926e+01    0.1981741    0.1795616  82.73 0.0003775539    1.143    0.125
       105 -11.2508     46.7703    124.3448   7.0836387027e+01   4.5138124039e+01     0.354353     0.283362  -8.92 0.0007213566    1.607    0.378
       106 -10.5327     38.9248    126.4929   7.3788650174e+01   4.5409895715e+01    0.1995253    0.1450892  27.04 0.0008063305    1.566    0.361
       107 -11.0135     24.7826    127.1892   7.8544001941e+01   4.6553133857e+01    0.3981175    0.1905005 -66.96  0.001480095    1.733    0.423
       108 -10.1878    229.4042    124.2144   2.5109492447e+01   1.1900243630e+01     0.200995     0.106263 -42.37 0.0009155179    1.665    0.399
       109 -11.6991     73.7315    128.8183   6.2848283914e+01   4.0369172511e+01    0.3553914     0.341492   4.53 0.0005514647    1.180    0.153
       110 -10.8755     10.1613    122.1813   8.2798740807e+01   4.8996262191e+01    0.2771676    0.1995309  54.67 0.0006846294    1.432    0.302
       111 -10.1356      7.7010    119.3178   8.3335105655e+01   4.9916950122e+01    0.2417074    0.1695047 -67.38 0.0005759374    1.222    0.182
       112  -9.2374    225.9058    123.0000   2.5364762079e+01   1.2711751540e+01    0.1885675   0.08000434  48.99 0.0007868367    2.835    0.647
       113 -11.2530     69.3328    121.5626   6.2793662697e+01   4.2950368888e+01    0.3643508    0.2492059   6.10  0.001376942    2.088    0.521
       114 -10.6558     61.3073    121.3378   6.5415845819e+01   4.4138753353e+01    0.2525139    0.2160867 -42.30 0.0005258547    1.228    0.186
       115 -10.6288     56.9746    121.2702   6.6858675617e+01   4.4729322823e+01    0.2779019    0.1965419  83.55 0.0004919859    1.598    0.374
       116  -9.3463     35.6093    121.2317   7.4115266110e+01   4.7174873718e+01    0.2121756    0.1129125 -60.92 0.0009447928    1.613    0.380
       117 -11.4883    249.0219    117.7451   2.0913559009e+01   9.6402154400e+00    0.3603399    0.1942306 -19.99  0.001706341    2.091    0.522
       118  -9.6490     25.3737    114.8015   7.6724701840e+01   4.9858191196e+01     0.364219    0.1343973 -56.78  0.001429607    2.256    0.557
       119 -10.4357      2.0370    117.2579   8.5036825818e+01   5.0790528098e+01    0.3240721    0.1896008 -47.15  0.001673263    1.789    0.441
       120 -10.9491     15.9979    115.3712   8.0081441972e+01   5.0429108484e+01    0.2960781    0.2079832 -81.42  0.000428175    1.204    0.169
       121 -11.6846     13.5344    110.3359   8.0341981444e+01   5.1955410809e+01    0.4243939    0.3248811  36.08  0.001425668    1.488    0.328
       122  -9.9881    182.1079    114.8272   3.0958068039e+01   2.2618808577e+01    0.2247997    0.1926452 -58.78 0.0005368665    1.259    0.206
       123 -10.8261    102.9637    115.1781   5.0612358611e+01   3.8947334969e+01    0.2620758    0.1923369  -0.22  0.001097802    1.992    0.498
       124 -10.7928     70.5048    114.6420   6.0908678990e+01   4.4619978228e+01    0.3479036    0.2376001  78.49  0.001490525    1.934    0.483
       125  -9.6322     25.3348    118.6691   7.7270995778e+01   4.8812163828e+01    0.2136988    0.1542655  77.35  0.001120272    1.376    0.273
       126 -10.8312     38.9144    111.5414   7.1376326868e+01   4.9476048226e+01    0.2722992    0.1867791 -78.03 0.0005650491    1.357    0.263
       127 -11.7664     31.0429    108.2856   7.3686534360e+01   5.1130003647e+01     0.664106     0.396355  77.20  0.002969523    1.991    0.498
       128 -10.6970     64.4806    131.0440   6.6216071251e+01   4.1099287001e+01    0.2442345    0.2173999  -6.04 0.0006921223    1.356    0.263
       129 -11.4671     55.2222    109.8667   6.5188099495e+01   4.8032197126e+01    0.3360509    0.2586709 -57.21 0.0005594613    1.170    0.145
       130 -10.3649     20.6911    108.3311   7.7490831881e+01   5.1986658565e+01    0.2293265    0.2234609 -39.30 0.0007220609    1.205    0.170
       131 -10.4450     62.5803    107.2195   6.1977515829e+01   4.7747228349e+01    0.2268222    0.1268995 -51.19  0.000760422    1.631    0.387
       132 -10.2622      3.2599    105.5202   8.3494120147e+01   5.3849073053e+01    0.3426625    0.1949254 -80.51  0.001460419    1.440    0.305
       133  -9.8190     59.3093    106.2950   6.2939637078e+01   4.8447115707e+01    0.1533701    0.1098514 -33.16  0.000300014    1.590    0.371
       134 -10.8428     71.0071    101.4969   5.7581851433e+01   4.8001887088e+01    0.3190213    0.2258441 -32.62 0.0008054404    1.602    0.376
       135 -11.7146     75.0726    103.8582   5.6755165823e+01   4.6743856441e+01     0.486365    0.2776165 -60.93 0.0003772592    1.702    0.413
       136 -10.6056     76.6776     97.7006   5.4564157762e+01   4.8065012451e+01    0.2604493    0.2288384   5.40 0.0008397361    1.308    0.236
       137 -10.4428     50.6645    104.0242   6.5600241350e+01   5.0176982864e+01    0.2611912    0.2278641   3.27 0.0006615163    1.349    0.259
       138  -9.1971     42.5976    103.8023   6.8566803661e+01   5.1178497339e+01    0.1965447    0.1297125 -77.36  0.000388962    1.488    0.328
       139  -9.6472     80.7775    103.6033   5.4723643489e+01   4.5867579215e+01    0.2175352    0.1447039  48.20 0.0009482127    1.662    0.398
       140 -10.3782     23.6340     99.8651   7.5088405386e+01   5.4044147756e+01    0.3956417    0.1582933 -56.67   0.00162373    2.025    0.506
       141 -11.1241     61.8810     99.0459   6.0276831799e+01   5.0007377894e+01    0.4723083    0.2654909 -44.57  0.001987589    1.747    0.428
       142  -9.4003    108.7973    100.6070   4.4890840042e+01   4.1357893191e+01     0.209745    0.1519099  55.48 9.846957e-05    1.558    0.358
       143 -10.4249     94.8082     97.7856   4.8439391951e+01   4.4799490485e+01    0.2123252    0.1834739 -86.55 0.0003517224    1.318    0.241
       144  -9.1978     87.3035     97.2967   5.0781693743e+01   4.6316947546e+01    0.1570993    0.1211908 -20.09 0.0003375314    1.582    0.368
       145  -9.2602     66.9613     97.7771   5.8081824076e+01   4.9590710053e+01    0.1831749    0.1292839  31.06 0.0002640933    1.567    0.362
       146  -9.4106     52.2951     96.9971   6.3391267149e+01   5.1845557135e+01    0.2102026    0.1638249 -57.56 0.0001734518    1.137    0.120
       147 -10.4534     16.6205     96.2634   7.7252595760e+01   5.5532356084e+01    0.3076802     0.191969 -39.70  0.001550109    1.682    0.406
       148 -10.3914     57.0572     96.0142   6.1332269281e+01   5.1476206997e+01    0.2265371    0.2036453 -57.73 0.0003305263    1.003    0.003
       149  -9.6945    226.4669     93.3247   1.8313814269e+01   1.7484346105e+01    0.2101712    0.1574532 -72.44 0.0005676495    1.688    0.408
       150  -9.8391     31.5165     92.8441   7.0679900876e+01   5.5248215476e+01    0.2156282    0.1764201 -48.22 0.0004292855    1.157    0.136
       151 -11.1940     35.6708     90.4749   6.8490103686e+01   5.5476217842e+01    0.3003653    0.2471243 -49.75 0.0005674285    1.119    0.107
       152 -11.8305     57.4608     90.6611   5.9799604729e+01   5.2815887648e+01    0.4306798    0.3249428 -32.32 0.0007193891    1.421    0.296
       153  -9.5167    105.2755     91.3770   4.3212357568e+01   4.4248645208e+01    0.1646561    0.1229068 -17.88 0.0007003473    1.698    0.411
       154 -10.2011     23.2063     90.2617   7.3574713258e+01   5.6651599764e+01    0.2939981    0.2410763  -1.63  0.001515399    1.459    0.314
       155 -10.8712     95.4590     88.8318   4.5543813408e+01   4.6825574526e+01    0.4538339    0.3022047  47.98  0.001386174    1.630    0.387
       156  -9.9665     47.8327     89.2188   6.3246207102e+01   5.4450074021e+01     0.269873    0.1533133  68.48 0.0009831019    3.054    0.673
       157 -10.8200    184.8400     85.1972   2.2566852156e+01   2.7555096184e+01    0.2367062    0.2050275 -45.16 0.0003144292    1.041    0.039
       158 -10.0228    109.7314     86.1281   4.0213098088e+01   4.4508397818e+01    0.2352216    0.2099128 -68.95 0.0008852408    1.194    0.163
       159 -11.2721     64.1294     82.3641   5.4830736404e+01   5.3942955958e+01     0.633971    0.2947584 -59.68  0.001930792    2.213    0.548
       160 -10.2513     69.3187     83.0705   5.3033071825e+01   5.2945269731e+01      0.49102    0.2704379 -73.07  0.001134283    3.036    0.671
       161  -8.8367     21.6155     85.7138   7.3377611572e+01   5.7981330435e+01    0.1494547   0.08837552 -38.53 0.0007010934    1.743    0.426
       162  -9.4649      8.5772     84.8234   7.8768416081e+01   5.9065940806e+01    0.1954691    0.1124721 -87.13 0.0009408807    1.689    0.408
       163  -9.1498     34.2639     84.3672   6.7696622342e+01   5.7225924754e+01    0.1545441   0.09080874 -42.41 0.0005219318    1.651    0.394
       164 -10.0046     30.7698     83.5897   6.9012811187e+01   5.7765617632e+01    0.2854121    0.1366691 -55.63 0.0007032498    1.711    0.416
       165 -10.0977    119.8408     80.6968   3.5537279000e+01   4.3463933122e+01    0.3034381    0.2377146  12.23  0.001370918    1.649    0.394
       166 -10.6856     76.9550     82.1723   4.9882462581e+01   5.1870953346e+01    0.4255621    0.2455312  38.52  0.001035071    1.862    0.463
       167  -9.9185     42.5313     83.4581   6.3968190181e+01   5.6577395861e+01    0.2766928    0.1468335  25.72  0.001200228    2.142    0.533
       168  -9.9848     41.2954     79.7335   6.3519818692e+01   5.7677524974e+01    0.3098094    0.2123362  60.17  0.000931551    1.903    0.474
       169 -10.1003     21.6767     81.5406   7.2518745197e+01   5.9074479154e+01    0.2282255    0.1403771   4.24 0.0006190143    2.045    0.511
       170  -9.6296      7.9850     80.6345   7.8356546137e+01   6.0196576129e+01    0.1789084    0.1571929 -58.52 0.0004908938    1.099    0.090
       171  -9.7683      1.8700     80.3667   8.0979739317e+01   6.0557932743e+01    0.3733971    0.0297758 -54.78  0.001110363    4.356    0.770
       172 -12.5751     88.3886     77.2923   4.4182222016e+01   5.0888167130e+01    0.3557579    0.3327764  -4.33 0.0003150153    1.120    0.107
       173  -9.2892     12.9877     79.4515   7.5946733341e+01   6.0220587739e+01    0.1693843    0.1369288   9.79 0.0003425738    1.481    0.325
       174  -9.3617    165.1965     78.3804   2.4209663864e+01   3.3301945552e+01    0.1858526    0.1483738  73.26 0.0003860245    1.414    0.293
       175  -9.8647     49.9886     77.9593   5.9297907503e+01   5.7063098144e+01    0.2230718    0.1923109 -46.89 0.0003250238    1.036    0.035
       176 -10.5873    169.0037     74.6965   2.2391661110e+01   3.3064011376e+01    0.3977702    0.2875776 -41.35  0.001566086    1.264    0.209
       177 -10.4512     99.7690     75.9224   3.9919384078e+01   4.8879023104e+01     0.376271    0.2017156 -50.65  0.001463908    1.902    0.474
       178 -11.3561     22.7157     76.2393   7.0913632745e+01   6.0372857930e+01    0.3725657    0.3001517  63.68  0.001212112    1.464    0.317
       179  -9.9126     74.5640     75.1386   4.8472933524e+01   5.3958214281e+01     0.358937    0.2238336  -5.54   0.00128102    3.059    0.673
       180  -9.6622     36.8862     76.5114   6.4592662871e+01   5.8986668262e+01    0.1886162    0.1442231  21.09 0.0005286464    1.489    0.328
       181  -9.8741     54.9111     75.0000   5.6317863115e+01   5.7125511723e+01    0.2307771   0.08596577  31.60 0.0008060777    2.968    0.663
       182  -9.2297     44.4644     74.4412   6.0654893177e+01   5.8643128938e+01     0.144297    0.1305091 -57.56 0.0001399485    1.070    0.066
       183  -9.2852    207.3831     73.5304   1.5939044014e+01   2.4547093988e+01    0.1443957    0.1190237 -44.52 0.0001318636    1.039    0.038
       184  -9.8842     61.5511     73.0728   5.2929859799e+01   5.6605745024e+01    0.2304998    0.1360964 -51.26 0.0004969005    1.542    0.351
       185 -10.0498      6.8245     73.3522   7.7637051979e+01   6.2146856735e+01     0.236927    0.1589166  -9.25 0.0009312473    1.788    0.441
       186 -11.3274    160.0963     71.7536   2.3197370737e+01   3.5704982306e+01    0.2597724    0.2338391 -38.99 0.0002500961    1.057    0.054
       187 -10.1807    107.2769     72.0695   3.6247594274e+01   4.8076764253e+01    0.2161003    0.1969768 -44.55 0.0002949244    1.057    0.054
       188 -11.0471    103.0158     70.9873   3.7171309978e+01   4.9235699501e+01    0.4376449    0.2240091 -40.29  0.001700148    1.881    0.468
       189 -10.9117      6.3693     67.9614   7.6854430935e+01   6.3550100983e+01    0.2248151    0.1974435 -72.30  0.000291179    1.113    0.102
       190 -13.8617     16.3150     67.3707   7.1892797473e+01   6.3114195798e+01    0.4903847    0.4258178  89.44 0.0009051993    1.261    0.207
       191 -11.5203      3.4957     62.1637   7.7141669954e+01   6.5149125869e+01    0.6141857    0.3179277 -41.86  0.003101272    1.737    0.424
       192 -10.2970     45.0360     70.8598   5.9322553280e+01   5.9459872414e+01    0.2116027    0.1896581 -51.21 0.0003616641    1.046    0.044
       193  -8.8470    175.6888     70.2857   1.9897386396e+01   3.2248435955e+01    0.1524715    0.1089063 -65.43 0.0003475335    1.575    0.365
       194 -11.4673     92.6308     68.0927   3.9492983535e+01   5.2049966907e+01    0.4087321    0.2891202 -34.44 0.0004575411    1.402    0.287
       195 -10.3904    244.1497     69.1551   1.0501081824e+01   1.7792656565e+01    0.1782708    0.1253599 -52.72 0.0003120609    1.274    0.215
       196 -10.5268    166.1872     68.4684   2.1037408946e+01   3.4816780420e+01    0.4294951    0.2620104  88.41  0.001181245    2.552    0.608
       197  -9.0214    115.2315     69.6590   3.3084405690e+01   4.6774967091e+01    0.1552177    0.1168858 -62.96 0.0002848469    1.544    0.352
       198 -11.5477     50.4137     68.1617   5.6060975932e+01   5.9409806729e+01    0.3218132    0.2595843 -31.77 0.0004893449    1.200    0.167
       199  -9.4250    199.5872     68.2497   1.5613882310e+01   2.7091397935e+01    0.1883557    0.1289462 -25.66 0.0002328897    1.493    0.330
       200  -9.3076    147.6788     67.6607   2.4437733839e+01   3.9431882702e+01    0.1573305    0.1219091  12.12 0.0007050339    1.716    0.417
       201 -10.6303    110.6576     65.3881   3.2866697515e+01   4.8662320722e+01    0.4148092    0.3170263 -70.94  0.001409225    1.657    0.396
       202 -12.7048     30.1950     63.4094   6.4018503090e+01   6.2946309884e+01    0.4551343    0.4201247 -64.07  0.001042783    1.140    0.122
       203  -9.9320    140.2265     71.1665   2.7230003153e+01   4.0591395352e+01    0.2144682     0.181806 -73.64 0.0005763134    1.302    0.232
       204 -11.3006    160.0326     63.8800   2.0759684925e+01   3.7082888616e+01    0.3535901    0.2573152 -13.34   0.00162532    1.697    0.411
       205 -10.3900    155.1079     63.7058   2.1647759893e+01   3.8312480443e+01    0.2676896    0.2559243 -17.15 0.0004730493    1.115    0.103
       206  -9.8377    130.8936     65.1134   2.7399915303e+01   4.3956177315e+01    0.2342413    0.2057401 -60.54 0.0004786123    1.169    0.145
       207 -10.5048     81.5577     64.5611   4.2078509246e+01   5.5025307618e+01    0.3830699    0.2721404 -62.84  0.001696799    1.723    0.419
       208 -11.0365    209.7740     63.0579   1.2881335853e+01   2.5649157543e+01    0.2327892    0.1897212 -55.82 0.0003303978    1.123    0.110
       209 -10.6323    123.4988     61.9456   2.8130687313e+01   4.6309014094e+01    0.3671968    0.2556225 -17.54  0.001604129    1.749    0.428
       210  -9.3182    246.6474     61.6870   8.5332379719e+00   1.8376289880e+01    0.1192648   0.09605704   5.07  0.000704549    1.729    0.422
       211 -10.3284     90.5998     61.1514   3.7582449829e+01   5.3903829778e+01    0.2927096    0.2202728  55.13 0.0009474738    1.483    0.326
       212  -9.9890     92.8380     57.8418   3.5544448625e+01   5.4082873862e+01    0.2811317    0.2233883  56.41 0.0006250164    1.387    0.279
       213 -11.1381     89.0396     53.6847   3.5164437046e+01   5.5689242090e+01     0.621172    0.2651037 -40.25  0.002206039    2.254    0.556
       214 -11.3338     46.7347     60.1741   5.4984758600e+01   6.1789232205e+01    0.3882934    0.2845891 -17.09  0.000742897    1.529    0.346
       215  -9.2807    189.0576     60.0009   1.4822786470e+01   3.0776982128e+01    0.1688452     0.153003 -56.56 0.0003452962    1.035    0.034
       216 -10.3597    136.0148     58.7767   2.4010057415e+01   4.3836629515e+01    0.4421109    0.2760362  85.12  0.001712839    2.460    0.593
       217  -9.7387    114.5058     60.4600   2.9978449556e+01   4.8709585461e+01    0.2773888     0.135681  41.16 0.0007316683    2.318    0.569
       218 -10.6792     68.1802     57.6403   4.4588999373e+01   5.8986688353e+01    0.4492463    0.2885094 -14.62  0.001563062    2.222    0.550
       219 -10.3082    129.1566     58.6748   2.5565956894e+01   4.5529017595e+01    0.2583422    0.2032026 -47.57  0.000553576    1.255    0.203
       220  -9.7815     15.4955     58.4375   7.0076712840e+01   6.5397125467e+01    0.1936195    0.1213527  -9.89 0.0002195755    1.880    0.468
       221  -8.9685    170.6584     57.2914   1.6849474631e+01   3.5571935001e+01    0.1555439    0.1064716 -66.25 0.0007026211    1.651    0.394
       222  -9.4335    110.6344     57.3012   2.9878616349e+01   5.0192859921e+01    0.1575036    0.1204918 -77.66 0.0007034506    1.732    0.423
       223  -9.8254     80.3443     56.3321   3.9327788405e+01   5.6963420040e+01    0.3829049    0.2472761  -8.05  0.001393151    2.438    0.590
       224  -9.7145    177.0971     56.4661   1.5575387643e+01   3.4147415885e+01    0.2090015    0.1450519  68.80 0.0007997862    1.548    0.354
       225  -9.5243    161.9076     55.8340   1.7879622259e+01   3.7937571020e+01    0.2013892    0.1611137 -62.00 0.0002739591    1.264    0.209
       226 -11.1238    115.9811     55.3358   2.7672006955e+01   4.9285604843e+01    0.3666973     0.267524  75.67 0.0008418409    1.703    0.413
       227 -12.3171    149.6767     51.5685   1.8718619749e+01   4.1634791291e+01    0.5080483    0.4725462  27.97  0.001555354    1.196    0.164
       228 -11.0580    154.0119     52.3685   1.8175734971e+01   4.0432011671e+01    0.2664585    0.2246849 -34.34  0.001393659    1.160    0.138
       229  -9.2746    110.3057    249.7067   7.0580215794e+01   8.3627718701e+00    0.1161687   0.07536896  53.64 0.0004026335    1.579    0.367
       230 -10.5511      8.0410     51.5459   7.2278493167e+01   6.7538329008e+01    0.3239275    0.2074447 -77.55 0.0008010177    1.601    0.375
       231 -11.8281      6.5188     42.7148   7.0667401664e+01   6.9715105638e+01    0.9659744    0.3103701 -46.39   0.00408613    2.354    0.575
       232 -12.1591     27.7192     37.6777   5.6018140428e+01   6.9086839340e+01    0.2484252    0.2254497  -7.67 0.0002419598    1.140    0.123
       233 -11.7797    105.5732     52.5224   2.9485412986e+01   5.2223573906e+01    0.3907378    0.3052241  47.53   0.00194314    1.302    0.232
       234 -10.4064     39.0309     50.4330   5.5107032308e+01   6.4997756961e+01    0.5782765    0.2370609 -44.93  0.002361978    2.132    0.531
       235 -10.0617    133.6969     50.9679   2.1773406930e+01   4.5705522943e+01     0.310553    0.2052518 -60.63  0.001209381    1.802    0.445
       236  -9.6772    127.1498     51.3626   2.3402081424e+01   4.7256965764e+01     0.260437    0.1678682 -40.06 0.0009549694    1.505    0.335
       237 -11.1299     62.2676     49.7897   4.3851542915e+01   6.1646377679e+01    0.4499621    0.2406939 -48.54   0.00187435    1.868    0.465
       238 -11.1895      3.7665     52.9685   7.5005329652e+01   6.7410205037e+01    0.3537071      0.29146 -36.53  0.001635813    1.167    0.143
       239 -10.0360     72.7022     48.3574   3.8922901607e+01   6.0015588068e+01    0.2579381    0.1622297 -71.24 0.0009193107    3.465    0.711
       240  -9.6089     76.5361     50.4868   3.8347489250e+01   5.8861422582e+01    0.2948829    0.1956297  36.41  0.001329207    1.581    0.368
       241 -10.2407     83.2439     47.9467   3.4794378172e+01   5.7973921019e+01    0.4484448    0.3831494  21.69  0.001912139    1.210    0.173
       242  -9.6640     78.5010     47.4594   3.6312179970e+01   5.9038290783e+01    0.2245386    0.1744502   6.21 0.0005965676    1.490    0.329
       243 -10.2083    180.5691     47.5495   1.2413073858e+01   3.4638872457e+01    0.3355726    0.1940952 -54.07 0.0009421019    1.738    0.424
       244 -10.9936     54.5377     48.7920   4.6881008137e+01   6.3136738217e+01    0.4728795    0.2582704  38.30  0.001300616    1.963    0.491
       245 -11.5374     21.8362    248.7316   8.7776553384e+01   1.8657393052e+01    0.4805352    0.1454931  44.46  0.002364348    2.174    0.540
       246 -10.3807     50.1822     42.9628   4.6387810571e+01   6.5004698751e+01    0.3455676     0.247084 -25.99  0.001715364    1.371    0.270
       247 -10.1233    156.9326     47.9166   1.6194403038e+01   4.0383580683e+01    0.2136158    0.1978167  10.04  0.000445672    1.236    0.191
       248 -11.8781    245.8700     40.9307   3.8428556825e+00   2.1283988448e+01     0.444837    0.1465044 -44.40  0.001692787    2.241    0.554
       249  -9.9519    112.1245     45.3907   2.4852523955e+01   5.1877168527e+01    0.2438134    0.1997177 -16.32 0.0004236527    1.300    0.231
       250 -10.2550    237.3129     44.5166   5.3762517740e+00   2.2499457991e+01    0.1862131    0.1788392  33.72 0.0006049302    1.376    0.273
       251  -9.4793    222.3051     45.7072   7.0401041631e+00   2.5425003687e+01    0.1387808   0.08312409 -57.65 0.0002037913    1.577    0.366
       252 -10.0355     90.0035     41.3278   2.9623752034e+01   5.7661482265e+01    0.3067637    0.2700358  41.25  0.001418152    1.139    0.122
       253  -9.8510    126.8542     43.1947   2.0434720325e+01   4.8612125715e+01    0.2434129    0.1975969  76.53  0.000459968    1.320    0.242
       254 -11.4546    121.4267     42.8284   2.1536892396e+01   5.0010836179e+01    0.5685896    0.3640274 -80.09  0.002037964    2.419    0.587
       255 -11.3232     75.1895     43.7942   3.5950292181e+01   6.0371341989e+01    0.3690027    0.2344206  56.77   0.00105003    1.925    0.481
       256  -9.9655    130.9916     42.4826   1.9268805805e+01   4.7686679222e+01    0.2870536    0.2086963 -12.00  0.001355868    1.627    0.385
       257 -12.5620     44.5320     44.1276   4.9699840062e+01   6.5611812529e+01    0.5742825    0.3656911 -55.68 0.0005247133    1.712    0.416
       258 -11.5615    149.4256     40.6906   1.5079794735e+01   4.3309071429e+01    0.3287999    0.2400559 -49.36 0.0003184641    1.342    0.255
       259 -10.0108    102.3028     40.9994   2.5743965506e+01   5.4903496227e+01    0.3254291    0.2057616  24.78 0.0008736508    2.108    0.526
       260 -10.6210     97.2400     41.1291   2.7277515546e+01   5.6058717785e+01     0.406103    0.2337882  63.30  0.001097978    2.069    0.517
       261  -9.3243    186.9862     41.0164   9.6565228844e+00   3.4012971687e+01    0.1659536    0.1472711 -59.28 0.0009606479    1.014    0.014
       262 -11.7560    228.2079     37.6586   4.5123611956e+00   2.5237728881e+01    0.3420202    0.2568213  25.87  0.001562818    2.033    0.508
       263 -11.6312    222.6855     37.3008   4.9057878544e+00   2.6443611928e+01    0.5000977    0.2029728 -57.41  0.002058178    2.666    0.625
       264 -11.5590     75.8460     34.1281   3.1222931052e+01   6.1869854687e+01    0.4620427    0.3228084 -48.43  0.002103198    1.636    0.389
       265 -11.6474     83.5894     36.9679   2.9806205421e+01   5.9772390624e+01    0.4970939    0.4057671  42.09   0.00132156    1.220    0.180
       266 -10.3898     88.0727     32.4410   2.6242024182e+01   5.9471714382e+01    0.2944635    0.2079287   4.64 0.0007491625    1.744    0.427
       267 -10.9344     24.4672     34.5601   5.6576538606e+01   7.0088891931e+01    0.3358464    0.2033809 -33.37 0.0005500797    1.504    0.335
       268 -10.3787    233.8878     39.5447   4.4865024047e+00   2.3830782835e+01    0.2783042    0.1190176  86.74  0.001132739    3.407    0.706
       269  -9.2552    159.2345     38.5667   1.2754038568e+01   4.1137747437e+01    0.2099931    0.1249406  52.48 0.0009471242    1.763    0.433
       270 -11.3359    248.1146     36.2255   2.6063422343e+00   2.1442356400e+01    0.2299356    0.1659262 -57.66 0.0002881052    1.176    0.150
       271 -11.4398    140.8419     36.5648   1.5170154523e+01   4.6044216024e+01    0.3053398    0.2413351 -35.37   0.00030986    1.247    0.198
       272 -10.1750    136.2102     35.9266   1.5803946815e+01   4.7301214664e+01    0.2513158    0.2089981  71.27 0.0007566417    1.205    0.170
       273 -11.5271     65.5797     36.6572   3.6472124828e+01   6.3502834413e+01    0.3452683    0.2476119  48.04 0.0008594128    1.518    0.341
       274  -9.4845    101.6714     34.2601   2.3048418617e+01   5.6060961451e+01    0.2154814    0.1783103 -40.93 0.0003987676    1.242    0.195
       275 -10.7657    100.6906     30.4596   2.1656346863e+01   5.6823537324e+01    0.4626114    0.2662781  23.81   0.00185405    2.509    0.601
       276 -10.1057     34.1539     33.1993   5.0223402174e+01   6.9223451504e+01    0.2350392    0.1714812 -38.49  0.001059288    1.214    0.176
       277  -9.7554    105.0177     47.0269   2.7454270349e+01   5.3294904294e+01    0.2471305     0.185089 -75.52  0.001135491    1.816    0.449
       278 -10.3127     10.7978     24.6074   6.0977611031e+01   7.3406681098e+01    0.3130631     0.171681 -37.92 0.0009116271    1.525    0.344
       279 -10.0952    182.7696    246.6066   5.6229983911e+01  -4.3514999971e-01    0.1604068    0.0893722  35.56 0.0009533186    1.640    0.390
       280 -10.5539     12.0704     29.3008   6.2209384826e+01   7.2331210877e+01    0.2632395    0.2148222 -24.04 0.0009082535    1.099    0.090
       281 -10.3345     15.7591     31.9931   6.0925498884e+01   7.1459323929e+01    0.2515047    0.1681306 -35.89 0.0003654921    1.264    0.209
       282 -10.4187     19.2432     31.0209   5.8242313270e+01   7.1347235422e+01    0.2250322    0.1824654 -30.16 0.0007702713    1.024    0.023
       283 -10.9186    110.5280     34.1864   2.0709754603e+01   5.3940089969e+01    0.3571245    0.2597992  26.21  0.001672213    1.594    0.373
       284 -10.4658     49.0368     28.7490   3.9985833277e+01   6.7818123477e+01    0.3574336    0.2302825   4.20  0.001436275    2.017    0.504
       285 -12.1943    213.9686     25.8150   2.7580576973e+00   2.9741528442e+01    0.4413208    0.4232013  39.64  0.002789751    1.339    0.253
       286 -10.0979    218.9908     25.4877   2.2679168059e+00   2.8685481859e+01    0.2189521    0.1467059 -48.83  0.000435149    1.221    0.181
       287 -11.2449    198.5668     28.4955   4.8529499037e+00   3.2895569483e+01    0.3527193    0.2170347  86.61  0.001803313    1.723    0.420
       288 -10.5009     79.9519     27.5171   2.6556535519e+01   6.1979078491e+01    0.3043077    0.2045859 -25.99  0.001284197    1.487    0.327
       289 -11.1334    234.2372     27.4918   1.5995715439e+00   2.5247060909e+01    0.2358248    0.1427185 -36.36 0.0006461994    1.376    0.273
       290 -11.7966    238.7626     25.8183   8.9043161204e-01   2.4531064378e+01    0.3532861    0.1775068 -74.72  0.001775552    2.237    0.553
       291 -11.3202    112.1863     26.6347   1.7162053114e+01   5.4526483212e+01    0.4208347    0.3067856 -12.24  0.001243101    1.523    0.344
       292 -10.5545    176.6778     26.6438   6.6457327609e+00   3.8327238731e+01    0.2480759    0.2058583 -57.18 0.0001977833    1.091    0.083
       293  -9.3238    134.8373     27.1399   1.2814050713e+01   4.8774065374e+01    0.1941105    0.1535273  46.81 0.0004483041    1.306    0.234
       294 -10.4007    119.3686     27.1858   1.5818235027e+01   5.2672178434e+01    0.2378804    0.1840511  50.81 0.0006717868    1.265    0.209
       295 -10.0521     61.1933     26.6337   3.3255839275e+01   6.5971207263e+01    0.2373188    0.1669691  31.79  0.001222849    1.415    0.293
       296 -10.0466     98.7371     26.1312   2.0250209557e+01   5.7858186650e+01    0.2017541    0.1902893 -46.62 0.0004780592    1.131    0.116
       297  -9.8577    100.4478     22.5400   1.8187146252e+01   5.7890744442e+01    0.3562745    0.1164687  45.32  0.001199575    3.173    0.685
       298 -10.3839     72.1338     25.7472   2.8438030490e+01   6.3902739277e+01    0.3845572    0.2081535  50.20  0.001223778    1.841    0.457
       299 -10.6499     73.3215    244.3460   7.7503133823e+01   1.3861780703e+01    0.2695279    0.2060404  23.70  0.001061693    1.406    0.289
       300 -12.0132     74.7011    239.7546   7.6858401853e+01   1.4528178042e+01    0.4935217    0.4072281 -66.72  0.003434269    1.421    0.296
       301 -10.2070     91.5874     24.6060   2.1521158356e+01   5.9737437254e+01    0.4856266    0.2324128  37.24  0.001932586    2.418    0.587
       302  -9.6977      4.5178    244.0347   9.0818907655e+01   2.1129745977e+01    0.1461637   0.08703756  84.57 0.0004729675    1.499    0.333
       303 -10.0906     88.8222    241.3015   7.4106022913e+01   1.2510180394e+01    0.1989444    0.1416935 -31.12  0.001041865    2.030    0.507
       304 -10.8247    159.6580     23.1960   7.6528918703e+00   4.2948509564e+01    0.2846206    0.2547088 -60.38 0.0004496771    1.045    0.043
       305 -10.2563    156.2352     21.5630   7.5630961462e+00   4.3993597856e+01    0.1965925    0.1662306  73.26 0.0003904701    1.157    0.135
       306  -9.5243    129.2591     24.5792   1.2850103368e+01   5.0493250140e+01    0.1939557    0.1249189  54.57 0.0004991481    1.503    0.335
       307 -10.0993    149.7655    240.0254   6.1646099482e+01   4.7583892502e+00    0.1330841    0.0995878 -44.37 0.0003177572    1.569    0.363
       308  -9.9555    224.3485     22.8243   1.2009800265e+00   2.7850239168e+01    0.1702397     0.110222 -22.37 0.0004121075    1.687    0.407
       309  -9.4731     54.4395     22.9733   3.4255276541e+01   6.7794960979e+01    0.2005702    0.1237472 -31.40 0.0005082214    1.553    0.356
       310 -11.4420     34.1344     22.6632   4.4682247955e+01   7.1169124411e+01    0.2459398    0.1908589  -1.63  0.000234946    1.228    0.186
       311 -12.1276    242.1049     21.8376   3.5975839087e+02   2.4328475629e+01    0.4841326    0.2173042 -84.96  0.002312774    2.716    0.632
       312 -10.2672      3.6960    238.5911   9.0810084629e+01   2.2221593350e+01    0.2121217     0.123262 -85.35  0.001138122    1.645    0.392
       313 -10.1435    195.9951    238.2018   5.2623186478e+01  -9.4866033837e-01    0.1919148    0.1500286 -15.93 0.0009235147    1.226    0.185
       314 -10.6096     40.1139    237.1354   8.3687129612e+01   1.8962270043e+01    0.3484391    0.1385498  56.41   0.00122881    2.204    0.546
       315 -10.3349     82.3215     21.5624   2.2828641668e+01   6.2243575772e+01    0.2675367    0.1493009 -38.42 0.0009058504    1.881    0.468
       316 -10.7722     69.1269     21.2355   2.7194983657e+01   6.5151657659e+01    0.2668327    0.2204104 -39.84  0.001527129    1.336    0.251
       317 -10.9789    193.1518     20.7351   3.2246366284e+00   3.5063760132e+01    0.2821411    0.2273774 -28.00 0.0002954759    1.297    0.229
       318 -10.0537    193.2390     16.3786   2.0066590992e+00   3.5524457159e+01    0.2585954    0.1545048 -72.55 0.0008345291    1.680    0.405
       319 -10.4357    122.1040     20.0819   1.2413951791e+01   5.2812181330e+01    0.4065512    0.1987008  37.19  0.001044709    2.576    0.612
       320  -9.2086     74.4742     21.4246   2.5360654329e+01   6.3991522911e+01    0.1366227    0.1249709  17.76 7.045169e-05    1.012    0.011
       321  -9.7264     58.9506     21.3154   3.1325584117e+01   6.7187386786e+01    0.1884628    0.1584443  28.22 0.0004596134    1.135    0.119
       322 -10.8745     34.9733    237.6969   8.4741591920e+01   1.9394751884e+01    0.2609627    0.1177991  58.83  0.001269941    1.903    0.474
       323  -9.6820     24.4884     20.4384   4.9401889049e+01   7.2832377025e+01    0.1922351    0.1477211 -38.71 0.0005432894    1.231    0.188
       324 -10.2802    230.0775     20.3129   1.9205286469e-01   2.6937514356e+01    0.1769979    0.1481756  62.27 0.0005826738    1.477    0.323
       325 -10.6551     30.7608    234.3738   8.5407162295e+01   2.0467231833e+01    0.3606104    0.1667172  82.94  0.001356135    2.239    0.553
       326 -10.3406    101.0183     17.5359   1.5780199090e+01   5.8322475085e+01    0.3453403    0.2536326  50.01  0.001838717    1.282    0.220
       327 -10.8014    160.8792    234.6746   5.8751367917e+01   4.1009033481e+00     0.299599    0.1464265 -36.53  0.001549787    2.339    0.572
       328 -10.2796     45.9704    244.3194   8.2940175210e+01   1.6985588661e+01    0.2752228   0.09628357  37.61  0.001266774    2.126    0.530
       329  -9.3637     44.9703     19.4958   3.6862329690e+01   6.9993107403e+01    0.1750456    0.1194488  66.32 0.0008095269    2.747    0.636
       330 -11.2624    182.9471    234.3353   5.4464865920e+01   1.2400723352e+00    0.2532493    0.1913428  29.44 0.0009269656    1.258    0.205
       331  -9.8102    118.8544     16.7532   1.1676618412e+01   5.3986391067e+01    0.2273105    0.1491549 -77.34  0.001061753    1.894    0.472
       332 -10.4596    109.2302     16.8099   1.3619364548e+01   5.6384413663e+01    0.2560724    0.1828029  57.23 0.0007702498    1.314    0.239
       333  -8.9355     94.3394     17.2834   1.7312778629e+01   5.9957332243e+01    0.1466791    0.0958663  32.37 0.0002607993    1.630    0.386
       334  -9.8059     35.6907     17.1286   4.0503921402e+01   7.1853883321e+01    0.1753285    0.1386351 -19.45 0.0002552061    1.114    0.102
       335 -10.6058    217.1379     16.0253   4.3751638498e-02   3.0164185647e+01    0.4041142    0.1543693  66.93  0.001828833    2.685    0.628
       336 -10.1190    151.1809     15.2593   6.0954084318e+00   4.5943108925e+01    0.2035959    0.1851493  -8.17 0.0002914876    1.243    0.195
       337 -10.5116     54.7930    231.4908   8.0333678249e+01   1.8435417985e+01    0.2601911    0.1843364 -60.52  0.001584156    1.668    0.400
       338  -9.5814     76.5191     15.6293   2.1629519784e+01   6.4251650475e+01    0.1908872    0.1642663 -21.81 -5.787415e-05    1.186    0.157
       339 -10.5887     73.2247     15.9892   2.2913486665e+01   6.4934408115e+01    0.2674731    0.2262679 -12.67 0.0009800472    1.165    0.142
       340 -10.1831      6.9907    249.2958   9.0523855201e+01   1.9945838623e+01    0.2003673    0.1488729  83.13 0.0006064311    1.287    0.223
       341  -9.6238    159.7105     15.0524   4.9835757531e+00   4.3817630853e+01    0.1820546    0.1647006 -47.38  0.000286563    1.097    0.088
       342 -10.0310    227.0242     14.5106   3.5901126183e+02   2.8220053160e+01    0.1797381    0.1412851 -57.79 0.0005191967    1.028    0.027
       343  -9.4719    116.0000    240.9693   6.8529761192e+01   9.0760022939e+00    0.1692736   0.06916998 -57.69 0.0008028039    2.945    0.660
       344  -9.9460    248.5134    229.4757   4.2362320156e+01  -5.9652559571e+00    0.1104936   0.07940276  -4.04 0.0008098422    1.031    0.030
       345 -10.6184     54.0657     14.3194   2.9410373541e+01   6.9074809879e+01    0.1850691    0.1601686  35.18  0.001137467    1.172    0.146
       346  -9.7264     39.2154    229.1678   8.3406262901e+01   2.0610075515e+01    0.1751224    0.1043218  55.68 0.0008057626    1.367    0.268
       347 -10.3633      4.5085    225.7885   9.0249922583e+01   2.4644373164e+01    0.2559889    0.1510541  22.00  0.001578492    2.049    0.512
       348 -10.1279     79.3713    223.4190   7.4438092168e+01   1.7058688949e+01    0.2489293    0.1875124 -10.85  0.001310167    1.980    0.495
       349  -9.2824    124.3476     12.8345   9.1231213567e+00   5.2992839494e+01    0.1925095    0.1300907  -4.35 0.0009490354    1.764    0.433
       350 -10.0637     16.1830    221.8630   8.7758451269e+01   2.4387712488e+01     0.139446    0.1279869  88.08 0.0004533568    1.312    0.238
       351 -10.8352     63.9717     17.6685   2.7220529021e+01   6.6682603915e+01    0.2284609    0.1830827 -25.67 0.0005670016    1.245    0.197
       352  -9.6791     70.7103    221.3758   7.6134607553e+01   1.8551635041e+01    0.1331781   0.07866183  62.96 0.0007020291    1.729    0.422
       353  -9.2556    126.3184    220.6356   6.3950945531e+01   1.1235824125e+01    0.1293186   0.09188676  62.53 0.0007040206    1.775    0.437
       354 -11.5985     48.9334    218.5291   8.0648380306e+01   2.1708807059e+01    0.5378801    0.2537693  32.85  0.002292308    1.923    0.480
       355  -9.5483    211.8227    218.7981   4.6763185549e+01  -2.9452205861e-01    0.1474318    0.1324743   1.41 0.0005999047    1.332    0.249
       356 -10.2571     38.6291    217.1443   8.2784548225e+01   2.3126184223e+01    0.2090857    0.1287938  47.46 0.0004989544    1.340    0.253
       357 -11.6928      8.2097    216.0969   8.9155275120e+01   2.6302522372e+01    0.2712007    0.2239216  65.29  0.001993866    1.123    0.109
       358 -11.4687      5.1699    211.1149   8.9593791161e+01   2.7615062753e+01    0.3673677    0.1798362 -85.87  0.001666665    1.821    0.451
       359 -12.1616     11.3193    209.2756   8.8221732012e+01   2.7473281462e+01    0.3523697    0.2641224  74.70  0.002098649    1.079    0.073
       360  -9.0370    204.6526    216.6742   4.7702053449e+01   9.3444751451e-01    0.1293829   0.07927922  -1.48 0.0007049724    1.749    0.428
       361 -11.1962      4.2908    205.2225   8.9553012734e+01   2.8955225372e+01    0.3094987    0.2207357 -51.80  0.001987551    1.872    0.466
       362 -10.1912     30.2347    214.4402   8.4429096467e+01   2.4569104992e+01    0.2093394    0.1129134  25.08  0.001050553    2.054    0.513
       363 -10.4793     20.0079    211.5036   8.6469018279e+01   2.6197823246e+01     0.236356     0.129401  71.68 0.0009597447    1.592    0.372
       364 -10.4693    217.2903    209.0519   4.4163146869e+01   3.6788370648e-01    0.3216665    0.1409067 -33.03  0.001617241    2.120    0.528
       365  -9.1780    193.4789    210.5217   4.8753183520e+01   3.3588534104e+00    0.1251767    0.1035567   2.01 0.0001306852    1.014    0.013
       366 -10.0694     72.0562    208.7421   7.4642739271e+01   2.1004548988e+01    0.2334101    0.1738393  14.81  0.001330098    1.656    0.396
       367 -11.3466     20.2753    199.7117   8.5781332447e+01   2.8758193059e+01    0.3253916    0.2648991 -38.70  0.002109696    1.725    0.420
       368  -9.2125     28.3095    205.6329   8.4325295810e+01   2.6665493252e+01    0.1376452   0.06954022  61.96 0.0007037211    1.758    0.431
       369  -9.7497    174.8654    201.9681   5.0947913205e+01   7.4247082659e+00    0.1984681    0.1538858   1.98 0.0004988722    1.243    0.196
       370  -9.2720     68.0014    203.0000   7.5008123946e+01   2.2761264293e+01    0.2162503   0.06797115  31.18 0.0008098405    2.994    0.666
       371  -9.3911    238.4485    200.9458   3.9168014072e+01  -1.2045961980e+00    0.1709321   0.09680282 -30.94 0.0004657887    1.526    0.345
       372  -9.1726    186.4180     22.5371   4.3836175852e+00   3.6452764808e+01    0.1357333    0.1167201 -59.70 0.0001454259    1.017    0.017
       373  -9.5028    120.4634    200.0819   6.2412636857e+01   1.6048871089e+01    0.1891783    0.1320242 -53.41  0.001011916    1.541    0.351
