#   1 NUMBER                 Running object number                                     
#   2 MAG_AUTO               Kron-like elliptical aperture magnitude                    [mag]
#   3 X_IMAGE                Object position along x                                    [pixel]
#   4 Y_IMAGE                Object position along y                                    [pixel]
#   5 X_WORLD                Barycenter position along world x axis                     [deg]
#   6 Y_WORLD                Barycenter position along world y axis                     [deg]
#   7 A_WORLD                Profile RMS along major axis (world units)                 [deg]
#   8 B_WORLD                Profile RMS along minor axis (world units)                 [deg]
#   9 THETA_WORLD            Position angle (CCW/world-x)                               [deg]
#  10 FWHM_WORLD             FWHM assuming a gaussian core                              [deg]
#  11 ELONGATION             A_IMAGE/B_IMAGE                                           
#  12 ELLIPTICITY            1 - B_IMAGE/A_IMAGE                                       
         1 -15.0897    217.8376     37.4130   6.9200503310e+01   2.5960104536e+01     1.730412    0.9865825  60.14  0.008178744    1.742    0.426
         2 -15.7276    194.4883     64.6922   8.0036223356e+01   2.7916266539e+01     2.625968       1.3083 -44.80   0.01047913    2.026    0.506
         3 -16.6376    214.5704     52.5325   7.3634246462e+01   2.4722301402e+01     5.062005     2.554507 -59.79   0.01938822    2.627    0.619
         4 -15.9361    181.9941     77.6257   8.5957457598e+01   2.8936081069e+01     1.905129     1.556917  10.82  0.006848732    1.472    0.320
         5 -19.0211    217.3463     93.6779   8.4025922997e+01   1.7703650997e+01     9.197806     7.833862  16.12    0.0455553    1.328    0.247
         6 -10.4148    132.7165     31.3284   8.1219565948e+01   4.8282953499e+01    0.3507057    0.2365596 -18.00  0.001151933    1.606    0.377
         7 -12.6805    225.5080     23.4746   6.4758047872e+01   2.5806271947e+01    0.5793821     0.432154  83.16  0.001346043    1.303    0.232
         8 -10.4146    247.7463     16.0494   6.0955069485e+01   2.1483776274e+01    0.3023793    0.2026243 -35.81  0.001727081    1.405    0.288
         9 -11.8085    237.9945     10.1756   6.0378557594e+01   2.4352315396e+01    0.4138715    0.2681692  67.38  0.001817436    1.541    0.351
        10 -10.3003    117.1805      8.0395   7.5787182120e+01   5.4561724870e+01    0.2558333    0.1773726 -27.97 0.0007975249    1.534    0.348
        11 -10.1548    223.0232      8.0091   6.1119069235e+01   2.8111543639e+01    0.1924465    0.1671695 -78.47 0.0003044714    1.019    0.018
        12 -10.1067    142.9115      8.1100   7.0936442127e+01   4.8307703648e+01    0.2096876    0.1840075  47.51 0.0004745807    1.059    0.055
        13  -9.2268    126.7945      8.3534   7.3945997459e+01   5.2248786599e+01     0.184978    0.1102493  52.64 0.0002586074    1.479    0.324
        14  -9.1364     12.6657      8.6844   1.1397907637e+02   7.2082192205e+01    0.1184004    0.0658705 -20.55 0.0007047143    1.690    0.408
        15 -10.1462    209.8845      6.1629   6.1849186827e+01   3.1502244560e+01    0.1912862    0.1715606 -84.33 0.0005251041    1.027    0.026
        16  -8.9624     66.3118      6.3274   8.9002788646e+01   6.5294587597e+01    0.1319206   0.08203385  14.65 0.0007041717    1.665    0.399
        17 -11.9635    166.5379      2.3109   6.5533798049e+01   4.2833062567e+01    0.3047765    0.2185422  62.23 0.0006018772    1.251    0.201
        18  -9.8998    151.0139      2.9296   6.7876749529e+01   4.6728032214e+01    0.2671366    0.1524049 -51.98  0.001234975    2.084    0.520
        19  -9.7391    141.4583      3.5296   6.9566833593e+01   4.9076191533e+01    0.2672702   0.09022903  55.02  0.001032319    2.395    0.583
        20  -9.5288     26.4709      3.5334   1.0428674920e+02   7.1463274288e+01    0.1157921   0.08718492 -11.92 2.306579e-05    1.016    0.016
        21 -16.8152    227.0800     77.4702   7.8373481071e+01   1.8032507452e+01     2.855676     1.376235  69.98   0.01096404    2.759    0.638
        22  -8.9762     57.3176      1.2837   8.9698952855e+01   6.7377571688e+01    0.1252066   0.07777277  15.78 0.0001920934    1.585    0.369
        23 -10.9723    180.3237    222.9041   1.1816189040e+02   3.6257178304e+00    0.5035778    0.1528813  40.97   0.00200769    2.766    0.639
        24 -11.6830    229.9734    249.9249   1.1353873339e+02  -7.5587758851e+00    0.4373699    0.1468451  33.72  0.002076602    2.548    0.607
        25  -9.9415    222.2488    250.4052   1.1488988691e+02  -6.4872574941e+00    0.1513146   0.08745563  42.41 0.0005883721    1.567    0.362
        26  -9.7502    192.0394    250.6128   1.2004176377e+02  -1.9533223114e+00    0.1691731   0.08753993  39.44  0.000975428    1.500    0.333
        27 -10.0686    165.0586    249.3422   1.2456913891e+02   2.4227742921e+00    0.1843572    0.1461383  67.31 0.0006309256    1.532    0.347
        28  -9.3305    124.9746    250.0062   1.3168558179e+02   8.5515751543e+00    0.1378858    0.1102132  53.64 0.0004435456    1.048    0.045
        29 -10.8193     63.3925    220.0237   1.3989775566e+02   2.2445806911e+01    0.2925189    0.1530939  60.49 0.0007760833    1.660    0.397
        30 -10.9563     59.5034    215.0113   1.4019113079e+02   2.3887445256e+01    0.4043687    0.1883686  49.51  0.002262231    1.772    0.436
        31 -10.1961     88.6960    219.9061   1.3516428986e+02   1.8989748044e+01    0.2315294    0.1878054  10.79  0.001451739    2.018    0.504
        32 -10.4593    178.4641    216.9474   1.1759412503e+02   4.8233810683e+00    0.2010082    0.1538274  22.62 0.0005780933    1.298    0.230
        33  -9.3574      6.2608    217.6485   1.4978877673e+02   2.9260433560e+01    0.1099077   0.05313857  69.85 0.0006974521    1.611    0.379
        34 -10.7618    124.5071    215.5596   1.2776911149e+02   1.4228370590e+01    0.2382993    0.2086674  31.81 0.0007673237    1.281    0.219
        35 -11.3836    202.8071    211.4615   1.1218602832e+02   1.4355837484e+00     0.396746    0.2516269 -37.58  0.001125072    1.788    0.441
        36  -9.7357    186.7729    215.3912   1.1579407235e+02   3.6234025207e+00    0.1840665    0.1023449  33.43 0.0005062695    1.644    0.392
        37 -10.8854      3.4246    214.2460   1.5010171318e+02   3.0151645229e+01    0.2013393    0.1581492  45.49 0.0001990994    1.516    0.340
        38  -9.3647     15.4963    212.4576   1.4795005903e+02   2.9341384117e+01    0.1062736   0.07827736  76.46 0.0001062051    1.053    0.050
        39 -10.2641     96.9631    209.1843   1.3239729466e+02   1.9756601448e+01    0.2273286    0.1629092 -69.82 0.0004234703    1.476    0.323
        40  -9.4401     90.2795    211.3204   1.3395096067e+02   2.0353699553e+01     0.104414   0.09724814 -21.23 0.0002532551    1.582    0.368
        41  -9.4307    232.4629    210.0680   1.0667323811e+02  -3.3119477512e+00    0.1708268    0.1132402 -26.66 0.0006431535    1.559    0.359
        42 -10.8630    157.8072    209.8584   1.2045673268e+02   9.5397460304e+00    0.2276427    0.1770066  45.29  0.001375278    1.111    0.100
        43 -10.0805    237.7119    207.3918   1.0529978604e+02  -3.8142151358e+00    0.2823727    0.2188189   3.97  0.001846185    1.136    0.120
        44 -10.5729     89.9401    206.2972   1.3345861968e+02   2.1362636670e+01    0.1724596    0.1387619  57.77 0.0004857439    1.080    0.074
        45 -11.0655    210.1447    203.6984   1.0950668640e+02   1.2741840654e+00    0.3533588    0.1887731 -37.89  0.001546213    2.066    0.516
        46  -9.5699    250.6467    202.4669   1.0223934886e+02  -5.2384405697e+00    0.1778286    0.1039271 -27.69 0.0006090634    1.680    0.405
        47 -11.5800    191.3475    201.6060   1.1263726671e+02   4.8951233077e+00    0.4746802    0.2820313  60.15  0.001729521    2.455    0.593
        48 -10.6403    156.9467    201.9429   1.1939451646e+02   1.1028663645e+01     0.211247    0.1549578  71.55  0.001136964    1.737    0.424
        49 -10.5157    170.4648    200.8213   1.1653768637e+02   8.7839488693e+00    0.2307021    0.1640855  43.01 0.0002981349    1.238    0.192
        50  -9.8413     47.0155    201.5230   1.4141552945e+02   2.8051214258e+01    0.1681209     0.101182  43.13  0.001033371    1.595    0.373
        51  -9.4437    128.4520    200.4234   1.2491587141e+02   1.6307229847e+01    0.1307666    0.1128185  55.13 5.835787e-05    1.007    0.007
        52 -10.0649    204.4901    198.4859   1.0961929592e+02   3.0230848142e+00    0.1996897    0.1232108 -48.91  0.000877145    2.099    0.524
        53  -9.5843     36.9838    199.5173   1.4317812839e+02   2.9605418409e+01     0.152719   0.09643234  47.58 0.0001031454    1.466    0.318
        54 -11.2832    214.3107    196.8818   1.0752329700e+02   1.5253161396e+00    0.3751734    0.3187026  71.34  0.001668245    1.735    0.424
        55 -11.5717    149.2006    196.0540   1.2001369020e+02   1.3456330507e+01    0.3026016    0.2664541 -36.05 0.0006140436    1.316    0.240
        56 -11.0714    243.1949    247.8742   1.1106905515e+02  -9.2235584169e+00    0.1623856    0.1309654  26.03 0.0006942215    1.258    0.205
        57  -9.9701    132.2633    246.8312   1.3006119358e+02   7.9105562622e+00    0.2030118     0.118804  49.77 0.0002868057    1.369    0.270
        58 -15.7390    211.4246     64.3968   7.7268303445e+01   2.3760440567e+01     1.346521     1.130633 -57.27   0.00662778    1.182    0.154
        59  -9.6809    161.7552    246.0081   1.2473287979e+02   3.3975488071e+00    0.1560007    0.1318814  40.16 0.0003528277    1.080    0.074
        60 -10.6843    223.1857    245.2099   1.1396698554e+02  -6.0573013808e+00    0.1761785    0.1355466  24.27 0.0004856822    1.036    0.035
        61 -15.5453    190.0816     73.9064   8.3403725642e+01   2.7544982090e+01     2.004997     1.176087  70.18  0.005612513    2.055    0.513
        62 -11.8220    225.9491    241.3935   1.1292658584e+02  -6.0441543366e+00    0.3320135    0.2670097   3.99  0.001367077    1.180    0.153
        63  -9.5656     25.9884    172.2606   1.4316479086e+02   3.6407409731e+01     0.156112    0.1247323  74.85   0.00031182    1.093    0.085
        64 -10.7175    130.0041    192.3143   1.2338920771e+02   1.7567093453e+01    0.2192906    0.1891582 -72.22 0.0003854776    1.249    0.200
        65 -10.9048    128.4761    188.4561   1.2311424173e+02   1.8578722420e+01    0.2394892    0.2118061 -47.10 0.0006800063    1.296    0.228
        66 -11.4856    117.9901    190.3820   1.2562405649e+02   2.0013676715e+01    0.4256613    0.2489304 -65.52 0.0008176573    1.949    0.487
        67 -12.3185    231.8590    164.3379   9.7990390951e+01   3.1811902307e+00    0.6452605    0.2508179  40.92  0.002621356    2.547    0.607
        68 -10.7602    211.2091    166.1102   1.0209610269e+02   6.8226111128e+00    0.2288406     0.199556  50.60 0.0003887094    1.277    0.217
        69  -9.8975     96.0009    166.0116   1.2678177172e+02   2.8734092757e+01    0.2000127    0.1803013  78.72 0.0003577071    1.015    0.015
        70  -9.3601    113.7678    193.3931   1.2694669701e+02   2.0130618826e+01    0.1750399    0.1172063  36.78 0.0003043216    1.522    0.343
        71 -10.9016    139.9457    165.0773   1.1659865628e+02   2.1131178830e+01    0.2213164    0.2088396  59.99 0.0007080529    1.007    0.007
        72 -11.5681    128.6922    164.0003   1.1893081308e+02   2.3479784956e+01    0.4119108    0.2509642  72.19  0.001255975    2.497    0.600
        73  -9.9715     56.2767    164.6416   1.3573840447e+02   3.4704646544e+01    0.2361846    0.1383409 -83.52   0.00124728    1.671    0.402
        74  -9.5202     10.4800    192.8822   1.4771706806e+02   3.3618792017e+01    0.1571459   0.08432955 -84.77 0.0005628166    1.500    0.334
        75 -10.2464    226.6040    190.2098   1.0407137951e+02   3.3253515832e-01    0.3543579    0.2392674 -45.14  0.001945078    1.848    0.459
        76 -11.6127    121.0480    162.0108   1.2031772583e+02   2.5304820378e+01    0.2545603    0.2011806  46.08  0.001198631    1.221    0.181
        77 -11.6735    231.2513    187.4431   1.0272469227e+02  -8.2961763863e-02    0.3240679    0.2683839  -7.41 0.0006086651    1.120    0.107
        78 -10.0927    243.1263    160.1716   9.5191818489e+01   1.7398413862e+00     0.219258    0.2050269 -59.72 0.0008243865    1.432    0.301
        79  -8.8844     31.3133    158.6320   1.4073855688e+02   3.8841150909e+01    0.1310043   0.07377792  72.49 0.0007037217    1.771    0.435
        80 -10.1243     16.5018    156.1716   1.4382209724e+02   4.0768965651e+01    0.2244377    0.1625524 -55.01  0.001502526    1.570    0.363
        81 -10.9305     77.2042    154.5334   1.2944034531e+02   3.4161591228e+01    0.2836399    0.1872974 -82.90 0.0002699613    1.583    0.368
        82 -12.9989    120.8268    150.1817   1.1814825965e+02   2.7893471840e+01    0.5854613    0.4246858  52.56  0.002425964    1.360    0.265
        83  -9.5800    250.1077    153.5428   9.2642498747e+01   1.4502192144e+00    0.1791738    0.1272978  43.13 0.0004430892    1.500    0.333
        84 -10.7446      7.9934    153.0242   1.4543971606e+02   4.2160589401e+01    0.1675308    0.1375654 -87.55            0    1.123    0.109
        85 -11.9734     11.9694    147.5537   1.4408166616e+02   4.3040344531e+01    0.4989619    0.2864343  71.62  0.001550697    1.651    0.394
        86 -10.7152    106.9021    190.6112   1.2800144983e+02   2.1811723324e+01    0.2013201     0.183427 -62.53  0.001284652    1.246    0.197
        87 -10.4957    108.7199    150.5519   1.2112710589e+02   3.0001793657e+01    0.1993921    0.1271609  53.70  0.000942351    1.596    0.373
        88  -9.3241     34.4775    150.5074   1.3914353768e+02   4.0333068458e+01    0.1229768   0.09971053 -86.06  0.000810115    1.022    0.022
        89 -10.3332     91.0022    147.4893   1.2491002702e+02   3.3661080413e+01    0.2080882    0.1342453  40.64  0.001034646    1.597    0.374
        90  -9.8094     36.3463    146.8671   1.3828012776e+02   4.0963262856e+01    0.2016824    0.1287343  87.10 0.0008892106    1.469    0.319
        91 -11.7917    214.7877    185.9181   1.0538392689e+02   3.0541379908e+00    0.5053257    0.3952652  -2.70  0.002118934    1.297    0.229
        92 -11.1768    166.3813    195.3868   1.1643471245e+02   1.0444336633e+01    0.2530715    0.2262411  62.77  0.001052691    1.199    0.166
        93 -10.5373     98.9514    139.3011   1.2140750727e+02   3.4215052179e+01    0.1931493    0.1805031  70.52 0.0004286645    1.061    0.057
        94 -10.0502     32.3922    135.2033   1.3783664809e+02   4.4014166626e+01    0.3021232    0.1284884 -54.21  0.001440973    2.218    0.549
        95 -10.6106     75.5270    188.3258   1.3434101371e+02   2.7050223331e+01    0.4094944    0.1538656 -60.03 0.0009358994    2.604    0.616
        96 -11.0202      6.8632    130.9616   1.4374682345e+02   4.7108480954e+01    0.1822214      0.14507 -76.93  0.001307401    1.096    0.087
        97  -9.1553     54.9859    129.0619   1.3106078063e+02   4.2985247495e+01    0.1587397    0.1315059 -74.35 0.0004269518    1.043    0.041
        98 -12.3287    156.0955    194.2981   1.1832468957e+02   1.2518802835e+01    0.5141531    0.3105697  51.09  0.002579768    1.585    0.369
        99  -9.6461     19.8945    128.1215   1.4016337955e+02   4.6749117302e+01    0.1998067     0.108397  62.21  0.001071376    2.048    0.512
       100 -10.4933     41.1440    126.3955   1.3435040689e+02   4.5163145949e+01    0.3038793    0.1801413  39.40   0.00141174    1.850    0.460
       101 -10.0706     47.9305    125.0047   1.3230704318e+02   4.4750544754e+01    0.1934898    0.1650284 -77.19 0.0003608269    1.009    0.009
       102  -9.7945     12.0073    123.9771   1.4172161962e+02   4.8303282240e+01    0.1465268    0.1127455 -79.71 0.0005661005    1.009    0.009
       103 -12.9272     99.0911    117.2315   1.1671229243e+02   3.9220966295e+01    0.6397311    0.4766772  33.65  0.003245229    1.489    0.328
       104 -10.7647     90.0162    116.5392   1.1904611870e+02   4.0919167625e+01    0.2293802    0.1815499 -59.08 0.0005909914    1.183    0.155
       105 -12.4652    150.0340    184.5587   1.1792871275e+02   1.5413931525e+01    0.6094726    0.3476924  29.79  0.002475796    2.092    0.522
       106 -10.3010     56.8274    116.3687   1.2835151469e+02   4.5718882851e+01    0.2541689    0.1666218 -57.84 0.0003801882    1.338    0.253
       107  -9.5254     11.3287    114.2960   1.4077447793e+02   5.0539378451e+01     0.117933    0.0737588 -48.57 0.0007025364    1.633    0.388
       108 -10.2411     54.9923    112.0011   1.2805815395e+02   4.6957618304e+01    0.2039683    0.1735213 -67.77 0.0003516821    1.019    0.019
       109 -12.1110    112.8351    109.5315   1.1113551766e+02   3.8414768229e+01    0.4186018    0.3274792 -30.58  0.001095181    1.422    0.297
       110 -10.0688    108.1558    110.1337   1.1255018497e+02   3.9173102584e+01    0.1992191    0.1713913 -84.71  0.001039113    1.283    0.220
       111 -11.9080    100.4203    106.4915   1.1377458198e+02   4.1407721667e+01    0.3964818    0.3730921  11.37  0.001030283    1.178    0.151
       112  -9.5232    249.3278    194.8420   1.0104682762e+02  -4.0774714303e+00    0.2009071    0.1480772  37.36  0.000799738    1.382    0.277
       113 -10.4428     29.1735    106.5074   1.3462700388e+02   5.0910749192e+01    0.2828383    0.1896369  67.49  0.001629582    1.737    0.424
       114  -9.3081     72.2993    103.3478   1.2115147423e+02   4.6677725172e+01    0.1424063     0.100759 -30.93 0.0006578505    1.684    0.406
       115  -9.2552     36.6735    102.2997   1.3167593998e+02   5.1186307279e+01    0.1256759   0.08955093  76.22  0.000250915    1.636    0.389
       116  -9.9020    100.5068    101.4934   1.1247871761e+02   4.2503707915e+01    0.2566992    0.1382227 -49.21 0.0006948658    1.758    0.431
       117  -9.8526     64.1164     97.6722   1.2232221063e+02   4.9106578678e+01    0.1842229    0.1752117 -34.62  0.001149264    1.126    0.112
       118 -10.7296    110.8919    184.7491   1.2630856367e+02   2.2335848717e+01    0.3500804    0.1831305 -56.83  0.001671281    2.013    0.503
       119 -10.2921    223.4084    183.5187   1.0335666790e+02   1.8590879243e+00    0.3550956    0.1640453 -29.97  0.001584301    2.316    0.568
       120 -10.4625     87.1956     88.6707   1.1295382042e+02   4.7645365813e+01     0.348651     0.234801 -25.40  0.001623085    1.854    0.461
       121  -9.3603      3.2929     88.6743   1.3971313611e+02   5.6791901661e+01      0.11353    0.0765544  78.89 0.0006650644    1.620    0.383
       122 -11.5800    116.3342     84.8220   1.0338932496e+02   4.2979724253e+01     0.419751    0.3004758  56.75  0.001212402    1.565    0.361
       123 -11.2513    220.6760    178.0195   1.0276924040e+02   3.1720337012e+00    0.3059394    0.2646155 -25.93  0.001430511    1.206    0.171
       124  -9.7602     49.1588     84.6986   1.2404521814e+02   5.3877509688e+01    0.2449391    0.1059176  38.55  0.001091058    2.624    0.619
       125 -10.7258     78.6790     83.0982   1.1404099871e+02   5.0236044370e+01    0.2277033    0.1932828  56.83 0.0007304149    1.365    0.268
       126 -10.0290     58.8806     82.8919   1.2038532067e+02   5.3104565548e+01    0.2099452    0.1649749 -34.86 0.0005972247    1.258    0.205
       127 -10.6980    119.7289     69.5528   9.7711719098e+01   4.5240420342e+01    0.3602356    0.2679042  72.97   0.00111608    1.790    0.441
       128 -11.3188    124.6996     69.9948   9.6529690629e+01   4.4066554255e+01     0.428672    0.2494502 -35.43  0.001391807    1.717    0.418
       129 -13.2338    125.9949     77.3241   9.8508369089e+01   4.2398102892e+01    0.4178621    0.3634782  36.06  0.001205207    1.175    0.149
       130 -11.4615    101.7360     78.7666   1.0571378922e+02   4.7122386299e+01    0.2751022    0.2443625  75.08 0.0002535642    1.332    0.249
       131 -12.2467    143.7054    188.5972   1.1993386653e+02   1.5822573714e+01    0.4517565     0.270026 -62.56   0.00216061    2.091    0.522
       132 -12.5692    130.9969     72.0333   9.5553082872e+01   4.2273929050e+01    0.8233759    0.5396481 -73.40  0.003186596    2.642    0.621
       133  -9.9448     80.0842     75.4773   1.1138019133e+02   5.1628328725e+01    0.2210729    0.1711204 -46.73 0.0005695256    1.194    0.162
       134 -11.9575     95.3647     78.3791   1.0749497495e+02   4.8393350639e+01    0.4540974    0.3372323  13.72  0.001374412    1.698    0.411
       135 -10.7139    172.7173    182.9289   1.1295684864e+02   1.1425020910e+01    0.1816573    0.1802644 -16.53 0.0006405212    1.114    0.102
       136 -11.6260    101.3321     68.9353   1.0273071388e+02   4.9151787868e+01     0.313576    0.2503997  57.54  0.001432285    1.446    0.309
       137 -10.8546     93.4456     67.8711   1.0477378666e+02   5.0852780777e+01    0.2448449    0.2208341  23.98 0.0002680915    1.148    0.129
       138 -10.2182     66.6239     66.1553   1.1300191644e+02   5.5610263176e+01    0.1966963    0.1103744 -39.26  0.000418109    1.657    0.396
       139  -9.5818     23.4324     65.4847   1.2842915749e+02   6.0542196055e+01    0.1229299   0.09718958 -51.75 8.123177e-05    1.009    0.009
       140 -10.9671    147.0554     63.1041   8.8832577476e+01   4.0059212544e+01    0.3825725    0.2303291 -50.04  0.001603005    1.873    0.466
       141 -10.2906     13.2163     64.4281   1.3197383036e+02   6.1498269713e+01    0.1380711    0.1093483  38.50 0.0008746242    1.600    0.375
       142 -11.8063    100.3827     61.7342   1.0061390441e+02   5.0697502555e+01    0.3799506    0.3515532  81.97  0.001229457    1.306    0.234
       143 -11.1985    144.2096    195.0214   1.2086922784e+02   1.4541081332e+01    0.2542594    0.2020932 -69.09 0.0008263903    1.463    0.316
       144 -10.5914     18.3400     62.1325   1.2952876890e+02   6.1637038702e+01    0.1776414    0.1739182  -9.36 0.0004619617    1.258    0.205
       145  -9.4885    113.9921     61.5747   9.6636522326e+01   4.7932307772e+01    0.2114228    0.1423148  46.40 0.0002793365    1.507    0.337
       146 -12.3903    129.1461    180.2097   1.2164776153e+02   2.0083944634e+01    0.3384489    0.3274784 -81.19  0.002113636    1.114    0.103
       147 -11.0364     46.3232     58.0373   1.1778092878e+02   5.9890431069e+01    0.2211243    0.1922666  11.75 0.0001833415    1.272    0.214
       148 -10.9976     89.8314     57.7334   1.0248408189e+02   5.3438636985e+01    0.4378909    0.2475944  56.06  0.001881759    2.393    0.582
       149 -11.0363    144.4141     56.3907   8.7251627002e+01   4.1806302545e+01    0.3218327     0.247861 -74.03  0.001252501    1.671    0.401
       150 -11.4857    127.0166     56.0592   9.1300762332e+01   4.5989605298e+01    0.3277456    0.2481241  32.07   0.00122115    1.391    0.281
       151  -9.8163     36.7204     54.6179   1.2040429737e+02   6.1616402094e+01     0.229912    0.1270804 -27.08 0.0007503476    2.087    0.521
       152  -9.9536     36.1913     51.1383   1.1953323431e+02   6.2365685712e+01    0.2153314    0.1774664 -78.52 0.0002402628    1.607    0.378
       153 -11.7972    139.7698     52.3755   8.6973650923e+01   4.3571703833e+01    0.3806958    0.2214148  42.87  0.001632916    1.752    0.429
       154  -9.9028    106.0705     51.5062   9.5355266700e+01   5.1349216826e+01    0.2108829    0.1392311  45.63 0.0004702304    1.529    0.346
       155 -10.1787     29.2169     50.2015   1.2203390672e+02   6.3219257108e+01    0.2140528   0.09693964 -29.56 0.0009464407    2.762    0.638
       156  -8.9381     45.2595    182.3333   1.4004705324e+02   3.2195463335e+01    0.1090382   0.08426396 -55.54 0.0002148089    1.572    0.364
       157 -11.6565    123.2748     48.5777   8.9649071192e+01   4.8056163614e+01    0.3512409    0.2546502  68.06  0.001686491    1.653    0.395
       158 -11.0049    140.8883    192.3212   1.2112434909e+02   1.5635594566e+01    0.2724144    0.2024151  72.05  0.001002236    1.570    0.363
       159 -11.1004    117.4523     45.7483   9.0140778804e+01   4.9815197202e+01    0.4016421    0.2810479 -86.33  0.001725214    2.467    0.595
       160  -9.9269     19.5728     42.8242   1.2376740578e+02   6.5484740148e+01    0.1624908    0.1002908 -63.23 0.0005564052    1.675    0.403
       161 -10.8739     33.2706    178.0804   1.4214836553e+02   3.4424468183e+01    0.3683117    0.1360842 -76.64  0.001531683    2.473    0.596
       162 -11.5839     47.2039    194.7103   1.4079095484e+02   2.9400483462e+01    0.3201659    0.3054228  68.87 0.0009641759    1.381    0.276
       163 -11.4341    146.5628     37.0553   8.0304159076e+01   4.4124576097e+01    0.4507399    0.3134281  75.66  0.001160295    1.649    0.394
       164 -10.5232    141.1113     35.1333   8.0767542813e+01   4.5734766519e+01    0.2976385    0.2128335  67.85  0.001020065    1.472    0.321
       165  -9.9459    134.9783     37.0795   8.2775634425e+01   4.6975777453e+01    0.2110681    0.2033326  19.36 0.0002781347    1.024    0.023
       166 -10.4695    123.3737     34.3374   8.4465875524e+01   5.0111360412e+01    0.2239838    0.1547902  23.68 0.0005975438    1.639    0.390
       167 -11.0087    123.0830    175.8359   1.2225013690e+02   2.2051455422e+01     0.220118    0.1756819  75.12 0.0008344596    1.317    0.241
       168  -9.8936    151.6525     32.3149   7.7699695452e+01   4.3460481448e+01    0.3785029    0.2343067 -86.09  0.001548546    2.414    0.586
       169 -11.2002    214.9029    244.1736   1.1521234596e+02  -4.6973114503e+00    0.2410204    0.1988253  28.39 0.0004815362    1.146    0.128
       170  -9.2387     21.5136     31.0122   1.1891921380e+02   6.7555778098e+01    0.1748817   0.09428104 -47.75 0.0003991249    1.513    0.339
       171 -10.4823    140.9795     30.0199   7.9007547203e+01   4.6422710196e+01    0.2120475    0.1978663  39.36            0    1.021    0.021
       172  -9.8841     48.5103     29.5175   1.0656514655e+02   6.4873012381e+01    0.3034122    0.1631719  19.58  0.001039702    2.304    0.566
       173 -10.1794    250.5173     27.5719   6.3378442595e+01   1.9520983930e+01    0.1921294    0.1453909 -33.80 5.541243e-05    1.290    0.225
       174 -11.3920    250.4193     24.0483   6.2572835359e+01   1.9962979835e+01    0.2423548    0.2230479 -85.01 0.0004870599    1.137    0.121
       175  -9.7912     66.2733     27.6424   9.8859564918e+01   6.2540081631e+01    0.1195978   0.09973951 -55.20 0.0007002378    1.649    0.393
       176 -10.1626     65.8700    242.3901   1.4124082492e+02   1.8153498771e+01    0.1764387    0.1307633  84.02  0.000276545    1.236    0.191
       177  -9.6990    153.1139     25.2433   7.5052906320e+01   4.3947405024e+01    0.2639102    0.1645061 -54.95 0.0007427849    1.935    0.483
       178  -9.7900     99.0619     25.7580   8.7454103411e+01   5.6648907330e+01    0.1909906    0.1639543  24.02 0.0003721344    1.072    0.067
       179  -9.6742    197.6137     23.7208   6.7949616563e+01   3.2695566917e+01    0.1957347     0.149586 -63.75 0.0003828274    1.317    0.241
       180 -10.9616    201.4601     21.6879   6.6917474116e+01   3.1953593569e+01    0.2888808    0.2188382  57.97 0.0002517332    1.317    0.241
       181 -10.0364     71.9202     32.2731   9.8787241048e+01   6.0901931531e+01    0.1813516    0.1540163   9.18 0.0003366619    1.099    0.090
       182  -9.8513     42.3425     21.6322   1.0574376253e+02   6.6927821700e+01    0.3097863    0.2247056 -65.48  0.001667974    2.699    0.629
       183 -10.5159     14.2777    242.2222   1.4963658458e+02   2.4125633159e+01    0.1751081    0.1198575  70.20 0.0006169055    1.023    0.022
       184  -9.4639     19.3356     17.6587   1.1462461152e+02   7.0060893135e+01   0.09908044   0.09034833 -75.10 0.0007050772    1.759    0.432
       185  -9.3997     91.6561     16.2686   8.5570176118e+01   5.9343047209e+01    0.1208758    0.1055352 -75.14 0.0002681248    1.610    0.379
       186  -8.9192     31.2609    194.3239   1.4387829264e+02   3.1272707783e+01    0.1010642   0.07853011 -61.75 0.0002749875    1.556    0.357
       187  -9.3680      5.8577     15.2074   1.2043273187e+02   7.1532893024e+01    0.1526797   0.09503616 -30.16 0.0003774891    1.276    0.216
       188 -10.3651    247.3769    173.9388   9.7311446490e+01  -9.7270469291e-01    0.2083634    0.1612048  21.30 0.0002167634    1.194    0.163
       189  -9.2509      2.4679    243.5170   1.5149325893e+02   2.5065859344e+01   0.09837786    0.0664688  71.16 5.839616e-06    1.039    0.038
       190 -10.3107    233.6850    172.5214   9.9354473930e+01   1.6298610469e+00    0.2609415    0.2374898  51.04  0.001631151    1.372    0.271
       191 -10.1927    127.1810    238.0576   1.2998920735e+02   1.0047114268e+01    0.2055389    0.1406501  44.93 0.0003944087    1.185    0.156
       192 -10.4600    236.5504    234.8306   1.1012775761e+02  -6.8876191836e+00    0.2326659     0.141303  18.28   0.00115366    1.509    0.337
       193  -9.6598     31.9941    233.4718   1.4634575135e+02   2.3768259815e+01    0.1534544   0.08545523  44.59  0.001034333    1.602    0.376
       194  -9.4754    153.7430    230.9802   1.2423843072e+02   6.8713278743e+00    0.1582963    0.1416796  45.88 0.0003108121    1.100    0.091
       195  -9.2832    122.5030    230.9489   1.3003200690e+02   1.1927788773e+01    0.1513311    0.1178045 -68.79 0.0003837233    1.498    0.332
       196  -9.7839    113.8755    230.8888   1.3162384897e+02   1.3283022707e+01    0.1724515    0.1451644  40.72 0.0004749711    1.245    0.197
       197 -10.0013     69.1319    230.2909   1.3972041777e+02   1.9826432995e+01    0.1637987    0.1370912  89.09 0.0002618119    1.242    0.195
       198  -9.8748    198.4711    229.0601   1.1580121854e+02  -2.4584773268e-01    0.1556311    0.1184432 -30.37 0.0004207798    1.527    0.345
       199 -10.4581    204.4570    226.1019   1.1427348396e+02  -8.3338936355e-01    0.3007375    0.1718768  43.08  0.001523265    1.545    0.353
       200 -10.0411    150.0188    226.5863   1.2434441137e+02   8.1671345391e+00    0.1993352    0.1709996  -8.67  0.000726866    1.513    0.339
       201 -10.2422    128.0065    226.8743   1.2851891638e+02   1.1726022002e+01    0.1915731    0.1540464  52.80 0.0007938664    1.020    0.019
       202 -12.0694    141.0663    172.1994   1.1766580793e+02   1.9484755228e+01    0.3146217    0.2983986  59.80  0.001127153    1.025    0.025
       203  -9.8564    236.0638    177.2523   9.9892863209e+01   5.2233150528e-01    0.1819232    0.1680644  43.73  0.001112768    1.338    0.252
       204 -10.2318    238.4770    224.0340   1.0804342109e+02  -5.9495470379e+00     0.175409    0.1309653  24.38 0.0004115855    1.095    0.087
