#   1 NUMBER                 Running object number                                     
#   2 MAG_AUTO               Kron-like elliptical aperture magnitude                    [mag]
#   3 X_IMAGE                Object position along x                                    [pixel]
#   4 Y_IMAGE                Object position along y                                    [pixel]
#   5 X_WORLD                Barycenter position along world x axis                     [deg]
#   6 Y_WORLD                Barycenter position along world y axis                     [deg]
#   7 A_WORLD                Profile RMS along major axis (world units)                 [deg]
#   8 B_WORLD                Profile RMS along minor axis (world units)                 [deg]
#   9 THETA_WORLD            Position angle (CCW/world-x)                               [deg]
#  10 FWHM_WORLD             FWHM assuming a gaussian core                              [deg]
#  11 ELONGATION             A_IMAGE/B_IMAGE                                           
#  12 ELLIPTICITY            1 - B_IMAGE/A_IMAGE                                       
         1  -9.4180    220.7516     12.7407   5.8149122349e+01   2.9329600436e+01    0.3772323    0.1583397 -67.53  0.001586257    2.912    0.657
         2  -7.4123    172.7619     10.9433   6.2948728231e+01   4.0659413907e+01    0.1663812    0.1454612  88.03 0.0001990878    1.061    0.057
         3  -8.7616    120.0217      9.6008   7.0964382035e+01   5.2974092250e+01    0.2640662    0.1881223 -19.80  0.001592768    1.616    0.381
         4 -11.2837    241.2898      3.5368   5.4608317727e+01   2.5887702778e+01    0.9807507    0.4605182  70.27    0.0054085    1.911    0.477
         5  -7.4775    144.6970      7.3172   6.5931700474e+01   4.7583684054e+01    0.1248246   0.08957749 -73.37 0.0007024705    1.623    0.384
         6  -7.5018    240.6401    245.3026   1.0428927011e+02  -1.2828069565e+01    0.1050609   0.09504904  56.16 0.0007037807    1.722    0.419
         7  -8.2753     26.5357    242.0945   1.4489205917e+02   2.0800116013e+01    0.1611607   0.09221294 -79.95 0.0003660917    1.511    0.338
         8 -12.0071    246.7021    237.2020   1.0180917610e+02  -1.2570202230e+01    0.2589889     0.232476   6.14 0.0004385953    1.242    0.195
         9  -8.6077    183.8412    235.9885   1.1347705734e+02  -2.5155692036e+00    0.2156654    0.1469734 -10.90   0.00108997    2.018    0.504
        10  -9.3979     12.4908    234.7071   1.4682629456e+02   2.3851164467e+01    0.2166392    0.1625871 -89.63 0.0006983496    1.175    0.149
        11  -8.1574    196.3352    230.7076   1.1011746355e+02  -3.7541172886e+00    0.1250193    0.1024741  66.13 0.0004155544    1.639    0.390
        12  -7.6905      3.6800    230.9763   1.4810292051e+02   2.5514708447e+01    0.1860598   0.05959506  81.01 0.0007018514    4.127    0.758
        13  -8.4402     10.2369    221.4519   1.4636084415e+02   2.6824260895e+01    0.1932898    0.1568437 -70.47 0.0007596351    1.453    0.312
        14 -10.6242     34.1291    213.0520   1.4122309955e+02   2.6024313137e+01    0.7071983    0.4522078  77.58  0.002659561    1.339    0.253
        15  -7.5516      4.6602    208.0208   1.4646370024e+02   3.0234679640e+01     0.187088   0.04662417 -58.14 0.0007049555    4.360    0.771
        16  -9.9656    159.4383    215.4814   1.1506006467e+02   5.5696324307e+00    0.2480006    0.2309123  46.29 0.0002608506    1.016    0.016
        17  -7.7953    160.6370    200.9132   1.1222773256e+02   8.2850269630e+00     0.224421    0.1776139  44.52            0    1.204    0.169
        18  -7.1961     35.9947    172.0107   1.3657795531e+02   3.5287031448e+01    0.1554324    0.1238829 -82.62            0    1.020    0.020
        19  -6.8917    116.2972    167.2962   1.1615211279e+02   2.4415821923e+01    0.1454718     0.121667 -17.98 0.0003560669    1.568    0.362
        20  -8.2289    177.3143    165.9096   1.0155326436e+02   1.2368232862e+01    0.2674041    0.1892648 -36.02 0.0006976287    1.478    0.323
        21  -7.1328     34.9733    163.4644   1.3576111100e+02   3.7448379712e+01    0.1693247    0.1263277  40.80 0.0006573374    1.520    0.342
        22  -8.5488    250.6439    159.0130   8.6012612521e+01  -6.3015881904e-01    0.1982612     0.114247 -39.38 -0.000275831    1.516    0.341
        23  -9.1689    107.8056    158.1418   1.1647585384e+02   2.8202131190e+01    0.2384344    0.2313146 -66.20 0.0002213763    1.090    0.082
        24  -7.4608    251.0000    153.9576   8.4901294263e+01   2.0624868466e-01    0.2225777   0.06903903 -40.26 0.0003883929    2.809    0.644
        25  -8.2893    173.7476    153.0661   9.9490799392e+01   1.5912410784e+01    0.2475495    0.2173099  50.82 0.0004883888    1.161    0.139
        26 -10.0893    220.1039    147.8053   8.8912604261e+01   7.2141633099e+00    0.2626914    0.2574443 -65.09 0.0003629264    1.084    0.077
        27  -8.5805    106.0560    142.9970   1.1377113723e+02   3.2207658007e+01    0.2191995    0.2050342 -75.29            0    1.017    0.016
        28  -7.3022    149.7291    135.9243   1.0102110388e+02   2.4990333522e+01    0.1952282    0.1369698 -44.71 0.0004646339    1.409    0.290
        29  -8.6345    238.9736    129.6960   8.1655989175e+01   6.8850284380e+00    0.2248386    0.1810403 -41.85 0.0004108265    1.106    0.096
        30  -7.6883    224.5040    128.9098   8.3894714506e+01   9.9715729819e+00    0.2249217    0.1341003 -41.66 0.0004297611    1.531    0.347
        31  -7.7189    167.1297    130.5157   9.5658436385e+01   2.2316951741e+01    0.2218026    0.1567622  48.96 0.0003117143    1.446    0.309
        32  -7.5743    171.7230    126.1684   9.3570146574e+01   2.2213744842e+01    0.2052513    0.1847458  -0.73 0.0004506228    1.307    0.235
        33  -8.8592      3.8760    124.6061   1.3865149347e+02   4.9304601522e+01     0.349194    0.0679122 -54.82  0.001331687    3.313    0.698
        34  -6.8779     31.9439    121.7930   1.3034614160e+02   4.7748630927e+01    0.1379191    0.1070582  21.88 0.0003023989    1.580    0.367
        35  -8.0933     10.5373    115.2714   1.3546530715e+02   5.1000630609e+01     0.230916    0.1023929 -72.83    0.0010571    2.010    0.503
        36  -7.0552    193.5861    106.4026   8.4170480831e+01   2.1210644124e+01    0.1491912    0.1428268 -64.83 6.118142e-05    1.038    0.036
        37  -7.9115     18.3274    103.3347   1.3112736526e+02   5.3148186838e+01    0.1331908    0.0739755 -40.47  0.000705175    1.720    0.419
        38  -7.6729    153.3202     87.0274   8.7409218497e+01   3.4491068995e+01    0.2464451    0.1301098 -18.48 0.0007049021    4.373    0.771
        39  -8.7946    178.8540     83.8121   8.1221075413e+01   2.8973565878e+01    0.2465198    0.2229852 -61.05 0.0002900287    1.073    0.068
        40  -7.1458    141.3982     84.5337   8.9470981497e+01   3.7738984819e+01    0.1467792     0.145735 -22.90 8.842546e-05    1.034    0.033
        41  -9.7154    234.4755     74.0787   6.9979936382e+01   1.7691268786e+01    0.2452324    0.2213804 -75.83 7.270024e-05    1.087    0.080
        42  -8.5641    238.9547     70.0054   6.8514506635e+01   1.7377267988e+01     0.291016    0.2428221 -51.95 0.0008379471    1.135    0.119
        43  -7.9019    146.6283     76.0018   8.5801629201e+01   3.8082650620e+01    0.2782765    0.2128971  87.04  0.001321874    1.624    0.384
        44 -10.3436    167.2086     73.2738   8.0664299220e+01   3.3641914836e+01    0.4577707    0.3598086  53.19  0.002335914    1.254    0.203
        45  -7.2019     29.4208     75.4719   1.2130058856e+02   5.8233732274e+01    0.1242508    0.1003734 -40.61 2.717604e-05    1.015    0.014
        46  -8.2615      3.5075     75.5296   1.3055771787e+02   6.0086997950e+01    0.1169128   0.08959277 -49.78 0.0002208168    1.015    0.015
        47  -8.3945    120.9740     67.9823   8.9632969004e+01   4.5285197499e+01    0.2071339    0.1979009  17.29  0.001190242    1.025    0.024
        48  -9.7586    162.4709     63.2108   7.8812491178e+01   3.6450609725e+01    0.5297616    0.2752015 -49.04  0.002143877    2.094    0.523
        49  -7.8229    235.9986     63.4376   6.7446963123e+01   1.9059168670e+01    0.2653285    0.1550727  48.32  0.001273625    2.175    0.540
        50  -9.3852    178.9822     56.9608   7.4095828329e+01   3.3411141488e+01    0.5778943    0.2159731  60.03  0.002146641    2.523    0.604
        51  -7.4259    150.5818     47.7876   7.6738472496e+01   4.1617337848e+01    0.3324617    0.1842078  31.25  0.001328051    2.682    0.627
        52 -10.1776    132.8115     45.2519   7.9686251550e+01   4.6127645153e+01    0.2337414    0.2275167 -17.94 0.0002723517    1.102    0.093
        53  -8.6352    184.1789     40.8136   6.9052602605e+01   3.4453245873e+01    0.4251666    0.2451031  43.03  0.001952422    2.120    0.528
        54  -8.6709    180.4480     37.1802   6.8668966855e+01   3.5832494513e+01    0.4047129    0.2543849 -71.50   0.00195457    1.863    0.463
        55  -8.8747    185.9921     36.4896   6.7685113923e+01   3.4584436337e+01    0.3412325    0.2498531  86.83  0.001188094    1.313    0.238
        56  -8.9763    182.5388     33.0195   6.7291928598e+01   3.5856820470e+01    0.4083382    0.2868561  79.04  0.001483284    1.326    0.246
        57  -7.2173    143.5751     41.4435   7.6252260425e+01   4.4136264368e+01    0.1361083    0.1256193  72.34 0.0004611191    1.060    0.056
        58  -7.9728    203.8060     39.0174   6.5903674796e+01   2.9997231962e+01    0.2211417    0.1606294 -72.82   0.00071242    1.321    0.243
        59  -8.2463    199.6876     35.2113   6.5521447240e+01   3.1474827232e+01    0.3659045    0.2030538 -78.19  0.001639738    2.214    0.548
        60  -8.2617    213.0518     31.5244   6.3051080498e+01   2.8818824743e+01    0.2497337    0.2168959 -63.85  0.001588239    1.141    0.123
        61  -8.3451    207.9313     26.8985   6.2578158760e+01   3.0588803579e+01    0.3977122    0.2036986 -73.08  0.001773934    2.360    0.576
        62  -9.6068    228.1501     25.1581   6.0070780413e+01   2.6197237643e+01    0.3399468    0.2468934 -42.13 0.0009918223    1.441    0.306
        63  -7.4416    200.9650     19.0097   6.1543410985e+01   3.3149982861e+01    0.1511082    0.1293612 -73.47 0.0003331005    1.099    0.090
        64  -7.6341    182.0044    249.7711   1.1602467564e+02  -4.4570432297e+00    0.1750133   0.09190825  38.95 0.0006709204    1.640    0.390
        65  -8.3000     80.6122    249.1537   1.3569320566e+02   1.2204494920e+01    0.1603921    0.1076413 -59.71 0.0009496615    1.718    0.418
        66  -8.0155    107.8947    246.2290   1.3013481781e+02   8.5346260013e+00    0.2150865    0.1606362 -86.75  0.001003286    1.426    0.299
        67  -7.9979    231.8314    246.3764   1.0606089278e+02  -1.1718481599e+01    0.1674331   0.09695624  25.21 0.0003132035    1.600    0.375
