#   1 NUMBER                 Running object number                                     
#   2 MAG_AUTO               Kron-like elliptical aperture magnitude                    [mag]
#   3 X_IMAGE                Object position along x                                    [pixel]
#   4 Y_IMAGE                Object position along y                                    [pixel]
#   5 X_WORLD                Barycenter position along world x axis                     [deg]
#   6 Y_WORLD                Barycenter position along world y axis                     [deg]
#   7 A_WORLD                Profile RMS along major axis (world units)                 [deg]
#   8 B_WORLD                Profile RMS along minor axis (world units)                 [deg]
#   9 THETA_WORLD            Position angle (CCW/world-x)                               [deg]
#  10 FWHM_WORLD             FWHM assuming a gaussian core                              [deg]
#  11 ELONGATION             A_IMAGE/B_IMAGE                                           
#  12 ELLIPTICITY            1 - B_IMAGE/A_IMAGE                                       
         1 -12.4840    119.8222     37.6371   3.5669873540e+01   5.0568952674e+01     1.000942    0.5155308 -54.94  0.003158527    2.160    0.537
         2 -11.1956      5.0544     36.7074   9.0252537298e+01   7.3047036506e+01    0.6158658    0.3573243 -71.13  0.003113776    1.570    0.363
         3 -12.3359    160.0614     29.8413   2.6389620880e+01   4.1155416602e+01    0.4734639    0.3774427 -37.04 0.0004589731    1.224    0.183
         4 -12.2966    105.8718     20.8614   3.1551474632e+01   5.6612008226e+01    0.4838848    0.3474357 -67.23 0.0007205852    1.458    0.314
         5 -11.9205     26.6012     28.0883   6.9688376265e+01   7.3028585019e+01    0.6104183    0.3880796 -53.24  0.002072987    1.517    0.341
         6 -12.2264     20.2883     21.9054   7.1299672145e+01   7.5180665146e+01    0.5938867     0.336423 -45.56  0.001581548    1.662    0.398
         7 -11.9546     36.0843     18.6444   5.7199364044e+01   7.3414348724e+01    0.8715038    0.4362414 -39.41  0.003901155    2.016    0.504
         8 -11.9941     48.3702     12.9725   4.5994649848e+01   7.1907427309e+01    0.7149582    0.3220396  54.71  0.002695976    2.214    0.548
         9 -11.3370    188.7030     27.9057   2.2833363259e+01   3.4417512210e+01     0.416457    0.2609185 -35.90  0.001597053    1.398    0.285
        10 -10.8998    121.1036     11.5971   2.4857959072e+01   5.3576755333e+01     0.410503    0.3027632  78.71  0.001541989    1.266    0.210
        11 -11.6142    135.2798     22.0916   2.6956588395e+01   4.8582515607e+01     0.889856    0.3708363  62.95  0.003378046    2.256    0.557
        12 -10.7035    127.1156     11.8715   2.4132886026e+01   5.1927988213e+01    0.4140922    0.2543485 -66.45  0.001625488    1.638    0.390
        13 -11.3235    134.5872     14.8340   2.4307499592e+01   4.9606634167e+01     1.004277     0.302781  68.64  0.003478324    2.949    0.661
        14 -10.6590     90.7450     22.3979   3.5856185231e+01   6.0399372059e+01    0.5779395     0.304548 -34.44  0.002471028    1.901    0.474
        15 -10.1613     87.5224      7.3283   2.8869517457e+01   6.3024302766e+01    0.6235009    0.3100446  67.14  0.002694755    1.839    0.456
        16 -11.5048     85.9686     13.6021   3.2597853274e+01   6.2749408707e+01    0.5051031    0.3485304 -25.70  0.001616895    1.548    0.354
        17 -11.0099      5.9359     10.8832   7.8837883151e+01   7.9045107435e+01    0.5613415    0.3798941  25.88  0.003242508    1.536    0.349
        18 -10.2127     12.4378      8.2257   6.9761015833e+01   7.8931898741e+01    0.4263726      0.29674 -89.02  0.002104809    2.592    0.614
        19 -12.0326     16.2410     14.0143   7.0044339007e+01   7.7320822057e+01    0.7430323    0.3976174 -29.06  0.003362771    2.338    0.572
        20 -11.8242     22.5146     11.3947   6.2398371115e+01   7.6970956956e+01    0.4849233    0.3457026   5.84  0.001906013    1.687    0.407
        21 -11.6785     68.1763     18.4786   4.0855067429e+01   6.6597485229e+01    0.4603343    0.4523554  71.70  0.001529521    1.021    0.020
        22 -12.1410    164.6701     18.1928   2.2133223188e+01   4.1396986514e+01    0.5224501    0.3072318  45.56    0.0024028    2.228    0.551
        23 -12.3357    227.5153     15.3227   1.6929057168e+01   2.7440869287e+01    0.4879214    0.2994003 -77.55  0.001350546    1.615    0.381
        24 -10.3219    148.1101     16.1072   2.3151943644e+01   4.5888424971e+01    0.3775133    0.2076435  52.08  0.001336498    2.069    0.517
        25 -12.2391    104.9654     12.6590   2.7974876044e+01   5.7816656928e+01    0.6208876    0.4034165 -26.96  0.002157269    1.619    0.382
        26 -11.4366    211.9328      8.5070   1.6040810595e+01   3.1383514740e+01    0.6626404    0.3202517 -15.64   0.00303349    2.684    0.627
        27 -10.9857    205.8628      2.7049   1.4843545788e+01   3.3281897432e+01    0.4189789    0.2399476 -72.58  0.002324767    1.584    0.369
        28 -11.2894    192.6915      8.3194   1.7044333409e+01   3.5683671301e+01    0.5725614    0.3570867  13.85   0.00204767    2.887    0.654
        29 -12.5162    234.0782      3.8920   1.3961899234e+01   2.7320683270e+01    0.5391756    0.3156891 -49.03  0.001382466    1.239    0.193
        30 -12.0295    247.3797      5.6217   1.3867378506e+01   2.4633886264e+01    0.4312534    0.2616011 -15.87  0.002575921    1.990    0.497
        31 -11.3703    243.7745      2.7227   1.3353784032e+01   2.5586841769e+01    0.3565752    0.2398059  54.72  0.002297251    2.151    0.535
        32 -10.6587    169.5487      9.3712   1.8922943894e+01   4.1127704290e+01    0.3872367    0.1926707  59.65  0.001765766    2.196    0.545
        33 -10.3820    145.2924      9.7444   2.1198947321e+01   4.7305964396e+01    0.2381271    0.2195651  58.41 0.0005346028    1.250    0.200
        34 -10.0265     66.3078     10.3183   3.6568935641e+01   6.8112574490e+01    0.3725158     0.134417  55.05  0.001409119    2.447    0.591
        35 -10.2248     62.4488      7.3601   3.6025441074e+01   6.9397432457e+01    0.2896931    0.2184146  23.19  0.001038071    1.507    0.336
        36  -9.7599      1.2516      8.1519   8.2818154661e+01   7.9989218412e+01    0.2496572   0.07937202 -57.95  0.001046167    2.540    0.606
        37 -11.1810    122.2477      5.5735   2.2198116862e+01   5.3866387368e+01    0.3366152    0.2230841 -29.42 0.0007677921    1.541    0.351
        38 -10.0172    185.1731      7.2975   1.7215313281e+01   3.7545120919e+01    0.1875616    0.1815549  85.38  0.001035566    1.275    0.216
        39 -10.4520    183.5091      4.5093   1.6512370648e+01   3.8218123875e+01    0.2366995    0.1243647 -22.04  0.001134266    2.002    0.501
        40  -9.3761     77.9907      7.5052   3.1295464457e+01   6.5489892284e+01    0.3230829    0.1910889 -82.16  0.001087982    2.189    0.543
        41 -10.0603     76.7908      3.4026   2.9192868400e+01   6.6207625460e+01    0.3154989    0.2257301  46.94  0.001100255    1.385    0.278
        42 -10.5913     73.1723      3.1619   2.9987005806e+01   6.7159868720e+01    0.4306645    0.2403412  40.40  0.001950297    1.944    0.486
        43 -10.8129    176.9817      5.8859   1.7327172063e+01   3.9651930684e+01    0.3443045    0.1824399 -85.87 0.0008286642    1.840    0.456
        44 -10.3083     41.4186      4.1643   4.3062311465e+01   7.4597010824e+01     0.299804    0.2071437  14.45 0.0009669717    1.777    0.437
        45 -10.7951    218.7248      3.9818   1.4596117824e+01   3.0405990681e+01    0.2671687    0.2029023 -87.05 0.0008282026    1.360    0.265
        46 -11.3053    223.9186      2.7258   1.4078229874e+01   2.9460362351e+01     0.235728    0.1906836 -63.30  0.000362668    1.137    0.120
        47 -11.8353    133.2663      2.6474   1.9784228216e+01   5.1176228227e+01    0.5952173    0.2979699  84.82   0.00261266    1.905    0.475
        48 -10.3090     22.0547      3.2657   5.5993472869e+01   7.8440250765e+01    0.2263802     0.179832 -41.56  0.000756769    1.313    0.238
        49 -10.9614    105.7149      2.7241   2.3206661278e+01   5.8591471602e+01     0.414471    0.2756228 -59.54  0.001642367    1.506    0.336
        50 -11.0447    114.1792      2.6078   2.1966071006e+01   5.6315119948e+01    0.4290079    0.2469065  87.05  0.001755439    1.674    0.403
        51 -10.9326      2.7378      1.8820   7.6596880183e+01   8.1192845850e+01     0.348359    0.2028312   1.69  0.001831007    1.973    0.493
        52  -9.7015    163.1547      6.1103   1.8379767393e+01   4.3058600172e+01    0.1916641    0.1804252  66.36 0.0004868347    1.263    0.208
        53  -9.9451    152.2999      1.3781   1.7641463019e+01   4.6282530372e+01    0.2308517    0.1193145  78.00 0.0002879133    1.819    0.450
        54  -9.8592     13.2498      1.4508   6.3090413613e+01   8.0084409875e+01    0.2265463    0.1177571  29.02 0.0009399408    2.011    0.503
        55  -9.9138     39.4037    133.4460   8.9621527858e+01   4.3778409745e+01    0.2643612    0.1419869  26.60 0.0006994909    1.918    0.478
        56  -9.0792    188.6682    250.3314   6.8952368447e+01   1.1616327145e+00   0.09218499   0.07312707  38.38            0    1.723    0.420
        57 -10.7341     51.1182    249.8911   9.5564510033e+01   1.6616184223e+01    0.1877487    0.1131194  46.42  0.001237162    1.253    0.202
        58 -10.1094     79.3699    137.8453   7.7096751756e+01   3.7028116498e+01    0.2958982    0.2572217  72.00  0.001240886    1.108    0.098
        59 -10.0433     31.8694    137.6194   9.2671029459e+01   4.3485630024e+01    0.3960933    0.2206098  37.74  0.001238008    1.645    0.392
        60 -11.2603     22.5107    136.3286   9.5753099809e+01   4.4755338271e+01    0.6527395    0.3560561  40.68  0.003067987    1.651    0.394
        61 -11.0437     29.8893    133.1861   9.2904994871e+01   4.4884370233e+01     0.413332    0.2961117 -40.88 0.0008318617    1.727    0.421
        62  -9.8667     47.3495    134.4198   8.7012814867e+01   4.2557500475e+01    0.3588936      0.13918 -77.49  0.001238216    2.850    0.649
        63  -9.9792     72.9909    133.5009   7.8348097396e+01   3.9156089612e+01    0.2454187    0.2018917 -72.86  0.001033182    1.206    0.171
        64  -9.7363    103.8895    131.2237   6.8509619643e+01   3.4404499811e+01    0.2203142    0.1951463  73.62   0.00114785    1.146    0.127
        65  -9.7764     93.1114    130.0376   7.1420813246e+01   3.6649185492e+01    0.2848224    0.2160828 -70.98  0.001367848    1.376    0.273
        66  -9.3976     63.0000    130.9755   8.1198746097e+01   4.1338042893e+01    0.2474203   0.08368269 -65.70 0.0007538131    2.940    0.660
        67 -11.2435     10.2345    127.5042   9.9405607850e+01   4.8157036053e+01    0.5298649    0.2999159 -55.48  0.001813448    1.907    0.476
        68 -10.1281     22.9308    127.0121   9.4776124306e+01   4.7238931663e+01    0.2113241    0.1802177  72.73 0.0003067026    1.020    0.020
        69  -9.9246      1.8558    125.5381   1.0230796184e+02   4.9254191310e+01    0.2977166    0.1389881  71.67  0.001236444    1.938    0.484
        70 -12.2101    103.7773    122.5411   6.6659712073e+01   3.6505226126e+01    0.3633607    0.3516215  29.28  0.000871713    1.119    0.106
        71  -9.3150     78.4459    123.4624   7.4697239287e+01   4.0863174224e+01    0.1556449    0.1422395  75.83 1.673835e-05    1.029    0.028
        72 -10.4957     49.5780    123.1275   8.4602029885e+01   4.5319847427e+01    0.2873078    0.2081538   0.50  0.001317396    1.913    0.477
        73  -9.4595     26.7649    127.2372   9.3408093292e+01   4.6813793552e+01    0.1898785    0.1593285 -54.70 0.0003945448    1.323    0.244
        74 -10.2603     48.6054    112.7782   8.3258394417e+01   4.8276605359e+01    0.4653684    0.2787631 -46.88  0.001999187    1.879    0.468
        75 -10.4061     44.8344    119.8628   8.5831518962e+01   4.6821954064e+01    0.2787939    0.2333193  66.62 0.0006152487    1.112    0.101
        76 -10.2109     43.5521    116.4919   8.5791968047e+01   4.7907811877e+01    0.2878153    0.2398472 -75.56 0.0007541295    1.142    0.124
        77 -12.6038      2.6154    111.7749   1.0128628418e+02   5.2943528936e+01    0.6165636    0.3183624  60.78  0.000604286    1.784    0.440
        78 -11.3695      4.6555    104.8352   1.0000579512e+02   5.4731053439e+01     0.492487    0.3708707   5.80  0.002688926    1.582    0.368
        79  -9.9590     79.1000    114.6725   7.2637750301e+01   4.3024897547e+01    0.3014489     0.226092 -55.73  0.001242886    1.337    0.252
        80 -10.0999     66.9748    110.8413   7.6043662203e+01   4.6080362139e+01     0.322527    0.2610636  32.30  0.001157165    1.317    0.241
        81  -9.2773     57.9354    114.6565   8.0103174397e+01   4.6454233197e+01    0.2837093    0.1417101  72.06 0.0009026807    3.295    0.697
        82 -10.8100     30.0156     96.9183   8.8177696773e+01   5.4892044409e+01     0.720472    0.2855565 -51.84  0.002643435    2.555    0.609
        83 -11.8188      6.9312     88.7886   9.7634481227e+01   5.9035572070e+01     0.866537    0.4536318   7.21  0.003571189    2.295    0.564
        84 -11.6779     10.1787     97.1106   9.6979134225e+01   5.6525371235e+01    0.6540894    0.5641136  -4.97  0.001768358    1.383    0.277
        85 -11.6553     27.5821     85.1017   8.7239717883e+01   5.8422334120e+01    0.7994362     0.624161  11.64  0.004144041    1.487    0.327
        86 -11.7861     25.5454    106.9595   9.1541435149e+01   5.2536975904e+01     1.556699    0.8910363  -1.89  0.006448503    2.558    0.609
        87 -10.7620     35.3743     92.7661   8.5077742993e+01   5.5457412634e+01    0.5891215    0.3048888 -88.29  0.002009108    2.277    0.561
        88 -12.6960     17.6619    100.4427   9.4063323334e+01   5.5048045826e+01    0.4330147    0.3687604  43.66 0.0006612258    1.199    0.166
        89 -11.7466     44.3862     85.0407   7.9373318926e+01   5.6441394578e+01    0.5547914    0.4171848  21.67  0.002001039    1.509    0.337
        90 -10.4951     37.3238     85.9741   8.2822460588e+01   5.7097959485e+01    0.3557165     0.249258  26.42  0.001144831    1.542    0.351
        91 -11.3679     22.9439     94.7418   9.0982729374e+01   5.6186979511e+01    0.3975547    0.3141831 -11.11  0.001546572    1.563    0.360
        92 -11.5602     18.3223     91.1224   9.2579688187e+01   5.7592641440e+01    0.5434659    0.3217006  76.94  0.001369001    1.738    0.425
        93 -11.3576     21.4354    114.5564   9.4090321902e+01   5.0802037734e+01    0.5696409    0.2924698   8.95  0.002341801    2.546    0.607
        94 -10.9639     28.0383    113.4849   9.1367879133e+01   5.0478808571e+01     0.440649    0.2732398   4.83 0.0007371426    2.145    0.534
        95  -9.7613    170.5636    110.5823   4.7827202374e+01   2.5476179712e+01    0.2751266     0.132176 -35.38  0.001020245    2.058    0.514
        96 -11.6972     80.3333    108.2115   7.0750095715e+01   4.4473513976e+01    0.5192174    0.3458607  34.43 0.0006840601    1.589    0.371
        97  -9.4419    120.2877    109.3599   5.8868436719e+01   3.6258552191e+01    0.1554038    0.1241564 -13.19 0.0007024021    1.686    0.407
        98 -10.2564    103.3205    108.5961   6.3473735054e+01   3.9946307919e+01    0.4756163    0.2891628  23.45  0.001782526    2.504    0.601
        99 -10.5668     16.0496    108.4596   9.5615553584e+01   5.2944799860e+01    0.2620935     0.253821 -73.57    0.0015731    1.154    0.134
       100  -9.9536    181.8401    104.8761   4.4414655505e+01   2.4224743723e+01    0.3459836    0.2330895   2.45  0.001522938    2.457    0.593
       101  -9.1851    175.6613    106.7042   4.5944452637e+01   2.5146317152e+01    0.1403149    0.1100002   5.35 0.0007030747    1.655    0.396
       102  -9.5079    143.2056    106.1472   5.2380184967e+01   3.2059057578e+01    0.2143662    0.1754747 -73.95  0.001065023    1.370    0.270
       103 -10.2217     85.5101    103.7101   6.7895132840e+01   4.4660218147e+01      0.26603    0.2398804  68.15 0.0005213183    1.080    0.074
       104  -9.5752     64.7230    101.6934   7.4855705189e+01   4.8884509371e+01    0.2710597    0.1811498 -59.52 0.0001880953    1.448    0.309
       105 -12.0303     68.7071     95.8305   7.1922174293e+01   4.9760108328e+01    0.4144072     0.351705  23.15  0.000435122    1.360    0.265
       106  -9.8468     50.5454    102.4879   8.0568875731e+01   5.0831775913e+01    0.2476683    0.2209273 -79.75 0.0007800126    1.056    0.053
       107 -10.6160     52.4329     98.8059   7.9038595626e+01   5.1566593883e+01    0.5105402    0.2296295 -54.83  0.001405723    2.130    0.530
       108  -8.6335    120.2943    101.6698   5.6849127578e+01   3.7981985806e+01    0.1599442    0.1211808 -85.28 0.0007024033    1.632    0.387
       109  -8.9527    159.0105     99.7277   4.7340350340e+01   2.9915219955e+01    0.1674146    0.1310274  54.35 0.0003444595    1.362    0.266
       110 -10.1738     80.8856     98.1405   6.8058415472e+01   4.6949831799e+01    0.2407053     0.229883  76.17  0.000507927    1.042    0.040
       111 -11.4718     80.9246     93.1939   6.6718136871e+01   4.8193833091e+01    0.7842972    0.5160012  41.21  0.001586975    1.546    0.353
       112  -9.2418    210.0352     97.7878   3.8417470401e+01   1.9943372969e+01    0.1545677    0.1089174  57.10 0.0007054504    1.690    0.408
       113 -10.5530     42.9982     94.7103   8.2121682483e+01   5.3985992752e+01    0.3903388    0.3367853 -77.81  0.002063754    1.081    0.075
       114 -10.5141    120.4845     90.0677   5.3540436712e+01   4.0493486326e+01     0.337848    0.2148666 -61.86  0.001103234    1.784    0.440
       115 -11.7012    125.6903     94.8036   5.3542801573e+01   3.8296185921e+01    0.2933459    0.2703562  64.09  0.000235443    1.097    0.088
       116  -9.9264    121.7079     93.6663   5.4254902878e+01   3.9435461963e+01    0.2533388     0.197763 -33.25 0.0006823873    1.424    0.298
       117 -10.8908     98.5714     91.0199   6.0171930813e+01   4.5126370221e+01    0.3585205    0.2459416  48.45 0.0005367739    1.467    0.318
       118 -11.3443     89.9031     89.6409   6.2596770223e+01   4.7277788292e+01    0.5887017    0.3499571 -41.17  0.002370431    1.876    0.467
       119 -10.3636     49.0194     91.5054   7.8840591076e+01   5.4042285251e+01     0.343217    0.2827868  39.93  0.001357769    1.244    0.196
       120  -9.9802     66.1865     88.6675   7.1026207335e+01   5.2068701768e+01    0.3668593    0.2469813  -3.39  0.001381975    2.738    0.635
       121  -8.9029    199.6952     88.3064   3.7589708892e+01   2.3396666415e+01    0.1379262   0.09446601 -59.93 0.0003409434    1.604    0.376
       122  -9.9221    104.2914     87.1374   5.7256075692e+01   4.4783823947e+01    0.2668894    0.2150707  39.62 0.0006396691    1.346    0.257
       123 -10.6419     80.3744     84.0772   6.4290981078e+01   5.0571851009e+01    0.4337888    0.3871417 -60.66  0.001844801    1.096    0.087
       124 -10.7601     76.3571     78.5214   6.4074123212e+01   5.2732804478e+01    0.6758908    0.2909028 -56.68  0.002346572    2.413    0.586
       125 -10.4445     72.3988     77.7567   6.5365977206e+01   5.3694964717e+01    0.4093861    0.3396723  73.77  0.001794089    1.282    0.220
       126  -8.8726    133.3070     84.6748   4.8736260202e+01   3.8667453948e+01    0.1612787    0.1180359 -76.16 0.0003635598    1.649    0.394
       127 -10.8563    113.1010     82.4177   5.3248019693e+01   4.3843206577e+01    0.3281647    0.2799219 -81.09  0.001614915    1.219    0.180
       128  -9.5665     46.8160     76.1297   7.5960388800e+01   5.8481323129e+01    0.2183942    0.1771919 -37.15  0.001087616    1.368    0.269
       129 -11.4361     53.5984     76.5748   7.2956228310e+01   5.7325525196e+01    0.6424134    0.4792512 -81.44  0.002433609    1.447    0.309
       130 -11.2142     58.3757     77.7418   7.1179595674e+01   5.6238659941e+01    0.4548021    0.3221167 -72.44 0.0008707401    1.478    0.324
       131 -10.0938     66.5825     81.7490   6.8911926818e+01   5.3779422427e+01    0.4769335    0.3089854  35.30  0.002083737    1.640    0.390
       132 -10.9314     94.7331     76.6778   5.6970160000e+01   4.9289350267e+01    0.6335628    0.3181125  42.41  0.001850135    2.122    0.529
       133 -11.7319     85.7187     73.5904   5.9012276009e+01   5.1969040063e+01    0.7492805    0.5180652  43.32  0.003355213    1.495    0.331
       134 -10.0479     92.0597     71.9769   5.6277407708e+01   5.0945170214e+01     0.267354    0.2249532  56.13 0.0004094318    1.190    0.160
       135 -10.9890     79.1138     67.9547   5.9479381739e+01   5.4677182913e+01    0.6498541    0.4348169  81.04  0.002588487    2.205    0.547
       136 -12.6662     74.4726     51.9383   5.5099618214e+01   5.9205588815e+01     1.101794    0.4737905 -55.57  0.002060984    2.929    0.659
       137 -10.9386     82.6757     47.7998   5.0250368495e+01   5.8186510979e+01    0.5890412    0.3969232 -16.57  0.001914639    2.274    0.560
       138  -9.5705     19.1449     72.1265   8.9073946034e+01   6.2768744326e+01    0.2192817    0.1714561 -46.14 0.0004826024    1.302    0.232
       139 -11.5197     13.4410     74.2255   9.2505449470e+01   6.2636300536e+01    0.9395206    0.5132549  55.63  0.004192633    1.976    0.494
       140 -10.2079     14.1309     67.6142   9.0996701531e+01   6.4388563343e+01     1.079097    0.1706229  21.50  0.003043367    5.224    0.809
       141 -12.2714      4.7952     62.0169   9.5507152713e+01   6.6470939468e+01    0.5391971    0.3830515  46.73  0.001773224    1.487    0.328
       142 -11.8839      9.9966     62.5252   9.2477635155e+01   6.6041855617e+01    0.4439534    0.3100195 -72.55 0.0004143843    1.279    0.218
       143  -8.9036    134.4691     77.4942   4.6297705967e+01   3.9821644466e+01     0.157087    0.1438063 -69.71 -3.046123e-05    1.033    0.032
       144  -9.8524    103.8969     74.7902   5.3469407389e+01   4.7628023109e+01    0.3020693    0.2162389  71.92  0.001320076    1.615    0.381
       145 -11.0441      2.0233     71.8144   9.8344424027e+01   6.3950843724e+01    0.4137757    0.2013974 -71.94   0.00153209    1.760    0.432
       146 -11.3065    186.9968     71.4519   3.5069474398e+01   2.8696659348e+01    0.5897074    0.3128148 -37.56  0.002092594    1.635    0.388
       147 -11.1774    143.1479     84.6510   4.6500199937e+01   3.6378329220e+01     0.265981     0.237382 -49.11 0.0002632636    1.070    0.065
       148  -9.9959     24.3156     74.0085   8.6697908461e+01   6.1789532849e+01    0.2703135    0.2090956 -43.49 0.0006403066    1.349    0.259
       149 -11.4818     34.9415     71.9583   8.0690270406e+01   6.1184514708e+01    0.7173494    0.2425985  35.21  0.002530971    2.813    0.644
       150 -10.2482     41.3253     72.7046   7.7667582749e+01   6.0161660179e+01    0.3150057     0.229807  86.37 0.0007965097    1.543    0.352
       151 -11.3076     40.1811     69.2199   7.7262958152e+01   6.1234270852e+01    0.3825865    0.2541192  32.61  0.001798867    1.570    0.363
       152  -9.3332    153.7379     72.4384   4.0757538425e+01   3.6154974284e+01    0.2043112    0.1399059  47.27 0.0008151771    1.639    0.390
       153 -11.3841    122.9322     68.8847   4.6290360262e+01   4.4298553906e+01    0.4829113    0.3170292  52.09  0.001230201    1.562    0.360
       154 -10.7694    220.1329     66.9604   2.9929019049e+01   2.2536607310e+01    0.3806762    0.2030008  69.98   0.00193035    2.328    0.570
       155 -11.0605     91.7366     62.5653   5.3024374379e+01   5.3070826272e+01    0.4577843    0.3001631  69.62  0.001368213    1.854    0.461
       156 -10.5796     87.8923     56.4709   5.1991475864e+01   5.5233855809e+01    0.5908048    0.2086643 -37.32  0.001778812    3.417    0.707
       157 -10.0606     91.8670     57.2203   5.0949098604e+01   5.4150575434e+01    0.2952408    0.2286546  86.35 0.0008926251    1.502    0.334
       158 -10.8396     59.6461     63.4659   6.5954485167e+01   5.9581676495e+01    0.4836211    0.3896384  25.09   0.00137095    1.420    0.296
       159  -8.9510     65.3339     61.6865   6.2775546644e+01   5.8932033709e+01    0.3006881    0.2091954  89.84 0.0008610237    2.044    0.511
       160  -9.6594     51.4968     56.5241   6.7277864318e+01   6.2688895823e+01    0.2651588    0.2371804 -21.59  0.000854321    1.251    0.200
       161 -11.2969     40.6836     57.0364   7.3130843698e+01   6.4279676041e+01    0.5098398    0.2423862  40.60  0.001739284    2.152    0.535
       162 -10.5103     50.9741     61.2766   6.9282346352e+01   6.1626090871e+01    0.3517772    0.3142198  60.41  0.001239674    1.154    0.133
       163 -11.6097     43.3508     62.3141   7.3502892790e+01   6.2564547336e+01    0.3211152    0.2706173 -61.10 0.0003990511    1.130    0.115
       164 -11.0524     46.1792     59.1759   7.0961460219e+01   6.2918003825e+01    0.3538008    0.2867074 -82.04  0.001077921    1.337    0.252
       165 -11.4583    234.9960     61.0243   2.7118319729e+01   2.0545583302e+01    0.3585819    0.3070768  88.25  0.002480153    1.380    0.275
       166  -9.9445    157.7890     63.2030   3.7252527558e+01   3.6772059256e+01    0.4071305    0.1596305  48.92  0.001428591    2.979    0.664
       167 -10.2410    106.3362     63.2861   4.8773507129e+01   4.9458401174e+01    0.2951901    0.1877582  44.19  0.001044844    1.712    0.416
       168  -9.8818     84.1206     61.6011   5.5299600771e+01   5.5009209820e+01    0.2767457    0.2086691 -61.21 0.0006761242    1.374    0.272
       169 -10.4258    122.3238     60.1166   4.3448863869e+01   4.6118752000e+01    0.6372397    0.4275755  13.53  0.002359892    2.942    0.660
       170 -10.7077    117.5849     55.6502   4.3007383398e+01   4.8131722270e+01    0.5863754     0.342545 -63.13  0.002111904    2.145    0.534
       171 -10.5961    109.9230     40.6680   3.9127798308e+01   5.2682007803e+01    0.5810787    0.4625046 -19.99  0.002527865    1.484    0.326
       172 -11.3308    114.7185     49.4096   4.1389842740e+01   4.9973168953e+01    0.6671438    0.3798666  42.81  0.002282364    2.105    0.525
       173 -11.7128    117.6273     43.8963   3.8587358085e+01   5.0154840217e+01    0.6586955    0.4635633  86.00  0.002461995    1.573    0.364
       174  -9.2955    113.4631    249.4735   8.2753497379e+01   9.7141572360e+00    0.1134908   0.08636598  27.47 0.0005131196    1.025    0.024
       175  -9.3439    113.5974     60.7845   4.5878773366e+01   4.8169429484e+01    0.2326224    0.1386455 -50.70 0.0009555708    1.681    0.405
       176 -10.4566     35.0654     51.4173   7.4311006891e+01   6.6460416931e+01    0.4161079    0.2745209  -0.70  0.001279209    2.173    0.540
       177  -9.8199     20.4846     55.4794   8.4495105100e+01   6.7096680594e+01    0.2156979    0.1843832   1.18  3.10445e-06    1.299    0.230
       178 -11.5906     25.7565     58.3802   8.2094100928e+01   6.5816525103e+01     0.895797    0.5099417  49.34  0.003994711    1.976    0.494
       179 -10.2559     28.8156     53.3929   7.8740857796e+01   6.6757543337e+01    0.2845209    0.1958333  17.12 0.0008013356    1.641    0.391
       180 -10.4022    106.2088     58.3428   4.7002484321e+01   5.0466072440e+01    0.3095355    0.1902988 -65.00  0.001217955    2.057    0.514
       181  -9.3825     66.8599     54.8975   5.9472998560e+01   6.0175189545e+01    0.2117576    0.1782816 -83.13  0.001056494    1.315    0.240
       182 -10.4312    157.5167     55.7027   3.4995166231e+01   3.8061936110e+01    0.4554178    0.3640977 -55.62  0.001424293    1.142    0.124
       183 -11.4677     60.9067     47.9787   5.9217868370e+01   6.2887727537e+01     0.910225    0.3560943 -44.57  0.003227255    2.571    0.611
       184  -9.8659     57.1860     41.7689   5.8155206503e+01   6.4941079955e+01    0.3044538    0.2146705  54.03  0.001458814    1.499    0.333
       185 -10.0722    233.7939     77.5970   3.0987085700e+01   1.8560469218e+01    0.1526848     0.115498 -85.11 0.0009473761    1.671    0.401
       186 -10.0932     51.8128     48.1689   6.3738074414e+01   6.4572572103e+01    0.4662605    0.3854063   1.80  0.002381042    1.498    0.332
       187 -11.4390     46.0466     49.4896   6.7334559549e+01   6.5266607321e+01    0.6761517    0.3487577 -42.79  0.002771637    2.045    0.511
       188 -11.6265     44.0450     43.9837   6.6090857324e+01   6.6862364856e+01    0.4567572    0.3438037 -52.26 0.0003012162    1.290    0.225
       189 -10.9439     39.4863     44.2600   6.8848888324e+01   6.7529910097e+01    0.4165653    0.3053988 -18.62  0.001486771    1.736    0.424
       190  -9.8669    230.6217     51.8286   2.5368416039e+01   2.2539337730e+01    0.1847886   0.08588602 -40.73 0.0004101651    1.616    0.381
       191 -10.5052    145.8077     48.1748   3.4533929550e+01   4.2185129148e+01    0.5602752    0.2695088 -20.60  0.001929934    3.123    0.680
       192  -9.8949    245.3072     51.3424   2.4103155660e+01   1.9916072014e+01    0.1110746   0.08768315  -2.23 0.0007042968    1.689    0.408
       193 -10.6033    240.4684     50.3525   2.4245210402e+01   2.0902004182e+01    0.2091782    0.1578668 -18.53 0.0009202031    1.463    0.316
       194  -9.7084      1.8696     49.1457   9.5323199863e+01   7.0014455599e+01    0.1997456    0.1744061  69.27 0.0008495367    1.193    0.162
       195 -10.2516    200.6481     45.0140   2.6392062323e+01   2.9537094669e+01    0.4043364    0.2078231 -86.05  0.001774926    2.575    0.612
       196 -10.3044     22.9634     37.5063   7.6796936587e+01   7.1337037491e+01     0.506597    0.3038511  53.63  0.002315168    2.119    0.528
       197 -10.8386     20.5884     46.2631   8.1684533121e+01   6.9446075858e+01    0.4141113    0.2730791 -50.47  0.001135378    1.407    0.289
       198 -10.9888     26.4805     42.8526   7.6487832399e+01   6.9646033569e+01    0.3426401    0.2692809   6.08  0.001404759    1.433    0.302
       199  -8.6331    222.3353     47.6699   2.5076210033e+01   2.4674305481e+01     0.140183   0.07495742 -55.41 0.0005953947    1.729    0.422
       200 -10.3985    137.1189     44.8203   3.4932568820e+01   4.4940362431e+01    0.7386487    0.2065753  52.85  0.002240051    3.675    0.728
       201  -9.9850     13.3842     46.9969   8.6849915239e+01   6.9891165035e+01    0.3174299    0.1644806 -50.56  0.001457817    1.758    0.431
       202  -9.4448    160.4600     43.4720   3.0707630167e+01   3.9192372376e+01    0.2379489    0.1353762  86.86 -1.501397e-05    2.071    0.517
       203 -10.4505    155.8725     42.1540   3.0947296986e+01   4.0535084889e+01     0.293669    0.2312449 -23.87  0.001191426    1.413    0.292
       204 -10.4822     92.7591     41.5459   4.4195680162e+01   5.6907396892e+01    0.5146037    0.2643918  52.38  0.002002545    1.911    0.477
       205  -9.3384     17.4844     41.9821   8.2424434267e+01   7.0811524031e+01    0.2113717   0.08339749 -45.26 0.0008089773    2.505    0.601
       206  -9.7316    213.5898    248.2346   6.4642946342e+01  -1.1353328181e+00    0.1303765   0.07532948 -17.85 0.0009423711    1.592    0.372
       207 -10.0447      7.5312     30.2761   8.6215177363e+01   7.4479878455e+01    0.2598493    0.1849153 -13.23  0.001157978    1.518    0.341
       208 -10.2631     88.6780     29.2939   3.9805961804e+01   5.9939235190e+01    0.5410913    0.2498369  49.83   0.00200204    2.167    0.538
       209 -10.5133     79.4986     38.9887   4.7437864817e+01   6.0587305923e+01    0.5647009    0.3515003  88.76  0.002113568    2.758    0.637
       210 -10.8114     77.7831     34.4161   4.5866349960e+01   6.1799587102e+01    0.3709339    0.2723608  56.06  0.001642108    1.335    0.251
       211 -10.7633     81.7913     32.2112   4.3394023879e+01   6.1198470377e+01    0.3821015    0.3145262  83.77  0.001555815    1.298    0.229
       212  -9.8928    231.4971     38.0647   2.2073767629e+01   2.4074148178e+01    0.2599553   0.09329806 -33.18  0.001182496    2.107    0.525
       213 -10.2222     67.4061     32.2533   4.8784652896e+01   6.4592016390e+01    0.5523483    0.4140889  64.53  0.002750951    1.416    0.294
       214 -11.1612     60.8449     36.4398   5.3809426036e+01   6.5257687252e+01    0.4822012    0.3410461 -48.66  0.001629708    1.433    0.302
       215 -11.7121     57.4784     31.0570   5.2578486470e+01   6.6979269077e+01    0.5096233    0.3631841 -34.02  0.001116404    1.470    0.320
       216 -11.5241     48.4597     30.5514   5.6932064352e+01   6.8894534093e+01    0.7585507     0.317562  40.55  0.002645458    2.488    0.598
       217 -11.0140     43.0232     28.0678   5.8644039741e+01   7.0395931928e+01    0.2099749    0.1963408  30.29 0.0002892596    1.072    0.067
       218 -10.3586    176.4412     35.6382   2.6293661363e+01   3.6347225905e+01    0.4278762    0.1900575 -49.45  0.001408862    2.018    0.504
       219  -9.8372    132.9181     37.0763   3.2913103849e+01   4.7204334356e+01    0.3720065    0.1861476 -83.62  0.001241246    3.206    0.688
       220 -10.0733     11.4681     30.5078   8.2943238630e+01   7.4130329500e+01    0.2823674    0.1928746 -34.03 0.0009731181    1.467    0.318
       221  -9.7025    227.4624     36.4921   2.1987462924e+01   2.5047460942e+01     0.128627   0.09691701 -47.68  7.87516e-05    1.023    0.022
       222  -9.4994     94.0475     36.0056   4.1356820771e+01   5.7519652501e+01    0.2389443    0.1742026 -73.41 0.0005921327    1.594    0.373
       223  -9.9968    174.4689    246.9597   7.0986663766e+01   3.0802302971e+00    0.2185166    0.1204725  15.87  0.001395727    1.607    0.378
       224 -11.9385    126.4282    241.7162   7.9409097393e+01   9.3297726397e+00    0.3247459    0.2295372  45.09  0.001678979    1.438    0.304
       225 -11.5339    107.0450     31.7495   3.6089440943e+01   5.4814941558e+01    0.6504104    0.4032599  16.46  0.002420154    3.022    0.669
       226 -11.9815    114.0740     25.0765   3.1727431187e+01   5.3878291129e+01    0.7353439    0.2985616  60.71  0.001901133    2.272    0.560
       227 -10.4994    239.9508     32.6772   2.0271824156e+01   2.3106876236e+01    0.2409921    0.1983509  49.00  0.001464394    1.690    0.408
       228  -9.5667    138.4613     33.4239   3.0641142511e+01   4.6266473392e+01    0.1500921    0.1324938 -71.76 0.0001524266    1.022    0.022
       229 -11.0430     32.4940     30.9632   6.6989438646e+01   7.1562690815e+01    0.3078587    0.2255612 -51.12  0.000370801    1.327    0.246
       230 -11.5045     67.1547    240.7434   9.1642874070e+01   1.6438138329e+01    0.4145188    0.1684229  31.41  0.002117236    1.851    0.460
       231 -11.5530    147.0338    238.0189   7.4970800083e+01   7.3973174826e+00    0.3972573    0.2714761  41.68  0.002237132    1.509    0.337
       232 -10.4005    244.1712    234.8553   5.8292794826e+01  -2.6815520611e+00    0.1407457   0.08353794  -3.98 0.0006550565    1.336    0.252
       233 -10.8668    196.5208    232.0293   6.5281216291e+01   2.4556339105e+00    0.1740382    0.1161442  19.61 0.0009124891    1.215    0.177
       234  -9.6424    230.0719     30.6897   2.0431736538e+01   2.5221013824e+01    0.1647412    0.1354724 -59.53 0.0004325553    1.129    0.115
       235  -9.2011     15.3674    233.8223   1.0250686348e+02   2.2998378624e+01    0.1390131   0.09759112 -75.49 0.0009446359    1.728    0.421
       236 -10.8684    183.0382     25.4675   2.2640074009e+01   3.6044310239e+01    0.3856675    0.2362266  62.44  0.001382941    1.794    0.443
       237 -12.2036    126.3129     28.6601   3.0902148358e+01   5.0133120546e+01    0.5751753    0.4205378 -86.72  0.002832266    1.378    0.274
       238 -10.1324     98.2686     29.0510   3.7045955629e+01   5.7508127760e+01    0.4785859    0.2110562 -54.62  0.001568726    3.005    0.667
       239 -10.2416    197.4760     28.9460   2.2370434237e+01   3.2283151884e+01     0.268327     0.194117  76.32  0.001085134    1.486    0.327
       240  -9.2601    150.4867     27.5021   2.6813425814e+01   4.3910216185e+01    0.1458718    0.1297662 -68.06 -7.562314e-05    1.023    0.022
       241 -11.3205    143.9801     25.0360   2.6817704274e+01   4.5918989202e+01    0.3885508    0.2352379  67.33  0.001682288    1.618    0.382
       242 -12.2900    164.4400     27.7296   2.5200287767e+01   4.0317972274e+01    0.3220704     0.271152 -73.36 0.0004929709    1.074    0.069
       243 -10.1278    167.5182    238.0509   7.1143370856e+01   4.9837560265e+00    0.1430731    0.1032785 -34.15   0.00102525    1.569    0.363
       244  -9.6108    200.3483    226.3187   6.3857571182e+01   2.7198684432e+00    0.1141003   0.06707868   0.30 0.0006633055    1.733    0.423
       245  -9.6272     75.4998    224.4772   8.8602500639e+01   1.8364335135e+01    0.1240933   0.09749089  40.77 0.0001401252    1.008    0.008
       246 -10.8199    127.6271     16.2584   2.5809226128e+01   5.1312821021e+01    0.6246917    0.2078822  67.82   0.00222478    2.702    0.630
       247  -9.6499    234.0078    223.4925   5.8166081541e+01  -5.2822361385e-01    0.1424767   0.08187085  23.23 0.0005469369    1.545    0.353
       248  -9.1781    120.6954    223.3394   7.8582264522e+01   1.2902845382e+01    0.1194435   0.08241728  54.22 0.0007040232    1.676    0.403
       249 -10.0813    164.7320    211.9918   6.8209566534e+01   8.9510453454e+00    0.2006004    0.1458952  25.85 0.0005984875    1.183    0.155
       250 -10.1270     89.4933     16.5060   3.3216837600e+01   6.1483493953e+01    0.2617658    0.1865465  33.48 0.0008738586    1.659    0.397
       251 -10.0434    152.9822    207.4708   6.9872828950e+01   1.1200963159e+01    0.2097046    0.1784637 -71.08  0.001219801    1.707    0.414
       252 -10.0718     59.7450     23.6017   4.7318510666e+01   6.7778193771e+01    0.2458709    0.1880597 -37.90 0.0004637994    1.330    0.248
       253  -9.7418    223.4755     22.1636   1.8797222820e+01   2.7506817993e+01    0.2387723    0.1286357 -70.48 0.0008196517    1.854    0.461
       254 -10.9068    179.1672     20.5750   2.1544772453e+01   3.7546723144e+01    0.4820612    0.2482541  43.99  0.002031565    2.893    0.654
       255  -9.2714     61.5097    206.5085   9.0408912604e+01   2.3539969174e+01    0.1304585    0.1043743  47.22 2.376213e-05    1.018    0.017
       256  -9.5616      5.7778     21.9566   8.4633996792e+01   7.6574583758e+01    0.4400451    0.2059837 -21.65  0.001853576    2.766    0.639
       257  -9.4301     78.3571    203.7211   8.6068031558e+01   2.2013126751e+01    0.1391864   0.07978804  52.61  0.000596335    1.660    0.397
       258 -10.2871    139.3377    198.6711   7.1439244620e+01   1.4550609225e+01    0.1921939    0.1464553  60.52  0.001117949    1.720    0.418
       259 -10.8693      6.2458    198.4924   1.0362899015e+02   3.0958838130e+01    0.2425938    0.1259666 -70.09  0.001296838    2.157    0.536
       260  -9.9764    233.9578    196.7851   5.4129477245e+01   2.5111157932e+00    0.1902166    0.1259113 -24.14 0.0008599441    1.274    0.215
       261 -10.0205     74.6443     19.5080   3.9158746408e+01   6.4877541637e+01    0.2665071    0.2140404  39.77 0.0005974224    1.303    0.232
       262  -9.4737     79.3224    190.3312   8.4431620218e+01   2.4671821981e+01    0.1295643     0.102391 -16.80 0.0003660911    1.699    0.411
       263  -9.6243    156.4064     20.5138   2.3741525108e+01   4.3233449505e+01    0.2978479    0.1321718  74.01  0.001223432    2.214    0.548
       264  -9.9948     47.0577     19.1952   5.0894021267e+01   7.1213532141e+01    0.2950539    0.2432219 -32.98  0.001653935    1.227    0.185
       265  -9.0772      1.5074     20.4418   8.8286818184e+01   7.7187822778e+01    0.1299994    0.1095194 -42.56 0.0001089195    1.065    0.061
       266 -11.9275    245.9017     19.6625   1.7022832939e+01   2.3453988298e+01    0.2866894    0.1218011 -37.33  0.001520855    1.639    0.390
       267 -11.6613      5.0246    185.8053   1.0358125073e+02   3.3894707502e+01    0.4375642    0.3494275  36.66  0.002333568    1.223    0.183
       268 -11.1105      2.9792    181.6944   1.0400266404e+02   3.5005909927e+01    0.2921555    0.2509992  61.66  0.001716253    1.122    0.109
       269 -10.5484    186.8802     15.0050   1.9310573903e+01   3.6331639081e+01    0.2124548    0.1720832 -73.44 0.0003306775    1.122    0.109
       270  -8.9241     86.5085    185.5095   8.2044684182e+01   2.4716821599e+01     0.136485      0.11923  45.14  1.21774e-05    1.004    0.004
       271  -9.5373     74.7223     13.5790   3.5764086164e+01   6.5631313775e+01    0.1987847    0.1336899  78.70 0.0009415092    1.617    0.382
       272  -9.5250     28.1968    175.8493   9.6858303860e+01   3.4124286785e+01    0.1665393    0.1542943 -63.54 0.0005208038    1.316    0.240
       273 -10.1390     51.6497    172.8690   9.0024483123e+01   3.2225143547e+01    0.3812047    0.1862572  89.32  0.001598896    2.456    0.593
       274  -8.6996    170.3217    172.2884   6.0796155507e+01   1.4467884491e+01    0.1299562    0.0925591  -0.52 0.0004057735    1.602    0.376
       275  -9.1214    198.2523    167.9823   5.4889732620e+01   1.0965709483e+01    0.1529631   0.09456782 -35.06 0.0004683269    1.497    0.332
       276 -10.8945     13.9731    159.4865   1.0003665132e+02   3.9479135009e+01    0.2116635    0.1799416 -75.11 0.0006003818    1.278    0.218
       277 -11.8552      9.0581    167.1655   1.0183344532e+02   3.7982324280e+01    0.3369173    0.2781254  24.73   0.00130945    1.340    0.254
       278 -10.4581     18.6814    164.9337   9.8932087538e+01   3.7701825932e+01    0.2786219    0.1949306  -1.69  0.001461507    1.964    0.491
       279  -9.9341    204.9782    163.2308   5.2885196688e+01   1.0702150543e+01    0.2079128    0.1537281 -26.91 0.0006136982    1.193    0.162
       280 -10.6708     27.8457    161.7896   9.6015156361e+01   3.7610735762e+01    0.3374053    0.2032343 -64.31  0.001690998    1.754    0.430
       281  -9.6034     38.0416    160.5126   9.2850125773e+01   3.6854549864e+01    0.2089596    0.1283934  30.01 0.0007239694    1.566    0.361
       282 -11.2388      9.4975    155.4725   1.0119529153e+02   4.0863624168e+01    0.2719366    0.1928047  73.27  0.001086202    1.201    0.167
       283 -10.3991    104.9033    154.4186   7.2654954435e+01   2.8803885339e+01     0.382522    0.2876568   1.31  0.001838934    1.819    0.450
       284 -12.4564     22.5545    149.1448   9.6738174088e+01   4.1361441069e+01    0.6470176    0.3775561 -37.05  0.002720271    2.471    0.595
       285 -11.0033     16.3726    148.0107   9.8639140326e+01   4.2212660701e+01    0.2888213    0.2278422  52.88 0.0004375474    1.114    0.103
       286 -10.5990      4.0510    153.6297   1.0278270202e+02   4.1748330369e+01    0.3041403     0.145187  45.09  0.001090924    1.724    0.420
       287  -9.7633    141.7964    152.4513   6.3137334734e+01   2.2833523553e+01    0.2739453    0.1294666  44.18  0.001137054    2.122    0.529
       288 -11.2074     46.8359    147.2167   8.8771429692e+01   3.9238358214e+01    0.6547881    0.3856836 -48.48    0.0029487    2.020    0.505
       289 -10.5365     30.4447    152.0251   9.4460138355e+01   3.9837071741e+01    0.2532737    0.2012487  -0.12  0.001135931    1.629    0.386
       290 -10.3561     64.9497    150.0657   8.3459341035e+01   3.6109343760e+01    0.5505664    0.2998106   4.27  0.001812757    4.020    0.751
       291 -10.5963      3.2805    147.4816   1.0278298766e+02   4.3375919645e+01    0.2394938    0.1633319  88.64 0.0006633218    1.309    0.236
       292 -11.3929      5.9238    142.0334   1.0169637275e+02   4.4601975353e+01    0.5630171    0.2246902  70.59 0.0002955133    2.341    0.573
       293 -11.2600      2.0002    140.1279   1.0290152706e+02   4.5373357307e+01    0.4330083    0.2155994 -88.80  0.001102338    1.791    0.442
       294  -9.7278     74.1568    146.1037   8.0063476878e+01   3.5759360482e+01    0.2157305    0.1978717 -34.45 0.0004982714    1.287    0.223
       295 -11.1680     33.2491    144.3380   9.2869843368e+01   4.1552490382e+01    0.3086088    0.2608955  69.65 0.0007366222    1.027    0.026
       296 -10.4216     16.0063    141.0102   9.8305563281e+01   4.4082023313e+01    0.2589635    0.1800377  48.86 0.0007350328    1.277    0.217
       297 -11.3594     12.4176    136.0809   9.9194496122e+01   4.5685472100e+01     0.551705    0.3531222 -64.63  0.002817067    1.590    0.371
       298  -9.6737    217.1727    138.8430   4.6255452205e+01   1.2504952756e+01    0.1794871    0.1526229 -38.72 0.0004907046    1.224    0.183
       299 -10.5037     40.0108    137.7480   8.9920864249e+01   4.2552912569e+01    0.3563665    0.2289917  66.86 0.0009897316    1.518    0.341
