#   1 NUMBER                 Running object number                                     
#   2 MAG_AUTO               Kron-like elliptical aperture magnitude                    [mag]
#   3 X_IMAGE                Object position along x                                    [pixel]
#   4 Y_IMAGE                Object position along y                                    [pixel]
#   5 X_WORLD                Barycenter position along world x axis                     [deg]
#   6 Y_WORLD                Barycenter position along world y axis                     [deg]
#   7 A_WORLD                Profile RMS along major axis (world units)                 [deg]
#   8 B_WORLD                Profile RMS along minor axis (world units)                 [deg]
#   9 THETA_WORLD            Position angle (CCW/world-x)                               [deg]
#  10 FWHM_WORLD             FWHM assuming a gaussian core                              [deg]
#  11 ELONGATION             A_IMAGE/B_IMAGE                                           
#  12 ELLIPTICITY            1 - B_IMAGE/A_IMAGE                                       
         1 -14.7803    164.9542     40.2973   2.9011768118e+02   6.3743083757e+00   0.06199336   0.04603442 -48.11  0.004058897    1.410    0.291
         2 -14.1201    179.9462     10.5798   2.8976850207e+02   6.6332277848e+00   0.06658992   0.03069501  11.88  0.005110392    2.766    0.638
         3 -14.0588    179.1045      4.8825   2.8974793043e+02   6.7041562933e+00   0.09338039   0.02858052  19.92  0.005898859    3.855    0.741
         4 -11.4550    119.1959    243.6495   2.9179190728e+02   4.2717071822e+00  0.009005425  0.008279886  59.96 0.0005021724    1.143    0.125
         5 -19.8629     71.5362    167.7187   2.9197581548e+02   5.4267869850e+00    0.9189097    0.4004663 -68.59   0.07472022    2.608    0.617
         6  -9.2129    136.9944    197.9534   2.9132290947e+02   4.7016966589e+00   0.02918114    0.0126299  62.70  0.001643858    5.722    0.825
         7 -11.3294    154.6326    196.2721   2.9109394473e+02   4.6204811224e+00   0.01680972   0.01140194  78.42  0.001639678    1.923    0.480
         8 -10.4511    131.6949    236.4854   2.9159745039e+02   4.2837387479e+00   0.00930238  0.006408153  24.34 0.0001232793    1.362    0.266
         9 -10.4349    135.0282    234.8841   2.9154725955e+02   4.2833406896e+00  0.008533319  0.007112334 -46.09 0.0005519002    1.257    0.205
        10 -10.3878     16.7264    233.2550   2.9301319438e+02   4.9757182181e+00  0.006676347  0.004863596  52.28 0.0004758969    1.457    0.314
        11 -11.7380    219.2211    224.5463   2.9044282354e+02   3.9222793212e+00   0.01739713   0.01056042 -81.52  0.001187244    2.092    0.522
        12 -10.9316    110.1955    222.9103   2.9179200326e+02   4.5643074944e+00  0.009327304  0.008647319  60.58 0.0003622247    1.133    0.118
        13 -11.3877     29.9882    183.9324   2.9258197304e+02   5.4744403905e+00   0.02192459   0.01143179  33.58  0.001823664    1.741    0.425
        14 -10.5318    120.6471    183.3331   2.9144757565e+02   4.9651044150e+00   0.01339851  0.009130797  53.48 0.0006811712    1.605    0.377
        15 -11.8832    117.1938    180.4194   2.9147486836e+02   5.0187098033e+00   0.03472243   0.01223811  50.37  0.002150738    4.313    0.768
        16 -11.0078     15.5205    219.9767   2.9295675740e+02   5.1371002610e+00  0.009375924   0.00822459 -39.53 0.0004652153    1.195    0.163
        17 -10.3675    108.4467    182.3405   2.9159437361e+02   5.0462744001e+00  0.008018004  0.006739037  89.89 0.0001944696    1.346    0.257
        18 -10.4790      4.4065    180.2676   2.9288151567e+02   5.6622995070e+00    0.0178273   0.00975152 -11.29  0.001397815    2.877    0.652
        19 -13.4291    195.4033    170.5843   2.9044655244e+02   4.6859261074e+00   0.04028599   0.02262552 -81.05  0.003274185    2.355    0.575
        20 -11.4758      9.6377    175.0057   2.9278784486e+02   5.6938596667e+00   0.01244794  0.009031509  28.20 0.0007646856    1.280    0.219
        21 -13.2680    138.2373    170.9292   2.9116100103e+02   5.0089279582e+00   0.03471082   0.02864617  65.76  0.003927351    1.344    0.256
        22 -12.8489    143.9418    168.4552   2.9107645071e+02   5.0051031954e+00   0.02743961   0.01641928  68.58  0.002053064    2.351    0.575
        23 -11.7262    203.1002    172.3499   2.9036025636e+02   4.6213185691e+00   0.01280264   0.01046176 -86.79  0.000852701    1.394    0.283
        24 -12.6465    177.2553    171.1565   2.9067579555e+02   4.7831653133e+00    0.0218513   0.01291379 -77.63  0.002025134    2.073    0.518
        25 -11.7993    125.7723    172.1109   2.9132286818e+02   5.0663836089e+00   0.01449478   0.01242954 -69.47  0.001039164    1.257    0.204
        26 -12.3100    112.2879    169.2719   2.9147569789e+02   5.1763858701e+00   0.02567066   0.01829005  44.06  0.002616204    1.390    0.281
        27 -11.8117    230.1916    167.0535   2.8999411160e+02   4.5276236890e+00    0.0201566  0.009855337 -86.91  0.001448925    3.613    0.723
        28 -12.8233    121.9103    222.9421   2.9164615576e+02   4.4971151462e+00   0.02746511   0.01638493  -3.57  0.002426309    2.221    0.550
        29 -11.1164    200.9470    164.9422   2.9034684776e+02   4.7197623433e+00   0.01447296   0.00882623  74.44 0.0009347396    2.357    0.576
        30 -12.1253    133.6971    249.3948   2.9164228833e+02   4.1221517615e+00   0.01449137  0.008364881 -61.16  0.001381439    1.800    0.444
        31 -10.2575      1.9934    165.2378   2.9283060973e+02   5.8508912244e+00  0.009263314  0.007732194  16.90 0.0003594001    1.152    0.132
        32 -10.9173    222.8080    162.3696   2.9006058660e+02   4.6243849995e+00   0.01534028  0.009313298  88.44 0.0009840163    2.317    0.568
        33 -12.8986    129.6760    160.9057   2.9121344918e+02   5.1744208785e+00   0.02341082   0.01780147 -31.33  0.001638613    1.444    0.308
        34 -10.9610     15.0765    164.0594   2.9266089281e+02   5.7903781752e+00   0.02394086   0.01260683   0.22  0.001879454    2.795    0.642
        35 -12.6876    163.6182    156.1300   2.9076423824e+02   5.0359166203e+00   0.01973144   0.01402092 -75.77  0.001434581    1.600    0.375
        36 -12.4593    134.6627    109.1869   2.9087059144e+02   5.7473310718e+00   0.04880758   0.01072551 -67.75  0.002578136    6.134    0.837
        37 -14.3758    135.7636    127.9316   2.9095863017e+02   5.5231011780e+00   0.08849964   0.02595247 -71.29  0.005115004    5.266    0.810
        38 -14.3523    133.8717    145.4533   2.9107731371e+02   5.3301641494e+00    0.0946596    0.0297149 -74.62  0.004978455    6.505    0.846
        39 -11.9952    116.1181    211.9303   2.9165880640e+02   4.6582664888e+00   0.01525521   0.01032159  58.58  0.001164968    1.709    0.415
        40 -11.6923    110.6901    212.1572   2.9172770461e+02   4.6865889566e+00   0.01357975   0.01024168  74.57 0.0009953758    1.589    0.371
        41 -11.5653    174.1195    148.6791   2.9059286034e+02   5.0624505028e+00   0.01666553    0.0126022  55.07  0.001419117    1.424    0.298
        42 -13.9345    143.3965    143.0873   2.9094565051e+02   5.3032338503e+00   0.04339978   0.02384947 -87.04  0.003619003    2.698    0.629
        43 -12.2071    109.1215    208.1248   2.9172545720e+02   4.7424506209e+00   0.01554503   0.01231571  -9.55 0.0008016682    1.380    0.275
        44 -10.0297    173.2934    139.6284   2.9055400387e+02   5.1723998271e+00  0.007268469  0.004925303  59.83 0.0007025839    1.728    0.421
        45 -11.9346      6.1277    137.1896   2.9262761690e+02   6.1538050841e+00   0.01689912   0.01359492 -18.82  0.001291969    1.358    0.263
        46 -10.0551     13.7258    137.3710   2.9253367463e+02   6.1085803170e+00  0.009130254  0.006275039  11.60 0.0002848434    1.507    0.336
        47 -11.2790    164.1444    209.8806   2.9104914761e+02   4.4078478860e+00   0.01082317   0.00899388  53.17 0.0006365724    1.253    0.202
        48 -12.2493    160.6718    127.8355   2.9064734854e+02   5.3817450695e+00    0.0197138   0.01509173  70.18  0.002115956    1.531    0.347
        49  99.0000     13.8735    242.4093   2.9309801534e+02   4.8853678803e+00   0.02290669  0.002664066 -61.63  0.001191319    5.984    0.833
        50 -10.5263     10.1163    211.3902   2.9297793369e+02   5.2676979515e+00  0.006508841  0.003987608 -52.46  0.000604623    1.682    0.406
        51 -11.7159    139.7993    120.6308   2.9086863247e+02   5.5849143446e+00   0.01508305   0.01099768  37.46 0.0009959198    1.298    0.229
        52 -13.0927     11.4297    205.7912   2.9293139492e+02   5.3254101286e+00   0.03086039   0.01990354  25.13  0.003120772    1.449    0.310
        53 -10.8391    167.6519    112.6436   2.9047772749e+02   5.5183777295e+00   0.01485569  0.008674575  56.76   0.00133718    2.090    0.522
        54 -10.8315    157.0409    202.1910   2.9109600066e+02   4.5378788288e+00   0.02382844   0.01113244  54.64  0.001480699    2.934    0.659
        55 -11.7327      7.0773    111.1229   2.9247491994e+02   6.4516527972e+00   0.01290636   0.01003692   4.38 0.0008562414    1.342    0.255
        56 -10.8766    205.4339    110.1789   2.8999320971e+02   5.3304821299e+00    0.0150811  0.009793045  11.97  0.001037125    1.624    0.384
        57 -11.2164      6.7324    102.1620   2.9243078364e+02   6.5578315365e+00   0.01388692   0.01087529  26.15 0.0008568446    1.192    0.161
        58 -12.7111    163.5606    203.3515   2.9102104527e+02   4.4871164320e+00   0.02197679   0.01618944 -43.47  0.001852044    1.438    0.305
        59 -12.8715    161.3208    197.7884   2.9101880900e+02   4.5646168060e+00    0.0200446   0.01617746  78.50  0.001479935    1.436    0.304
        60 -10.4355    144.8179     80.1964   2.9058626186e+02   6.0261927419e+00  0.009483621  0.007791694 -20.94 0.0004748667    1.318    0.241
        61 -14.4936    153.6428     55.0379   2.9033918985e+02   6.2679459455e+00   0.06151519   0.04834343  29.52  0.001067786    1.184    0.155
        62 -12.0248    125.0034    247.2295   2.9173889206e+02   4.1969371504e+00    0.0176786  0.008668221 -64.87  0.001548161    2.170    0.539
        63 -12.8776    169.2511     32.1227   2.9001949057e+02   6.4445744674e+00   0.01921448   0.01736806 -28.27 0.0008353582    1.157    0.136
        64 -10.8149     13.5339     59.9477   2.9211723686e+02   7.0100441790e+00   0.01266119  0.008573339  41.68 0.0004279539    1.437    0.304
        65 -10.5920    141.3934     32.8577   2.9037140265e+02   6.5956771509e+00   0.01190685  0.008327996  34.78 0.0003723408    1.332    0.249
        66 -11.8651    168.8521    202.4518   2.9095023764e+02   4.4673265835e+00   0.01390384  0.009809459  64.91 0.0003213645    1.694    0.410
        67 -11.2919    189.7040     14.9746   2.8967067528e+02   6.5262153988e+00  0.009413955  0.009116912 -70.11 0.0006653766    1.106    0.096
        68  -9.7486    150.6106    247.4881   2.9142130674e+02   4.0477898409e+00  0.006667293   0.00640828  21.83 0.0001646007    1.025    0.024
