#   1 NUMBER                 Running object number                                     
#   2 MAG_AUTO               Kron-like elliptical aperture magnitude                    [mag]
#   3 X_IMAGE                Object position along x                                    [pixel]
#   4 Y_IMAGE                Object position along y                                    [pixel]
#   5 X_WORLD                Barycenter position along world x axis                     [deg]
#   6 Y_WORLD                Barycenter position along world y axis                     [deg]
#   7 A_WORLD                Profile RMS along major axis (world units)                 [deg]
#   8 B_WORLD                Profile RMS along minor axis (world units)                 [deg]
#   9 THETA_WORLD            Position angle (CCW/world-x)                               [deg]
#  10 FWHM_WORLD             FWHM assuming a gaussian core                              [deg]
#  11 ELONGATION             A_IMAGE/B_IMAGE                                           
#  12 ELLIPTICITY            1 - B_IMAGE/A_IMAGE                                       
         1 -13.5734    222.8820      8.3428   3.4643381131e+01   2.8686465680e+01     1.391255    0.9833255  53.36  0.006371764    1.632    0.387
         2 -14.2606    196.3301     38.3744   4.4844473650e+01   3.1406182136e+01      2.20183     1.439689  19.62   0.00996815    2.480    0.597
         3 -10.7371     74.3126     13.0991   6.2063003688e+01   6.2827230616e+01    0.3998498    0.2238656  61.82  0.001863345    2.574    0.611
         4 -10.2830     69.9943      2.0000   5.8344361297e+01   6.4739160609e+01    0.3412193   0.06248364  53.57  0.001056214    4.979    0.799
         5  -8.9513     58.0094    227.9389   1.1699705440e+02   1.9690009591e+01    0.1660974    0.1323612  65.26 0.0003289508    1.015    0.015
         6 -19.4203     10.0670    148.1606   1.2050480326e+02   4.2300717498e+01     19.19033      3.90279 -76.77   0.05932635    4.863    0.794
         7 -11.4073     64.0631    202.1495   1.1328239634e+02   2.4274454852e+01    0.2537158    0.2027889 -57.47 0.0004589855    1.399    0.285
         8  -8.7106     35.6845    208.5755   1.1989655718e+02   2.6264626399e+01    0.1534309   0.09058542  52.37 0.0009004943    1.482    0.325
         9  -8.3644    224.2562    206.3748   7.9429734681e+01  -2.4290090234e+00    0.1349295   0.08683077  -5.02 0.0006968777    1.652    0.395
        10  -9.2320     93.2849    205.7326   1.0721582100e+02   1.9421075831e+01    0.2352184    0.2139576 -10.41 0.0007549387    1.405    0.288
        11 -10.7014     62.3820    250.3580   1.1796191907e+02   1.4923887990e+01    0.2334301    0.1307823  59.09 0.0006427006    1.525    0.344
        12  -9.8061     41.6196    207.9863   1.1863007440e+02   2.5733037318e+01    0.2417607     0.138195  69.54  0.001021944    1.675    0.403
        13 -10.9569    192.5333    194.5654   8.3446234337e+01   4.7411921576e+00     1.166391    0.6488615 -64.66  0.003484384    6.132    0.837
        14  -9.8970     26.7840    203.6556   1.2133720570e+02   2.8243124251e+01    0.4223232   0.09467217  47.92  0.001657961    3.643    0.725
        15 -10.0064     39.0916    199.8943   1.1847303104e+02   2.7754872631e+01    0.2105938    0.1445276  51.82 0.0008230596    1.325    0.245
        16 -12.0210     49.0774    249.4105   1.2030843882e+02   1.6716526828e+01     0.188209    0.1414151  80.88 0.0005141041    1.196    0.164
        17 -15.8027     70.7755    147.4713   1.0421884817e+02   3.6180198523e+01     14.36696     7.197926  82.31   0.03104737    5.884    0.830
        18  -8.9966     82.4817    194.5031   1.0822624267e+02   2.3438748801e+01    0.2392642    0.2259401 -86.81  0.001317828    1.112    0.100
        19  -8.8252     79.6415    192.2983   1.0860038567e+02   2.4335466327e+01    0.2385718    0.1349044  49.10 0.0005718158    1.681    0.405
        20 -11.2108    149.0356    187.1029   9.1528185040e+01   1.3995434947e+01    0.4202864    0.3064903 -61.37  0.001523813    1.645    0.392
        21 -11.0799    119.8380    186.5284   9.8251977256e+01   1.9292895240e+01    0.2766002    0.2516629 -24.46 0.0008782065    1.238    0.192
        22  -8.6107     76.1192    221.0167   1.1267733269e+02   1.8713419681e+01    0.2500344    0.1780488 -50.15  0.001481751    1.725    0.420
        23 -11.2419     98.9890    181.1060   1.0239362254e+02   2.3950443772e+01    0.4401909    0.3402531 -11.40  0.001611234    1.844    0.458
        24  -8.3937     36.2855    185.2512   1.1776894214e+02   3.1313611472e+01    0.1086229   0.09089405 -48.02 0.0004878267    1.471    0.320
        25  -9.0791     55.7572    207.4734   1.1561733388e+02   2.4175374109e+01    0.3579515    0.1738744 -89.29  0.001644701    2.500    0.600
        26 -10.7244    150.4379    208.1271   9.4860333423e+01   9.6260077298e+00       0.4449    0.2792666  11.60  0.001979887    2.312    0.567
        27  -9.9834    187.8401    176.1476   8.0775975728e+01   8.9278281237e+00    0.3468164    0.3124954 -42.25  0.001876787    1.234    0.190
        28  -8.9354     59.6823    220.5101   1.1601220479e+02   2.0969319106e+01    0.2792656    0.2529165 -15.83  0.001906521    1.609    0.378
        29  -9.4306    148.7835    176.0666   8.9500715649e+01   1.6325497872e+01    0.2110068    0.1934849  46.20 0.0004769823    1.103    0.094
        30 -10.2113    146.6583    172.1588   8.9234249845e+01   1.7552776825e+01    0.3929108    0.2644754 -65.87  0.001453762    1.954    0.488
        31 -10.6610     65.9381    207.2555   1.1341192569e+02   2.2930756413e+01    0.2204196    0.1864322 -80.94 0.0003777328    1.168    0.144
        32  -8.5200     50.1089    217.7324   1.1771242831e+02   2.2710401710e+01    0.5305423    0.2506028  62.12  0.002650553    2.145    0.534
        33  -9.6645     55.7922    165.3742   1.1088019341e+02   3.3755110821e+01    0.2449661    0.1828965 -69.08 0.0005817933    1.223    0.182
        34  -8.7530     54.3146    168.3184   1.1163227691e+02   3.3229576756e+01    0.2028505     0.178037 -54.61 0.0004475052    1.239    0.193
        35 -10.6840    241.4225    170.2008   6.9162520737e+01   4.5335489762e-01    0.2816868    0.2146924  89.55  0.001317849    3.081    0.675
        36 -10.6134     53.2001    172.5639   1.1243522267e+02   3.2355887243e+01    0.3508601    0.2286096  80.94  0.001058305    1.615    0.381
        37  -9.8905    185.2174    169.3464   7.9917498446e+01   1.0715202700e+01     0.312753    0.2097687 -48.27    0.0014744    1.638    0.389
        38  -8.9428    194.0114    171.3242   7.8474219508e+01   8.6701605980e+00     0.206672    0.1799364  23.69  0.001140709    1.106    0.096
        39 -10.0184    137.5060    168.8569   9.0778371161e+01   1.9991590000e+01    0.3695261    0.2304939  41.98  0.001661531    1.556    0.357
        40  -9.8427     47.3159    173.1763   1.1393903549e+02   3.2896405692e+01    0.3581468     0.252524 -30.93  0.001468185    2.036    0.509
        41 -11.7152     93.7068    151.3740   9.8645126556e+01   3.1797962518e+01    0.7155795    0.6042499 -16.85  0.002475898    1.433    0.302
        42 -10.8329    133.8218    145.5197   8.6793084740e+01   2.5930626796e+01     1.254466    0.3361787 -54.31  0.002985811    5.530    0.819
        43  -9.6002    112.4823    150.8936   9.3519656537e+01   2.8709080126e+01    0.2823099    0.2032004  55.37 0.0006189091    1.522    0.343
        44  -9.0284    174.8651    149.1679   7.7750294996e+01   1.6778628906e+01    0.2276396    0.2111234 -76.34 0.0005779502    1.283    0.221
        45 -10.2425     72.0000    248.9956   1.1607233527e+02   1.3938589663e+01    0.1902772    0.1294771  89.91  0.001237491    1.537    0.349
        46 -10.5761    105.6463    137.9099   9.2636214427e+01   3.3018802125e+01    0.5685313    0.3375524 -33.69  0.001993087    2.092    0.522
        47 -10.5293    105.9587    130.8225   9.0967695890e+01   3.4656880769e+01    0.4085695     0.331262 -64.83  0.001116237    1.294    0.227
        48 -11.5775     93.5831    137.3988   9.5910798081e+01   3.5207645790e+01     0.287924    0.2630297 -38.71 0.0002582262    1.115    0.103
        49 -10.5805    135.8154    127.7738   8.2096893041e+01   2.9549030593e+01    0.6724597    0.1896238 -50.33  0.001804798    4.032    0.752
        50 -10.4756    113.7532    128.8904   8.8329903984e+01   3.3675476012e+01    0.3400563    0.3029413  -6.72 0.0007646368    1.233    0.189
        51  -8.9107    160.9964    127.4951   7.5757904016e+01   2.4235290723e+01    0.2203281    0.1408654  69.31 0.0008103295    2.526    0.604
        52 -11.3259    119.8394    123.1132   8.5236934366e+01   3.3847236077e+01    0.6197968    0.3762411 -27.20  0.002404457    2.197    0.545
        53 -10.3053    101.0605    124.8886   9.0996061123e+01   3.6948083834e+01    0.3030768    0.2492028 -20.98 0.0006896484    1.373    0.271
        54  -9.3641    109.1274    118.1051   8.7014317507e+01   3.7076002644e+01    0.2223504    0.2177563 -37.76 0.0003637956    1.023    0.022
        55  -8.4952     63.2247    214.0480   1.1467425746e+02   2.1849412953e+01    0.1601995    0.1344259  69.07 0.0003149223    1.005    0.005
        56  -9.9794    231.3052    113.7682   5.8427446698e+01   1.1760550996e+01    0.2836127      0.25211  -5.28 0.0007753294    1.175    0.149
        57  -8.9822    167.8947    112.7675   7.0375347510e+01   2.5748548230e+01    0.3122136    0.2075397 -66.71  0.001230423    2.217    0.549
        58 -11.8121    118.4644    108.9940   8.1968959003e+01   3.7338135682e+01    0.7305202    0.6204978 -48.55  0.003500142    1.172    0.147
        59  -9.6268    134.4932    102.9972   7.5916153902e+01   3.5271794545e+01    0.3697334    0.1486266 -48.55  0.001209152    2.681    0.627
        60  -9.5326    205.4069    110.1777   6.2024226716e+01   1.7828381105e+01    0.3116521    0.2145409  39.66  0.001043143    1.581    0.367
        61  -9.4029     63.2176     99.5874   9.6764428629e+01   4.8889328663e+01    0.3239935    0.1443018  26.71  0.001285634    2.624    0.619
        62 -10.3523     72.0706    244.8314   1.1570942133e+02   1.4681565581e+01    0.2856292    0.1829491  82.08 0.0009278464    1.649    0.393
        63  -8.8296     57.5142    211.4824   1.1562692684e+02   2.3108247228e+01    0.1750553    0.1461921  47.90   0.00069042    1.198    0.165
        64  -8.5074    156.4812     82.4492   6.4548618613e+01   3.4300045315e+01    0.1528402    0.1498047  13.32 0.0001004305    1.012    0.011
        65  -9.2909     64.4122     70.0837   8.8111802890e+01   5.5314281420e+01    0.2214245    0.1794359   2.08  0.001235693    1.259    0.206
        66 -11.5840    248.4688    245.6515   8.1938910986e+01  -1.1042836050e+01    0.4325369    0.2459925 -31.45  0.002699774    1.828    0.453
        67 -12.8046    180.6193     52.3938   5.1044732914e+01   3.3330679229e+01    0.7083709    0.6491891   7.58 0.0008264857    1.240    0.193
        68  -8.5111     84.0116    245.5406   1.1348946124e+02   1.2956369738e+01    0.1560481   0.07525179  56.69 -7.593789e-05    2.013    0.503
        69  -9.5533    189.7892     15.0807   3.9518320347e+01   3.5705155538e+01    0.2061028    0.1628491 -68.95 0.0006620809    1.225    0.184
        70  -9.4005    167.9766    232.2240   9.4974652062e+01   2.5126111564e+00     0.188816    0.1554922  41.85 0.0004883514    1.212    0.175
        71  -8.1232     77.6737     29.3147   6.7999887102e+01   6.0220320836e+01    0.1206858    0.1095278 -74.52 0.0005437873    1.669    0.401
