#   1 NUMBER                 Running object number                                     
#   2 MAG_AUTO               Kron-like elliptical aperture magnitude                    [mag]
#   3 X_IMAGE                Object position along x                                    [pixel]
#   4 Y_IMAGE                Object position along y                                    [pixel]
#   5 X_WORLD                Barycenter position along world x axis                     [deg]
#   6 Y_WORLD                Barycenter position along world y axis                     [deg]
#   7 A_WORLD                Profile RMS along major axis (world units)                 [deg]
#   8 B_WORLD                Profile RMS along minor axis (world units)                 [deg]
#   9 THETA_WORLD            Position angle (CCW/world-x)                               [deg]
#  10 FWHM_WORLD             FWHM assuming a gaussian core                              [deg]
#  11 ELONGATION             A_IMAGE/B_IMAGE                                           
#  12 ELLIPTICITY            1 - B_IMAGE/A_IMAGE                                       
         1 -15.1971    181.7617    137.4270   6.2911023017e+01   1.8066133809e+01     3.902832     2.192902 -32.54   0.01576487    1.946    0.486
         2 -15.4719    161.3641     74.2442   5.1085052943e+01   3.4975944640e+01      5.61502     3.577563 -81.77   0.02211532    2.629    0.620
         3 -15.1543    179.8658    163.8871   6.9233956383e+01   1.2935413443e+01     4.166469       3.4941  41.37   0.02191599    1.236    0.191
         4 -13.6875     93.2209     70.0175   6.7654987378e+01   5.0641605288e+01     3.343635     1.901909  11.76    0.0118224    3.402    0.706
         5 -14.3517    131.4919     73.9064   5.7866401848e+01   4.1944782756e+01     5.635666     3.261263  -8.99    0.0184418    3.843    0.740
         6 -10.5619     12.2787     11.7275   7.9297373366e+01   7.1562518935e+01    0.1784899    0.1466327  -7.31 0.0005619194    1.223    0.183
         7  -9.1048     91.3196      8.7001   4.5900808942e+01   5.9602269487e+01    0.1142879   0.09727217 -80.61 0.0002801965    1.621    0.383
         8  -8.9888    229.2066    227.4342   7.1520024200e+01  -6.5932648991e+00    0.1522382    0.1089556  34.80 0.0003514212    1.513    0.339
         9  -8.4503    201.6903    250.6357   8.0561091843e+01  -6.1986454769e+00    0.1289496   0.08173798  -0.96 0.0007039054    1.751    0.429
        10  -8.6825    141.4062    250.2014   9.2585931372e+01   2.7293220075e+00    0.1442755    0.1232302 -78.50 0.0002669707    1.501    0.334
        11  -8.1115    132.6777    250.7554   9.4450206883e+01   3.9466153333e+00     0.120017   0.09016631  12.92 0.0002314094    1.527    0.345
        12  -8.8691     88.9371    250.2760   1.0332534802e+02   1.0402592748e+01    0.1654749    0.1366221  45.29  0.000387579    1.094    0.086
        13  -8.8617     75.9297    250.3746   1.0593289859e+02   1.2156864904e+01    0.1655737    0.1261092  46.80 0.0003945151    1.129    0.114
        14  -8.7109     24.8077    250.4416   1.1563282662e+02   1.8305508375e+01    0.1499922    0.1157081  58.67 0.0003650789    1.121    0.108
        15  -9.3055     21.7180    248.1269   1.1605808528e+02   1.9078545617e+01    0.1643029     0.140447  58.37 0.0004339507    1.249    0.200
        16  -8.1986     15.2578    250.6844   1.1734274185e+02   1.9253508198e+01    0.1136291   0.06004054  66.24 0.0002351898    1.535    0.348
        17 -10.1789     61.5297    247.6854   1.0853621128e+02   1.4549043469e+01    0.2062242    0.1678769  60.49  0.000438309    1.028    0.027
        18  -8.7074      2.3823    247.9810   1.1944721931e+02   2.1029116031e+01    0.1682049    0.1225249   7.32  0.001113157    2.502    0.600
        19 -10.1293    224.2674    247.0247   7.5717380941e+01  -8.7373232294e+00     0.222257     0.140313 -14.78 0.0007145781    1.543    0.352
        20 -10.8521    227.1253    243.6446   7.4639053382e+01  -8.6435328541e+00    0.2908323    0.1539241  29.95   0.00112078    1.702    0.412
        21  -9.2663    149.7575    245.9996   9.0298831561e+01   2.1825694510e+00    0.2554438     0.165042 -30.67  0.001376588    1.943    0.485
        22  -9.5627    128.5243    244.5656   9.4525743778e+01   5.6734619886e+00    0.1600988    0.1261187 -75.34 0.0009588193    1.578    0.366
        23  -9.1187    119.0395    246.4720   9.6738955540e+01   6.7555544295e+00    0.1757711    0.1620607  46.25 0.0004780166    1.084    0.077
        24 -10.3109     93.0701    246.2770   1.0207909770e+02   1.0579913636e+01    0.4486121    0.2477212  41.18  0.001893473    1.524    0.344
        25  -9.6599     81.7514    246.3356   1.0438897416e+02   1.2144196665e+01    0.1904097    0.1817451 -66.81 0.0003408733    1.288    0.224
        26  -9.1593     75.4797    245.0458   1.0553291151e+02   1.3243640666e+01    0.1817425    0.1420552  50.52 0.0004602216    1.086    0.080
        27  -8.9529     78.5770    243.4593   1.0475517063e+02   1.3135861422e+01    0.1991137    0.1437757  30.77 9.010887e-05    1.462    0.316
        28 -10.3725     42.3416    245.1527   1.1204919260e+02   1.7379158379e+01    0.2659116    0.2334998   1.07  0.000534012    1.750    0.429
        29 -10.9361     33.4047    246.4088   1.1381630974e+02   1.8149905134e+01    0.2056371    0.1991418  83.24  0.000552637    1.407    0.289
        30  -9.3647     37.4475    243.5232   1.1286654365e+02   1.8263572296e+01    0.1897677     0.164746  11.16  0.001170303    1.703    0.413
        31  -8.7176      7.7681    247.4466   1.1849279642e+02   2.0617166454e+01     0.118586   0.09776768  40.51 0.0002844579    1.457    0.314
        32  -8.6012    155.7547    246.4420   8.9123347323e+01   1.1941502741e+00    0.1762878    0.1079171  24.81 0.0007325162    1.578    0.366
        33  -8.9342    135.9849    246.0808   9.3166653456e+01   4.2679693523e+00    0.1875365    0.1452751  -0.32 0.0004974217    1.604    0.377
        34  -9.9832    104.3190    245.7382   9.9705401904e+01   9.0658849093e+00    0.2375044     0.186204  31.06 0.0006867528    1.261    0.207
        35  -8.4601    102.2736    242.3495   9.9748808436e+01   1.0007786597e+01    0.1308065    0.1105588  52.94 0.0003805392    1.030    0.029
        36 -10.0512     71.7175    242.9161   1.0609488598e+02   1.4162738776e+01     0.219777    0.1727913  45.14 0.0004343593    1.163    0.140
        37 -10.2837     58.1195    243.5825   1.0886890780e+02   1.5783401745e+01    0.2517037    0.2019043 -53.86  0.001248691    1.586    0.370
        38  -9.8462     56.8068    239.4127   1.0878451181e+02   1.6780181741e+01    0.2358226    0.1882551 -48.55  0.001155221    1.660    0.398
        39  -9.9434     50.2593    245.2087   1.1053325413e+02   1.6429165649e+01    0.1939506    0.1641195  61.84 0.0004348959    1.110    0.099
        40 -10.2487     50.7676    239.6113   1.1000044961e+02   1.7482567328e+01    0.3856714    0.3308525  -0.90   0.00257629    1.774    0.436
        41  -8.9550     52.5470    235.4651   1.0931116436e+02   1.8108212507e+01    0.1735438    0.1546342 -37.11 5.249696e-05    1.582    0.368
        42 -10.0687     49.0902    234.8605   1.0995582707e+02   1.8651280458e+01    0.3539392    0.2189459 -45.32  0.001817381    2.361    0.577
        43  -9.5797     54.5833    231.2341   1.0854091548e+02   1.8731669971e+01    0.2292728    0.2053612  45.63 0.0004271839    1.245    0.197
        44  -9.7073     57.5849    226.6208   1.0750965042e+02   1.9326897677e+01    0.3023186    0.2216108 -34.98   0.00153478    2.068    0.516
        45 -10.2963     62.8639    221.2847   1.0588182163e+02   1.9796586018e+01    0.2288554    0.2099133  64.64 0.0003317278    1.134    0.118
        46 -10.2301     59.0110    220.7170   1.0665488882e+02   2.0411866791e+01    0.5138202    0.3038379 -35.08  0.002362936    3.076    0.675
        47  -8.5962    205.6571    245.6935   7.9021133706e+01  -6.0312733033e+00    0.1293854   0.08218073   2.75 0.0007042515    1.689    0.408
        48  -8.7451    197.0163    244.4862   8.0510126234e+01  -4.6287135017e+00    0.1773918   0.09402172  13.49 0.0008084976    2.402    0.584
        49  -9.3839    113.0847    243.3323   9.7603064959e+01   8.2260933920e+00    0.2066177    0.1743025 -28.21 0.0006993073    1.504    0.335
        50  -9.3853     22.7435    242.4847   1.1554888619e+02   2.0074723546e+01    0.2797425    0.1241223 -74.10  0.001555429    2.111    0.526
        51  -9.5206     17.1534    242.6397   1.1657921119e+02   2.0621184291e+01    0.2913295    0.1822854 -41.01  0.001238717    2.934    0.659
        52  -8.6560    209.6646    243.2826   7.7864812309e+01  -6.2360677171e+00    0.1102012   0.09370298  46.34 0.0003841651    1.619    0.383
        53  -8.7958    146.3938    242.8486   9.0561420271e+01   3.2442690080e+00    0.1694612    0.1170592 -34.06 0.0009405199    1.727    0.421
        54  -9.1042    133.9977    242.5109   9.3111844691e+01   5.2100905646e+00    0.1792133    0.1638105  34.17 0.0004087068    1.062    0.058
        55 -10.7158     35.9355    229.1188   1.1214252748e+02   2.1367563915e+01    0.3146043    0.1969696  39.06 0.0003967987    1.542    0.351
        56  -9.8064     36.9429    235.1126   1.1237795023e+02   2.0014391514e+01    0.1926968    0.1482827 -81.27 0.0003258846    1.268    0.212
        57  -9.7124     29.9513    228.2886   1.1326921360e+02   2.2197443644e+01    0.3564931    0.2107993 -51.62  0.002024089    2.213    0.548
        58 -10.3064     27.9618    223.4747   1.1332784690e+02   2.3424527700e+01    0.3598575    0.1849295 -75.84  0.001575083    1.779    0.438
        59  -9.3098     35.5449    239.2660   1.1293891017e+02   1.9328512234e+01    0.1781129    0.1591939  69.12 0.0005612849    1.215    0.177
        60 -11.6087     31.2924    234.0607   1.1340342327e+02   2.0856757594e+01    0.3203823     0.218473 -89.48 0.0005325901    1.303    0.232
        61  -9.8625     27.6566    241.9765   1.1460785687e+02   1.9653390196e+01       0.1892    0.1683569 -81.73 0.0006439258    1.337    0.252
        62  -9.5652     31.4133    240.5381   1.1381076300e+02   1.9531672709e+01    0.2537004    0.1697486  61.30 0.0001101002    1.201    0.168
        63  -8.8360     10.7750    243.0635   1.1774848610e+02   2.1174470906e+01    0.1479237    0.1123254  75.05 0.0003774115    1.056    0.053
        64  -9.2160    141.6560    241.9742   9.1432285177e+01   4.1286977283e+00    0.1642354    0.1598291  -8.89 0.0004188616    1.160    0.138
        65  -8.6632     91.1978    240.8705   1.0189490210e+02   1.1889700541e+01    0.1533997    0.1435801  18.60 0.0003894895    1.287    0.223
        66  -8.7335     87.5696    242.5043   1.0281766797e+02   1.2082103734e+01    0.1660491    0.1131522  29.45 0.0001132344    1.541    0.351
        67  -9.1586     63.6138    241.1654   1.0757042746e+02   1.5567310625e+01    0.2935051    0.1384142 -73.80  0.001222585    2.274    0.560
        68  -8.6428      3.9521    242.5131   1.1892784670e+02   2.1937002869e+01    0.1395134    0.0928156  43.65 0.0003750928    1.443    0.307
        69  -8.6348     98.4282    241.7382   1.0048288528e+02   1.0684292157e+01    0.1524052    0.1187444 -50.96 0.0005649897    1.524    0.344
        70  -8.5480    126.5008    241.5140   9.4558873416e+01   6.5395519164e+00    0.1290497    0.1124932  33.80 0.0008098033    1.060    0.057
        71  -8.8055    122.2945    241.3156   9.5420283766e+01   7.2169764930e+00    0.1876061    0.1682075  20.02 0.0002656518    1.180    0.152
        72  -8.6657    122.7846    237.9571   9.4887213368e+01   7.7723767660e+00    0.1814505    0.1506145  12.93 0.0003154571    1.358    0.264
        73  -9.2628    125.8615    234.3195   9.3750662050e+01   7.9890016518e+00    0.2242854    0.1852982  25.08 0.0006854452    1.204    0.169
        74  -9.0955    126.5345    230.5152   9.3090115192e+01   8.6163357336e+00    0.2033651    0.1609664 -38.60 0.0001478636    1.471    0.320
        75  -9.6001     83.5940    241.1314   1.0349728764e+02   1.2905124691e+01    0.2156186    0.1611971  36.05 0.0004194675    1.296    0.229
        76  -8.5690    130.5428    240.4716   9.3570016798e+01   6.1124237412e+00    0.1292866    0.1128995  32.71 0.0001013871    1.052    0.049
        77  -9.1732     66.8153    230.7562   1.0596278633e+02   1.7273989431e+01    0.1852334    0.1607845 -72.47 0.0005350073    1.259    0.206
        78  -9.6095     78.9815    223.2051   1.0258566625e+02   1.7222398117e+01    0.2040177     0.177315 -67.93 0.0003249136    1.246    0.197
        79  -9.2065     68.0438    220.1497   1.0464502952e+02   1.9364563231e+01      0.16894     0.166472  64.60 0.0002731086    1.240    0.193
        80 -10.5653     67.7526    239.0049   1.0654051239e+02   1.5463836888e+01    0.4858278    0.2053578 -67.20  0.002179813    2.468    0.595
        81  -9.3756     75.6940    227.0071   1.0370498362e+02   1.6870588591e+01    0.2336455    0.1704136  43.15 0.0003435858    1.249    0.200
        82  -9.8889     73.0197    222.3114   1.0378824778e+02   1.8231695620e+01    0.2174342    0.1785471 -74.15 0.0003921012    1.247    0.198
        83  -9.8588     75.4113    218.1027   1.0280766512e+02   1.8814579831e+01    0.2228336     0.188399  47.08 0.0004277056    1.134    0.118
        84  -9.3724     71.5027    216.9363   1.0354499200e+02   1.9601645979e+01    0.2028579    0.1771343  23.06 0.0003980921    1.371    0.271
        85  -9.6040     72.6115    232.1824   1.0488644189e+02   1.6209825638e+01    0.2764312    0.2285868  21.00  0.001242857    1.492    0.330
        86 -10.7197     71.5453    227.4273   1.0463566751e+02   1.7343642024e+01    0.2944507    0.2348938 -58.80 0.0001333088    1.419    0.295
        87  -9.4501    186.8258    246.3737   8.2816111926e+01  -3.4421622848e+00    0.2249575   0.09378268 -45.92  0.001023446    2.801    0.643
        88  -9.3217    118.1005    239.1424   9.6033551110e+01   8.2622606810e+00    0.1886843    0.1628166  18.73 0.0004724219    1.254    0.203
        89  -9.9105    104.3498    237.4924   9.8751186910e+01   1.0642718923e+01    0.3418704    0.2398888   9.87  0.001795841    2.049    0.512
        90  -9.2337    107.2355    233.2566   9.7624937239e+01   1.1045967108e+01    0.2088519    0.1622053  30.83 0.0008062701    1.273    0.214
        91  -9.9739     77.2940    238.2453   1.0451005305e+02   1.4343673339e+01    0.2125367     0.188833  42.86 0.0004753658    1.188    0.158
        92  -9.4299    208.4798    238.4649   7.7309134455e+01  -5.3547973500e+00    0.1261064    0.1025024   7.48 0.0001280641    1.002    0.002
        93  -9.8144    203.1078    238.1748   7.8305457888e+01  -4.5437347953e+00    0.1899214    0.1437684   3.92 0.0002577548    1.192    0.161
        94  -9.8299    130.0466    235.5877   9.3023202389e+01   7.0981122122e+00    0.3568594    0.2464602 -17.23  0.001811614    2.167    0.538
        95  -8.8656    134.1313    232.1066   9.1665564039e+01   7.1165926258e+00    0.1898255    0.1656501  13.74 0.0003229111    1.200    0.167
        96  -8.9570    111.9375    238.2814   9.7234959374e+01   9.3576114312e+00    0.1767561    0.1485867  38.57 0.0004272003    1.085    0.078
        97  -9.9984     41.9582    236.5051   1.1149731152e+02   1.9156642455e+01    0.3256672    0.2165661 -59.64  0.001463406    1.733    0.423
        98  -8.5473     17.5014    233.5567   1.1600107543e+02   2.2405428118e+01     0.174784   0.09525059 -81.03 0.0005616675    1.640    0.390
        99  -9.4218     17.3548    237.2704   1.1624241577e+02   2.1669044646e+01     0.194436    0.1370437  83.42 0.0008746443    1.169    0.144
       100  -8.7792     21.3675    238.2801   1.1555610344e+02   2.1055901273e+01    0.1478309     0.120051 -58.24  0.001049204    1.608    0.378
       101  -8.8539     20.8408    235.2140   1.1547185870e+02   2.1729040637e+01    0.1987025    0.1687483 -79.96 0.0003390937    1.312    0.238
       102  -8.9705      1.8186    237.4831   1.1906983231e+02   2.3124068257e+01    0.1504203    0.1223696 -87.79 0.0003423993    1.264    0.209
       103  -9.2166    156.9654    236.7547   8.7471331597e+01   2.6746269492e+00    0.1923344    0.1548629  16.60 0.0004084051    1.193    0.162
       104  -9.6830    146.1472    236.0701   8.9656175253e+01   4.4912639451e+00    0.2085398    0.1847729  22.32 0.0004444534    1.062    0.059
       105  -9.4127    134.9073    236.7378   9.2141441429e+01   6.1266052662e+00    0.2010339    0.1762881 -17.90  0.000696946    1.315    0.240
       106 -10.0504    101.9123    228.4151   9.8184225936e+01   1.2817917058e+01    0.2379226    0.1971152 -50.20 0.0001713391    1.388    0.279
       107  -9.9844     95.4678    235.9399   1.0045682318e+02   1.2250495460e+01    0.2319609    0.2042112 -69.00 0.0006758955    1.258    0.205
       108  -9.8636     99.6082    232.9693   9.9230532419e+01   1.2238902577e+01    0.2710239    0.2256922 -88.14 0.0009146407    1.279    0.218
       109  -8.7161     72.4445    237.0794   1.0539841819e+02   1.5231938464e+01    0.1624532    0.1159755 -74.43 0.0004403973    1.455    0.313
       110  -8.4948      8.8004    237.3766   1.1781358633e+02   2.2489887284e+01    0.1262588     0.100915  32.27 0.0003825678    1.572    0.364
       111  -8.1751    189.6911    236.3040   8.0661680808e+01  -2.2789571511e+00    0.1166877   0.09933513  56.36 0.0004115129    1.607    0.378
       112  -8.2025    120.3171    235.3104   9.5072045445e+01   8.6554177789e+00    0.1261421    0.1003769  -2.49 0.0003807515    1.638    0.390
       113 -10.2625     90.7832    234.2557   1.0126315058e+02   1.3262941097e+01    0.2332148    0.1967643 -45.25 0.0004067429    1.456    0.313
       114  -9.5343    180.4770    234.4347   8.2231323130e+01  -5.7635925900e-01     0.131072    0.1102287  15.19 0.0001357554    1.024    0.024
       115  -9.7775    170.2089    233.7001   8.4235220540e+01   1.1368597999e+00    0.2383195    0.1536883 -16.53  0.001072465    2.020    0.505
       116  -8.9656    162.4551    233.5487   8.5833970634e+01   2.3777785770e+00    0.2116959    0.1173547 -34.54 0.0009336234    2.143    0.533
       117  -9.4591    140.0587    233.3920   9.0572044491e+01   5.9407270554e+00    0.2104888    0.1746586 -22.22 0.0002726311    1.400    0.286
       118 -10.0464     77.1761    233.2760   1.0403697578e+02   1.5366977387e+01    0.2338336    0.2157559 -49.69 0.0005034369    1.350    0.259
       119  -9.2396     79.9256    229.3512   1.0304577573e+02   1.5798280113e+01    0.1795539    0.1587023  75.20 0.0003845571    1.074    0.069
       120  -9.0062    176.3004    233.6628   8.2966958252e+01   1.9664381311e-01    0.1220407    0.1017706  64.14 0.0007035401    1.662    0.398
       121  -9.1281    152.8518    232.9170   8.7769410128e+01   4.0057218482e+00     0.208473    0.1722373 -25.11 0.0003673937    1.343    0.255
       122  -9.6483    146.4774    230.4545   8.8766346178e+01   5.4693495701e+00    0.2222052    0.1942768  27.75 0.0002478164    1.029    0.028
       123 -10.5069    152.9162    227.3096   8.6905810630e+01   5.0220393065e+00     0.399443    0.2892377 -30.02   0.00148949    1.585    0.369
       124  -9.4775    156.4926    223.9161   8.5605445053e+01   5.0749104895e+00    0.2931893    0.2060842 -26.17  0.001543486    1.676    0.403
       125 -11.0198    114.6592    232.3393   9.5907600007e+01   1.0100887114e+01    0.2791709    0.2195286  27.22 0.0002212828    1.288    0.223
       126  -8.4455    212.7263    232.3104   7.5466095313e+01  -5.0253670287e+00    0.1054621     0.101452  53.88 0.0002395774    1.552    0.356
       127  -8.4829    166.4473    232.4849   8.4831456403e+01   1.9366314291e+00    0.1326608    0.1140909  16.24  0.000807633    1.049    0.047
       128  -9.3639    121.8299    231.3179   9.4220270375e+01   9.1947335674e+00    0.2156469     0.186261 -40.41  0.000349095    1.336    0.251
       129  -9.9476     84.0511    231.7961   1.0242683951e+02   1.4718015172e+01    0.2229717    0.1993809  61.72 0.0003755371    1.056    0.053
       130  -8.4851     87.6613    229.6953   1.0142351281e+02   1.4638922257e+01    0.1608488    0.1267822 -48.61 0.0005189605    1.519    0.342
       131  -8.3400    194.4753    231.4399   7.8907055520e+01  -2.2123234373e+00    0.1304413    0.1086015   9.95 0.0002197167    1.020    0.020
       132  -9.2310    187.4776    231.0034   8.0247870440e+01  -1.0789285035e+00    0.2646492      0.14481   3.08  0.001031406    3.331    0.700
       133  -9.2548    173.3570    228.8674   8.2811949786e+01   1.4797707973e+00    0.3666764    0.1235155 -45.90  0.001420308    3.231    0.691
       134  -9.2582    133.8129    228.2231   9.1184464969e+01   7.9100631654e+00    0.1741303    0.1504922  -4.39 0.0004393761    1.323    0.244
       135  -9.4672    176.3980    227.5733   8.1967633700e+01   1.2252768424e+00    0.3050465    0.1167161 -39.77  0.001229669    2.900    0.655
       136  -8.8293    158.7893    228.8297   8.5882312162e+01   3.8016557868e+00    0.1935701    0.1625739   7.32 0.0004186831    1.196    0.164
       137 -13.6968    179.5629    196.8131   7.5905101131e+01   6.3607321103e+00      3.83675     1.848142  24.14   0.01443834    2.799    0.643
       138  -8.7327    116.4177    226.7982   9.4798400747e+01   1.0931038835e+01    0.1670382    0.1243142 -43.25 0.0003993412    1.564    0.361
       139  -9.5153     46.6923    225.5957   1.0968511971e+02   2.0873410020e+01    0.2763255    0.1955301 -33.01  0.001049328    2.313    0.568
       140  -9.5021     42.0927    225.6431   1.1063351584e+02   2.1401097189e+01    0.2025802       0.1558 -76.41 0.0004175545    1.285    0.222
       141  -9.1632     19.7585    227.2206   1.1518848655e+02   2.3483639461e+01     0.170509    0.1218484  73.42 0.0004705911    1.111    0.100
       142  -9.7660      9.6702    225.8315   1.1703538182e+02   2.4756983953e+01      0.28681    0.2480422  65.32  0.002184384    1.223    0.183
       143  -9.5666     14.8016    223.1089   1.1589443150e+02   2.4835532824e+01    0.1813444    0.1543162 -78.86 0.0003547787    1.293    0.226
       144  -9.0682    210.3943    226.8487   7.4987279888e+01  -3.8417177588e+00    0.1776292    0.1064738 -24.68 0.0004183453    1.712    0.416
       145  -8.9473    184.2220    226.5660   8.0181099583e+01   1.7045083904e-01    0.1822364    0.1129529  22.10 0.0007580703    1.596    0.374
       146  -9.3753    162.0204    225.2024   8.4621567473e+01   3.9431074112e+00    0.2471404    0.1994014 -71.78  0.001390565    1.699    0.411
       147 -10.3981    126.6479    224.7961   9.2268356480e+01   9.7216417289e+00    0.2516769    0.2334352 -38.92  0.000684754    1.207    0.171
       148 -10.1540     65.7056    225.3952   1.0567760889e+02   1.8546657054e+01     0.204849    0.1913389  64.85 0.0003295204    1.164    0.141
       149  -9.0195    190.4100    224.8377   7.8623738394e+01  -4.9960691904e-01    0.1792717    0.1154238 -27.09 0.0005919106    1.647    0.393
       150  -8.6693    180.1479    224.8215   8.0733831036e+01   1.1113102143e+00    0.1869954    0.1440477   1.35 0.0008614249    1.329    0.248
       151  -9.0621    167.4556    225.0208   8.3434137058e+01   3.1009809999e+00    0.1954201     0.161135  26.57 0.0003266698    1.081    0.075
       152  -9.9540    119.9948    224.2285   9.3659983695e+01   1.0888561534e+01    0.2117385     0.191308 -41.36 0.0002748911    1.252    0.202
       153 -10.4475     99.5096    223.6858   9.8127097069e+01   1.4152970365e+01    0.2749344    0.2262115 -30.59  0.001037808    1.562    0.360
       154  -8.9482     95.5722    223.5071   9.8975477117e+01   1.4776432870e+01    0.2092247    0.1550699  34.31 0.0001078331    1.318    0.241
       155 -10.0489    104.8535    223.0997   9.6868420356e+01   1.3467716904e+01    0.2380134    0.2148131  86.55 0.0003833383    1.144    0.126
       156  -9.4195    109.0619    219.3327   9.5431714522e+01   1.3606284753e+01    0.2166529    0.1821408 -39.96 0.0002998085    1.389    0.280
       157  -9.4868    119.6288    194.5037   8.9267053129e+01   1.7296817834e+01    0.2451819      0.22972 -19.22 0.0003404652    1.175    0.149
       158 -10.1998    115.3209    191.9894   8.9896636846e+01   1.8587895961e+01    0.2639509    0.2441468 -20.69 0.0004472645    1.210    0.173
       159  -9.3051    110.0518    208.6969   9.3721315125e+01   1.5722945278e+01    0.2034809    0.1973875  48.22 0.0004339995    1.071    0.067
       160  -9.7108    104.8727    205.6014   9.4483836576e+01   1.7222077809e+01    0.2709501      0.20536 -41.68 0.0004047893    1.524    0.344
       161  -9.6841    110.4117    191.0481   9.0940535066e+01   1.9618115688e+01    0.2533413    0.2311587 -26.88  0.000388888    1.237    0.191
       162  -9.3301    119.6741    198.9097   8.9969974999e+01   1.6306647667e+01    0.2785685    0.2018254 -32.16 0.0004047448    1.690    0.408
       163 -10.0218    124.7863    210.9555   9.0655137166e+01   1.2856981339e+01    0.2357469    0.2150125  -2.63 0.0004062274    1.225    0.184
       164 -10.4757    125.4600    206.5578   8.9821145026e+01   1.3679235073e+01    0.7493979    0.2546717  31.21  0.001526971    3.453    0.710
       165  -9.1202    113.8528    187.1882   8.9460818731e+01   1.9935226476e+01    0.2406059    0.2032134  18.61 0.0002573191    1.312    0.238
       166 -10.8779    104.1960    215.6560   9.6036649777e+01   1.5137496047e+01    0.5613987    0.4383245  73.80  0.001468173    1.379    0.275
       167 -10.0184    106.0140    210.1216   9.4859712673e+01   1.6049831625e+01     0.318657    0.2040541  40.70 0.0003516842    1.438    0.305
       168 -10.1822    120.8560    202.9930   9.0337359845e+01   1.5212533230e+01    0.3186128    0.2754027  -0.17 0.0002893122    1.357    0.263
       169  -9.6863    102.1430    197.0708   9.3883496041e+01   1.9572565059e+01    0.2566237    0.1928207  43.62 0.0003049364    1.262    0.208
       170 -10.8282     98.6547    211.7246   9.6776073333e+01   1.6837078428e+01    0.3791333    0.3073104 -34.02  0.002017129    1.531    0.347
       171 -10.9579     93.0562    211.2721   9.8002889537e+01   1.7780885324e+01    0.5114456    0.2762695 -49.18  0.001239863    2.089    0.521
       172  -9.6914     89.0436    210.2909   9.8799018957e+01   1.8592449594e+01    0.2343227    0.2143332 -84.05  0.000216658    1.107    0.096
       173 -10.6631    111.5931    213.1701   9.4005820243e+01   1.4513664653e+01    0.2774031    0.2476691 -39.50  0.000343024    1.271    0.213
       174 -11.2945    114.9248    207.4384   9.2404066107e+01   1.5215439035e+01    0.7069079    0.3620447 -50.53  0.003145302    2.077    0.518
       175  -9.8263    109.6990    196.0177   9.1901650660e+01   1.8599621266e+01    0.2607576    0.2362158  62.38 0.0003476816    1.071    0.066
       176 -10.4471    103.2497    189.3219   9.2424058051e+01   2.1184612927e+01    0.3715507    0.2344217 -43.79  0.001353919    1.779    0.438
       177 -10.2148    108.1391    186.3772   9.0739870161e+01   2.1074888901e+01    0.7217315    0.2827285  49.69  0.002476783    3.006    0.667
       178 -10.8006    109.7368    203.1932   9.2987044698e+01   1.6982984964e+01    0.3244111    0.2649681  51.13 0.0004185144    1.161    0.139
       179 -10.5633    105.9514    198.5260   9.3187049317e+01   1.8635894055e+01    0.3105794    0.2220046 -54.13 0.0003211962    1.456    0.313
       180  -9.3432      1.9338    221.8114   1.1827815383e+02   2.6299782359e+01    0.2226559    0.1314188 -77.44  0.001142846    1.490    0.329
       181  -9.4816      1.2116    218.0921   1.1822054756e+02   2.7142355851e+01    0.3987204   0.07443673 -70.43   0.00156792    3.943    0.746
       182  -9.3238      6.6356    220.2741   1.1730306271e+02   2.6200023985e+01    0.2887017    0.1191268  58.37 0.0009300637    2.113    0.527
       183  -9.7397      5.1681    215.8490   1.1733799122e+02   2.7269338068e+01     0.340407    0.1717451  83.82  0.001687419    1.719    0.418
       184  -8.4110    191.2923    249.6355   8.2431845660e+01  -4.5842910917e+00    0.1115849   0.09656006  60.47 0.0007027974    1.707    0.414
       185  -8.4128    185.3088    222.2743   7.9236131566e+01   7.3735238454e-01    0.1333123   0.09454143   2.42  0.000197254    1.550    0.355
       186 -10.0695     36.4143    210.2658   1.1056230411e+02   2.5389409963e+01    0.4686589    0.2434202  28.60  0.002414232    2.185    0.542
       187  -9.6164     36.8318    217.2897   1.1105084735e+02   2.3794624563e+01    0.2557525    0.1547581 -67.59 0.0003542368    1.606    0.377
       188  -9.2708     43.9990    207.1716   1.0864207058e+02   2.5230428671e+01    0.2028892     0.183025 -49.79 0.0002437904    1.387    0.279
       189  -9.1681     37.4771    221.8587   1.1127972256e+02   2.2734009800e+01     0.270643    0.1589064 -57.75 0.0004182359    1.898    0.473
       190 -11.0032     44.8380    218.9316   1.0950793850e+02   2.2524758821e+01    0.5535977    0.3014833  29.45  0.001758351    2.047    0.511
       191  -9.9885     64.7976    206.4567   1.0390308035e+02   2.2832491301e+01    0.4403737    0.2003529  50.74  0.001967612    2.142    0.533
       192 -11.0088     56.5448    210.3836   1.0617675670e+02   2.3000636471e+01    0.5164478    0.3777236  69.40  0.002354199    1.256    0.204
       193 -10.1322     61.2710    214.2135   1.0551924951e+02   2.1548612271e+01    0.2698284    0.2028439 -59.11 0.0004043199    1.444    0.307
       194  -9.6090     64.7773    211.4347   1.0444944352e+02   2.1713073617e+01    0.3895571    0.2858453  -1.06  0.002049952    2.202    0.546
       195 -10.2677     61.2605    203.7414   1.0441297939e+02   2.3910641133e+01    0.4067051    0.2806783  -0.94  0.001490423    2.496    0.599
       196 -10.1787     55.6743    203.9969   1.0571627769e+02   2.4556701498e+01    0.2413156    0.2177534  82.58 0.0004489941    1.081    0.075
       197  -9.4088     56.9113    199.8808   1.0499318599e+02   2.5351011701e+01     0.191177    0.1704128  83.60 0.0003007055    1.051    0.048
       198 -10.8915     42.9316    213.9313   1.0948034367e+02   2.3842425110e+01    0.4852131    0.3713335 -57.63  0.001982592    1.488    0.328
       199  -9.5086     46.8183    212.8680   1.0854889331e+02   2.3625533424e+01    0.2061601    0.1612708 -85.10 0.0002520903    1.168    0.144
       200 -10.9084     54.5996    216.1644   1.0717062063e+02   2.1957452337e+01    0.4839478    0.3249795 -52.85  0.002072908    1.735    0.424
       201 -10.0695     51.7218    212.5937   1.0745653185e+02   2.3100199476e+01    0.2250033     0.207003 -74.76 0.0007707291    1.227    0.185
       202  -9.3834    174.9636    221.0237   8.1186097664e+01   2.6104600289e+00    0.2091923    0.1503899  -2.04 0.0005001847    1.608    0.378
       203  -8.6372    166.8426    220.8045   8.2876448155e+01   3.9670820398e+00    0.2011488    0.1653674   3.91 0.0005023063    1.233    0.189
       204  -9.7530    124.0078    220.1772   9.2195807830e+01   1.1072443359e+01    0.2484842    0.1926783 -40.37 0.0003271871    1.473    0.321
       205  -9.3799    126.5164    216.5268   9.1098683851e+01   1.1414995542e+01    0.2245802    0.2098417  31.97 0.0001798045    1.052    0.050
       206  -9.4112    163.6669    218.2477   8.3137312992e+01   4.9611197363e+00     0.391782    0.2262609 -11.24  0.001482127    3.395    0.705
       207  -9.8374     81.7186    218.7246   1.0147874492e+02   1.7800721180e+01    0.2101991    0.1909429  68.08 0.0004291234    1.049    0.047
       208 -10.5183     84.7511    214.2464   1.0026986525e+02   1.8344178055e+01    0.2388441     0.215031  19.77 0.0002347369    1.308    0.235
       209  -8.4876    195.0065    218.0753   7.6524314494e+01  -6.7409457588e-02     0.156571    0.1361049  -3.35 0.0004295523    1.050    0.048
       210  -8.6776    183.7990    218.4457   7.8895103634e+01   1.6475418612e+00    0.1886482    0.1165863  21.33  0.000601555    1.675    0.403
       211  -8.9086    157.0196    217.7490   8.4500173624e+01   6.1519213522e+00    0.1864072    0.1614189  24.72 0.0003062687    1.051    0.049
       212  -9.6744    179.0188    216.2363   7.9516541309e+01   2.8152589753e+00    0.3837018    0.2133629  14.16  0.001592659    2.583    0.613
       213  -8.9264    169.5956    217.2807   8.1699193852e+01   4.1661648272e+00    0.1740185    0.1249437 -30.52 0.0003339995    1.492    0.330
       214  -8.6481    161.1305    215.8102   8.3283114322e+01   5.8404405236e+00    0.1856376      0.15121   4.90 0.0004125139    1.287    0.223
       215  -9.6829     65.9078    215.9512   1.0467620397e+02   2.0563096504e+01    0.1862449    0.1668111  74.51 0.0003124408    1.063    0.059
       216  -9.5147     69.1579    212.7093   1.0360612333e+02   2.0849494401e+01    0.2051882     0.194982 -32.64 0.0004647485    1.332    0.249
       217  -9.7718     13.1468    215.4471   1.1574725728e+02   2.6624549677e+01    0.1923676    0.1521523 -67.22 0.0005322983    1.399    0.285
       218  -8.6386    200.4103    214.7307   7.4840761241e+01  -3.4292223907e-01    0.1828264    0.1156586 -27.15 0.0009390146    1.617    0.382
       219  -9.2258    193.3480    214.2930   7.6196461289e+01   8.4885934107e-01    0.1402626    0.0959864   1.35 0.0007030104    1.670    0.401
       220  -8.9794    186.8855    213.9457   7.7468983652e+01   1.9487848554e+00    0.2073662    0.1759324   6.73 0.0004212352    1.074    0.069
       221  -9.1899    184.9444    210.7524   7.7308728305e+01   2.8395179558e+00    0.1990608    0.1700769  -6.42 0.0007846607    1.113    0.101
       222  -9.2583     29.0310    214.0404   1.1242155337e+02   2.5348181033e+01    0.1778982    0.1470517  80.34 0.0003154814    1.051    0.049
       223 -10.3909    170.4344    210.8202   8.0412114782e+01   5.2354117172e+00     0.367552    0.2473749 -14.49   0.00132817    1.898    0.473
       224  -9.2818    167.5869    208.2454   8.0581458026e+01   6.2061292266e+00    0.2309936    0.2020548   3.12 0.0003121805    1.116    0.104
       225 -12.7462     83.4956    204.0949   9.9294198232e+01   2.0793317921e+01     1.890017     1.197922 -41.53  0.009230769    2.010    0.502
       226 -11.9866    116.5892    152.6919   8.2294071863e+01   2.7659378984e+01     1.374524    0.8942828   7.78  0.005331929    2.514    0.602
       227 -13.3735     29.9304    201.9767   1.1127119134e+02   2.7948688791e+01     2.175007     1.442044 -35.80   0.01187956    2.309    0.567
       228 -12.4357     78.8491    168.6090   9.5379860516e+01   2.9936943637e+01     1.048098    0.9109179  68.10  0.004131073    1.146    0.127
       229 -11.3794     87.7408    164.0204   9.2242038440e+01   2.9743861294e+01    0.8871093    0.5113547 -84.07  0.002448275    2.572    0.611
       230 -11.3185     97.7736    162.7914   8.9327110940e+01   2.8451992901e+01    0.8609235    0.4287373  34.60  0.002070059    2.071    0.517
       231 -11.7636    103.9997    154.9187   8.6147515044e+01   2.9345314038e+01    0.9738981    0.8198171   1.01  0.004921446    1.431    0.301
       232 -12.5332     49.5323    201.2765   1.0683330899e+02   2.5927889778e+01     1.578444    0.5436277 -57.51  0.006490308    2.812    0.644
       233 -10.9692     55.3954    169.1598   1.0164436281e+02   3.2930062615e+01    0.2960579     0.268183 -41.09 0.0005315341    1.264    0.209
       234 -12.8515     63.7770    161.7504   9.8353770490e+01   3.3722689262e+01     1.510325     1.116467  36.61  0.008031601    1.428    0.300
       235 -13.9946     28.2486    126.2551   1.0317973390e+02   4.6481419628e+01     3.491147     1.955103  70.81   0.01568107    2.502    0.600
       236 -12.5941     73.1689    181.7830   9.8816597810e+01   2.7511011830e+01     1.663435      1.03583  83.72  0.007622045    1.983    0.496
       237 -11.5706     86.2006    177.9380   9.4929971980e+01   2.6559830912e+01     1.864924    0.8434506 -32.03   0.00431705    8.220    0.878
       238 -12.4470      9.4059    201.4350   1.1560744307e+02   3.0036142525e+01     1.753211    0.7054995  76.82  0.007873071    2.716    0.632
       239 -12.5602     63.4685    188.4876   1.0210841621e+02   2.7199187241e+01     1.389253    0.9426948 -72.17  0.005864372    1.399    0.285
       240 -12.1067     63.2141    173.5041   1.0020660264e+02   3.0873143030e+01     1.027094    0.7422864 -15.94   0.00507482    2.068    0.516
       241 -12.2544     18.0020    190.4875   1.1296500362e+02   3.1750743283e+01     1.223019    0.5593193  43.66   0.00631841    2.063    0.515
       242 -13.0856     25.2666    174.5198   1.0987074336e+02   3.4849477329e+01     1.623451    0.8657212 -88.45  0.008090824    1.818    0.450
       243 -13.3291     10.4795    133.5632   1.0939733276e+02   4.6029093869e+01     1.660411    0.9858983 -53.77  0.006337878    1.497    0.332
       244 -13.1989     13.5983    174.8140   1.1268556670e+02   3.5810273268e+01     1.670765    0.8423736 -55.08  0.008656064    1.982    0.496
       245 -13.4496     15.4573    157.2200   1.1060516978e+02   3.9890130476e+01     2.672421     1.188291 -33.53   0.01043519    4.027    0.752
       246 -12.9670     11.9254    145.6637   1.1033993169e+02   4.2974969834e+01     1.903431    0.7295914 -46.30  0.008111656    2.852    0.649
       247 -12.1503     24.4293    140.6059   1.0630184674e+02   4.3245639456e+01     1.750806    0.7573506  -5.41  0.005178443    7.071    0.859
       248 -12.8695     42.0894    131.8238   9.9845328472e+01   4.3793022846e+01     2.201128     1.120353 -25.65  0.008430028    3.343    0.701
       249 -12.7880     56.1528    148.3920   9.8393177467e+01   3.8043123762e+01     1.309965    0.9224187  59.77  0.006706604    1.578    0.366
       250 -12.9783     45.3866    176.8710   1.0516870274e+02   3.2205966061e+01     1.339457     1.073086 -41.65  0.007840917    1.483    0.325
       251 -13.9035     38.9194    161.2728   1.0494948091e+02   3.6747174109e+01     2.121715     1.521586 -87.96   0.01182025    1.315    0.240
       252 -11.9825     75.8418    150.6113   9.3172247646e+01   3.4872780995e+01    0.8823401    0.6469635  -7.34  0.003605863    1.914    0.478
       253 -13.9921     69.5520    138.2768   9.2733814661e+01   3.8864695892e+01     2.598286     1.824489 -73.62   0.01271252    1.480    0.324
       254 -12.8835     62.0449    139.6789   9.5214661418e+01   3.9508418502e+01     1.477341    0.9190623  86.98  0.006386762    2.205    0.547
       255  -9.3751    180.7462    211.2491   7.8281093797e+01   3.4400704938e+00    0.1889739    0.1467266   0.35 0.0006260977    1.345    0.256
       256 -12.8565    135.9606    192.0579   8.4942549649e+01   1.5029453555e+01     2.908454     1.310934 -31.04  0.008340039    4.961    0.798
       257  -9.2941    198.6657    210.1395   7.4368127871e+01   7.2520941693e-01    0.1941213    0.1125705 -30.02 0.0009344008    1.792    0.442
       258  -9.6942    193.7506    209.6564   7.5283926231e+01   1.6003916154e+00    0.2809786    0.1934139  -0.14 0.0009195614    1.676    0.403
       259 -10.3654      1.9406    209.7353   1.1762454885e+02   2.8861700254e+01    0.3199209    0.1911166 -83.29  0.001014511    1.381    0.276
       260  -9.5516      4.7612    206.9854   1.1690439684e+02   2.9216774622e+01    0.2732082    0.1394256 -83.89 0.0009323022    1.638    0.389
       261  -8.8977    225.1061    208.4918   6.8900298945e+01  -3.0709483960e+00     0.201243    0.1450297 -29.02 0.0006235696    1.276    0.217
       262 -14.7349    154.6657    102.5526   6.0313930082e+01   3.1189899768e+01     2.635907     2.225887 -41.34   0.01332572    1.169    0.145
       263  -8.9267    183.5311    205.9343   7.6740342063e+01   3.9575277741e+00    0.2229268     0.177077  -3.67  0.000790434    1.291    0.225
       264  -9.8426    181.5651    202.9471   7.6613161067e+01   4.8467552349e+00    0.5920035    0.1985223 -39.26  0.002071022    3.259    0.693
       265  -8.5149    241.6949    206.6378   6.5528808244e+01  -5.1588715230e+00    0.1347107   0.08376954  -8.08 0.0007038342    1.734    0.423
       266  -8.0919    192.2854    206.3502   7.4985059564e+01   2.4307717659e+00    0.1420041   0.09872402  -7.20 0.0007020478    1.658    0.397
       267  -9.2276    189.4204    203.7502   7.5103306104e+01   3.3776636152e+00    0.3153391    0.1817556 -16.56  0.001172418    2.528    0.604
       268  -9.6797     70.7649    204.7485   1.0233800519e+02   2.2426918802e+01    0.2005545    0.1884639 -59.63 0.0003647713    1.222    0.182
       269  -8.8732    176.6563    207.6463   7.8512693205e+01   4.7901842720e+00    0.2071604    0.1501271  -5.16 0.0007532564    1.613    0.380
       270  -8.6894    124.1972    249.5556   9.6046348200e+01   5.4278419815e+00    0.1704757    0.1089382  26.06 0.0005871422    1.592    0.372
       271 -11.0771     97.4159    202.4781   9.5796766569e+01   1.9081634282e+01    0.2750218    0.2419451  43.79  0.001602341    1.101    0.092
       272 -10.0322     94.7337    193.7320   9.5183527026e+01   2.1499487568e+01    0.2349014     0.220299 -63.94  0.000456712    1.118    0.106
       273  -9.3894     97.6868    197.9808   9.5089383813e+01   2.0062469896e+01    0.2562177    0.1959477 -67.80 0.0003559779    1.341    0.255
       274  -8.6669     98.2751    194.3894   9.4419217284e+01   2.0797166111e+01    0.1855499    0.1448536  19.40 0.0004413166    1.500    0.333
       275 -10.7071     67.7492    200.9485   1.0259296995e+02   2.3704775378e+01    0.2553046    0.2356612 -57.98 0.0003230289    1.232    0.188
       276  -7.9970    206.2925    201.3454   7.1211017384e+01   1.0427391705e+00    0.1416518   0.09648509  -6.98 0.0006707561    1.663    0.399
       277  -9.4238    186.5632    199.2265   7.4863551689e+01   4.6988944662e+00    0.2584632    0.1843803 -15.07 0.0007243718    1.567    0.362
       278  -9.3480     93.0599    198.4018   9.6260082972e+01   2.0676577680e+01    0.2082676    0.1842728 -57.57 0.0003090739    1.196    0.164
       279 -10.1928     73.8468    198.8278   1.0090110568e+02   2.3368384208e+01    0.2371615    0.1967598  70.38 0.0002643226    1.125    0.111
       280  -8.9106    210.1267    198.2818   6.9872395163e+01   9.6348870176e-01       0.1828    0.1563995  16.27 0.0003992918    1.118    0.105
       281 -10.0815    124.0356    197.4725   8.8700067835e+01   1.5892371392e+01    0.2447607    0.2074175 -51.06 0.0003802803    1.238    0.193
       282  -9.8120    114.1769    197.8577   9.1114275005e+01   1.7451614139e+01    0.2400416    0.2113575 -16.24 0.0002347952    1.341    0.254
       283  -9.1092    231.7269    197.1275   6.5547295046e+01  -2.1996755697e+00    0.2519432    0.1523617   4.81  0.001210777    2.124    0.529
       284  -9.6285    223.7691    196.0506   6.6819015608e+01  -8.0742129325e-01    0.3608155    0.2240123  19.57  0.001777604    1.756    0.431
       285  -9.4362     12.7138    195.9759   1.1453401234e+02   3.0970854706e+01    0.1796539     0.151478  71.02 0.0003759718    1.121    0.108
       286  -9.4153    202.5186    194.5838   7.0683846739e+01   2.8697274893e+00    0.3994761    0.2205264  16.67   0.00165254    2.538    0.606
       287  -9.7712     74.1318    194.0150   1.0022237734e+02   2.4453849662e+01    0.2105593    0.1859104  53.75 0.0003437274    1.101    0.092
       288  -9.6953    130.9315    189.0068   8.5608098495e+01   1.6586035972e+01    0.2319179    0.2032838  31.36 0.0002857959    1.121    0.108
       289 -10.1471    124.9730    192.2446   8.7603567071e+01   1.6895128182e+01    0.2616894    0.2177821 -31.99 0.0003579191    1.343    0.256
       290  -9.3747    126.3606    188.1646   8.6565911316e+01   1.7572649327e+01    0.2407704     0.209745  40.83 0.0003866186    1.107    0.097
       291 -10.3227    129.1961    185.1134   8.5336444354e+01   1.7765921437e+01    0.4959128    0.2553551 -46.38   0.00195406    2.021    0.505
       292  -8.3579    219.8158    192.1585   6.6819477969e+01   4.8056358293e-01    0.1900672    0.1422971  -3.23 0.0004295533    1.344    0.256
       293  -9.5335    226.4707    178.0378   6.2790464424e+01   1.8776314705e+00    0.2263111    0.1704226  -3.71 0.0007235028    1.383    0.277
       294  -9.2659    224.1456    181.7963   6.3970866325e+01   1.5946744701e+00    0.2993589    0.1680084 -30.88 0.0008215148    1.697    0.411
       295 -10.4000    222.7286    187.3834   6.5338353237e+01   8.4544966933e-01    0.6058204    0.1906964 -42.85  0.001494291    3.063    0.674
       296 -11.0672    218.6301    183.6606   6.5380988309e+01   2.1662473034e+00    0.5510404    0.3708709 -32.55  0.002660653    1.365    0.267
       297  -8.6489    210.4673    192.0927   6.8617625468e+01   2.0039094442e+00    0.1953606    0.1250176 -35.53 0.0003676897    1.478    0.324
       298  -9.2024    215.7788    190.2740   6.7228292932e+01   1.4595105395e+00    0.1890734    0.1707748  -9.98 0.0008140581    1.080    0.074
       299  -8.6944    202.5451    183.9375   6.8595713871e+01   4.8286359229e+00    0.3162171    0.1880236  14.32  0.001341552    2.343    0.573
       300 -10.7530    210.3410    180.6597   6.6386159090e+01   4.0985852945e+00    0.4601499    0.2922455 -48.31  0.002251474    1.706    0.414
       301  -9.2135    206.5463    185.1715   6.8037621685e+01   3.9143688746e+00    0.3294015    0.1849148 -23.23 0.0008139629    2.151    0.535
       302  -9.0757    205.5459    189.0007   6.8991986571e+01   3.3808041967e+00    0.2164592    0.1739081  -5.63 0.0003623044    1.218    0.179
       303  -9.1560    202.4728    187.5340   6.9322313289e+01   4.1714350528e+00    0.2531766    0.2113373  65.45 0.0008338374    1.691    0.409
       304  -9.0918    226.3519    187.8210   6.4746693923e+01   1.9376059436e-01    0.1945635    0.1098115 -29.50  0.000937605    1.694    0.410
       305  -8.6236    237.2730    187.5401   6.2706269696e+01  -1.4467805750e+00    0.1774103     0.115444  18.78 0.0009393581    1.684    0.406
       306  -8.8155    210.6022    187.2373   6.7642663742e+01   2.8543692419e+00    0.1804688    0.1200219 -28.32 0.0002206721    1.449    0.310
       307 -10.9050    120.2826    186.1398   8.7699102136e+01   1.9083803170e+01    0.3384878    0.2654111  37.90     0.001743    1.241    0.194
       308 -13.2988    134.9362    124.4778   7.0923598500e+01   3.0735172287e+01     1.889563     1.292859  30.66   0.00827755    1.627    0.385
       309 -10.3313     85.9452    185.3210   9.6114375281e+01   2.4817945853e+01    0.2563299    0.2166974 -56.25 0.0002927685    1.216    0.177
       310 -10.7630     89.7152    181.0828   9.4521515842e+01   2.5265777273e+01    0.2587944    0.2397907   3.01 0.0003245571    1.262    0.208
       311 -11.5925    116.8056    120.2873   7.4816013748e+01   3.5353199738e+01    0.7235923    0.4991628  13.63 0.0003611549    2.004    0.501
       312  -9.9749    134.5835    181.7791   8.3416266625e+01   1.7560263887e+01     0.254555    0.2405525  -5.95 0.0004390981    1.105    0.095
       313  -9.4119    198.9746    180.6834   6.8670366965e+01   6.0650863475e+00    0.3254718    0.1856637 -35.76 0.0009593298    1.709    0.415
       314  -9.0755    204.2250    179.7910   6.7425966186e+01   5.3145537182e+00    0.2308169    0.1850368 -27.09 0.0005061964    1.164    0.141
       315 -10.1235    205.2653    167.2065   6.4629869011e+01   7.5190105226e+00     0.400132    0.2402746 -32.34  0.001199391    1.640    0.390
       316  -9.4499    205.5073    176.4005   6.6481602262e+01   5.7282391588e+00    0.2282249     0.200803   2.86 5.674967e-05    1.087    0.080
       317 -11.0060    202.5304    173.4009   6.6464380827e+01   6.8248210019e+00    0.5412436    0.3631722  16.77  0.002571957    1.789    0.441
       318  -8.6123    235.5513    179.9975   6.1536847098e+01   8.8419805213e-02    0.1848731    0.1010797 -18.69 0.0003885013    2.308    0.567
       319 -12.5516    112.5763    114.7593   7.4622106326e+01   3.7454845022e+01     1.249974    0.9092032  -7.03  0.005429448    1.908    0.476
       320  -9.4652    124.9196    170.4957   8.3685820261e+01   2.1900185882e+01    0.3100746    0.2136444 -59.97 0.0003418016    1.533    0.348
       321  -9.2697    124.0108    166.4834   8.3138122730e+01   2.3009316319e+01    0.2068697    0.1894587  36.13 0.0003199791    1.094    0.086
       322 -10.5389    122.1407    179.0747   8.5987551334e+01   2.0391811744e+01    0.4284714    0.3443292 -10.43  0.000641457    1.566    0.362
       323  -9.8352    124.4097    174.8488   8.4640436056e+01   2.0973627236e+01    0.2434055    0.2392209 -10.09 0.0003403228    1.050    0.048
       324  -9.8455    230.6549    176.6579   6.1750899670e+01   1.4410926248e+00    0.3937491    0.1885044 -51.78  0.001584226    2.844    0.648
       325  -9.6224    218.4407    177.7246   6.4230016078e+01   3.2621998276e+00    0.3448435     0.219228  14.81 0.0009016159    1.973    0.493
       326  -9.3628    129.9008    177.7155   8.3808058359e+01   1.9326739061e+01    0.2344092    0.1970855 -35.70 0.0003481288    1.261    0.207
       327  -9.0933    134.8656    176.5989   8.2372460850e+01   1.8683410842e+01    0.2297369    0.1977413 -33.66 0.0004459578    1.221    0.181
       328 -10.8232    119.0023    169.5601   8.5016203927e+01   2.3180448289e+01    0.3955737    0.2979458 -74.48 0.0005878973    1.540    0.350
       329  -8.7713    110.0120    177.2848   8.8725164221e+01   2.2903609499e+01    0.1992194    0.1805529  37.92 0.0004221115    1.108    0.097
       330  -9.5676    113.0977    174.6658   8.7473007894e+01   2.2999638228e+01    0.2163166    0.2140215 -20.63 0.0004175721    1.063    0.059
       331 -10.1861    112.2035    169.7492   8.6804196942e+01   2.4327250538e+01    0.5194263    0.2427721 -57.92  0.001988478    2.219    0.549
       332  -9.6115    115.3245    166.0414   8.5295416563e+01   2.4670817181e+01     0.245586    0.2008736 -37.80 0.0004248086    1.302    0.232
       333  -8.8106     94.5355    176.9644   9.2632115469e+01   2.5511222079e+01    0.1973436    0.1843367 -75.08 0.0003588771    1.049    0.047
       334  -9.2128    103.0122    177.2389   9.0503081111e+01   2.4080794789e+01    0.2460724    0.2096857  51.27 0.0003278378    1.157    0.136
       335 -10.0711     98.7800    175.1413   9.1234673373e+01   2.5274659184e+01    0.3145524    0.2216304  41.33  0.001536686    1.402    0.287
       336  -9.7025    117.7816    175.4543   8.6424875807e+01   2.2001662172e+01    0.2527447    0.2204366 -38.68 0.0002819649    1.212    0.175
       337  -9.7905    224.2704    173.3536   6.2252516835e+01   3.0718495593e+00    0.4594939    0.1395096 -37.79  0.001591002    3.125    0.680
       338 -10.1831    194.8358    178.7488   6.9132736109e+01   7.1710169493e+00    0.4218388    0.1766203 -39.14  0.001019062    2.354    0.575
       339 -10.5166    107.1049    172.0105   8.8536378489e+01   2.4655304965e+01    0.3100829     0.245854 -47.91 0.0003909355    1.288    0.223
       340 -10.1292    129.6614    172.9947   8.2972313452e+01   2.0458653530e+01      0.26075    0.2163616  32.88 0.0002274001    1.210    0.173
       341  -8.2550    241.6964    172.6821   5.9011360963e+01   3.7298247911e-01    0.1352948   0.09264876  -8.93 0.0007026119    1.625    0.385
       342  -9.7333    233.6425    171.9844   6.0277288563e+01   1.7731194126e+00    0.1902407    0.1482718 -28.28 0.0004089965    1.117    0.104
       343 -13.6577    133.2561    107.8641   6.7081779078e+01   3.4779102487e+01     1.822493     1.656389 -14.43  0.009424211    1.159    0.138
       344 -10.1283     95.6264    170.7829   9.1312268656e+01   2.6840203490e+01    0.2654398    0.2395588 -52.01 0.0005831925    1.131    0.115
       345 -10.2031    142.9323    169.9356   7.9087283359e+01   1.8703004999e+01    0.2969294     0.239802 -19.06 0.0002892032    1.425    0.298
       346  -9.7093    147.9787    167.0430   7.7270313410e+01   1.8399052661e+01    0.2401884    0.2142176  29.40  0.001254016    1.120    0.107
       347  -9.4748    138.2832    169.7186   8.0186409616e+01   1.9623799670e+01    0.3213441    0.2431661 -11.33  0.001219939    1.719    0.418
       348  -9.0362    134.9608    166.8723   8.0442259731e+01   2.0899081876e+01    0.2178718     0.212543 -13.98 0.0002965552    1.035    0.034
       349  -9.3890    133.8786    170.8505   8.1503376401e+01   2.0181663004e+01    0.2210397    0.1979184 -14.53 0.0004282524    1.217    0.178
       350 -10.5452    101.3988    169.3941   8.9555972118e+01   2.6240511961e+01    0.2653232    0.2476761 -25.18 0.0008177493    1.182    0.154
       351 -10.5388    151.9999    167.2580   7.6346030645e+01   1.7582220490e+01    0.5381722    0.2187171 -48.17  0.001560012    2.467    0.595
       352  -9.1152    246.9991    167.2349   5.7029460380e+01   4.6917269204e-01     0.390837    0.2122994  33.31  0.001812391    2.122    0.529
       353 -10.3426    229.3134    165.6238   5.9755683465e+01   3.6087017009e+00    0.4451974    0.2481437 -22.68  0.001483749    2.119    0.528
       354  -9.3415    234.1173    162.1272   5.8187806187e+01   3.4255374512e+00    0.2567839    0.1663628 -23.93 0.0005975343    1.546    0.353
       355 -13.3209    116.5220    103.0481   7.0383070818e+01   3.9309209823e+01     2.184734     1.530075  31.22  0.009967755    1.538    0.350
       356 -10.4246    129.0020    166.1418   8.1797864473e+01   2.2175694284e+01    0.2665809    0.2243236 -42.94 0.0003009977    1.205    0.170
       357  -8.5541    129.0076    162.2298   8.1008704097e+01   2.3092536513e+01    0.1862575    0.1733995 -51.30            0    1.074    0.069
       358  -9.8122    106.9060    166.2348   8.7535091271e+01   2.6084413848e+01    0.2507786    0.2073163 -47.43 0.0002256027    1.226    0.184
       359  -8.3123    217.2961    166.3041   6.2108666678e+01   5.5467676142e+00    0.1414286    0.1026952  -6.85 0.0003173714    1.581    0.368
       360 -10.0524    146.7991    162.1261   7.6533835464e+01   1.9734550384e+01    0.2727859    0.2323219  21.74 0.0003449068    1.234    0.190
       361 -10.0307    119.6696    162.9848   8.3569688280e+01   2.4626770134e+01    0.2606106    0.2211269  33.75 0.0001789741    1.199    0.166
       362  -9.9771    111.2006    162.4830   8.5692376844e+01   2.6252649841e+01    0.2613192    0.2217432 -35.59 0.0004239327    1.262    0.207
       363  -9.3363    132.8462    161.8806   7.9959563599e+01   2.2455449487e+01     0.218281    0.2002466 -18.41 0.0002979916    1.155    0.134
       364  -8.9189    107.0281    161.6822   8.6645273879e+01   2.7170407083e+01    0.2007029    0.1886007  37.62 0.0003285087    1.089    0.082
       365 -11.3730     86.1124    222.5190   1.0094482373e+02   1.6362331329e+01    0.6257406    0.3802045 -27.34  0.001852433    3.294    0.696
       366  -9.7247    124.4471    160.2882   8.1787773027e+01   2.4396923098e+01    0.2451941    0.2286445  11.67 0.0003507653    1.135    0.119
       367 -10.8458     79.5690    157.6976   9.3374870389e+01   3.2551264956e+01    0.2940668    0.2661755 -31.09 0.0005574732    1.229    0.186
       368  -9.3850     75.7617    155.4571   9.4042934777e+01   3.3665703204e+01    0.2394311    0.1905666 -53.61 0.0004334272    1.215    0.177
       369  -9.1616    119.7357    158.3397   8.2621222277e+01   2.5726383005e+01    0.2028767    0.1820245 -62.26 0.0003107424    1.122    0.109
       370  -9.5668    122.2199    155.8044   8.1447655456e+01   2.5876822337e+01    0.2994048    0.2222737 -32.07 0.0004228687    1.521    0.342
       371 -10.6550     91.0543    157.0236   9.0092348826e+01   3.0963018033e+01    0.3577048    0.2960256 -64.58 0.0004566094    1.171    0.146
       372 -10.0695     95.8351    153.9602   8.8199313067e+01   3.0952011160e+01     0.277434    0.2534446   4.25 0.0003113551    1.233    0.189
       373  -9.9191     97.9004    150.0188   8.6855945520e+01   3.1586718900e+01    0.2425072    0.2333476   3.61 0.0003163884    1.118    0.106
       374  -9.0260    237.8317    156.1132   5.6310085266e+01   3.8653866689e+00    0.2374475    0.1609503 -22.43  0.000838098    1.485    0.326
       375 -10.3801    216.8142    155.6262   5.9950629801e+01   7.6219119227e+00    0.4136176    0.2692143  12.33  0.001109752    2.196    0.545
       376 -10.2769    227.8282    154.9510   5.7802659115e+01   5.7848999231e+00    0.3722097    0.2107645 -29.30  0.001210291    1.774    0.436
       377  -9.2253    127.1637    155.7214   8.0138239549e+01   2.4973989676e+01    0.2467545     0.202325 -60.12 0.0002514613    1.256    0.204
       378  -9.4534    204.9130    154.0178   6.1885858272e+01   1.0132071966e+01    0.2174239     0.196094 -18.05 0.0004341271    1.045    0.043
       379 -10.3105     84.6356    153.9156   9.1298191192e+01   3.2738768937e+01    0.2462933    0.2416798 -81.93 0.0003299907    1.049    0.047
       380 -10.4640     84.9216    148.4142   9.0193311649e+01   3.4072528447e+01    0.3031239    0.2500208 -36.54 0.0005836921    1.302    0.232
       381 -10.8743    208.5565    151.7528   6.0683963914e+01   9.8837002467e+00    0.4749374     0.252658 -42.33  0.001721429    1.748    0.428
       382  -9.3389    223.8377    149.9774   5.7459828470e+01   7.4024880984e+00    0.2092804    0.1707998 -13.30 0.0003317625    1.255    0.203
       383  -9.2536    226.6333    146.1914   5.6155143428e+01   7.5939681756e+00    0.2441718     0.154423 -24.90 0.0003175311    1.691    0.409
       384 -10.4473     91.0434    148.1979   8.8418792312e+01   3.3163228119e+01    0.2487294    0.2313098 -38.72 0.0003628214    1.112    0.100
       385 -10.7254    214.4476    146.8894   5.8508000909e+01   9.7062570381e+00    0.3247362     0.234191  40.89 0.0008851664    1.506    0.336
       386 -10.2382    111.3632    146.7779   8.2465577069e+01   3.0041637100e+01    0.2786259    0.2656532 -71.19 0.0003982404    1.049    0.047
       387  -9.2461    113.3839    142.8332   8.1059591923e+01   3.0631618780e+01     0.241034    0.2034501 -24.65 0.0003506664    1.314    0.239
       388  -9.1110    206.2905    145.7054   5.9795221490e+01   1.1485054147e+01     0.200397     0.162292 -13.40 0.0003621496    1.325    0.245
       389  -9.9888    208.7970    142.8673   5.8686366878e+01   1.1550691209e+01    0.2525977    0.1992608  19.65 0.0004326261    1.457    0.314
       390  -9.7322     98.7763    145.3686   8.5669483450e+01   3.2590174306e+01    0.2573397    0.2179362 -40.56 0.0002993055    1.203    0.169
       391  -9.7135     91.9020    221.9324   9.9596587683e+01   1.5648477738e+01    0.2314273    0.2138573  -0.77 0.0003688126    1.343    0.256
       392 -10.2119     98.0990    218.5022   9.7787760152e+01   1.5457904581e+01    0.3934132    0.2067257  42.85  0.001486954    1.706    0.414
       393  -9.5225    195.3826    142.8850   6.1322911240e+01   1.4181851257e+01    0.3035313      0.20774  37.67  0.001191612    1.564    0.361
       394  -9.2497    229.6168    141.7943   5.4696784491e+01   7.8570755790e+00    0.2062667    0.1165231 -47.24 0.0009500902    1.707    0.414
       395  -9.9144    214.8288    141.1591   5.7181232525e+01   1.0720361567e+01    0.1876715    0.1593784  -6.90 0.0002696939    1.263    0.208
       396  -9.8065    219.8447    136.2253   5.5187981589e+01   1.0693312185e+01    0.2023697    0.1788112 -52.32 0.0005868592    1.161    0.139
       397 -10.0255    205.7762    134.8161   5.7455449149e+01   1.3699587912e+01    0.2390078    0.2176692  51.43 0.0007198531    1.209    0.173
       398  -8.3536    242.2927    134.6765   5.1104363978e+01   6.8701217615e+00    0.1328418   0.09882354 -62.12 0.0007016358    1.615    0.381
       399 -10.8000     97.3758    131.9480   8.3190831583e+01   3.6134544443e+01    0.4267623    0.2595282 -53.93  0.001398089    1.582    0.368
       400  -9.7297    211.8700    132.1147   5.5708762670e+01   1.3011163190e+01    0.2823773    0.1912272  80.89  0.001190944    2.582    0.613
       401 -10.4932    104.0399    130.0284   8.0816886643e+01   3.5432455291e+01    0.2637272    0.2397844 -36.09 0.0003354358    1.097    0.088
       402  -9.5688    102.1137    126.6192   8.0583627477e+01   3.6600683072e+01    0.2804045    0.2028584 -35.51 0.0003264686    1.464    0.317
       403  -9.5314     87.8732    130.6964   8.5722446929e+01   3.8023370109e+01     0.235994    0.1923725 -41.61 0.0003412487    1.211    0.174
       404 -10.4368     96.7177    123.3318   8.1405050558e+01   3.8343213251e+01    0.2743018    0.2502851 -23.62 0.0002966894    1.130    0.115
       405 -11.0109     85.0840    105.0508   8.0497538321e+01   4.4646710894e+01    0.3493583    0.3014976 -58.81 0.0006737284    1.190    0.159
       406 -10.5145     92.5067    101.9729   7.7323380992e+01   4.4093601457e+01    0.5312376    0.3453681  50.48  0.001355629    1.786    0.440
       407 -10.4342     97.3189    117.7822   7.9889577221e+01   3.9568045947e+01    0.2927732    0.2564858   2.10 0.0004452006    1.257    0.204
       408 -10.3262     86.8973    115.9889   8.2649650171e+01   4.1766089348e+01    0.5170442    0.3412612  24.18  0.001977958    1.734    0.423
       409 -10.1067     90.1693    109.4383   8.0007110803e+01   4.2774198639e+01    0.6024516    0.2171889 -43.06  0.001801347    2.858    0.650
       410 -10.3770     92.9308    115.0720   8.0559685142e+01   4.0974318388e+01     0.398717    0.2738827 -44.76  0.001185244    1.394    0.283
       411 -11.0398     90.0737    121.3123   8.2935321125e+01   3.9959493618e+01    0.9687717    0.3950389  46.20  0.003360324    2.867    0.651
       412 -11.3021     96.3524    106.8883   7.7424682665e+01   4.2290303997e+01     0.561662    0.3394983 -21.95  0.002153511    2.487    0.598
       413 -10.0709    100.1162    100.0852   7.4439786731e+01   4.3146008991e+01    0.4108323    0.2906249  22.07 0.0008443829    1.626    0.385
       414 -10.1870     86.0643     98.7402   7.8515591597e+01   4.5930432393e+01    0.3302685     0.217789 -32.89 0.0003266959    1.603    0.376
       415  -9.3850     88.4197     94.1252   7.6483520457e+01   4.6560834040e+01      0.23297    0.1956554  11.39 0.0004516729    1.264    0.209
       416  -9.7069     77.1315    122.9041   8.7286877380e+01   4.1612032162e+01    0.4614747    0.2617866 -26.94  0.001759609    2.638    0.621
       417 -11.0624     81.2400    129.4732   8.7452889308e+01   3.9368367502e+01    0.5368169     0.242358 -51.17  0.001228305    2.036    0.509
       418 -10.1202     82.2359    122.7840   8.5678905787e+01   4.0862908110e+01     0.542425    0.3188395 -64.00  0.002096137    1.838    0.456
       419 -10.3086     92.7925    129.0548   8.3893310038e+01   3.7619767964e+01    0.2699737    0.2393494 -41.85  0.000293553    1.100    0.091
       420  -9.9572    206.4142    129.0572   5.6023799201e+01   1.4683953558e+01    0.2230604    0.1960536  27.36  0.001218736    1.248    0.199
       421  -9.2954     50.0129    128.5483   9.6860543540e+01   4.3758260378e+01    0.2567462    0.1660897 -48.00 0.0004362608    1.443    0.307
       422  -8.8690    211.8646    127.1429   5.4585220469e+01   1.3955423069e+01    0.1922032     0.162995 -13.04 0.0002999221    1.287    0.223
       423  -9.8801     87.2409    126.0078   8.4874616627e+01   3.9278992882e+01    0.2397127    0.2162652  11.56 0.0003360537    1.203    0.169
       424 -12.1929     47.1201    147.6245   1.0084116201e+02   3.9284146017e+01     1.571884    0.4315149 -69.68   0.00475211    4.065    0.754
       425  -9.8451    202.2447    127.5934   5.6473912375e+01   1.5814119197e+01    0.1995172     0.139645  35.22 0.0009447851    1.622    0.383
       426 -10.1590     33.6040    117.8348   1.0014263443e+02   4.8089092022e+01    0.2326016    0.2042239 -50.51 0.0003738362    1.074    0.069
       427 -10.8845     38.9790    118.9335   9.8611581161e+01   4.7311589516e+01    0.6975455    0.2021408 -48.76  0.001676923    3.027    0.670
       428  -9.0653     37.1437    114.8619   9.8470533030e+01   4.8489930900e+01    0.2076864    0.1730117 -52.20 0.0002737117    1.058    0.055
       429  -9.3512      2.8653    123.5489   1.1043435041e+02   4.8923567957e+01    0.2094275    0.1330424 -62.31 0.0004361604    1.259    0.206
       430 -12.9642    142.0711     90.1130   5.9937547313e+01   3.6511110939e+01     1.498502     1.372912 -18.10  0.007957431    1.143    0.125
       431 -10.8793    202.2094    122.0448   5.5190988173e+01   1.6894865064e+01    0.4262299    0.2632362 -12.14  0.001608712    2.875    0.652
       432  -9.6061     62.7379     95.5666   8.5541259563e+01   5.0184357638e+01    0.2314211    0.2067085 -29.01 0.0002667112    1.046    0.044
       433  -8.9189     80.7745     99.0199   8.0321110845e+01   4.6733927185e+01    0.2016193     0.193164 -64.92 0.0002042442    1.138    0.121
       434 -10.7696     77.5323    105.2290   8.2992878009e+01   4.5806243563e+01    0.3074185    0.2330218 -32.15 0.0003566256    1.339    0.253
       435 -10.1881     74.8159    100.7710   8.2756548407e+01   4.7258869160e+01    0.5025878    0.2424283  24.25  0.001305984    2.601    0.616
       436 -10.0891     71.7180    104.9930   8.4851680417e+01   4.6731790408e+01    0.2954282    0.2781954  50.65 0.0002782524    1.187    0.158
       437 -10.7760     65.3780    103.3200   8.6565931383e+01   4.8020635076e+01    0.4845028    0.3714128  86.11  0.001124758    1.793    0.442
       438 -10.4405     41.1175    104.3288   9.5088563077e+01   5.0656229755e+01      0.29807     0.223473 -54.16  0.001274839    1.151    0.131
       439 -10.8724     57.2315    100.5918   8.8692705508e+01   4.9728955165e+01    0.5140866    0.4458118  -4.51  0.001542067    1.223    0.182
       440  -9.6411     64.8517    117.6998   9.0033451622e+01   4.4627263815e+01    0.4307691    0.2334067 -34.33  0.001489959    2.237    0.553
       441  -9.8534     69.0452    116.5420   8.8432455856e+01   4.4338591450e+01    0.2821919    0.2337681 -32.08 0.0003906766    1.224    0.183
       442 -10.3677     74.7580    117.7306   8.6875884438e+01   4.3230443322e+01    0.3564766    0.2534536 -63.58 0.0003605675    1.424    0.298
       443 -10.1802     62.0947    112.8970   8.9879459263e+01   4.6163471161e+01    0.2917594    0.2288275 -35.93 0.0004644807    1.258    0.205
       444 -10.8812     69.6568    110.3495   8.6819243851e+01   4.5752464804e+01    0.5899982    0.3862847 -84.07  0.002509569    2.332    0.571
       445  -9.9187     65.4829    109.4650   8.7987273986e+01   4.6542937872e+01    0.2441113    0.2346309  76.12  0.000509782    1.162    0.139
       446 -10.3989     44.4232    107.8696   9.4694204159e+01   4.9463640795e+01    0.2860438     0.203027 -41.36 0.0004785574    1.316    0.240
       447 -10.5064     49.5699    105.1346   9.2364326651e+01   4.9560569251e+01    0.4018998    0.2596633  18.86 0.0003758987    1.780    0.438
       448  -9.7088     54.1795    107.4424   9.1306956032e+01   4.8470867713e+01     0.300058    0.1958213 -37.98 0.0003711859    1.516    0.340
       449 -10.2634     56.6496    111.7637   9.1425730931e+01   4.7126937526e+01    0.2693701    0.2465946   8.00 0.0002594412    1.192    0.161
       450 -10.2350     59.9489    106.9833   8.9260718099e+01   4.7867579007e+01    0.2696999    0.2230287   7.50 0.0004003308    1.342    0.255
       451  -8.9597     48.5069    115.0143   9.4782581882e+01   4.7282680957e+01    0.2042103    0.1232212 -58.96 0.0003534164    1.456    0.313
       452  -8.7487     48.7084    111.7062   9.4047285319e+01   4.8068939555e+01    0.1877526    0.1809625  18.83 0.0003624394    1.161    0.139
       453  -9.6108     52.9807    116.2837   9.3577456469e+01   4.6461500790e+01    0.2783947    0.2428978  79.11 0.0003654429    1.300    0.231
       454  -9.3045     52.2941    112.6988   9.3064737490e+01   4.7419205218e+01    0.2595182    0.1904988 -75.73 0.0007062953    1.476    0.322
       455  -9.6171     17.0179    117.0466   1.0528741626e+02   4.9611066698e+01      0.19295    0.1588406 -61.57 0.0003466336    1.025    0.025
       456 -10.3359     28.4476    114.6166   1.0125619980e+02   4.9327321892e+01    0.2494757    0.1956178 -47.84 0.0004010767    1.159    0.137
       457  -9.6749     32.6872    112.1412   9.9439225774e+01   4.9565154351e+01    0.2433187    0.1933316 -45.73 0.0004337526    1.151    0.131
       458  -8.9943      1.4745    115.0189   1.0983453634e+02   5.1042885735e+01     0.185214   0.09860308 -69.95 0.0003549204    1.476    0.322
       459 -10.3687     43.2358    113.2391   9.6165453683e+01   4.8282161539e+01    0.2467598    0.2069962 -44.87 0.0002994879    1.100    0.091
       460  -9.6682     77.9499    113.1025   8.4783667486e+01   4.3872805861e+01     0.217292    0.1961613 -35.01 0.0003365448    1.066    0.062
       461 -11.0748    211.2191    111.6185   5.1132028937e+01   1.6991861880e+01    0.3914088    0.2375746  31.82  0.001689008    2.295    0.564
       462  -9.5107     81.9007    111.9592   8.3247527470e+01   4.3533322928e+01    0.2160697    0.2001932 -37.53 0.0002965842    1.020    0.020
       463  -9.8164     38.8839    110.2135   9.7023475680e+01   4.9456787418e+01     0.245072      0.18421 -54.79 0.0004680372    1.141    0.123
       464  -9.2503     35.5619    108.4556   9.7799131645e+01   5.0198965239e+01    0.2001178    0.1846807 -48.87 7.834785e-05    1.077    0.071
       465  -9.0126     74.3801    110.1310   8.5225709671e+01   4.5121168995e+01    0.2035497    0.1742145 -51.97 0.0005124187    1.100    0.091
       466  -8.7694     29.1445    109.1246   1.0007189606e+02   5.0604171370e+01    0.1706926    0.1450067 -88.58  0.000303741    1.267    0.211
       467 -13.8692    163.3640    128.3317   6.4849142354e+01   2.3867842756e+01     2.595741     1.670384 -18.50   0.01017952    2.284    0.562
       468 -10.4307    250.0342    106.0298   4.3935363221e+01   1.0393516089e+01    0.3837105    0.2056167 -65.64  0.001568492    3.071    0.674
       469 -13.3155    134.5437    149.3174   7.6849760174e+01   2.5067514375e+01      2.85859     1.236401 -60.51  0.008833744    3.390    0.705
       470  -9.1413      4.8573    106.5158   1.0765350439e+02   5.2888844547e+01    0.1509214    0.1244787   2.41 0.0004579005    1.479    0.324
       471 -10.0851     35.2131     91.5511   9.4426598972e+01   5.4237919633e+01     0.263235    0.2180386   7.16 0.0008934868    1.333    0.250
       472  -8.9365     32.0211     96.0019   9.6540290608e+01   5.3488719819e+01     0.196672    0.1698318 -50.02 0.0003688686    1.027    0.026
       473  -9.0395     22.7505     96.6264   9.9958448833e+01   5.4093915380e+01    0.1708051    0.1574308 -30.13 0.0002565801    1.151    0.131
       474 -10.0055     27.5823     94.7559   9.7871029047e+01   5.4156057035e+01    0.4151603    0.2158845   3.23  0.001917295    2.590    0.614
       475  -9.6610     36.1743    102.1420   9.6345017954e+01   5.1659205022e+01    0.2212833    0.1864852 -10.11  0.000480077    1.298    0.229
       476  -8.8030     34.7089     98.7268   9.6154636600e+01   5.2605862429e+01    0.1973212    0.1508329 -57.80 0.0001736796    1.143    0.125
       477  -9.0536     46.3472    100.9401   9.2551021471e+01   5.0917324782e+01    0.1930788    0.1543962 -49.75 0.0004175296    1.091    0.084
       478  -8.8332     30.3655    100.1135   9.7959669173e+01   5.2661470437e+01      0.18313    0.1423823 -56.83 0.0004666839    1.096    0.088
       479  -9.4404     67.1876     98.3116   8.4704838561e+01   4.8939969728e+01    0.2329085    0.1902046 -28.08 0.0006477087    1.204    0.170
       480  -8.8758     71.2849     97.4038   8.3073502595e+01   4.8560538840e+01    0.1875681    0.1779583  15.98 0.0004744984    1.118    0.105
       481 -10.1464     74.8882     94.3991   8.1052642630e+01   4.8703571775e+01    0.2948942    0.2293115  -3.20 0.0004986133    1.463    0.316
       482  -8.8653     17.3993     97.8473   1.0206134037e+02   5.4186346262e+01    0.1870865    0.1374956 -56.40 0.0005356507    1.104    0.095
       483  -9.9748     13.8238     97.3676   1.0322157953e+02   5.4531594122e+01    0.3732637      0.16093 -33.34  0.001652501    2.630    0.620
       484  -8.9259     18.4384     93.8230   1.0095996485e+02   5.5058817948e+01    0.1823001    0.1410237 -59.88 0.0003915095    1.096    0.088
       485  -9.5254     15.0001     93.4576   1.0211781649e+02   5.5371467688e+01    0.2385592    0.2191434  50.48 0.0003632321    1.332    0.249
       486 -11.6839    241.7785     96.4139   4.3012901508e+01   1.3536689821e+01      0.53376    0.2718415  65.40  0.002426003    2.539    0.606
       487 -10.1517     50.6599     97.3576   9.0218866936e+01   5.1277953357e+01     0.240701    0.1985834 -35.46 0.0003304097    1.119    0.107
       488 -10.0562     40.2688     96.5294   9.3712726353e+01   5.2591185574e+01    0.4759537    0.1547726 -47.18  0.001099002    2.608    0.617
       489  -9.8460      7.4890     95.5470   1.0511590548e+02   5.5327931854e+01    0.1797427    0.1069183 -78.13 0.0001848125    1.644    0.392
       490  -9.8522     45.6361     96.3143   9.1754056230e+01   5.2083521956e+01    0.2644067    0.1908762 -43.97 0.0004250874    1.220    0.180
       491 -10.1779    227.9659     95.4802   4.4760208738e+01   1.6418481675e+01    0.2184487    0.1690705 -43.87  0.000494069    1.151    0.131
       492 -12.3779    145.1407    220.7476   8.7585140482e+01   7.5294194868e+00     1.834735     1.099999   8.08  0.007562493    2.821    0.645
       493  -9.6982    104.9038     90.6792   7.0321210844e+01   4.4274777425e+01    0.4305623    0.2645744 -62.89  0.001643686    2.289    0.563
       494  -8.8256    100.9481     89.9521   7.1320480718e+01   4.5189049902e+01    0.2241886    0.1916195  -7.63 0.0003328257    1.242    0.195
       495  -8.8812     94.7123     91.2832   7.3658203503e+01   4.6065269129e+01    0.2332896    0.2019067  33.81 0.0001993854    1.181    0.153
       496 -10.2675     94.3104     95.7646   7.5054442253e+01   4.5162273503e+01    0.3075348     0.272416 -64.38 0.0006935251    1.257    0.204
       497 -10.6870    100.3477     94.0084   7.2671588147e+01   4.4435698244e+01    0.7527921    0.3222135  47.37  0.002705441    2.638    0.621
       498 -12.7188    141.1837    212.0129   8.7088221129e+01   9.9186722111e+00      1.80128     1.113644  26.04  0.008568421    1.710    0.415
       499  -9.5739      3.4468     95.4947   1.0650257500e+02   5.5549645027e+01    0.1677918    0.1619587 -77.92 5.912895e-05    1.220    0.181
       500  -9.9632      3.4841     92.0343   1.0594529196e+02   5.6349201324e+01    0.1754263    0.1326046 -60.39   0.00034585    1.051    0.048
       501 -10.2334     80.9910     93.2496   7.8684543846e+01   4.7998431643e+01    0.2468006    0.1957756 -37.77 0.0003217886    1.190    0.160
       502  -8.5809     68.5701     94.2484   8.3175275014e+01   4.9674920669e+01    0.1890013    0.1239299 -40.79 0.0003081647    1.427    0.299
       503  -9.6431     55.4057     93.3668   8.7566274528e+01   5.1635617336e+01    0.2989252    0.2080817 -34.53  0.001470339    1.386    0.279
       504 -10.3349     60.8228     89.7775   8.4709476368e+01   5.1756679232e+01    0.4325214    0.2877676  45.98  0.001622313    1.812    0.448
       505 -10.9733    248.8528     92.2198   4.1190680020e+01   1.2881925381e+01    0.2447719    0.2202888 -86.13  0.001095213    1.196    0.164
       506 -12.5105    156.8646    196.6652   8.0906885242e+01   1.0365968801e+01     1.832059     1.127921  15.21  0.007785594    2.221    0.550
       507  -9.8220    225.0000     91.4758   4.4294713758e+01   1.7704702881e+01    0.2964792    0.1473474 -64.56   0.00104712    3.477    0.712
       508  -9.6599     49.0146     91.5008   8.9395302574e+01   5.2823068338e+01    0.2387732    0.1620332 -39.86 0.0003742205    1.337    0.252
       509  -8.9332     66.5059     91.0084   8.3029427544e+01   5.0700611883e+01     0.197649    0.1812187 -11.95 0.0003641983    1.071    0.066
       510  -9.0169     22.0240     91.2985   9.9180294753e+01   5.5391387200e+01    0.1699479    0.1494983 -38.91 0.0003455668    1.095    0.087
       511 -11.1885    198.8621     88.4617   4.7733592995e+01   2.3841238325e+01    0.4049635    0.2260378  42.53  0.001100732    2.127    0.530
       512 -10.4283     71.4443     88.8173   8.0706147266e+01   5.0469698611e+01    0.2612034    0.2222338 -23.59 0.0004680301    1.126    0.112
       513  -9.3513     43.2028     89.7909   9.1094656268e+01   5.3851998028e+01    0.1863674     0.170573 -48.60 0.0004353446    1.098    0.090
       514  -9.6441     88.0889     88.3072   7.4935508329e+01   4.7883189692e+01    0.2413408    0.1954488 -37.47 0.0004823411    1.179    0.152
       515 -10.0108     29.7640     89.2300   9.5912427150e+01   5.5257104187e+01    0.3999798    0.1697535 -27.94  0.001505213    3.417    0.707
       516  -9.5055     35.2015     86.2330   9.3210451124e+01   5.5457763243e+01    0.2044097    0.1636041 -16.58 0.0005873921    1.274    0.215
       517  -8.3825     17.4375     89.5166   1.0049994759e+02   5.6125228468e+01    0.1296222    0.1036618 -50.70 0.0001543596    1.018    0.017
       518  -9.4004     12.0509     89.1496   1.0239152573e+02   5.6550497289e+01    0.1963885    0.1336195 -43.51  0.000359235    1.259    0.206
       519 -10.4479    249.8924     87.3785   4.0045369498e+01   1.3464649448e+01    0.2575034    0.1633974 -25.52 0.0009863058    1.903    0.474
       520  -9.5960     83.3227     86.9942   7.6132657035e+01   4.8979639099e+01    0.4681899    0.2265792 -33.93 0.0009681935    2.420    0.587
       521 -12.1491    243.9992     82.8056   3.9812562796e+01   1.5320892691e+01    0.5680822    0.3195478 -22.94  0.002525429    2.614    0.617
       522  -8.7341     67.4444     82.5716   8.0348681241e+01   5.2420611482e+01    0.3589323    0.1806582  30.57 0.0001213425    2.111    0.526
       523  -9.8544     65.8301     86.2386   8.1962897158e+01   5.1855589840e+01    0.3284566    0.2671551 -72.49  0.001760217    1.532    0.347
       524  -8.5534     62.6784     85.3084   8.2832299059e+01   5.2499502776e+01    0.3130211    0.1067237 -46.88 0.0004181729    2.605    0.616
       525  -8.6829     47.0033     87.5330   8.9141571359e+01   5.3953320587e+01    0.1833746    0.1330548  23.86 0.0004032005    1.502    0.334
       526  -8.8051     21.9087     86.6996   9.8283391585e+01   5.6458396214e+01    0.1671328    0.1463052 -36.96 0.0003481076    1.093    0.085
       527  -9.8312      5.9324     87.0646   1.0423979075e+02   5.7367652080e+01    0.1851617    0.1455483 -51.63 0.0003500304    1.033    0.032
       528  -9.3904     76.2000     86.1411   7.8303869994e+01   5.0323158195e+01    0.2122165    0.1789344 -18.06 0.0005266045    1.170    0.145
       529  -9.6013    107.4274     85.0899   6.7917225863e+01   4.4933361641e+01    0.2291586    0.1990939  16.37 0.0004554543    1.186    0.157
       530  -9.4851     15.9881     85.0860   1.0016185204e+02   5.7235601617e+01    0.1901408    0.1528779 -47.69 0.0003494008    1.022    0.021
       531 -11.2274    218.4703     83.1751   4.3357065031e+01   2.0466190597e+01    0.3856164    0.1906453  44.75  0.001633155    2.524    0.604
       532  -9.0926     40.9182     83.8555   9.0484404176e+01   5.5433214710e+01    0.2017508    0.1535427 -29.13 0.0003301941    1.233    0.189
       533  -9.2166     27.5649     84.0997   9.5593125066e+01   5.6610675299e+01    0.2279262    0.1652388  21.22 0.0009175807    1.562    0.360
       534 -13.0967    113.2484     68.3599   6.1052561781e+01   4.6928265352e+01     1.919242     1.270853   4.89  0.008091918    2.314    0.568
       535 -13.2029    154.2752    181.9814   7.8754028780e+01   1.3928048618e+01     2.958576     1.722017 -16.73    0.0102999    3.350    0.701
       536 -10.5778     92.4605    227.8566   1.0017577456e+02   1.4327234369e+01     0.369645    0.2587085  59.00  0.001154927    1.370    0.270
       537  -9.4376    102.8738     82.8118   6.8612642300e+01   4.6293179175e+01    0.2340253    0.2010976 -30.43 0.0003483098    1.142    0.124
       538  -8.9257    104.4926     78.9248   6.6935336790e+01   4.6747880429e+01     0.201194    0.1768847 -26.96 0.0003286899    1.119    0.107
       539  -9.3616     88.9811     82.4341   7.2908922306e+01   4.8962742721e+01    0.2289326    0.1849016 -27.54 0.0001842844    1.216    0.178
       540 -10.4202     93.0870     78.3788   7.0336654122e+01   4.9043521535e+01    0.4625722    0.3055297  -0.01  0.001714977    2.234    0.552
       541  -8.6998     97.5766     81.4509   6.9846233486e+01   4.7586506609e+01    0.2148592    0.1683299 -11.88 7.944355e-05    1.426    0.299
       542  -9.4074     99.0201     78.0342   6.8345949016e+01   4.7993009150e+01    0.2356511    0.2303998 -48.60 0.0003212038    1.136    0.119
       543  -9.0179     71.5088     83.1958   7.9086900516e+01   5.1682589278e+01    0.2020985    0.1309974 -44.77 0.0005176756    1.440    0.305
       544  -9.6808    115.5892     81.5847   6.4480344631e+01   4.3962300408e+01    0.2446028    0.2322027  11.68 0.0002343651    1.028    0.027
       545  -8.7322     56.3893     81.7894   8.4149526510e+01   5.4103585050e+01    0.1868273    0.1140227 -41.26 0.0002103577    1.482    0.325
       546  -8.7235     51.8131     81.8222   8.5859674523e+01   5.4666202743e+01    0.1978768    0.1596727 -28.09 0.0003130153    1.139    0.122
       547  -8.5735     34.4239     82.2230   9.2544062409e+01   5.6433688122e+01    0.1657956    0.1175285 -64.09 0.0003110612    1.431    0.301
       548  -8.6267      5.5271     82.4884   1.0357163073e+02   5.8426954092e+01    0.1258668    0.0969335 -51.29 -1.375485e-06    1.028    0.027
       549  -9.8158    109.7497     81.0282   6.6005541763e+01   4.5277266681e+01    0.2486362    0.2070679  27.72 0.0001971898    1.214    0.176
       550  -9.5007     15.2352     81.4047   9.9696895483e+01   5.8117042879e+01    0.2934015    0.1368684  26.70  0.001464498    2.444    0.591
       551  -9.3377      2.4842     80.9498   1.0443040754e+02   5.8920421199e+01    0.1880768   0.09709371 -63.80 0.0006214005    1.540    0.351
       552 -10.8740     94.9056     85.8090   7.2000257116e+01   4.7190071114e+01    0.4040272    0.2471201  39.06  0.001162116    1.662    0.398
       553  -9.2175    231.3208     80.3319   4.0912093760e+01   1.8246877522e+01    0.1271888    0.1063095   5.99 0.0007049244    1.697    0.411
       554  -9.9320     75.2265     79.2978   7.6629976965e+01   5.1928853900e+01    0.2472838    0.2038514 -18.43  0.001276607    1.187    0.158
       555  -9.6140     38.3296     79.9461   9.0479038051e+01   5.6564087634e+01    0.1965124    0.1765639  22.69 0.0003462697    1.271    0.213
       556  -9.4452     63.8768     78.9825   8.0595553432e+01   5.3698329715e+01    0.2137505    0.1881477  -2.63 0.0003123575    1.108    0.098
       557  -8.9791     54.3448     76.7837   8.3498359664e+01   5.5441520768e+01    0.3493631    0.1788932 -30.28   0.00140922    2.259    0.557
       558  -8.7861     60.1715     79.5821   8.2128659851e+01   5.4082362932e+01    0.1915637    0.1360264  25.99  0.000376222    1.480    0.324
       559  -8.7012     58.0072     76.9818   8.2179346674e+01   5.4925269648e+01    0.1871721    0.1661462  78.53 0.0003296451    1.535    0.349
       560  -9.1815     28.2522     78.9571   9.4131893614e+01   5.7705639519e+01    0.1943334    0.1702079 -16.95 0.0004873812    1.153    0.132
       561  -8.8649     69.5512     78.5008   7.8400806461e+01   5.2972580585e+01    0.1423449    0.1262301 -21.03 8.554097e-05    1.023    0.022
       562  -9.6779     43.7837     77.3985   8.7705979545e+01   5.6553010943e+01    0.2410787    0.1967843 -24.70  0.000711693    1.123    0.109
       563  -8.4953     23.5501     80.0065   9.6199883583e+01   5.7848212257e+01    0.1874511    0.1066066 -56.73 0.0003120873    1.471    0.320
       564  -8.8298      7.8947     78.3502   1.0188980308e+02   5.9231931415e+01    0.1678443     0.131632 -39.74  0.000454712    1.115    0.103
       565  -8.5062     17.5652     77.4308   9.7947741252e+01   5.8851751366e+01    0.1284133    0.1003116 -43.28  0.000107017    1.045    0.043
       566  -9.2359     48.6789     76.0538   8.5449172434e+01   5.6288330347e+01    0.1915716    0.1496574 -40.13 0.0003797396    1.124    0.111
       567  -9.5108    102.5290     74.3340   6.6106798079e+01   4.8025194840e+01    0.2387537    0.2087954  12.17 0.0003265743    1.148    0.129
       568  -8.6564     65.7387     75.4302   7.8858270059e+01   5.4175581786e+01    0.1734812    0.1293747  12.44 0.0002921624    1.424    0.298
       569  -9.0288     63.9028     72.3063   7.8580897288e+01   5.5082400676e+01     0.225547    0.1934671 -75.83 0.0005493985    1.579    0.367
       570  -9.9698     73.8512     73.1899   7.5241631649e+01   5.3396274964e+01    0.2307605    0.1958547 -25.77 0.0002673189    1.090    0.082
       571 -10.1405     10.1652     73.0653   9.9914724717e+01   6.0274172185e+01    0.3690729    0.1313629 -61.46  0.001276674    2.244    0.554
       572 -10.1236     97.2793     71.8049   6.6935434458e+01   4.9531311584e+01    0.2844272     0.220629  22.07 0.0005001524    1.339    0.253
       573  -8.6911     59.5462     83.5203   8.3471034149e+01   5.3314018457e+01    0.1804393    0.1311475  38.56 0.0001076106    1.541    0.351
       574  -9.3247     79.3756     70.2977   7.2382791380e+01   5.3061963586e+01    0.2329791    0.1873463 -16.01 0.0004793703    1.236    0.191
       575  -9.1058     50.3335     71.0678   8.3366607048e+01   5.7140511621e+01    0.1842732     0.151741 -33.26 0.0005143144    1.064    0.060
       576  -8.2575     42.5450     71.5341   8.6560626688e+01   5.7941223488e+01    0.1319726     0.114565 -31.72 4.227132e-05    1.041    0.040
       577  -9.7844     36.9716     70.2311   8.8417185583e+01   5.8797194709e+01    0.2726602    0.1988574 -70.69  0.001119769    1.740    0.425
       578  -8.8317     23.2700     71.5457   9.4297768892e+01   5.9727825532e+01    0.1571284    0.1102196 -12.99 0.0004973475    1.478    0.323
       579  -8.8920     70.5502     69.5476   7.5276224808e+01   5.4640298122e+01    0.2992675    0.1306646 -47.31  0.001221055    2.254    0.556
       580 -10.7289    207.1176     70.8610   4.2136949926e+01   2.4950655295e+01    0.4332186    0.1515714 -34.34  0.001549536    3.007    0.667
       581  -8.9131     74.0125     68.6901   7.3754891837e+01   5.4259652013e+01    0.1874107    0.1644741   4.85 0.0003194328    1.082    0.076
       582  -8.5537     58.5861     69.2033   7.9619268829e+01   5.6456191076e+01    0.1796145    0.1143944 -35.27 0.0002599201    1.459    0.315
       583 -10.1789    221.2001     68.7034   3.9648436947e+01   2.2210455028e+01    0.2651656    0.1216626  70.15   0.00109088    2.669    0.625
       584  -8.5134     44.4339     66.8068   8.4425750959e+01   5.8712512005e+01    0.1779118    0.1075069 -39.41 0.0004154248    1.453    0.312
       585  -8.5623     64.5388     66.0114   7.6355982881e+01   5.6244398633e+01    0.1955003    0.1247639 -41.21  0.000373851    1.468    0.319
       586  -9.0437     81.7735     65.2394   6.9903666341e+01   5.3612988574e+01    0.1905078    0.1768071  -2.80  0.000367387    1.049    0.047
       587  -8.6486     76.6771     64.9526   7.1585924796e+01   5.4536843966e+01    0.1878421    0.1650831 -26.15 0.0002703661    1.093    0.085
       588  -9.0172     71.7706     64.8460   7.3308010307e+01   5.5358224740e+01    0.2001356    0.1653837 -12.24 0.0003008993    1.148    0.129
       589  -8.2287     38.6777     65.7021   8.6427898584e+01   5.9565771284e+01    0.1369361   0.08557303 -23.88 0.0002802488    1.623    0.384
       590  -9.6375     24.0663     64.9477   9.2265507474e+01   6.1067415032e+01    0.1484226    0.1237796 -29.96 0.0003610056    1.050    0.047
       591 -12.5411     96.2908    141.3408   8.5538261572e+01   3.4005403916e+01     2.193942    0.9407364  35.22   0.00590337    2.435    0.589
       592 -13.6580    143.2416    135.1937   7.1388364210e+01   2.6584132392e+01     2.509305     1.457004 -42.56   0.01030937    1.712    0.416
       593 -12.8896    119.8934    139.0956   7.8443348938e+01   3.0313943642e+01     1.915243     1.465562 -76.10  0.006766695    1.596    0.374
       594 -10.1396     87.1127     62.9194   6.7322119994e+01   5.3083575801e+01     0.353227    0.2664128 -57.99   0.00120379    1.711    0.416
       595  -9.6765     88.6872     58.9009   6.5439810772e+01   5.3503234312e+01     0.369126    0.3035564  65.03  0.001991799    1.611    0.379
       596  -8.8462     66.9411     62.3310   7.4249102850e+01   5.6589042564e+01    0.1840885     0.155511   7.04 0.0002933651    1.123    0.109
       597  -8.3867     58.3460     62.4965   7.7571041706e+01   5.7812575906e+01    0.1352188    0.1127186 -23.12 0.0001718509    1.061    0.058
       598  -8.6195     41.2896     61.0186   8.3934845643e+01   6.0230716153e+01    0.1818835    0.1463552 -31.41 0.0007018173    1.062    0.058
       599 -11.1432    172.4096     57.9077   4.4459434612e+01   3.5007721250e+01      0.37218    0.2639062   9.80  0.001260075    2.239    0.553
       600  -8.6406     62.2443     60.0604   7.5261311103e+01   5.7719389287e+01    0.1657905     0.105434 -39.24 0.0003096319    1.473    0.321
       601  -9.5271     95.6624     58.8930   6.3194210437e+01   5.2169549371e+01    0.2242805     0.178494  23.78 0.0003242428    1.236    0.191
       602  -9.2813    207.5042     58.4898   3.9122344240e+01   2.6773832371e+01    0.1359061    0.1213505 -72.25 -4.575737e-05    1.001    0.001
       603  -8.3782     49.3123     58.7472   7.9920410074e+01   5.9727467210e+01    0.1138536    0.1039114  57.47 0.0002751309    1.521    0.343
       604  -8.6216    113.4424    248.7618   9.8167364555e+01   7.1675524443e+00    0.1454917    0.1198917 -43.00 0.0003872369    1.479    0.324
       605  -8.4387     57.4215     57.5537   7.6283157181e+01   5.8877861551e+01    0.1344346    0.1139578 -14.19 0.0001061035    1.025    0.025
       606 -12.2890    166.9328     53.5996   4.4255214313e+01   3.6955254372e+01    0.6306013    0.3782691  62.52  0.001757885    1.614    0.381
       607  -9.7672    171.8699     49.9427   4.2387643805e+01   3.6308781595e+01     0.199978    0.1838405  32.21  0.001169522    1.239    0.193
       608  -9.5332     82.7676     55.9809   6.6414700154e+01   5.5092773372e+01    0.2308289    0.2149564 -15.17  0.000979504    1.113    0.102
       609  -9.8058     80.0601     60.2293   6.8811955398e+01   5.4827053440e+01    0.4063331    0.1801011  35.55 0.0009474828    2.303    0.566
       610  -8.8754     62.7268     55.0532   7.3360270687e+01   5.8567332147e+01    0.1849598    0.1523996 -21.11 0.0003618438    1.095    0.087
       611  -9.4541    120.0032     55.3588   5.5021643925e+01   4.7643133294e+01    0.2261271    0.1905878   0.33  0.000460301    1.298    0.230
       612 -10.3984    100.0143     51.6190   5.9362930496e+01   5.2493165500e+01     0.834547    0.1897577 -34.31  0.002325153    5.155    0.806
       613  -8.8150     95.6905     53.4187   6.1307681672e+01   5.3074349157e+01    0.3678011    0.1260243 -31.39  0.001215814    3.618    0.724
       614  -8.9970     68.9501     53.8353   7.0581238246e+01   5.7817934083e+01    0.3100111    0.1719214  27.26  0.001370466    1.898    0.473
       615 -10.3821    114.0134     53.0167   5.5843881472e+01   4.9323881484e+01    0.5245675    0.3125711  -0.33  0.001999379    3.085    0.676
       616 -10.3870    113.3821     47.7553   5.4250356929e+01   5.0256972223e+01    0.3615077    0.2935047 -64.33  0.001945292    1.584    0.369
       617 -11.0334    115.4943     44.5304   5.2605901255e+01   5.0259195130e+01    0.4892309     0.281012  62.83    0.0021886    2.015    0.504
       618  -9.1246     91.1238     51.3612   6.2029177166e+01   5.4299387253e+01    0.2128722    0.1756727 -12.15 0.0003521861    1.206    0.171
       619  -8.7746     86.8958     52.3793   6.3763926133e+01   5.4938631974e+01    0.1896631    0.1593507  21.70 0.0004675067    1.109    0.098
       620  -8.5107    119.3134     51.2725   5.3864291073e+01   4.8425937699e+01    0.1429396     0.103883  23.68 0.0001705192    1.556    0.357
       621 -10.5914    122.6469     50.5191   5.2768883124e+01   4.7793893721e+01    0.3719399    0.2307088 -40.34  0.001705852    1.719    0.418
       622 -10.9434    123.7342     45.4977   5.0859295554e+01   4.8278141418e+01     0.432113    0.2175777 -28.79   0.00186255    2.217    0.549
       623  -8.5195     95.2568     48.6628   5.9776725925e+01   5.3913143160e+01    0.1276627    0.1098333 -68.10 0.0001871721    1.575    0.365
       624  -9.1323     90.9890     47.0568   6.0540899565e+01   5.5001555596e+01    0.1617737    0.1453359  -2.74 0.0003663255    1.068    0.064
       625  -8.9327     73.6940     46.2927   6.6115969523e+01   5.8294169707e+01     0.181135    0.1374702   3.08 0.0006380748    1.325    0.245
       626  -8.4421     67.6967    249.6931   1.0749628221e+02   1.3370505878e+01    0.1039823   0.09429238 -17.05 0.0004876833    1.602    0.376
       627 -10.7642    109.6992    226.3174   9.6213149749e+01   1.2065757131e+01    0.3241141    0.2256185 -44.61 0.0006036596    1.692    0.409
       628  -8.6062     19.5479     48.4747   8.9483432650e+01   6.4731519908e+01    0.1250085   0.09528897 -29.38 0.0001770599    1.042    0.041
       629  -8.6571    104.3012     44.3245   5.5570420293e+01   5.2705530108e+01    0.1427763    0.1008461  16.70 0.0003233872    1.635    0.388
       630  -9.5657     84.8825     43.8241   6.1343581215e+01   5.6663374240e+01    0.1972538    0.1630569  12.41 0.0002919025    1.134    0.118
       631 -11.1679    132.9609     40.3598   4.7067448624e+01   4.6861246131e+01    0.3213822    0.2480103 -23.65 0.0009487325    1.434    0.303
       632  -9.2384     71.8296     41.8431   6.5124374559e+01   5.9311807393e+01    0.1970172    0.1550761   2.79 0.0003760716    1.206    0.171
       633  -8.6914     90.4937     41.4970   5.8680091298e+01   5.5927430318e+01    0.1363145    0.1208463  18.10 -6.639733e-05    1.000    0.000
       634  -9.4039    113.6080    223.1823   9.4934294664e+01   1.2101780852e+01    0.4863726    0.2123031 -56.48   0.00192623    2.483    0.597
       635 -10.2299    108.5105     38.7005   5.2441346965e+01   5.2590047666e+01    0.2949933      0.23341 -29.06 0.0007662487    1.347    0.258
       636  -8.2419     77.5301     40.4502   6.2573046707e+01   5.8522168759e+01    0.1353064    0.1148019  10.51 5.775556e-05    1.045    0.043
       637 -10.5521    126.1041     38.9278   4.8146076822e+01   4.8633671282e+01     0.374678    0.1512769  60.63  0.001266932    2.587    0.613
       638  -8.9190     97.0284     38.7675   5.5692889408e+01   5.5000991513e+01    0.1861651    0.1582631  29.00 0.0002201733    1.059    0.056
       639  -8.2983     85.3353     39.3243   5.9524487139e+01   5.7238844873e+01    0.1424724   0.09533926  13.67 0.0007051068    1.714    0.417
       640  -9.2272    108.7858    247.7708   9.9012755485e+01   8.0340121876e+00    0.1902114    0.1640027 -42.38  0.001075289    1.421    0.296
       641  -9.1884    190.0359     37.2925   3.6320799799e+01   3.3734490754e+01    0.1870061    0.1615854  86.48 0.0006383588    1.046    0.044
       642  -8.8279    103.9336     37.2412   5.3170854712e+01   5.3766223731e+01    0.1868749    0.1557684  35.36 0.0002112622    1.083    0.077
       643  -9.8050    119.6921    211.0916   9.1845363836e+01   1.3658950127e+01    0.2375883     0.212145   8.08 0.0003752618    1.254    0.203
       644  -8.0696     65.6634     34.7194   6.4641677198e+01   6.1413080401e+01    0.1337776   0.08896771   9.29 0.0003293753    1.618    0.382
       645  -9.4615    105.2191     32.8817   5.1263799672e+01   5.4055916426e+01    0.1899786    0.1823975  73.30 0.0006889656    1.211    0.174
       646  -9.8502    112.6602     34.7945   5.0000391673e+01   5.2193825961e+01    0.2505516    0.1732848  52.09 0.0005812448    1.327    0.246
       647  -9.6549     76.9686     29.7881   5.8631385025e+01   6.0112999959e+01    0.2001909    0.1496502  20.19 0.0004484643    1.237    0.192
       648  -8.8971    120.2838    219.2906   9.2903785217e+01   1.1848907594e+01    0.2072798    0.1575311  24.05 0.0001981601    1.386    0.279
       649  -9.5707    100.0144     33.4914   5.2912236494e+01   5.5083162917e+01    0.1940865    0.1725491  -5.49 0.0006257825    1.149    0.130
       650  -9.8868    116.5961    220.2995   9.3872910579e+01   1.2225874427e+01    0.3911325    0.2782725 -84.65  0.001858026    1.799    0.444
       651  -8.1836    105.4751     26.4222   4.8874473494e+01   5.4779562040e+01    0.1339432    0.1145982  36.58 0.0001851771    1.031    0.030
       652  -8.5612    102.0000     24.9903   4.9260032921e+01   5.5691044128e+01    0.1989291   0.07474114 -28.08 0.0007982061    2.913    0.657
       653 -10.3168    120.0127    215.2137   9.2378618314e+01   1.2738053446e+01    0.2934346    0.2387028 -44.97 0.0003386445    1.363    0.266
       654  -8.8501      4.6593     24.6862   8.8803629110e+01   7.0093451729e+01     0.123653   0.06295305 -25.33 0.0006471184    1.701    0.412
       655  -8.2522    127.7148     17.2979   4.0710280271e+01   5.0758577440e+01    0.1242284   0.09715197 -74.53 0.0003739953    1.549    0.354
       656  -8.8163     73.2117     16.4550   5.4452304664e+01   6.2406530747e+01       0.1621    0.1134659  53.32 0.0005309198    1.555    0.357
       657  -8.4711     99.4128    248.4833   1.0101518285e+02   9.2597351877e+00    0.1221741      0.10646  47.99 0.0001976174    1.060    0.057
       658  -8.8835     70.9867    248.4904   1.0674331410e+02   1.3172352287e+01    0.1687845    0.1037126  39.27 3.841814e-05    1.444    0.308
