#   1 NUMBER                 Running object number                                     
#   2 MAG_AUTO               Kron-like elliptical aperture magnitude                    [mag]
#   3 X_IMAGE                Object position along x                                    [pixel]
#   4 Y_IMAGE                Object position along y                                    [pixel]
#   5 X_WORLD                Barycenter position along world x axis                     [deg]
#   6 Y_WORLD                Barycenter position along world y axis                     [deg]
#   7 A_WORLD                Profile RMS along major axis (world units)                 [deg]
#   8 B_WORLD                Profile RMS along minor axis (world units)                 [deg]
#   9 THETA_WORLD            Position angle (CCW/world-x)                               [deg]
#  10 FWHM_WORLD             FWHM assuming a gaussian core                              [deg]
#  11 ELONGATION             A_IMAGE/B_IMAGE                                           
#  12 ELLIPTICITY            1 - B_IMAGE/A_IMAGE                                       
         1 -12.7000    211.6407     33.4899   4.2976760413e+01   2.8798233184e+01    0.9737317    0.7099841 -70.71  0.004173787    1.365    0.267
         2 -12.3055    218.6629     25.9884   4.0347293122e+01   2.8081529255e+01    0.6729776    0.4874701  59.11  0.001372485    1.454    0.312
         3 -12.3586    232.7778     13.6521   3.6158658641e+01   2.6316072956e+01    0.6931884    0.3704675 -33.23  0.002517913    1.823    0.452
         4 -12.2633    229.0014     12.8548   3.6291821662e+01   2.7238954254e+01    0.6600034    0.3517376 -32.98  0.002517078    1.841    0.457
         5 -10.4895      2.0000      9.4972   9.5935203473e+01   7.3148648039e+01     0.423293    0.0506758 -51.37  0.001258627    7.001    0.857
         6  -9.9161    124.0277      4.0787   4.6930998530e+01   5.3292088159e+01    0.2654988    0.1961835 -68.06  0.001460893    1.727    0.421
         7 -11.8373     53.4093    240.4479   1.1989832175e+02   1.8011307819e+01    0.4507728      0.24451  44.77  0.001595375    1.531    0.347
         8 -10.7785    227.7302    248.9788   8.7757712905e+01  -8.4436825183e+00    0.5818207    0.2882551  35.87  0.003307042    1.783    0.439
         9 -10.8570    217.2303    248.3756   8.9547430064e+01  -6.9276679871e+00    0.5269722    0.2771955  19.51  0.002354289    1.868    0.465
        10 -12.5087     91.8106    241.8844   1.1278245534e+02   1.2737463071e+01     1.330102     0.582828  61.92  0.005805639    3.045    0.672
        11 -13.4939     84.1779    248.6011   1.1485554685e+02   1.2590326105e+01     2.076681    0.5915688  36.46   0.00867545    3.121    0.680
        12 -10.7691     76.1080    247.7992   1.1628730075e+02   1.3807162380e+01     0.407563    0.3744721  37.11  0.003079874    1.359    0.264
        13 -11.9171     63.0398    250.0887   1.1885657427e+02   1.5074353945e+01    0.7138598    0.3679904  49.42   0.00220082    1.522    0.343
        14 -11.1280     70.1693    248.0883   1.1740595107e+02   1.4527598595e+01    0.5891424    0.3014934  57.86  0.002970007    1.721    0.419
        15 -12.6970     87.9499    228.6968   1.1221718435e+02   1.5731240737e+01     1.147645    0.5955971  61.98  0.003095283    2.119    0.528
        16 -12.3476     19.5094    220.0308   1.2479934488e+02   2.5701476144e+01    0.7335729    0.3745723  72.47  0.004376349    1.702    0.413
        17 -12.7057      4.4522    184.0241   1.2555962331e+02   3.4616380587e+01     1.100972    0.4963536  89.67  0.005910296    1.904    0.475
        18 -13.9978      7.1354    240.6366   1.2799993247e+02   2.2948773757e+01     1.759184     1.055268 -85.33   0.01274576    1.451    0.311
        19 -13.7828      8.8720    207.4660   1.2606791022e+02   2.9255230014e+01     1.169105     1.099607 -72.81   0.00691816    1.454    0.312
        20 -15.2023     30.2327    182.0516   1.1990703386e+02   3.2746679493e+01     8.223599     3.012417  82.65   0.02743933    4.755    0.790
        21 -11.0484    122.4599    225.7395   1.0481766114e+02   1.1149397276e+01    0.3780981     0.340037  73.96  0.002059677    1.162    0.140
        22 -12.3682     30.1900    208.9505   1.2204401756e+02   2.6883069723e+01    0.5209984    0.3780986 -43.24  0.001368959    2.038    0.509
        23 -12.3562    193.3923    226.6356   9.0564732645e+01  -3.8278213756e-01    0.8033682     0.439648  39.87  0.002968996    1.672    0.402
        24 -13.4974    197.1330    219.0021   8.8558663251e+01   1.9265963878e-01     1.205602    0.8276621  42.49  0.004447782    1.494    0.331
        25 -12.7865    117.7876    231.0060   1.0643749901e+02   1.0905883209e+01    0.9779806    0.3394371  41.00  0.004164696    2.391    0.582
        26 -10.3600    168.6030    226.3792   9.5443509613e+01   3.6261162586e+00    0.4114055    0.1274147 -48.21  0.001551013    3.867    0.741
        27 -11.1954    166.0031    222.0343   9.5296185651e+01   4.7725675520e+00    0.3364171    0.2635618  32.32  0.002021749    1.108    0.098
        28 -11.8561     48.2486    224.4261   1.1966958372e+02   2.1712849320e+01    0.3323598    0.2398995  80.46  0.001375658    1.193    0.161
        29  -9.7945     33.7932    226.7604   1.2257243531e+02   2.2885451493e+01    0.1996384    0.1356871 -83.82 0.0006585102    1.337    0.252
        30 -11.4171     29.8943    219.5096   1.2282635548e+02   2.4745906236e+01    0.5044234    0.2941783  89.89  0.002359745    1.510    0.338
        31 -11.8009    244.9816    170.4447   7.0314528251e+01   3.8769765408e-02    0.6345093    0.3894684 -26.96  0.003322126    1.453    0.312
        32 -10.9376    250.1203    175.7327   7.0520119490e+01  -1.5997297570e+00    0.7382891    0.2246187 -32.94  0.002750553    3.090    0.676
        33 -11.8943    242.3419    222.2371   8.0705555466e+01  -7.0768533771e+00    0.7351382    0.5135625  18.88  0.003187213    1.222    0.182
        34 -12.3425    247.7866    208.0328   7.7187452723e+01  -5.9375124085e+00    0.8360079    0.4467829 -27.88  0.003097184    1.714    0.416
        35 -12.6912    249.0639    191.4254   7.3815963125e+01  -3.7760476713e+00     1.192122     0.430791 -35.58   0.00477802    2.530    0.605
        36  -9.4119     94.1626    221.2838   1.1014566985e+02   1.6284655117e+01    0.1902518       0.1676 -68.84 0.0005785674    1.259    0.206
        37 -12.7739     32.7854    247.1567   1.2399504721e+02   1.9144521015e+01     1.010715    0.5823869  41.73  0.006784229    1.562    0.360
        38 -11.4441     41.4021    236.2747   1.2180212569e+02   2.0201946484e+01    0.2607817     0.190132  77.12 0.0006202307    1.130    0.115
        39 -12.4187    126.3224    231.0040   1.0470110641e+02   9.5900946278e+00    0.6267478    0.4086263  47.69  0.003575415    1.352    0.260
        40 -13.1011    229.7534    176.2529   7.4210166342e+01   1.6373628949e+00     1.693078    0.7218407 -34.24  0.007226105    2.208    0.547
        41 -12.6884    222.2445    170.4773   7.4402305258e+01   3.8940729877e+00     1.558868    0.9834427   0.54  0.007146625    2.090    0.522
        42 -12.5336    223.7704    195.1857   7.9089258057e+01  -3.9649139860e-01    0.7589532    0.5788368 -19.50  0.003099363    1.202    0.168
        43 -10.0557     38.4496    231.6879   1.2203720078e+02   2.1412438111e+01    0.2355139    0.1524531  75.72 0.0007792593    1.302    0.232
        44  -8.6169    149.6691    206.7038   9.6280824792e+01   1.0253747085e+01    0.1361777    0.1033239   3.97 0.0007027166    1.638    0.390
        45  -8.8165    149.8366    198.8000   9.4934677644e+01   1.1739365731e+01    0.1858462    0.1628997  71.22 0.0006390132    1.322    0.243
        46  -9.6214    208.8275    194.1110   8.1741552890e+01   2.2542993979e+00    0.1944925    0.1877742   8.28 0.0008184037    1.259    0.206
        47 -11.5027    190.4884    182.5863   8.3180948623e+01   7.4856892336e+00    0.7268511    0.4105633 -58.31  0.002910856    2.878    0.653
        48 -10.9743     64.3883    175.1510   1.1125391205e+02   3.0451463967e+01      0.30162    0.2409487 -46.11 0.0006488804    1.457    0.314
        49 -11.0072     58.8382    180.8393   1.1326529383e+02   2.9829602355e+01    0.3957853    0.2761715 -33.49  0.002085573    2.099    0.524
        50 -10.5452     74.4691    165.1412   1.0738329245e+02   3.1476222441e+01    0.2697928    0.2369917 -54.20 0.0004164834    1.205    0.170
        51 -11.1613    245.5000    163.5059   6.8782953423e+01   1.0516530670e+00    0.4520921    0.2590341 -27.41    0.0022628    1.585    0.369
        52 -12.5506    246.5191    149.8768   6.5713092096e+01   3.0759913397e+00      1.08482    0.8400586 -50.56  0.006120921    1.535    0.349
        53 -13.1535    240.8338    137.7523   6.3994587371e+01   6.0910208893e+00     1.856594    0.6989733 -33.35  0.007128882    2.465    0.594
        54 -11.8865    245.4321    129.8048   6.1477780200e+01   6.5746687129e+00    0.5538409    0.3978351 -51.73  0.002244411    1.552    0.356
        55 -13.1283    221.9110    200.8684   8.0521930936e+01  -9.7872190336e-01     1.194644    0.9819862 -30.57  0.004693398    1.302    0.232
        56 -12.5637     61.4696    161.4186   1.1014858245e+02   3.4092145253e+01      0.49971    0.2848605 -45.18  0.001500865    2.035    0.509
        57 -11.4449     81.4727    158.5537   1.0455778671e+02   3.2062899605e+01    0.6004456    0.5424719 -44.79  0.001351526    1.211    0.174
        58 -11.1055     73.2266    154.0995   1.0599897877e+02   3.4317861648e+01    0.6060745    0.3546074  57.05  0.002773943    1.951    0.487
        59  -9.6699     62.0702    235.8607   1.1793225623e+02   1.7807827684e+01    0.1923331    0.1441609  80.76 0.0006592784    1.204    0.170
        60 -11.9721     58.1521    133.0617   1.0666004133e+02   4.1463271379e+01     2.438977     1.100181 -89.81  0.005345911    9.220    0.892
        61 -11.3269     67.5235    142.4965   1.0562613578e+02   3.7939056747e+01    0.3949051    0.3315614  83.91  0.001601343    1.204    0.169
        62  -9.2486    134.0000    146.9289   8.8650262719e+01   2.5773313388e+01    0.4311028   0.08654425 -49.10   0.00105328    4.952    0.798
        63 -11.0647     29.9856    143.5330   1.1599854798e+02   4.1852398783e+01    0.3140728    0.2637283  65.59  0.002017011    1.222    0.182
        64  -9.4631     96.6234    143.9413   9.7872968456e+01   3.3254330383e+01    0.2381419    0.2123372  15.16 0.0007594561    1.280    0.219
        65 -11.3689     84.6759    142.4733   1.0086859268e+02   3.5505201271e+01    0.3090218    0.2429642 -51.55 0.0004608934    1.229    0.186
        66  -9.9707     73.7167    134.8726   1.0251597781e+02   3.8980061634e+01    0.4202529    0.2249011  60.83  0.001633106    2.740    0.635
        67  -9.8296    107.2130    131.8692   9.2397857244e+01   3.4347584218e+01    0.4394678    0.2923096  41.99  0.002004076    1.555    0.357
        68 -11.2296     21.0530    131.8934   1.1699756945e+02   4.5430973348e+01    0.4179511    0.1926007  55.41  0.001333839    2.654    0.623
        69  -9.7776     95.6378    128.3109   9.4870484188e+01   3.7215350316e+01    0.3273032    0.2450734 -27.35  0.001556979    1.586    0.369
        70 -11.1591     70.3060    145.3363   1.0534067832e+02   3.6866099360e+01    0.4574609     0.319079 -51.57  0.001321334    1.389    0.280
        71  -8.7219    105.8539    120.1919   9.0047525009e+01   3.7378092858e+01    0.1990546    0.1716341 -21.64 0.0002826256    1.263    0.209
        72 -11.7176    248.9199    110.2653   5.6544706110e+01   9.1410196826e+00    0.6399457    0.3220896 -40.74  0.002952414    1.716    0.417
        73  -9.0073    168.0611    113.0770   7.2078758838e+01   2.5937713887e+01    0.2519079    0.1967925 -78.98  0.001124943    1.727    0.421
        74  -9.2309    205.5625    110.3130   6.3670733750e+01   1.8056805485e+01    0.2500933    0.1792147  26.48 0.0007377155    1.703    0.413
        75  -9.2483    134.5037    102.9814   7.7547784244e+01   3.5547252171e+01    0.2434895    0.1526109 -41.94 0.0007015487    1.557    0.358
        76 -11.7316    134.4936    230.0560   1.0291201486e+02   8.4783890210e+00    0.3887412     0.381166  56.54  0.002698635    1.147    0.128
        77  -8.7492     24.7851     82.7604   1.0786908464e+02   5.6929813698e+01    0.1599217    0.1400619 -89.28 0.0003566853    1.315    0.239
        78 -11.9944    100.4238    227.9485   1.0961212775e+02   1.4080392559e+01     1.034559    0.2084365  40.90  0.003557436    3.778    0.735
        79 -10.1378     13.3534     60.1643   1.0717300903e+02   6.2758183981e+01    0.2055842    0.1772556 -37.97 0.0005830891    1.126    0.112
        80  -9.8321      1.8230     49.4098   1.0948438910e+02   6.5642741956e+01    0.2321096    0.0768065 -65.70  0.001008053    2.714    0.631
        81 -11.4711    195.4995     47.5598   4.8787020528e+01   3.0798229601e+01    0.4621873     0.270899 -33.79  0.002158677    1.686    0.407
        82 -12.5670    203.9692     38.5925   4.5227689933e+01   2.9965499036e+01    0.8270375    0.6447027 -70.85   0.00294403    1.276    0.216
        83  -9.5803    250.2792    247.7684   8.3643028332e+01  -1.1239596728e+01     0.182999    0.1198193 -22.92 0.0007777089    1.478    0.324
        84 -11.7489    119.7568    242.7311   1.0743352220e+02   8.5375688478e+00    0.4119145    0.2812518 -62.96  0.002522251    1.749    0.428
        85 -10.0282    135.0098     41.7678   5.8067568364e+01   4.6508370354e+01    0.3530692    0.2595143 -63.52 0.0009329452    1.762    0.433
        86 -11.9388    114.8901    243.1451   1.0843262436e+02   9.1901153704e+00    0.4726278    0.2978048  64.76    0.0026704    1.809    0.447
        87 -12.6087    178.1978    238.1553   9.5328007021e+01   2.5506060804e-01    0.8556505    0.5242444  38.35  0.002987172    1.403    0.287
        88  -8.9389    189.4958     15.4800   4.0851070597e+01   3.6200638109e+01    0.1320034    0.1191323  85.61 0.0008101608    1.030    0.029
        89 -11.2782    176.4252    230.2231   9.4472623859e+01   1.7528695861e+00    0.3863277    0.3282275  41.40  0.001885526    1.219    0.180
