#   1 NUMBER                 Running object number                                     
#   2 MAG_AUTO               Kron-like elliptical aperture magnitude                    [mag]
#   3 X_IMAGE                Object position along x                                    [pixel]
#   4 Y_IMAGE                Object position along y                                    [pixel]
#   5 X_WORLD                Barycenter position along world x axis                     [deg]
#   6 Y_WORLD                Barycenter position along world y axis                     [deg]
#   7 A_WORLD                Profile RMS along major axis (world units)                 [deg]
#   8 B_WORLD                Profile RMS along minor axis (world units)                 [deg]
#   9 THETA_WORLD            Position angle (CCW/world-x)                               [deg]
#  10 FWHM_WORLD             FWHM assuming a gaussian core                              [deg]
#  11 ELONGATION             A_IMAGE/B_IMAGE                                           
#  12 ELLIPTICITY            1 - B_IMAGE/A_IMAGE                                       
         1 -15.2871     68.7475    144.3220   9.7181205697e+01   3.7499853184e+01     5.468945     2.899883  70.72  0.004552513    3.914    0.745
         2 -13.9746    202.0872     43.1914   3.9145350617e+01   2.9950650532e+01       1.1356    0.9733461 -39.77   0.00315167    1.264    0.209
         3 -14.4098    212.9933     32.9784   3.5596994589e+01   2.8866665213e+01     1.116358    0.8869553 -10.55  0.002333233    1.841    0.457
         4 -13.7488    238.9240      7.1778   2.8146890846e+01   2.6482157011e+01    0.7970514    0.6018263 -72.61  0.004790096    1.018    0.017
         5 -11.3673     58.1258      6.8392   5.7049943940e+01   6.6339658692e+01    0.2477152    0.1648686  59.98 0.0008120282    1.899    0.474
         6  -9.9419      2.0000      2.9750   8.3392661887e+01   7.4497961660e+01    0.1710814   0.05262586 -42.80 0.0008096339    2.993    0.666
         7 -12.1276    192.8603    194.6235   7.5347744531e+01   4.3809900649e+00     1.304518    0.6358773 -61.12  0.003669754    6.202    0.839
         8 -11.3091    140.0191    249.5612   9.5772198838e+01   2.6118980524e+00    0.3075327    0.2284924  50.91  0.001817805    1.441    0.306
         9 -14.1725     52.1671    185.6826   1.0805268527e+02   2.9089857889e+01     1.571046     1.091066  67.34  0.008253506    1.465    0.318
        10 -16.2087     41.1393    195.0308   1.1182341110e+02   2.8096627916e+01     8.113541     2.745074  61.72    0.0223896    6.027    0.834
        11 -15.8687      5.3763    165.4748   1.1796107337e+02   3.8674553731e+01     7.443457    0.7837985 -72.32  0.008706717    5.563    0.820
        12 -17.9010     15.2019    240.9339   1.2087721281e+02   2.0624012122e+01     6.510281     2.391984  24.26   0.02826432    3.787    0.736
        13 -11.1075    111.2852    203.8380   9.5721603140e+01   1.6232629799e+01    0.2718937    0.2207449  61.01 0.0005564555    1.297    0.229
        14 -11.8547    107.6220    203.8358   9.6613314231e+01   1.6819540566e+01    0.5488119    0.3070291  64.57  0.002135244    2.742    0.635
        15 -15.8121      9.4229    207.5930   1.2008437373e+02   2.8349405304e+01     1.386333      1.11157 -42.92  0.006846931    1.674    0.403
        16 -11.2809    122.5688    199.4268   9.2267793116e+01   1.5370975412e+01    0.3903133     0.265135 -71.56  0.001448132    1.850    0.459
        17 -11.1184    111.4125    197.1565   9.4638876859e+01   1.7730647780e+01    0.3107575    0.2304882  -0.27  0.001477023    1.815    0.449
        18 -10.1331     67.4394    197.3343   1.0563046815e+02   2.4291708675e+01    0.2392535    0.1993171  54.37 0.0004944055    1.131    0.115
        19 -10.0165     82.3941    194.8979   1.0156790896e+02   2.2775971730e+01    0.2733662    0.2130356  25.68  0.001259382    1.392    0.281
        20 -10.7546    149.3065    191.7353   8.4478830763e+01   1.2458505970e+01    0.3597091    0.2671006 -82.30  0.001487578    2.045    0.511
        21 -10.1731    131.4023    191.1837   8.8687920507e+01   1.5714652739e+01    0.2088185    0.1438454 -66.75  0.000951446    1.762    0.432
        22 -10.5241    125.2346    189.0178   8.9825002895e+01   1.7274037839e+01    0.2082805    0.1915953 -50.92 0.0005854527    1.122    0.109
        23 -11.6803     81.3373    182.4726   1.0003008860e+02   2.5957002816e+01    0.4929372    0.3773075 -83.82  0.001156063    1.381    0.276
        24 -11.0582    118.0275    190.5048   9.1884459290e+01   1.8163962230e+01    0.4236196    0.2177985 -74.02  0.001398144    3.627    0.724
        25 -11.0572     99.3750    180.9043   9.5032828946e+01   2.3545221834e+01    0.2954717    0.2648838 -36.12 0.0006434827    1.204    0.169
        26  -9.9031     87.1727    177.1611   9.7646805613e+01   2.6395521426e+01    0.2130265    0.1992244 -39.25 0.0003796234    1.151    0.132
        27 -10.5193     90.2672    174.9540   9.6451600203e+01   2.6464557774e+01    0.2717881    0.2197868 -69.50  0.000647111    1.242    0.195
        28 -10.8095    186.1781    173.8361   7.2596374970e+01   9.5832176628e+00    0.3715455    0.3448032 -72.20  0.001353472    1.335    0.251
        29 -13.6023     68.1927    153.6565   9.9019183404e+01   3.5162937694e+01    0.7662889    0.4839696 -51.82  0.001450618    1.513    0.339
        30 -10.1633     88.0435    209.6410   1.0217744923e+02   1.8502712219e+01    0.2550705    0.1658222 -49.25 0.0009529471    1.698    0.411
        31  -9.9121    110.9181    167.8962   8.9621017307e+01   2.4782842771e+01    0.2410919    0.1847896  77.14 0.0006368728    1.640    0.390
        32 -12.7603     80.0923    158.4661   9.6419775147e+01   3.2202799323e+01    0.9287863     0.567103  61.39 0.0005045772    2.092    0.522
        33  -9.5262    102.9157    165.0796   9.1249271784e+01   2.6857519608e+01    0.2220328    0.1967831  74.37  0.001142946    1.208    0.172
        34 -10.3623     36.0936    162.0289   1.0943871584e+02   3.6859917907e+01    0.2383944    0.2063236  72.43 0.0006528451    1.131    0.116
        35 -11.1966     32.6133    156.0633   1.0966471662e+02   3.8734951276e+01    0.4053143    0.3349485  68.93  0.001417684    1.216    0.178
        36 -12.3769     87.6376    151.7255   9.2985814944e+01   3.2754057383e+01    0.7519977     0.499961 -21.07  0.002378967    2.177    0.541
        37 -11.4791    133.7016    144.7365   7.8637178792e+01   2.6115538675e+01      1.25771    0.3260769 -54.26  0.002876184    5.619    0.822
        38  -9.3681    112.1408    150.2030   8.5692649153e+01   2.8919819543e+01    0.2099005    0.1798489  65.88 0.0003662937    1.299    0.230
        39 -11.7605     54.0266    147.3731   1.0215852620e+02   3.8636430268e+01    0.6634986    0.5407302 -67.93   0.00360707    1.123    0.110
        40 -10.4438    174.8079    148.9874   6.9676525229e+01   1.6893765200e+01    0.2806004    0.2137694 -60.67 0.0008535284    1.520    0.342
        41 -10.6750     29.4044    144.1527   1.0904050050e+02   4.2097086788e+01    0.3594091    0.2742788  27.62  0.002032943    1.492    0.330
        42 -11.0499    101.7714    138.0910   8.5991527066e+01   3.3802085642e+01    0.6164893     0.384658 -18.64  0.002259152    2.654    0.623
        43 -10.9328    106.0823    131.0275   8.3095262369e+01   3.4759886106e+01    0.4997584    0.3720819 -54.93  0.002003843    1.335    0.251
        44 -10.4029    111.0743    129.1320   8.1186259014e+01   3.4279597313e+01    0.3423808    0.2703091  -5.11 0.0009596708    1.578    0.366
        45 -12.4318     88.9015    137.5356   8.9699087177e+01   3.6159158916e+01    0.3073408    0.2650099 -39.00 0.0003748789    1.162    0.139
        46 -10.8468     25.4861    137.3816   1.0929659332e+02   4.4182125938e+01    0.3498635    0.1690366  38.75  0.001598526    2.240    0.554
        47 -12.3221     71.3109    166.9794   1.0033684503e+02   3.1302356312e+01    0.5047081     0.346218 -49.82 0.0006567796    1.467    0.318
        48 -11.1243    135.0876    128.6618   7.4431845188e+01   2.9581792591e+01    0.4261103    0.3489026 -55.17  0.002044712    1.251    0.201
        49  -9.8101    160.6050    127.7999   6.7895669550e+01   2.4377154024e+01    0.2309652    0.1434557 -53.18 0.0009543026    1.709    0.415
        50 -11.0087     98.2265    124.7929   8.3945955365e+01   3.7724353488e+01    0.3176495    0.2563869   1.29  0.000613947    1.478    0.323
        51 -12.2156     66.7090    171.6570   1.0232645730e+02   3.0745633420e+01    0.4194023    0.3112853 -24.11  0.002059481    1.781    0.439
        52 -10.6228    116.8955    123.8309   7.8205508464e+01   3.4411828475e+01    0.2506042    0.2149193  -8.28  0.001204733    1.315    0.239
        53  -9.2202    163.2442    120.9724   6.5594659488e+01   2.5266024854e+01    0.2014457    0.1280944 -43.59 0.0003716787    1.516    0.341
        54 -10.1515    134.8490    120.3819   7.2403015254e+01   3.1516784868e+01    0.3095724    0.1104952 -47.70 0.0009643757    2.802    0.643
        55  -9.9364    107.4407    118.1805   7.9521852147e+01   3.7598385166e+01    0.2376685    0.2069941  18.59 0.0003623189    1.222    0.181
        56  -9.6417     83.6557    117.8071   8.6809357699e+01   4.1957161589e+01    0.2703914     0.187301  62.35  0.000892006    1.936    0.483
        57 -10.7535    231.2743    113.8371   5.1242686738e+01   1.2637590786e+01    0.2826061    0.2346728 -46.92 0.0007462333    1.052    0.050
        58 -11.1455     40.1326    113.5512   1.0055302089e+02   4.8881970853e+01    0.2631276    0.2113713  82.09 0.0006666545    1.465    0.317
        59 -10.2332    205.2700    110.3323   5.4626570720e+01   1.8386370600e+01    0.3047582    0.2159168  40.22  0.001191671    1.634    0.388
        60 -11.3750     33.5765    108.3756   1.0183733151e+02   5.0817989750e+01    0.3654623    0.2950522 -61.68  0.002095049    1.115    0.103
        61 -10.6573    116.1589    108.7739   7.4480719948e+01   3.8039136753e+01     0.433831     0.319422  50.19  0.001993485    1.442    0.306
        62  -9.4600    134.6007    105.7753   6.8597085528e+01   3.4783016986e+01    0.2285884    0.1462149 -53.61 0.0008068554    1.688    0.408
        63 -11.0386    119.2399    103.9565   7.2277360208e+01   3.8471351344e+01    0.2718298    0.2302532  42.11  0.000546468    1.195    0.163
        64 -10.3257     42.4576    103.9123   9.7716033640e+01   5.1028442931e+01     0.247226    0.1857901  43.94 0.0006726179    1.550    0.355
        65 -10.9914     36.1047    101.0844   9.9423199932e+01   5.2370019495e+01    0.3031562    0.2591388  78.75  0.001098335    1.412    0.292
        66 -10.9937    121.3940     98.9010   7.0252104671e+01   3.9108562470e+01    0.4223312     0.295796 -85.34  0.001664585    2.433    0.589
        67  -9.3097     59.8734     94.6276   8.9083872295e+01   5.1127080626e+01    0.1972415    0.1287761  41.92  0.000567772    1.733    0.423
        68 -10.5271     53.0992     90.7769   9.0580673461e+01   5.2916723122e+01    0.2934748    0.1522282 -34.76  0.000933287    2.074    0.518
        69 -12.1616    240.4720    169.6575   6.1426898337e+01   1.2787316102e+00    0.2592301    0.2187333 -23.59 0.0007676366    1.036    0.035
        70  -9.1665    152.0000     84.0000   5.8311666654e+01   3.5184931890e+01    0.3140067    0.1835277 -77.77   -0.0011972    4.140    0.758
        71 -10.0012    159.5165     83.0955   5.6432450469e+01   3.3598567791e+01    0.2267774     0.145548 -39.48 0.0006958995    1.552    0.356
        72  -9.0424     69.5074     81.5327   8.1809319254e+01   5.2642486257e+01    0.1406549    0.1361362 -25.52 7.988304e-05    1.125    0.111
        73  -8.8896    184.3782     77.2869   5.0148856199e+01   2.8844050876e+01    0.1437326    0.1116636  25.17 0.0007016221    1.728    0.421
        74  -8.8333    152.7060     73.2980   5.5128723087e+01   3.6925271036e+01     0.147728    0.1136476 -76.14 0.0002404801    1.566    0.361
        75 -10.2433      5.3289     71.3029   1.0518886496e+02   6.1623133355e+01    0.1357571   0.07084708 -37.41 0.0005441779    1.648    0.393
        76 -10.6807     13.5346     59.9789   9.8758283392e+01   6.3591109709e+01    0.2427047    0.1889612 -45.36 0.0004123739    1.108    0.097
        77 -13.5758    192.1398     50.3529   4.2155165857e+01   3.1222383352e+01    0.9815841    0.7370419  46.58  0.001132815    1.549    0.355
        78 -11.9323    120.3925    245.8223   9.9477911009e+01   6.1861341563e+00    0.3150579    0.2035779  51.77  0.001097298    1.575    0.365
        79 -14.1627     18.1897    217.4644   1.1886561288e+02   2.5314315507e+01    0.5913287    0.4675976 -35.71  0.001836313    1.832    0.454
        80  -9.7313     78.1126     57.7826   7.0801741905e+01   5.5816882944e+01     0.288992    0.1846856  49.64  0.001388233    1.777    0.437
        81 -10.3698    187.9751     31.2671   3.7977350810e+01   3.4681751508e+01    0.1861911    0.1539457  85.20 0.0005067984    1.080    0.074
        82  -9.9956      1.5045     29.0596   9.5171850835e+01   7.0377497047e+01    0.1676799   0.09523194 -48.90 0.0004521486    1.531    0.347
        83  -9.7417    198.0671     23.5174   3.4980257831e+01   3.3298615070e+01    0.2048699    0.1763259 -13.21 0.0006529461    1.564    0.361
        84  -9.6744    189.5090     15.0030   3.3858868693e+01   3.6171216310e+01    0.1720587    0.1176519 -37.42 0.0006219702    1.546    0.353
        85 -13.1517    203.1325    199.8510   7.4251889890e+01   1.7670824099e+00     1.104354    0.4724104  19.39   0.00329489    5.153    0.806
        86 -11.7340    184.0119    211.6205   8.0368116315e+01   2.6602579173e+00    0.3424056    0.2062294 -45.51   0.00169136    1.768    0.434
