#   1 NUMBER                 Running object number                                     
#   2 MAG_AUTO               Kron-like elliptical aperture magnitude                    [mag]
#   3 X_IMAGE                Object position along x                                    [pixel]
#   4 Y_IMAGE                Object position along y                                    [pixel]
#   5 X_WORLD                Barycenter position along world x axis                     [deg]
#   6 Y_WORLD                Barycenter position along world y axis                     [deg]
#   7 A_WORLD                Profile RMS along major axis (world units)                 [deg]
#   8 B_WORLD                Profile RMS along minor axis (world units)                 [deg]
#   9 THETA_WORLD            Position angle (CCW/world-x)                               [deg]
#  10 FWHM_WORLD             FWHM assuming a gaussian core                              [deg]
#  11 ELONGATION             A_IMAGE/B_IMAGE                                           
#  12 ELLIPTICITY            1 - B_IMAGE/A_IMAGE                                       
         1 -10.7798    134.0496     39.4283   3.1015817312e+01   4.6929662173e+01    0.4024035    0.1911233  43.86  0.001625552    2.099    0.524
         2 -11.0252     31.1376     15.9498   5.6070556097e+01   6.9094696968e+01    0.2734915    0.1470928 -36.52  0.001593774    1.638    0.390
         3 -10.8155     90.5248     11.9087   3.1650715717e+01   5.9974656562e+01    0.2285242    0.1654901  46.28 0.0005299827    1.260    0.207
         4 -11.0673     92.4931      8.4833   2.9658397032e+01   5.9907653769e+01    0.2712199    0.1693212  45.93  0.001102978    1.392    0.281
         5 -11.3509     88.8951      4.5148   2.8956725063e+01   6.1020503533e+01     0.299118    0.2584085 -73.42  0.001242452    1.650    0.394
         6 -10.1299    117.3589     11.1599   2.4641274205e+01   5.4175533769e+01    0.1712607     0.117937 -35.28 0.0004054318    1.628    0.386
         7 -10.5062     54.8879     10.7313   4.3181013252e+01   6.6585971229e+01    0.2391605    0.1744476   3.38  0.001029777    1.201    0.167
         8 -10.9339     40.5567      9.7054   4.8738635990e+01   6.8793086054e+01    0.1757262    0.1447027  45.24  0.001147002    1.775    0.437
         9 -10.0881    144.2240     10.8550   1.9351467688e+01   4.7766503439e+01    0.1964357    0.1714031 -79.90 0.0003754919    1.232    0.188
        10 -10.7003      4.4939      5.0008   6.4871007916e+01   7.3171324199e+01    0.1647736   0.08353797 -41.34  0.001034754    1.596    0.373
        11 -10.0388    101.0674      2.4867   2.4984256694e+01   5.8614620308e+01    0.1989059    0.1115397  56.27  0.001026691    1.573    0.364
        12 -12.4769    219.9445    230.2765   5.9222337600e+01  -5.8375307616e+00    0.3376074    0.2490953   0.14 0.0003731979    1.310    0.237
        13 -11.9178    246.2892    249.6336   5.7727290100e+01  -1.2019715854e+01    0.3154449    0.1729524  22.78 0.0005460919    1.550    0.355
        14 -10.4145    238.0224    248.7340   5.9004090601e+01  -1.0793872022e+01    0.2270808    0.1498409 -34.36  0.001486726    1.791    0.442
        15  -9.6278     95.9290    250.5765   8.5481536668e+01   1.0731488632e+01    0.1672913    0.1020232  35.03 0.0009744048    1.683    0.406
        16  -9.4112     93.3023    248.7022   8.5786864362e+01   1.1438286460e+01    0.1589907    0.1061489  80.16 0.0002641927    1.576    0.365
        17 -11.1040     85.3027    247.7661   8.7167167073e+01   1.2752706409e+01    0.4121732    0.2069197 -84.02  0.001515135    2.611    0.617
        18  -9.6820     81.2947    246.3595   8.7774469468e+01   1.3568345331e+01    0.1655384    0.1355639  78.99 0.0004995411    1.163    0.140
        19  -9.8390     70.7537    248.0831   8.9824714179e+01   1.4712631189e+01    0.3836821    0.2880144   5.67  0.002230672    2.832    0.647
        20 -11.1987     65.4882    246.5060   9.0640200327e+01   1.5699292462e+01    0.3766057    0.1741421 -70.56   0.00211148    2.277    0.561
        21 -11.5190     68.6131    244.2741   8.9902167466e+01   1.5686608893e+01    0.3945248    0.3107222 -78.94  0.002829881    1.367    0.269
        22 -14.4254     63.7333    232.3980   8.9819219296e+01   1.8554827224e+01     1.600862     1.267493  36.76   0.00712793    1.500    0.333
        23 -13.9581     45.5981    234.1296   9.3281884090e+01   2.0526800203e+01    0.5899508    0.3914295 -71.77  0.001583527    1.563    0.360
        24 -14.9956     95.0819    195.3653   7.9416209562e+01   2.1600198355e+01     1.513738     1.140348 -83.00  0.004691893    1.340    0.254
        25 -15.3784     75.4755    207.9027   8.5154495777e+01   2.1862626119e+01     2.268473     1.126511  43.13   0.01015148    1.807    0.447
        26 -16.5026     65.3081    185.7289   8.4843783931e+01   2.8109756867e+01     3.907519     2.307984  25.55   0.01928265    2.289    0.563
        27 -10.8936    110.1489    214.3087   7.8669716976e+01   1.5250845890e+01     0.331529    0.2435535  -4.92  0.001458324    2.550    0.608
        28 -10.4344    124.8759    213.0308   7.5409632686e+01   1.3058760995e+01    0.2914568    0.1763332 -45.32 0.0009240898    2.002    0.500
        29  -9.5149    247.4553    212.5310   5.1201076233e+01  -7.6205582917e+00    0.1234024   0.09984755   3.32 0.0001157411    1.020    0.020
        30 -11.5740    153.9692    210.3649   6.8902491482e+01   8.4947524949e+00    0.3918192    0.2785296  16.75   0.00201498    1.764    0.433
        31 -11.6204    141.7879    210.8876   7.1537450987e+01   1.0551116700e+01    0.2689715    0.2460054  76.43 0.0008614954    1.156    0.135
        32 -10.9976    229.6688    208.6953   5.3666501167e+01  -4.3411446119e+00    0.3530959    0.1686298 -33.55  0.001713516    2.119    0.528
        33 -10.4077    160.6617    206.5714   6.6887669892e+01   7.9913756045e+00    0.2430967    0.1695855 -51.89 0.0008447776    1.635    0.388
        34 -10.3960    209.8512    211.6124   5.7893441279e+01  -1.5192712927e+00    0.1837407     0.112385  46.78 0.0008002043    1.749    0.428
        35 -12.5130    146.9343    203.2793   6.9251953581e+01   1.1086884549e+01    0.4287424    0.3947467   2.35  0.002588525    1.233    0.189
        36 -10.1497    124.0593    205.1925   7.4461697568e+01   1.4745720881e+01    0.1963586    0.1762643  31.49 0.0004693748    1.211    0.174
        37 -10.4475    212.3091    199.6895   5.5245661772e+01  -7.3874115195e-02    0.2316506    0.1556884 -45.05  0.001225665    1.723    0.420
        38 -11.9052    138.9093    196.5745   6.9897474002e+01   1.3856903693e+01     0.396713    0.2368795  21.64  0.001100512    2.473    0.596
        39 -14.1230     26.7727    235.7046   9.6695940185e+01   2.2405741112e+01    0.5456706    0.2593842 -76.30  0.002300382    1.931    0.482
        40 -11.9201    123.9225    195.3934   7.3013473913e+01   1.6773456769e+01    0.4205479    0.2711983  37.81  0.002100149    1.503    0.335
        41 -11.7299    189.1864    194.1647   5.8783677987e+01   5.0008835117e+00    0.4698811    0.2478348  40.75  0.002105172    1.762    0.433
        42  -9.7167    172.7082    195.6710   6.2471891709e+01   7.7876433689e+00     0.139773    0.1065455   1.78 0.0003655153    1.625    0.384
        43 -10.5355    152.4562    194.9836   6.6676158915e+01   1.1688643395e+01     0.206747    0.1406501 -52.28  0.001034209    1.620    0.383
        44 -10.5587    247.2500    193.0301   4.7582905765e+01  -4.8636692305e+00    0.2006701    0.1616722  18.02 0.0003326848    1.152    0.132
        45 -10.1964    225.4941    198.9905   5.2628115909e+01  -2.2124218821e+00    0.1690779    0.1141245 -58.47 0.0008103533    2.532    0.605
        46 -10.6212    149.0010    190.9970   6.6738573749e+01   1.3121004827e+01      0.17351    0.1551913  44.42  0.000377621    1.032    0.031
        47 -10.8263    110.6671    190.6726   7.5257292211e+01   2.0063945722e+01    0.1894754    0.1314132 -73.34   0.00041761    1.572    0.364
        48 -14.6332     37.2040    226.6097   9.4274543398e+01   2.2976618456e+01    0.8585574    0.6661093 -59.57  0.003434585    1.697    0.411
        49 -10.2269    197.6826    187.9662   5.5881756396e+01   4.5169621741e+00    0.1870652    0.1705837  -7.21 0.0003232876    1.073    0.068
        50 -14.6568     41.9546    249.0643   9.4911331801e+01   1.8201647472e+01     1.117306     0.352263  44.88   0.00579371    2.345    0.573
        51 -10.6894    128.2084    187.8944   7.0849244595e+01   1.7586281035e+01     0.230079    0.1871676 -79.29 0.0004035638    1.349    0.259
        52 -11.8530    131.3171    183.9635   6.9479785561e+01   1.7855985031e+01     0.409123    0.2128779  32.97  0.001692093    2.139    0.532
        53 -12.5375    118.7778    178.4964   7.1443286924e+01   2.1317141286e+01    0.4642629    0.3445268 -54.91  0.002407052    1.399    0.285
        54 -10.3464    248.6207    185.8581   4.5947680703e+01  -4.0277927450e+00    0.2261896    0.1818393  35.08 0.0007393409    1.351    0.260
        55 -17.4794     10.3096    236.5873   9.9514042427e+01   2.3970769265e+01     3.138254     1.672335 -79.02   0.01903613    1.669    0.401
        56 -11.5063     36.2991    181.6638   9.0830468952e+01   3.2566653903e+01    0.2169723    0.1621471 -83.64 0.0008813104    1.128    0.113
        57 -10.2311    181.9949    231.5134   6.6582990052e+01   9.6147498012e-02    0.1919167    0.1078356  38.06 0.0003699507    1.504    0.335
        58 -11.4775    122.4146    186.7716   7.1979430539e+01   1.8863796095e+01     0.375061    0.2867335 -80.93  0.001967999    1.474    0.322
        59 -10.8232    190.3070    177.1551   5.5244864925e+01   7.8704318859e+00    0.2831993    0.1926249  66.96  0.001248723    2.241    0.554
        60  -9.9835    162.4118    177.2138   6.1232493156e+01   1.3328229493e+01    0.1857781    0.1418727 -59.08 0.0002894009    1.487    0.327
        61 -11.1650    137.0392    176.4917   6.6839589164e+01   1.8389844916e+01    0.2298754    0.2021324 -58.34  0.001256056    1.188    0.158
        62 -10.6783    113.3502    228.1601   7.9741596182e+01   1.2078313521e+01    0.3068076     0.233161 -39.43  0.001824351    1.795    0.443
        63  -9.8252    250.6953    176.2018   4.3668059904e+01  -2.9120128615e+00    0.1757453    0.1044508 -25.95 0.0002667097    1.566    0.361
        64 -11.4233    127.0836    173.8857   6.8687938932e+01   2.0825162154e+01    0.2370535    0.1962944  76.78  0.001245004    1.293    0.226
        65 -10.5087     37.0342    174.3423   8.9954395038e+01   3.4148414998e+01    0.1712044    0.1391703  70.24 0.0002251493    1.123    0.109
        66 -10.3368    130.7342    232.4137   7.6806747351e+01   8.4960873260e+00    0.1854656    0.1084581  33.99 0.0009601385    1.667    0.400
        67 -10.1534      2.7175    171.1410   9.7161296454e+01   3.8065337113e+01    0.2695231   0.07519485 -74.09   0.00113465    2.704    0.630
        68 -11.3718    194.2854    171.1022   5.3184876559e+01   8.2192955973e+00    0.3938354     0.176147  36.18  0.001430595    2.378    0.579
        69 -12.2507     48.6184    168.6817   8.6672220078e+01   3.4146945669e+01    0.5329505    0.2656253 -56.22  0.002005516    1.980    0.495
        70 -10.3886     85.0330    229.2161   8.5456401785e+01   1.6204115607e+01    0.2935385    0.1272643  46.72  0.001448392    1.900    0.474
        71 -12.0686    131.8229    168.7740   6.6625143056e+01   2.1066123494e+01    0.4263241    0.3026747  72.45  0.001966514    1.764    0.433
        72 -11.9761    105.5606    169.5692   7.3076320136e+01   2.5651690678e+01    0.3272219    0.2562805  58.10  0.001071473    1.241    0.194
        73 -12.2106    152.7139    168.0364   6.1605036997e+01   1.7147445781e+01    0.6005291    0.1883016 -45.05  0.001909406    3.361    0.702
        74 -12.1846    124.8479    166.7802   6.7916544072e+01   2.2826757471e+01    0.4956677    0.2736669  39.42  0.002127112    1.798    0.444
        75  -9.9517    178.2594    228.5615   6.6853270487e+01   1.1783257173e+00    0.1722405    0.1074078  30.86 0.0002668698    1.459    0.315
        76  -9.9102     18.9206    166.9034   9.3315375722e+01   3.7648232464e+01    0.1759554    0.1470734  24.09 0.0008120494    1.607    0.378
        77 -10.0754      9.6712    167.2903   9.5389048347e+01   3.8361710821e+01    0.1909156    0.1342839  75.60 0.0006638694    1.202    0.168
        78 -10.1278     12.6066    166.1576   9.4654357412e+01   3.8370813766e+01    0.2113259    0.1217528 -72.40  0.000654851    1.421    0.296
        79 -10.2872    205.9976    164.5120   4.9433121605e+01   7.1299984152e+00      0.21773    0.1385887  41.33 0.0009518322    1.566    0.361
        80 -11.3948     64.3572    163.6091   8.2239597185e+01   3.3365018652e+01    0.2943415    0.1860751  81.91  0.001456572    1.746    0.427
        81 -11.1366     11.9701    148.9386   9.3284602626e+01   4.2363167147e+01    0.3504671     0.240068  67.94  0.001083354    1.397    0.284
        82 -10.5534     14.4276    156.9620   9.3448684396e+01   4.0313940904e+01     0.278831    0.1145817 -77.32  0.000555321    1.999    0.500
        83 -12.0349     21.1755    159.8514   9.2153860340e+01   3.9061765549e+01    0.4347871    0.2198697 -84.08  0.001828965    1.735    0.424
        84 -13.0591     21.6629    153.7050   9.1432924031e+01   4.0444316736e+01    0.7433419    0.6002248 -20.53  0.004815006    1.808    0.447
        85 -11.0940     59.0097    158.0921   8.2797531298e+01   3.5375822220e+01     0.313343    0.2056762  78.90 0.0002886869    1.626    0.385
        86 -11.6004     22.3114    148.8378   9.0769551463e+01   4.1524960183e+01    0.4511204      0.19713  31.73  0.001352252    2.550    0.608
        87 -10.6165    212.4523    223.5830   5.9482650581e+01  -3.7228201521e+00     0.354493    0.2068758 -21.31  0.001847328    2.014    0.504
        88 -11.5703     27.9576    160.4679   9.0630676057e+01   3.8284402687e+01    0.2936929     0.196466 -73.41 0.0004212783    1.249    0.200
        89 -11.7838    169.8397    159.7182   5.6005865550e+01   1.5403549836e+01    0.3509628    0.2086897 -46.35    0.0015188    1.730    0.422
        90 -11.6707    157.0087    158.6891   5.8691641101e+01   1.8266602557e+01     0.355446    0.2518025 -78.65  0.001525644    2.066    0.516
        91 -11.6317     77.0653    219.6002   8.6056913120e+01   1.9235852172e+01    0.2710346    0.2386491 -72.63 0.0005332636    1.312    0.238
        92 -10.7223    173.3930    219.4413   6.6378900806e+01   3.4863505635e+00    0.2595134    0.2062586 -69.25  0.001493799    1.729    0.422
        93 -10.0462     82.8172    225.3298   8.5497476656e+01   1.7277166195e+01     0.249397   0.08217648  45.68  0.001068703    2.473    0.596
        94 -10.7890     50.9247    153.3233   8.4174245796e+01   3.7510753746e+01    0.2216571     0.159246 -84.99  0.000412139    1.269    0.212
        95 -11.0003     33.6491    154.6110   8.8631558527e+01   3.9095032371e+01    0.3123304    0.1193861  30.20  0.001384806    2.965    0.663
        96 -10.5909    159.4361    221.9419   6.9579348976e+01   5.4795847138e+00    0.2568656    0.1682596  34.90 0.0005555885    1.374    0.272
        97 -10.2810    212.3232    153.6956   4.5846666976e+01   7.8486028697e+00    0.1396827    0.1173356 -79.95  0.000416449    1.639    0.390
        98  -9.3982    150.3230    222.2753   7.1475693773e+01   6.9913760102e+00    0.1269124   0.09758683  14.13  0.000195273    1.579    0.367
        99 -10.6686     44.8112    152.3059   8.5581274265e+01   3.8457389552e+01    0.2510651    0.1364441 -48.31  0.001217423    2.048    0.512
       100 -10.7726    126.0554    151.6987   6.4659634269e+01   2.6035296115e+01    0.2116339    0.1938651  50.97  0.000287002    1.081    0.075
       101 -12.1029    129.9894    150.7861   6.3491034793e+01   2.5477155912e+01    0.3567947    0.3102074  51.25  0.001338431    1.135    0.119
       102 -11.5545     58.6673    162.2692   8.3452386520e+01   3.4424509851e+01    0.3887016    0.2597919   2.26  0.001821794    2.768    0.639
       103 -11.2348    171.1303    150.6356   5.3729136445e+01   1.7011646765e+01    0.2709001    0.2153315 -56.10  0.001320603    1.361    0.265
       104 -11.1522    147.7708    149.8125   5.8947741824e+01   2.2100465119e+01    0.2839699    0.2425195  84.72 0.0005359034    1.345    0.256
       105 -12.1287    108.7481    148.5121   6.8408892744e+01   3.0017671118e+01    0.4042935    0.3091325 -54.64  0.001007828    1.285    0.222
       106 -11.7902     84.5834    148.5456   7.4718001901e+01   3.4066960600e+01    0.3927355    0.2588724 -36.79  0.001378784    1.942    0.485
       107  -9.8096    224.0000    148.0191   4.2396694824e+01   6.5502487926e+00    0.2354495   0.07692688 -38.26 0.0005297579    2.884    0.653
       108  -9.9828     34.0426    148.2670   8.7787113416e+01   4.0558665076e+01    0.1699211    0.1508582  72.80 0.0007976024    1.160    0.138
       109 -10.5636      5.6450    146.9406   9.4608716159e+01   4.3300664512e+01    0.2235015    0.1564572  34.84 0.0006339041    1.701    0.412
       110 -12.9058    101.9052    141.9126   6.8876970434e+01   3.2803738987e+01    0.6515593    0.4254683  55.77  0.002572741    1.672    0.402
       111 -10.1667    189.9984    220.0000   6.3180139838e+01   5.3975981317e-01    0.2180522   0.06561728  40.47 0.0006372499    2.914    0.657
       112 -10.9667    125.3206    221.7082   7.6501175298e+01   1.1330961299e+01    0.2821447    0.2030753  60.77 0.0006540094    1.351    0.260
       113  -9.4944     11.6598    141.3152   9.2617788144e+01   4.4155985939e+01    0.1267652   0.07539873  70.26 0.0007047887    1.704    0.413
       114 -10.0431     24.6395    143.9711   8.9653288085e+01   4.2464498595e+01    0.1873745    0.1342244 -80.89  0.001146357    1.142    0.124
       115  -9.8055     30.8637    139.8755   8.7563659616e+01   4.2866588677e+01    0.1791669    0.1318028  71.75 0.0006357575    1.358    0.264
       116 -10.4027    230.0361    139.1158   3.9322001526e+01   6.9276596025e+00     0.209721     0.191133 -19.42 0.0003128979    1.010    0.010
       117 -11.1674     36.1267    136.9216   8.5786287775e+01   4.3064125992e+01    0.3139639    0.1562907 -69.85 0.0009850138    1.698    0.411
       118 -10.7416     12.6598    133.5197   9.1547146410e+01   4.5901050586e+01    0.3601931    0.1867366  66.77 0.0008484201    2.209    0.547
       119 -10.2800    170.7637    135.3066   5.0265584476e+01   2.0292661576e+01    0.2501969    0.1820562  -0.13  0.001049163    1.994    0.498
       120 -12.5543    143.5049    132.0205   5.5916529068e+01   2.6957417219e+01    0.5568022    0.3659509 -22.01  0.002207383    2.208    0.547
       121 -10.5720     61.3067    134.3380   7.8516323863e+01   4.0828935453e+01    0.4619555    0.1903952  28.70  0.001828559    2.970    0.663
       122 -12.8788    155.2984    129.4962   5.2440499260e+01   2.4951397430e+01    0.7963483    0.3422797  44.38  0.002806277    2.344    0.573
       123 -10.8194     35.9307    131.0833   8.5021378727e+01   4.4486741042e+01    0.1941931      0.16261 -71.62 0.0004875394    1.038    0.036
       124 -10.8359    126.5736    131.7261   6.0145760445e+01   3.0548607400e+01    0.2800332    0.2501784  82.13 0.0006471244    1.197    0.165
       125 -10.8032     26.5690    133.7848   8.7922510108e+01   4.4711036054e+01     0.255426    0.2206664  88.21  0.001704757    1.106    0.096
       126 -10.1706     31.4145    129.4117   8.6025885494e+01   4.5317969705e+01    0.3101594     0.177446 -57.25  0.001658785    1.516    0.340
       127  -9.9306    206.6724    129.0521   4.1276168014e+01   1.3618387453e+01    0.2107398    0.1817074 -35.17 0.0003843238    1.107    0.097
       128  -9.9332     60.0000    125.9145   7.7390768791e+01   4.3045767985e+01    0.2391705   0.07085584 -61.51 0.0008090241    2.988    0.665
       129 -11.2693    104.8208    121.8112   6.3689819702e+01   3.7072950306e+01    0.3732389    0.3086075 -80.92 0.0006603278    1.341    0.254
       130 -10.7493     99.8495    118.8796   6.4401364397e+01   3.8665289594e+01    0.3586451    0.2351684  58.85  0.001288951    1.845    0.458
       131 -11.9119     44.4395    120.2260   8.0900355531e+01   4.6235772916e+01    0.4017948    0.2799629 -26.43  0.001655953    1.876    0.467
       132 -10.6071     48.4692    115.2126   7.8811478041e+01   4.7005345975e+01    0.2613668    0.2220065 -82.27  0.001216496    1.147    0.128
       133  -9.8044     20.5216    122.5643   8.8110675820e+01   4.7881963964e+01    0.1255508    0.1014148 -74.54 0.0001519558    1.009    0.009
       134 -10.1662    189.0631    121.0443   4.2827204169e+01   1.9087084769e+01    0.2303347    0.2209897 -30.44 0.0003633707    1.019    0.019
       135 -11.4931     36.3521    119.9685   8.3217273106e+01   4.7117397137e+01    0.3202669      0.23097  56.76  0.001095499    1.560    0.359
       136 -10.3911      3.3992    119.2152   9.2428235001e+01   4.9854355576e+01    0.2895464    0.1494212 -43.03  0.001251864    2.136    0.532
       137  -9.8898     21.6680    117.3353   8.7068752692e+01   4.9029379229e+01    0.1749293    0.1273226  32.79 0.0006284317    1.641    0.391
       138  -9.8471     23.7359    115.3339   8.6180264918e+01   4.9338435961e+01    0.1971348    0.1493405 -73.13 0.0002364913    1.092    0.084
       139  -9.4385     66.6300    116.2172   7.3549823171e+01   4.4526926209e+01    0.1925237    0.1166935 -51.74 0.0002960598    1.489    0.328
       140  -9.7451    188.4673    115.4410   4.1543357428e+01   2.0327413064e+01    0.1528929    0.1494907 -28.52 0.0002307983    1.015    0.015
       141 -10.8151    107.5853    113.0753   6.0786743318e+01   3.8602149216e+01    0.4702808    0.2890205  11.74  0.001658913    3.173    0.685
       142 -10.7504    218.9198    111.8960   3.4903410021e+01   1.4111959924e+01    0.2137497    0.1916862  -6.56            0    1.201    0.167
       143 -12.1592     52.7908    110.3008   7.6549898009e+01   4.7691724873e+01    0.4545045    0.3189493  63.29  0.001670517    1.754    0.430
       144 -10.8634    153.6897    106.9487   4.7036135843e+01   3.0144330948e+01    0.3272723    0.2429425 -78.42  0.001149964    1.833    0.455
       145 -10.9093    223.3120    220.2795   5.6900297216e+01  -4.9837919255e+00    0.2190482    0.1929329  20.79  0.000453103    1.183    0.155
       146  -9.8488     63.7605    113.6133   7.3872609496e+01   4.5536201930e+01    0.1864987    0.1268793  46.41   0.00094285    1.638    0.389
       147 -10.3175     79.1581    100.9520   6.6206960051e+01   4.6329820642e+01    0.2230137    0.1932284 -81.32 0.0007655329    1.282    0.220
       148 -10.7130     59.9794     95.7725   7.1079425326e+01   5.0240945690e+01    0.2276486    0.2104103   9.48 0.0006652501    1.209    0.173
       149 -11.9769     55.0419    101.2347   7.3936239358e+01   4.9576931689e+01     0.461897     0.256723  36.54   0.00216749    2.005    0.501
       150 -11.0474     58.2604     99.2945   7.2463096320e+01   4.9638233544e+01    0.3762096    0.2575794 -83.25  0.001849568    1.868    0.465
       151 -10.3060     75.0627     97.6418   6.6664466566e+01   4.7718261154e+01    0.1876048     0.179522  -6.37 0.0003961551    1.115    0.103
       152 -11.2374     22.9809     97.5596   8.3552450334e+01   5.3570420023e+01    0.3019814    0.1967369  45.99   0.00174123    1.859    0.462
       153 -10.0861    167.5516     97.1987   4.1183009072e+01   2.8861405918e+01    0.2244713    0.1525037 -26.68  0.000949324    1.680    0.405
       154  -9.5473    243.6603     93.2940   2.6579576377e+01   1.1994381044e+01    0.1430711     0.101008 -66.53 0.0003363326    1.653    0.395
       155 -11.8310     54.3412     92.4004   7.2139180227e+01   5.1715882355e+01    0.2789556    0.2076975  27.87 0.0008237442    1.527    0.345
       156 -10.0333     29.3276     92.6627   8.0566313814e+01   5.4194912734e+01    0.1265857   0.09189719  77.16 0.0007051794    1.727    0.421
       157 -12.2090     47.3156     76.9248   7.0687613521e+01   5.6000816869e+01    0.3738443    0.2958805 -17.21  0.001531046    1.340    0.254
       158 -12.8983     53.8095     85.5425   7.0633789993e+01   5.3339341525e+01    0.5058237    0.4610074  36.00  0.003161443    1.261    0.207
       159 -11.4528     51.1231     79.6435   7.0046512425e+01   5.4970322222e+01    0.3083227    0.2632921 -47.89  0.001107285    1.046    0.044
       160 -10.5436    231.8778     89.1208   2.7302033097e+01   1.5217223955e+01    0.2815083    0.1983651  53.32 0.0008996706    1.543    0.352
       161  -9.4649    219.6782     89.2919   2.9224456739e+01   1.7926381849e+01    0.1497268    0.1090994 -69.51 0.0003838887    1.609    0.379
       162 -12.0190     45.8072     86.7165   7.3679549395e+01   5.3983003789e+01    0.3019442    0.1625645 -58.87  0.001138921    1.636    0.389
       163 -10.3480    125.5646     86.4552   4.8402189548e+01   4.0764667894e+01     0.367093    0.2457626   3.10  0.001405095    2.543    0.607
       164  -9.9387     11.6172     86.7883   8.5405559879e+01   5.6816116516e+01    0.1695416   0.09813924 -75.93  0.000375057    1.607    0.378
       165 -10.3379    134.8452     85.6228   4.5693566853e+01   3.8860081677e+01    0.2853821    0.2282259  86.04 0.0008953542    1.608    0.378
       166 -11.5248    170.9405     84.6948   3.6966842342e+01   3.0432978175e+01    0.2676521    0.2439894 -47.93 0.0002081545    1.087    0.080
       167  -9.5549     76.7974     81.1168   6.1604515572e+01   5.1144080770e+01    0.1893129    0.1557928 -16.09 0.0004450373    1.287    0.223
       168  -9.4248    207.3173     80.0346   2.8887015665e+01   2.2397543574e+01    0.2396653    0.1273253 -13.16 0.0005444873    4.374    0.771
       169  -9.8746    153.4971     80.0176   3.9459832204e+01   3.5556521110e+01    0.2285899    0.1533955 -36.66 0.0004142689    1.506    0.336
       170 -12.4226     29.4401     79.5971   7.7776539565e+01   5.7150502623e+01    0.2998104    0.2519965  45.10  0.001534685    1.467    0.318
       171 -10.1869     88.3593     78.8272   5.7130321827e+01   4.9716504234e+01    0.2448957    0.1998712  48.77 0.0009775278    1.370    0.270
       172 -11.7850    215.0297     75.6699   2.6533558404e+01   2.1298001427e+01    0.3378139    0.2359729 -33.89 0.0006900124    1.415    0.293
       173 -10.6220    183.4183     77.5235   3.2457278978e+01   2.8652397349e+01    0.3197298    0.2281649  83.99  0.001422379    1.744    0.426
       174 -10.6727    112.1077     76.0415   4.8985705550e+01   4.5728925025e+01    0.2872696    0.2450708  19.19 0.0008369164    1.243    0.195
       175 -10.4104    116.1190     74.1294   4.7231691226e+01   4.5257397621e+01    0.3032508    0.2155941 -19.69  0.001385604    1.653    0.395
       176 -12.8469     29.0968     63.7971   7.4018659878e+01   6.0605710936e+01     1.271477    0.4276769  40.29  0.004980362    4.240    0.764
       177  -9.6833     66.0776     73.8627   6.3133333013e+01   5.4288704004e+01    0.1824237    0.1439598 -25.36 0.0002738642    1.243    0.196
       178 -10.5234     75.1156     75.3772   6.0465749605e+01   5.2626529659e+01    0.2341104    0.1767959 -36.29 0.0004032453    1.227    0.185
       179  -9.8334    187.2421     69.7958   2.9605864014e+01   2.9025939175e+01    0.1980173    0.1722604  30.67  0.000261089    1.310    0.237
       180 -13.3867     32.1823     72.9019   7.5191598063e+01   5.8389322759e+01    0.6496938    0.3657753 -65.26  0.003186506    1.762    0.433
       181 -11.0363     99.8328     68.6447   5.0277890144e+01   4.9641482698e+01    0.5149726    0.2011076 -31.88  0.001650486    3.439    0.709
       182  -9.5336    236.4086     68.7417   2.1795810985e+01   1.7497316778e+01     0.183449    0.1286154 -26.18 0.0005119147    1.561    0.359
       183  -9.4863     94.4797     68.5136   5.1909091938e+01   5.0689695822e+01    0.1447739    0.1344003 -13.67 -2.22375e-07    1.007    0.007
       184  -9.3586    234.7287     65.6969   2.1288901068e+01   1.8342701138e+01    0.1271383    0.1094776   9.64 0.0001675131    1.534    0.348
       185 -10.5640    178.4795     64.0242   2.9580191647e+01   3.2167278806e+01    0.2548117    0.2009609  44.30 0.0003539575    1.334    0.250
       186  -9.3620      6.2979     64.7310   8.3088295209e+01   6.1966163611e+01    0.1026611   0.08476818  81.13 0.0001859873    1.521    0.342
       187  -9.9318    108.1812     59.5908   4.4727651425e+01   4.9621928390e+01    0.2078061    0.1317062  35.28 0.0006916492    1.644    0.392
       188 -11.3761     52.8058     56.5770   6.2586699515e+01   5.9575249416e+01     0.513288    0.2201434  46.32  0.002022574    3.602    0.722
       189  -9.6726    115.5872     53.8064   4.0630758686e+01   4.9018289894e+01    0.2025778    0.1336347 -45.69 0.0005229909    1.652    0.395
       190  -9.5062     37.6805     54.7314   6.7969950845e+01   6.1660156926e+01    0.1275076   0.08231393 -23.71 0.0001878349    1.561    0.359
       191  -9.8829    233.7082     52.9360   1.8377727094e+01   2.0479537722e+01    0.1886835    0.1584034 -56.76 0.0003526733    1.057    0.054
       192 -10.2137    126.1760     53.9857   3.7876785885e+01   4.6603565048e+01     0.462443    0.2678576 -77.03   0.00117508    6.789    0.853
       193 -10.1838     30.7276     50.1112   6.9374577774e+01   6.3242105128e+01    0.1905311    0.1645396  24.49  0.001296346    1.389    0.280
       194 -10.0116     18.3222     48.9917   7.4281258014e+01   6.4477223022e+01    0.1729821    0.1249536 -45.48 0.0004146826    1.100    0.091
       195 -11.2672    155.3727     47.1958   2.8999410794e+01   4.0585949064e+01    0.2554613    0.2347063  59.32 0.0003077549    1.039    0.037
       196  -9.5237    190.4588     43.4853   2.1769754565e+01   3.2256514033e+01    0.1440335    0.1322202 -82.69 0.0002575823    1.018    0.018
       197  -9.6627      1.9800     42.7102   7.9634890361e+01   6.6699970543e+01    0.1523237    0.1182698 -39.65 0.0003721863    1.065    0.061
       198  -9.7448    122.3355     41.6566   3.4594426647e+01   4.9372968150e+01    0.1455826    0.1127747 -72.32 0.0006146667    1.765    0.433
       199 -10.3475    179.9761    244.0395   6.8836943494e+01  -1.4390573191e+00    0.2296693    0.1342806  37.48  0.001291429    1.397    0.284
       200  -9.9487     60.4020     38.1837   5.2954283697e+01   6.1848699373e+01    0.1762134    0.1142945 -45.45 0.0009436436    1.672    0.402
       201  -9.7606    230.4479     34.5507   1.4394358657e+01   2.3769970548e+01    0.1342142    0.1150884 -69.85 0.0001177526    1.004    0.004
       202 -11.1423     22.0846     32.1278   6.7061932380e+01   6.7357289106e+01    0.3882288    0.1027459 -44.65  0.001257889    2.825    0.646
       203 -11.3128    105.8183     31.5171   3.5225819558e+01   5.4458311678e+01    0.3268006    0.2735908  50.22 0.0009306884    1.198    0.165
       204 -10.1663     43.7740     33.4177   5.7838528707e+01   6.4884919080e+01    0.1656409    0.1074798  12.94 0.0006480013    1.617    0.381
       205 -11.5754     31.8465     31.4840   6.2326903214e+01   6.6552760752e+01    0.3892223    0.1969805 -39.71  0.002134015    1.648    0.393
       206 -11.7832     77.9936     30.7101   4.3483582306e+01   6.0101131682e+01    0.2653892     0.250175 -60.08 0.0007198061    1.444    0.308
       207 -10.5279     36.2327     39.6368   6.3464112481e+01   6.4667857259e+01    0.2538826    0.1913745  -6.81 0.0009415557    1.266    0.210
       208  -9.8269      8.4565     31.5062   7.3292413810e+01   6.8472852880e+01    0.1146182   0.08686586 -36.11 8.358047e-05    1.028    0.027
       209 -11.3139     47.0375     26.8487   5.3736342852e+01   6.5520116674e+01    0.2517715    0.2452133  31.30  0.001054099    1.498    0.332
       210  -9.6487    167.5319     25.5329   2.0145792383e+01   4.0366879122e+01    0.1403613    0.1276682  81.67 1.581113e-05    1.032    0.031
       211 -11.2315     84.4077     24.2094   3.8668677870e+01   5.9780052243e+01    0.2466733    0.2115182  21.96 0.0006363589    1.045    0.043
       212 -10.1086     68.3290     25.6611   4.4795086588e+01   6.2489129865e+01    0.1166541    0.1042721 -68.10 0.0007051799    1.735    0.424
       213  -9.5120    237.7183     22.6951   1.0947872475e+01   2.3613463703e+01    0.1142387   0.09936831  37.29 0.0002454109    1.556    0.357
       214 -10.7919    100.7433     21.5388   3.2738231382e+01   5.6784650650e+01     0.231296    0.1745063 -18.41 0.0004853415    1.366    0.268
       215 -11.5739    189.7496     20.1402   1.5463400188e+01   3.5391134327e+01    0.2652894     0.206533  81.66 0.0003508655    1.176    0.150
       216 -10.8490    171.6691     20.9980   1.8169486573e+01   3.9841746610e+01    0.2548947    0.2097226  52.49 0.0007075141    1.204    0.169
       217  -9.3526    133.6746    241.6607   7.7390728858e+01   6.4337173407e+00    0.1188196   0.09381198   9.45  0.000705136    1.727    0.421
       218  -9.7115    232.9567     15.5558   9.7647107094e+00   2.5542479805e+01    0.1724981   0.08893792  50.45 0.0006459868    2.425    0.588
       219 -10.2905    121.1371     12.8884   2.4465354695e+01   5.3129970302e+01    0.1900379    0.1779045  70.16 0.0004713358    1.146    0.128
       220  -9.1074     89.2077    240.9909   8.5815081158e+01   1.3402415997e+01    0.2259349    0.1331512 -58.20 0.0008656708    2.001    0.500
       221 -10.6974     90.5789    236.9820   8.5163919214e+01   1.3934324963e+01    0.2888568    0.1789739  38.37  0.001253231    1.551    0.355
       222  -9.8861    116.4850    240.4725   8.0565694017e+01   9.3677171518e+00    0.1252249    0.1006606  53.77 5.965931e-05    1.011    0.011
       223  -9.4916    230.1723    239.4194   5.8885015170e+01  -8.5609971043e+00    0.1447984   0.09809934  37.71  0.000273967    1.440    0.306
       224  -9.5188    172.3168    239.3126   6.9613951117e+01   5.0255989542e-01    0.1244944   0.08904473  12.22  0.000236356    1.643    0.391
       225 -10.6830    116.9819    235.7956   7.9929999617e+01   1.0113096052e+01    0.2256019    0.1651152  28.59  0.001340435    1.549    0.354
       226  -9.8948     97.5029    234.4973   8.3578285397e+01   1.3362640967e+01    0.1849669    0.1096635 -51.85 0.0007457209    2.111    0.526
       227 -10.4724    214.4404    233.5235   6.0768286187e+01  -5.4255539644e+00    0.2085125    0.1569505  32.00 0.0005463509    1.178    0.151
