#   1 NUMBER                 Running object number                                     
#   2 MAG_AUTO               Kron-like elliptical aperture magnitude                    [mag]
#   3 X_IMAGE                Object position along x                                    [pixel]
#   4 Y_IMAGE                Object position along y                                    [pixel]
#   5 X_WORLD                Barycenter position along world x axis                     [deg]
#   6 Y_WORLD                Barycenter position along world y axis                     [deg]
#   7 A_WORLD                Profile RMS along major axis (world units)                 [deg]
#   8 B_WORLD                Profile RMS along minor axis (world units)                 [deg]
#   9 THETA_WORLD            Position angle (CCW/world-x)                               [deg]
#  10 FWHM_WORLD             FWHM assuming a gaussian core                              [deg]
#  11 ELONGATION             A_IMAGE/B_IMAGE                                           
#  12 ELLIPTICITY            1 - B_IMAGE/A_IMAGE                                       
         1 -14.5458      3.9323    102.2431   1.3619517453e+02   5.5401537393e+01     3.229413    0.6926031 -82.19  0.009372341    4.661    0.785
         2 -13.2246    204.3009     35.3989   5.8425507333e+01   2.9652302480e+01    0.8919051    0.7343896 -52.37  0.004747244    1.071    0.066
         3 -13.7610    223.4785     15.9541   5.2330568340e+01   2.7753560696e+01    0.8697158    0.8170832   9.87  0.002003705    1.491    0.329
         4 -11.8501    135.1191    235.0596   1.1316063429e+02   8.6850004257e+00    0.3684561    0.3132105 -79.80  0.002464937    1.738    0.425
         5 -12.0167    179.6003    243.6472   1.0530195739e+02   1.7166289374e+00    0.4168414    0.1583904  30.59  0.002111888    2.114    0.527
         6 -11.4737    179.4458    248.5085   1.0597010443e+02   1.1044007448e+00    0.3472652    0.1486624  23.08  0.001813065    2.052    0.513
         7 -10.9946    169.4977    248.5096   1.0786219719e+02   2.3058453292e+00    0.3232194    0.1665783  -1.68  0.001516233    3.101    0.678
         8 -10.9314    162.0896    250.0487   1.0949141458e+02   3.0076595780e+00    0.3405263    0.1222174  26.24  0.001578632    2.427    0.588
         9 -12.8392    143.0798    249.1667   1.1317712287e+02   5.5068749207e+00     1.034887    0.3446477  31.80  0.004778645    2.285    0.562
        10 -12.4210    125.1132    240.1484   1.1589699626e+02   9.2022790162e+00    0.6116186     0.425977   0.50  0.003668294    1.683    0.406
        11 -12.3439    119.3343    237.3197   1.1682849336e+02   1.0425110398e+01    0.7658889    0.4713877 -20.28  0.003023395    2.444    0.591
        12 -11.3135    116.5717    249.9398   1.1876310020e+02   8.7592086318e+00     0.469963    0.3788151   4.73  0.003258426    1.323    0.244
        13 -12.9194    123.3780    248.9592   1.1722824640e+02   8.0450716991e+00     1.187052    0.3378311  29.01  0.004745603    2.965    0.663
        14 -11.4522     99.9090    248.0595   1.2213789202e+02   1.1167594928e+01    0.5259579    0.3513101  19.78  0.003246529    1.405    0.288
        15 -11.7805    113.4345    230.6603   1.1738568993e+02   1.2339748068e+01    0.5604416    0.2859718  24.16  0.002489555    1.814    0.449
        16 -10.9209     97.1285    239.2941   1.2192147160e+02   1.2997458207e+01    0.3877697    0.2228483  53.21  0.001754901    1.832    0.454
        17 -12.4986    103.0659    238.3466   1.2051219993e+02   1.2392366992e+01     0.611954    0.4859091  41.73  0.002283716    1.131    0.116
        18 -12.0400    102.6332    230.9647   1.1985083353e+02   1.3735927774e+01    0.7111632    0.4207816   4.98   0.00323519    2.532    0.605
        19 -10.0382     98.3115    231.3272   1.2086883854e+02   1.4244158953e+01    0.1885516     0.172431  -8.63 0.0005685841    1.299    0.230
        20 -11.6757     87.6189    248.5478   1.2483861638e+02   1.2615292055e+01    0.6277003      0.30011  37.25  0.001560033    1.538    0.350
        21 -10.4776     81.5909    248.0240   1.2610438625e+02   1.3440904055e+01    0.3971788    0.2050968 -83.35  0.002047711    3.006    0.667
        22 -10.5608     84.1732    230.2419   1.2399980490e+02   1.6282512293e+01    0.3962485    0.2746741 -16.53  0.001745704    2.174    0.540
        23 -12.0690     88.7962    238.7100   1.2372315792e+02   1.4162811208e+01    0.7365003    0.4256663  64.04  0.003917981    2.213    0.548
        24 -10.9097     82.5777    239.8319   1.2521103313e+02   1.4745063407e+01    0.4411322    0.2081485  48.42  0.000694683    1.908    0.476
        25 -11.5168     90.3513    223.9385   1.2195589515e+02   1.6655586858e+01    0.4736336    0.3255822  37.84  0.002792921    1.164    0.141
        26 -11.0858     68.2695    245.6757   1.2883592857e+02   1.5443783489e+01    0.2965691    0.2223929  56.28 0.0009319087    1.252    0.201
        27  -9.2505     56.4660    250.4832   1.3171454201e+02   1.5956210368e+01    0.2179776    0.1705463  71.78  0.001386052    1.363    0.266
        28 -11.1965     59.5005    245.8114   1.3076468716e+02   1.6437748435e+01    0.5573021    0.2927921  57.74  0.003140844    1.840    0.457
        29  -9.4635     63.7493    246.0136   1.2984922251e+02   1.5912433641e+01    0.1925394    0.1456421 -75.87  0.001306039    1.635    0.388
        30 -11.0703     49.1399    216.8951   1.3119756621e+02   2.3179410679e+01    0.7402353       0.2339  52.96  0.002879361    3.102    0.678
        31 -12.0072     32.3035    230.9135   1.3596329062e+02   2.2191219683e+01    0.8952132    0.6194769  -7.90  0.005169414    2.291    0.563
        32 -13.9410      8.7975    211.0410   1.4056231811e+02   2.8464521320e+01     2.508818     1.115233  86.03   0.01287806    2.230    0.552
        33 -14.8007     15.3168    242.3053   1.4013246337e+02   2.1685062867e+01      3.25435     1.019498  32.49   0.01621995    2.209    0.547
        34 -10.4233    244.4995    240.5253   9.3716867065e+01  -5.0969041786e+00    0.1039655   0.07234443   0.13 0.0008100498    1.022    0.021
        35 -11.2826    197.9888    245.5467   1.0217294068e+02  -6.9832387516e-01    0.2482855     0.150669  19.54  0.001423648    1.286    0.222
        36 -14.5304     24.3825    220.2016   1.3727402601e+02   2.5124732192e+01     1.234315    0.9793684   0.06  0.008000308    1.699    0.411
        37 -10.2109     73.8279    237.1653   1.2695535318e+02   1.6304026901e+01    0.2463073    0.1910451 -88.83 0.0008669929    1.550    0.355
        38 -10.7667     76.6847    233.4505   1.2600125398e+02   1.6634061135e+01    0.3828279    0.2727012  81.06  0.002352068    1.694    0.410
        39 -10.1780     67.1551    239.0041   1.2859828503e+02   1.6773209134e+01    0.3258449    0.1479085  26.11  0.001607469    1.970    0.492
        40  -8.9446     60.7576    238.8324   1.3002008042e+02   1.7557764855e+01    0.1759689    0.1067677  47.07 0.0006226577    1.314    0.239
        41 -12.4243     38.7196    207.6641   1.3313126691e+02   2.6280224657e+01       1.1622    0.6502795  81.46  0.006098222    1.919    0.479
        42  -9.2814    147.6356    236.3301   1.1068576429e+02   6.8207802153e+00    0.1214451   0.08328499  50.00 0.0007037375    1.809    0.447
        43  -9.5858     54.8235    235.5280   1.3113321080e+02   1.8857663226e+01    0.2511986    0.1089779  56.32  0.001215177    2.254    0.556
        44  -9.9344     91.0078    220.2490   1.2142277928e+02   1.7269215808e+01    0.2018809    0.1823118  77.60 0.0004677449    1.269    0.212
        45  -9.4124     53.6916    240.9801   1.3173584262e+02   1.7972128202e+01    0.1590102    0.1345624  52.14 0.0006057634    1.135    0.119
        46 -10.1720    153.8139    229.8946   1.0856760612e+02   6.9774847684e+00    0.1974164    0.1592874  15.99  0.000342304    1.036    0.035
        47  -9.5715     56.4552    228.5195   1.3028202704e+02   2.0009972955e+01    0.2663375    0.1845096  79.44  0.001167257    1.582    0.368
        48 -11.0493     78.8838    225.5784   1.2480258228e+02   1.7836973252e+01    0.4045365    0.3085137  34.82  0.002283523    1.078    0.072
        49 -11.0917    110.0399    247.8640   1.1994317246e+02   9.9176073668e+00     0.411112     0.250251  27.63  0.002467044    1.302    0.232
        50  -8.8971     45.6163    225.2779   1.3259066833e+02   2.1879698158e+01     0.140183    0.1133175 -71.75 0.0004599984    1.477    0.323
        51 -10.4457     99.0531    223.7718   1.1990749420e+02   1.5520815842e+01    0.2988471    0.1859215   6.46  0.001474042    2.195    0.544
        52  -9.2659     65.2783    223.7380   1.2785191891e+02   1.9893515395e+01    0.2316904    0.1308449 -43.77  0.001164467    2.528    0.604
        53 -11.1886    108.2483    217.7364   1.1707965715e+02   1.5374361545e+01    0.5564786    0.2959346  62.66  0.002249472    3.172    0.685
        54  -9.8166    141.5251    219.9007   1.0982717526e+02   1.0274214703e+01     0.295677    0.1267982 -49.68  0.001370984    2.768    0.639
        55 -10.4724     71.2097    219.5343   1.2608223387e+02   1.9989723174e+01    0.4328186    0.2427044  55.25  0.002251393    1.741    0.426
        56  -9.6962     60.1642    220.3257   1.2879850982e+02   2.1190477996e+01    0.1741328    0.1648426  40.81  0.000394637    1.203    0.169
        57  -9.6146    245.6991    220.6590   9.0584550315e+01  -3.0396472037e+00    0.1120909   0.06278868  -4.39 0.0007037201    1.671    0.402
        58  -9.8176    116.3299    216.2160   1.1501195236e+02   1.4511848134e+01    0.2605754    0.1808259   9.47  0.001114638    1.624    0.384
        59  -9.6522     87.2944    211.7242   1.2141471369e+02   1.9442154187e+01    0.3281319    0.2510944  82.37  0.001794101    1.559    0.359
        60 -10.7870     63.1048    208.5828   1.2710236357e+02   2.3248473872e+01    0.4368934    0.3281355 -11.74  0.002405826    1.880    0.468
        61  -9.7675     58.5426    212.5066   1.2856888284e+02   2.2984981013e+01    0.2126039    0.1961616  49.91 0.0007772534    1.145    0.127
        62 -10.4631     55.8142    209.0695   1.2896718225e+02   2.4034484114e+01    0.4447455    0.1973751 -74.56  0.002045617    2.588    0.614
        63  -9.2363    110.9812    211.3582   1.1565674503e+02   1.6185822433e+01    0.1858718    0.1411038  34.78  0.001065922    1.098    0.090
        64  -9.5297     99.2809    209.9386   1.1829134786e+02   1.8132419279e+01    0.2928024     0.125113  50.85 0.0008928863    2.690    0.628
        65 -10.1656    247.0009    206.5069   8.8166934937e+01  -1.5338586784e+00    0.1559135   0.09222209  25.46  0.001043083    1.621    0.383
        66  -8.3218     92.0000    204.9346   1.1949193344e+02   2.0165189441e+01    0.1884047   0.07863837 -62.44 0.0005449928    2.819    0.645
        67  -8.7858    113.7334    204.3504   1.1409081874e+02   1.7130760680e+01    0.1322187   0.09673142  60.91 0.0003135394    1.620    0.383
        68  -9.4539    106.8136    203.3991   1.1564467122e+02   1.8339973658e+01    0.2059858    0.1785084 -86.26 0.0005194022    1.397    0.284
        69  -8.7179     72.5357    203.4396   1.2423425664e+02   2.3132775542e+01     0.137691    0.1108084  46.57 0.0001104814    1.056    0.053
        70 -10.0220     44.0786    200.1891   1.3125439112e+02   2.7320211950e+01    0.3708905    0.2932442  25.16   0.00215632    1.296    0.228
        71  -9.1391     96.9230    199.2985   1.1757560087e+02   2.0619748896e+01    0.1923503    0.1532074  33.64 0.0002769793    1.085    0.079
        72  -9.8293    249.4381    194.0985   8.5777790438e+01  -3.0989575758e-01    0.2173438    0.1230427   6.98  0.001311618    1.912    0.477
        73 -11.8886     51.7430    192.3297   1.2860670357e+02   2.8194858918e+01     0.464054    0.3845727  44.01  0.001455693    1.054    0.051
        74  -9.1940     21.8361    193.2016   1.3656558985e+02   3.1189210976e+01    0.1786604    0.1649254  85.65 0.0003396356    1.208    0.172
        75 -10.0028     19.1545    188.6108   1.3702326077e+02   3.2485783629e+01     0.339707     0.163367  88.10  0.001284407    2.093    0.522
        76  -9.2630    191.5745    191.6750   9.5102702696e+01   7.5791334103e+00    0.1500265     0.116327 -38.62 0.0005514735    1.434    0.303
        77  -9.7643     31.5728    192.7899   1.3399558436e+02   3.0325838390e+01    0.3426008    0.2213301 -28.85 0.0008550977    2.414    0.586
        78 -10.5094      9.8398    187.2452   1.3940420732e+02   3.3610824465e+01    0.2848791    0.1413105  72.75  0.001431108    1.863    0.463
        79 -10.3470     70.8217    187.0436   1.2293551651e+02   2.6970596417e+01    0.2850544    0.1765464  30.32 -0.0006383859    1.472    0.321
        80 -11.7807     58.5878    185.0156   1.2606035140e+02   2.9035057787e+01    0.2642628     0.252259  22.79 0.0004640933    1.188    0.158
        81  -8.5912    107.4777    185.5303   1.1300807706e+02   2.1914152611e+01    0.1427513    0.1255463  36.74 7.275298e-05    1.009    0.009
        82  -9.0057     24.3369    184.3000   1.3539299109e+02   3.3001773937e+01    0.1222556   0.09774366 -33.99 0.0007034868    1.660    0.398
        83  -9.8242     36.9510    180.3347   1.3164334512e+02   3.2661821313e+01    0.2722138    0.1843694 -65.99 0.0005897765    1.580    0.367
        84  -8.3587     65.6575    181.7397   1.2375614680e+02   2.8882835619e+01    0.1320665     0.107123  -9.58 0.0002243163    1.592    0.372
        85  -9.1148     27.0792    179.5342   1.3433572558e+02   3.3861283644e+01    0.1993276    0.1704484 -61.86 0.0007006574    1.348    0.258
        86  -9.6087     80.9763    178.5435   1.1911380099e+02   2.7492433437e+01    0.2353424     0.191392 -40.84 0.0005848886    1.453    0.312
        87 -11.6932    248.4651    172.8106   8.2272584686e+01   2.4979518299e+00    0.4468741    0.2782356 -19.45  0.002876248    1.368    0.269
        88  -8.7492    111.6334    177.7401   1.1074151021e+02   2.2916216904e+01    0.1438917    0.1082195   2.56 0.0005662547    1.641    0.391
        89 -10.8398     70.2487    173.1031   1.2143417626e+02   3.0295005789e+01     0.272584    0.2611033  14.47 0.0004656025    1.170    0.145
        90 -10.7872     54.2549    171.9083   1.2591645686e+02   3.2690240246e+01     0.467516    0.2232177  41.49    0.0014971    1.805    0.446
        91  -9.3393     18.0822    172.2690   1.3640291835e+02   3.6437307000e+01    0.2402646    0.1433484  69.04  0.001244155    1.541    0.351
        92 -12.8924     10.5634    165.5295   1.3818162508e+02   3.8700753990e+01     1.015163    0.6613642  86.02  0.005644748    1.410    0.291
        93 -11.0502      2.1973    171.2476   1.4081054541e+02   3.7947318985e+01    0.5516651    0.2028246  80.20  0.002243763    2.657    0.624
        94  -9.6557     27.0417    171.9372   1.3381922726e+02   3.5692553477e+01    0.2154238    0.1882936 -76.85 0.0003712072    1.219    0.180
        95 -11.4400     39.0698    167.8845   1.2997583449e+02   3.5450098854e+01    0.3067826    0.2694807  -3.71 0.0003538651    1.394    0.283
        96 -11.8972     78.5023    165.0806   1.1796387301e+02   3.1029496516e+01    0.6094585    0.4535894  29.60  0.003107839    1.299    0.230
        97 -11.9340    245.5074    163.5737   8.1043223521e+01   4.0980374476e+00    0.4007277    0.1773391 -39.16  0.002110612    2.062    0.515
        98 -11.7431    248.8907    159.3659   7.9799483811e+01   4.2149887673e+00    0.4194084     0.259577 -44.35  0.002554411    1.805    0.446
        99  -9.9065     68.1765    166.2193   1.2115316169e+02   3.2241403000e+01    0.1978377    0.1912218  43.85 0.0004032411    1.104    0.094
       100  -9.7739     91.6822    168.4088   1.1468111816e+02   2.8218263790e+01    0.2584949    0.2000315  41.96 0.0002228595    1.168    0.144
       101  -9.7499     24.0769    162.0648   1.3397042990e+02   3.8405924902e+01    0.1856344    0.1789644 -46.26  0.000525284    1.239    0.193
       102  -8.8838     66.5787    161.4556   1.2099768679e+02   3.3632144865e+01     0.143953    0.1323276  55.40 2.541165e-05    1.020    0.020
       103 -10.7701     82.4062    157.4276   1.1565693989e+02   3.2288333378e+01    0.4614921    0.2707818  44.10  0.002052963    1.579    0.367
       104  -9.3043     91.7454    156.0471   1.1267163455e+02   3.1128096139e+01    0.2017588    0.1889953  67.94  0.000267913    1.070    0.065
       105  -8.5077    228.2804    155.3110   8.2066517943e+01   7.6537655633e+00    0.1223125   0.08320412  -6.24 0.0003426641    1.565    0.361
       106 -10.3126     32.2312    153.7211   1.3075656653e+02   3.9727293692e+01    0.2656628    0.2283127 -42.79  0.000401443    1.365    0.267
       107 -10.3308     25.9754    154.9592   1.3283125894e+02   4.0018859403e+01    0.2328869    0.1319432  56.66 0.0005228444    1.657    0.396
       108 -10.2266     12.4893    153.5578   1.3692157185e+02   4.1523598694e+01    0.2730535    0.1200957 -80.81  0.001184689    2.131    0.531
       109 -11.1800    249.5134    150.9626   7.8166450132e+01   5.2589870201e+00     0.313172    0.2132303 -32.95  0.002061917    1.246    0.197
       110 -10.7080     92.8764    150.0081   1.1128810418e+02   3.2393048560e+01    0.3297607    0.2963963  27.47 0.0008886168    1.122    0.108
       111 -11.0164     23.1369    149.8300   1.3330520786e+02   4.1586661884e+01    0.3307898    0.2356511  20.96  0.001665244    1.498    0.332
       112 -10.3450     80.8963    148.4562   1.1465103708e+02   3.4732069535e+01    0.2644162    0.2499373  65.01 0.0005914861    1.033    0.032
       113 -11.7444     68.3163    143.8622   1.1787279263e+02   3.7808755136e+01    0.7381772    0.4336967  65.16  0.002257194    2.108    0.526
       114 -12.6458      9.0871    143.4413   1.3736495710e+02   4.4344628948e+01    0.5672901    0.3659509 -62.40  0.003023411    1.565    0.361
       115 -11.1740    239.3427    120.4361   7.3602070478e+01   1.1011067732e+01    0.4445256    0.1927119 -23.16   0.00183631    3.054    0.673
       116 -11.6226    243.8863    121.1503   7.3159363868e+01   1.0197050628e+01    0.3808674    0.2386225 -55.03    0.0021321    2.005    0.501
       117 -12.8225    248.3098    134.1959   7.5150866144e+01   7.7158575717e+00     1.322679    0.4484148 -28.30  0.005340167    3.218    0.689
       118 -10.5368    247.5461    144.5129   7.7223759134e+01   6.4068126455e+00    0.2476541    0.1742398 -43.35  0.001464169    1.477    0.323
       119  -9.2510    236.1329    145.8402   7.9073049076e+01   7.8621056795e+00    0.1664988    0.1230495 -10.16  0.000517555    1.305    0.234
       120  -9.0621     96.5139    146.0089   1.0947366915e+02   3.2736099903e+01    0.2127602    0.1523024 -59.78 0.0003598852    1.482    0.325
       121 -11.9838      2.3970    143.2100   1.3950454856e+02   4.4846448738e+01    0.5410272    0.2543847 -87.80  0.002510488    1.945    0.486
       122  -9.9608    133.1749    141.2243   9.8305190596e+01   2.7013703290e+01    0.3505254    0.2155534 -55.12  0.001048599    1.808    0.447
       123  -9.4523     44.7377    139.9588   1.2512987951e+02   4.1934199295e+01    0.2045725    0.1823926  89.29 0.0004216402    1.080    0.074
       124 -10.2583    249.3109    141.1362   7.6347793125e+01   6.6206721620e+00    0.2793498    0.1967091  -6.39  0.001491548    1.484    0.326
       125  -9.8447    106.8604    135.5366   1.0432127403e+02   3.3367810813e+01    0.4143231     0.271482 -14.13  0.001564295    2.664    0.625
       126  -8.8000     93.2348    133.3408   1.0798853815e+02   3.6398144596e+01    0.2086457    0.1347465  43.81 0.0003490319    1.478    0.323
       127  -9.3438     44.1878    130.1209   1.2398355212e+02   4.4589472878e+01    0.2053503    0.1578056  64.39 0.0005070841    1.296    0.228
       128  -9.2478     58.9668    127.7245   1.1835434380e+02   4.3327816180e+01    0.2061506    0.1871472  46.71 0.0003641364    1.068    0.064
       129  -8.8135    234.2760    125.6303   7.5334021540e+01   1.1068303307e+01     0.122993   0.08589601 -53.64 0.0007006549    1.682    0.405
       130  -8.6619    209.6837    125.7021   7.9005771330e+01   1.5214253667e+01     0.130802   0.09754464   1.00 0.0003165858    1.610    0.379
       131 -10.8550     21.8175    125.2634   1.3147975034e+02   4.8119280518e+01    0.2400645     0.157775  49.41  0.001208141    1.476    0.323
       132 -13.1032     13.7057    101.1171   1.3199553199e+02   5.5138024621e+01    0.8456985    0.4935669  48.65  0.004087136    1.774    0.436
       133 -12.6370    135.9534    241.4918   1.1375315026e+02   7.5689585259e+00    0.5692412    0.3314728  26.63  0.003313285    1.370    0.270
       134 -11.9901    247.7518    112.7461   7.0999242595e+01   1.0769289518e+01    0.4743051    0.3786144  33.74  0.003240007    1.507    0.336
       135  -8.8731    168.0158    113.0158   8.3660114224e+01   2.5580077915e+01    0.2916957    0.1785568 -79.99 0.0009490939    4.051    0.753
       136 -10.6837    232.0162    116.5036   7.3768290675e+01   1.2772858884e+01    0.2004031    0.1471681 -33.53 0.0007079125    1.149    0.130
       137  -8.5080     41.3262    123.2798   1.2402968697e+02   4.6735356953e+01    0.1452215    0.1085786 -31.71 0.0006996611    1.595    0.373
       138  -8.4697     71.7141    100.3130   1.0792717826e+02   4.8454927788e+01    0.1563643    0.1184037  72.46 0.0003355541    1.579    0.367
       139  -9.4915    161.4749     79.5285   7.6244155040e+01   3.3151526939e+01      0.14751    0.1403068 -72.49 0.0008094644    1.002    0.002
       140 -10.9983     74.0621    244.2177   1.2745486196e+02   1.5011350289e+01    0.2862956    0.2731639 -41.22  0.002140017    1.379    0.275
       141 -12.9545    248.3229    101.9727   6.8758934542e+01   1.2165394768e+01    0.9439495    0.4936109 -29.35  0.005123848    1.699    0.411
       142 -10.1935    249.9413    117.7095   7.1723636854e+01   9.7464503081e+00    0.2162878    0.1910715  -9.51 0.0006611791    1.173    0.147
