#   1 NUMBER                 Running object number                                     
#   2 MAG_AUTO               Kron-like elliptical aperture magnitude                    [mag]
#   3 X_IMAGE                Object position along x                                    [pixel]
#   4 Y_IMAGE                Object position along y                                    [pixel]
#   5 X_WORLD                Barycenter position along world x axis                     [deg]
#   6 Y_WORLD                Barycenter position along world y axis                     [deg]
#   7 A_WORLD                Profile RMS along major axis (world units)                 [deg]
#   8 B_WORLD                Profile RMS along minor axis (world units)                 [deg]
#   9 THETA_WORLD            Position angle (CCW/world-x)                               [deg]
#  10 FWHM_WORLD             FWHM assuming a gaussian core                              [deg]
#  11 ELONGATION             A_IMAGE/B_IMAGE                                           
#  12 ELLIPTICITY            1 - B_IMAGE/A_IMAGE                                       
         1 -17.7673    144.4976    134.4526   3.4306269797e+01   2.6049762748e+01     10.48217     6.230878  47.26   0.04593605    1.718    0.418
         2 -16.3118    111.7766    145.1845   4.5192275542e+01   2.9969448044e+01     5.605277     3.264157  83.63   0.01621861    4.841    0.793
         3 -14.9548    120.6191    122.2075   3.7639198834e+01   3.3570872327e+01     6.957993     4.065064   4.18   0.01612355    7.270    0.862
         4 -15.4846    237.9773      8.1990   3.5042170760e+02   2.5835250794e+01     2.025138      1.12635 -74.17   0.01245423    1.646    0.392
         5 -16.6992    187.8104      7.5268   3.5302380124e+02   3.6602789699e+01     6.282888     1.316927  81.04   0.01870759    5.413    0.815
         6 -12.9913    125.3213    198.2518   5.0772197586e+01   1.6311845865e+01    0.3574339    0.2347464  48.41  0.001842469    1.611    0.379
         7 -12.6874    113.9413    198.2931   5.3530070963e+01   1.8007866416e+01    0.4228306    0.2374534  47.83  0.001787302    1.832    0.454
         8 -12.3025    133.7535    196.1343   4.8466274306e+01   1.5439526739e+01    0.3138837    0.1664657  44.11  0.001433568    1.891    0.471
         9 -13.2895    187.3955    194.7241   3.6814162337e+01   7.7341421600e+00    0.3468076    0.2029681  33.37  0.001918218    1.619    0.382
        10 -13.4806    174.1702    192.0676   3.8971879001e+01   1.0061523455e+01    0.3551016    0.2380321  51.21  0.001812931    2.051    0.512
        11 -13.4291    139.1832    189.5580   4.6167787145e+01   1.5847329181e+01    0.4584879     0.350082 -86.42  0.002365883    2.103    0.525
        12 -13.6833    130.5122    188.2144   4.8000027487e+01   1.7467241062e+01    0.5097522    0.3681999  50.73   0.00251084    1.522    0.343
        13 -13.7196     95.4962    186.7676   5.6638070067e+01   2.3176463301e+01    0.5948305    0.3981516  80.90  0.002804547    2.086    0.521
        14 -14.5844     64.9998    116.7132   5.4508974800e+01   4.5259062681e+01     3.843798    0.7130309  36.54   0.01010258    4.262    0.765
        15 -14.6451     90.1865    105.6108   4.2885183750e+01   4.3687516568e+01     4.314358    0.7602389  37.18  0.009103684    6.346    0.842
        16 -13.2813    110.7577    108.3567   3.7013287684e+01   3.8821654188e+01     1.261278    0.7342401  33.74  0.004677491    1.909    0.476
        17 -15.0271     85.8484    124.7849   4.8879601874e+01   3.9678141020e+01     2.746804     1.823792  -1.40   0.01046932    2.550    0.608
        18 -13.5933    165.3473    203.5302   4.2656136343e+01   9.4587475629e+00    0.5373706    0.2296116  38.43  0.002462802    2.201    0.546
        19 -12.5997     88.7730    176.2948   5.7002426314e+01   2.6540912719e+01    0.2997259    0.2380422 -49.34  0.001230448    1.408    0.290
        20 -13.4836     69.6504    161.5935   6.0496543199e+01   3.2891102805e+01    0.3871711    0.3001383 -63.59  0.001675696    1.363    0.267
        21 -13.4984    106.8906    174.6299   5.1814000003e+01   2.4085921438e+01    0.6293671    0.3567618  43.60  0.002617609    1.651    0.394
        22 -13.4474     61.7665    158.1559   6.2459592706e+01   3.4851859388e+01    0.4700575    0.3254462 -66.67  0.002307809    1.495    0.331
        23 -12.9848     31.2550    158.3687   7.2096575275e+01   3.8401855975e+01    0.3710369    0.2370701 -76.34  0.001857581    1.542    0.351
        24 -12.8628      7.8222    156.4659   7.9300165935e+01   4.0917395343e+01    0.3786336    0.1733287  88.53   0.00168312    2.073    0.518
        25 -12.4493     67.1593    152.2946   5.9943893114e+01   3.5596784320e+01    0.4279464     0.402321  83.62  0.002079976    1.070    0.066
        26 -13.1190     34.4034    171.6313   7.2244898321e+01   3.4722941260e+01     0.374131    0.2490974 -87.09  0.001948823    1.501    0.334
        27 -13.1696     28.2922    146.3830   7.1984300804e+01   4.1822095373e+01      0.41379    0.3330039  64.60  0.001994384    1.133    0.117
        28 -13.3278     13.6004    141.7185   7.6553927897e+01   4.4315156029e+01    0.5648866    0.2580809 -41.79  0.002243628    2.904    0.656
        29 -12.3892      4.4818    135.9491   7.9301708152e+01   4.6464832092e+01      0.51057    0.2969739 -25.90   0.00239041    2.307    0.567
        30 -12.9615     40.7162    131.0528   6.5914552853e+01   4.4638104616e+01    0.7082725    0.4787458 -14.30  0.003183901    2.039    0.510
        31 -13.8840     25.2447    131.5390   7.1598766366e+01   4.6077254306e+01    0.8773291    0.5548434  -3.26  0.004030691    2.077    0.519
        32 -12.8633    141.4535    201.1831   4.7466864647e+01   1.3349933413e+01    0.4068072    0.2359712  52.36   0.00189355    2.308    0.567
        33 -11.8346     50.2540    130.4223   6.2369199054e+01   4.3659683903e+01    0.3965999    0.2725557   5.64  0.001610576    1.848    0.459
        34 -12.0302     55.5925    127.5467   5.9977184931e+01   4.3729000981e+01    0.4088364    0.2970135 -11.53  0.001456791    1.859    0.462
        35 -13.2861     14.6964    121.1297   7.4519869037e+01   4.9753352748e+01    0.8194824    0.4325051 -33.25  0.003472991    2.453    0.592
        36 -13.7345     77.5091    175.2599   6.0028862286e+01   2.8442809398e+01    0.4849418    0.2961797  42.73  0.002299345    1.457    0.314
        37 -13.4321     30.6410    114.9435   6.7557085714e+01   5.0095879536e+01    0.9375821    0.4238113  22.32  0.003743512    2.291    0.564
        38 -12.5984     44.1123    180.4224   7.0161582889e+01   3.1511846778e+01    0.3030089    0.2293835 -87.72  0.001687513    1.347    0.258
        39 -12.4763     44.4457    170.4957   6.9158707562e+01   3.3904879587e+01    0.2651587    0.2294726  52.90  0.001344647    1.018    0.018
        40 -12.3023      4.9860    109.8634   7.7388528344e+01   5.3413187534e+01    0.6016008    0.3202915  14.74  0.002810184    2.056    0.514
        41 -14.1157    100.9257    121.7362   4.3337162216e+01   3.7630540545e+01     1.398023     1.063819   9.19  0.005322924    1.721    0.419
        42 -11.8383     16.3869    105.0122   7.2175783943e+01   5.4022327607e+01    0.5265076    0.3070619 -15.39  0.002335136    2.222    0.550
        43 -12.2347    142.5789     98.5185   2.5844444009e+01   3.3897838745e+01    0.6911443    0.5428963  29.88  0.003321123    1.475    0.322
        44 -13.6432    110.4071    185.9186   5.2633177445e+01   2.1086370644e+01    0.5900827    0.3317106  47.61  0.002617785    1.799    0.444
        45 -12.3728    152.1552     96.3632   2.3090405137e+01   3.2141446959e+01    0.5612825    0.3694799  35.69  0.002479855    1.799    0.444
        46 -12.3626    140.5442     87.7645   2.3316463083e+01   3.6504825432e+01    0.7237194    0.4744663  42.72  0.002803591    1.629    0.386
        47 -11.8010      8.8402     97.0425   7.4578897396e+01   5.6671913289e+01    0.5173697     0.248765  -5.00  0.002130606    2.678    0.627
        48 -12.3763    131.8836     96.5220   2.7919050612e+01   3.6752562613e+01    0.7826279    0.4222034  32.63  0.002813622    2.576    0.612
        49 -13.1038    110.7452     91.9032   3.2448879744e+01   4.2564876098e+01    0.8963699     0.636695  26.37  0.003365836    1.760    0.432
        50 -13.4204    125.6450     86.4453   2.6629039055e+01   4.0289708556e+01     1.512845     1.020732  14.00   0.00552287    2.638    0.621
        51 -12.4652     84.0771     94.3710   4.2009761523e+01   4.7647383306e+01    0.7489144    0.4239149  28.77  0.002862502    2.098    0.523
        52 -12.6822     96.8651     91.1900   3.6633403906e+01   4.5778025648e+01    0.7480897    0.5158643   7.92  0.002611759    2.445    0.591
        53 -13.0268     49.7506     93.3248   5.5533503930e+01   5.3723852313e+01     1.162275    0.3791234  36.33  0.003872804    2.838    0.648
        54 -12.3198     25.1030     91.2244   6.6315653981e+01   5.7084721458e+01      0.79794    0.3589377  18.19  0.003191399    2.398    0.583
        55 -12.3587    151.7199     85.1120   2.0082503554e+01   3.4372873746e+01     0.625533    0.4853839 -86.17  0.003016317    1.527    0.345
        56 -11.8861    165.4145     83.7263   1.6984392016e+01   3.1428187587e+01    0.4770255    0.2902904  40.43    0.0020917    1.971    0.493
        57 -11.8149    159.4757     81.0430   1.7373347791e+01   3.3285114108e+01     1.099923    0.3511272  52.38  0.003633297    3.125    0.680
        58 -11.7284     37.1451    178.1564   7.1968559421e+01   3.2829404567e+01    0.1948455    0.1921604 -65.50 0.0008311903    1.214    0.176
        59 -11.6966     37.9412     81.0030   5.8059326926e+01   5.8493408303e+01    0.5168015    0.2812992   0.65  0.001936255    2.798    0.643
        60 -11.9154    142.7603     80.1541   2.0595038486e+01   3.7433225023e+01    0.5138907    0.2964221  49.58   0.00216638    1.755    0.430
        61 -12.3958     89.6419     79.5550   3.5533769930e+01   4.9994962201e+01     0.835297    0.3466816  33.21  0.002508735    3.410    0.707
        62 -12.1050    106.4181     76.7509   2.9071303784e+01   4.6831280567e+01    0.6763681    0.3604806  37.37  0.002521629    2.188    0.543
        63 -11.1194    120.5954     76.1317   2.4795360189e+01   4.3580223345e+01    0.3240863    0.1987592  36.34  0.001299407    1.962    0.490
        64 -12.8020     68.6185     86.4137   4.5705154432e+01   5.2512968721e+01     1.005039    0.3840095  32.25  0.003266513    2.871    0.652
        65 -14.3215    151.9805    199.2267   4.4824767141e+01   1.2133260671e+01      0.75789    0.3760098  41.21  0.003569797    1.976    0.494
        66 -11.2773    130.2099     69.2018   2.0130897526e+01   4.2545148353e+01    0.3701195    0.2316144  37.15  0.001526172    1.968    0.492
        67 -11.9089     52.0247     76.7911   5.0175130026e+01   5.7668890769e+01    0.6450758    0.2234179  28.79  0.002069716    3.169    0.684
        68 -11.0227     23.2837     47.3777   5.6780253123e+01   6.8519951016e+01    0.2644996    0.1325101  15.16   0.00113992    2.191    0.544
        69 -13.3341     37.3869    163.0735   7.0604350975e+01   3.6559006225e+01    0.4514571    0.2677236 -52.05  0.002002383    1.918    0.479
        70 -14.8004    160.3075    191.4269   4.1755347936e+01   1.2244609720e+01     0.734592    0.6785883  69.02  0.004634306    1.481    0.325
