#   1 NUMBER                 Running object number                                     
#   2 MAG_AUTO               Kron-like elliptical aperture magnitude                    [mag]
#   3 X_IMAGE                Object position along x                                    [pixel]
#   4 Y_IMAGE                Object position along y                                    [pixel]
#   5 X_WORLD                Barycenter position along world x axis                     [deg]
#   6 Y_WORLD                Barycenter position along world y axis                     [deg]
#   7 A_WORLD                Profile RMS along major axis (world units)                 [deg]
#   8 B_WORLD                Profile RMS along minor axis (world units)                 [deg]
#   9 THETA_WORLD            Position angle (CCW/world-x)                               [deg]
#  10 FWHM_WORLD             FWHM assuming a gaussian core                              [deg]
#  11 ELONGATION             A_IMAGE/B_IMAGE                                           
#  12 ELLIPTICITY            1 - B_IMAGE/A_IMAGE                                       
         1 -13.8680    249.0560     60.5987   3.9127197733e+01   1.7634714091e+01     1.667065     0.644514 -38.88  0.007679494    2.208    0.547
         2 -14.4968    248.6668    184.8099   6.4477963250e+01  -2.6716458782e+00     5.516514    0.8998576 -37.53   0.01532408    5.768    0.827
         3 -14.8858     97.4060     10.5824   4.8268043159e+01   5.8153019896e+01     3.222849     1.219082  55.57   0.01433707    2.147    0.534
         4 -12.0455    118.0690     24.1123   4.8505325974e+01   5.2146735292e+01    0.3149928    0.2087988 -27.89  0.001219386    1.673    0.402
         5 -13.2674     63.6438     21.3171   6.2841912523e+01   6.3853205055e+01    0.8512619    0.3123806 -27.17  0.003573828    3.020    0.669
         6 -11.2517     50.3333     16.0570   6.5642557246e+01   6.6762583989e+01     0.356812    0.1957072  14.63  0.001769699    2.230    0.552
         7 -10.1179     40.9134     14.2615   6.8860817396e+01   6.8450183009e+01     0.206132    0.1490955  -8.12 0.0002428392    1.244    0.196
         8 -13.1163     94.2259     28.0147   5.5779906261e+01   5.7022335392e+01    0.5753407    0.4414262  75.69  0.003197755    1.665    0.399
         9 -11.1778    165.9233    233.1599   8.9055760714e+01   1.5563437781e+00    0.4644293    0.2599796   4.28  0.001841404    3.265    0.694
        10 -10.9141    166.0346    248.7184   9.1367733177e+01  -1.0798464867e+00     0.233872      0.18401 -24.92  0.001472315    1.375    0.273
        11 -13.8053    246.4594    147.6640   5.7494419094e+01   3.8702864486e+00       1.9611    0.8092459 -46.14  0.008409848    2.266    0.559
        12  -9.6912    161.2980    249.6555   9.2466533153e+01  -5.3905968718e-01    0.1195088   0.09444571  60.05 0.0007034987    1.673    0.402
        13 -10.2282    123.4927    225.0121   9.7045450346e+01   9.7534392896e+00    0.2382951    0.1611374 -41.90 0.0007930456    1.703    0.413
        14 -11.1284    126.0144    220.7649   9.5868870217e+01   1.0213759171e+01    0.3004182    0.2577974  64.60    0.0006631    1.251    0.201
        15 -10.6213     89.0000    223.0008   1.0453961923e+02   1.5433421577e+01    0.2650821    0.1447737 -71.62  0.001250752    2.095    0.523
        16  -9.4605     63.7119    223.6419   1.1024513785e+02   1.8804246191e+01    0.1214884   0.09814635 -36.82 0.0007024665    1.682    0.406
        17 -11.0012    229.5043    227.9969   7.5693791915e+01  -6.7712234871e+00    0.1824586    0.1067053 -33.80  0.001035786    1.598    0.374
        18  -9.0266    114.4198    221.2585   9.8561779127e+01   1.1948092192e+01    0.1369382    0.1034634   2.79 0.0005199079    1.762    0.432
        19 -11.5139    233.3514    219.1411   7.3455466793e+01  -5.9566998469e+00    0.2835174    0.1277558 -28.70  0.001349037    2.188    0.543
        20  -8.5397    185.2898    226.6766   8.4001355998e+01  -2.8605746185e-01    0.1177439    0.1047088  66.66 0.0007011665    1.608    0.378
        21 -11.1402     99.3610    225.6024   1.0253015945e+02   1.3349892796e+01    0.3632528    0.2783801  27.03  0.001515456    1.364    0.267
        22  -9.6924    131.0285    214.9705   9.3861546700e+01   1.0592520546e+01    0.2158402    0.1667102  -8.77 0.0007839929    1.645    0.392
        23  -9.3665     79.6572    211.3017   1.0527295243e+02   1.9362010629e+01    0.1458425   0.09209118  63.36 0.0004821807    1.677    0.404
        24  -9.4633    185.8840    212.4754   8.1437904684e+01   2.1040124045e+00    0.2753799    0.1598588 -26.47  0.001294129    1.960    0.490
        25  -9.0532    198.6755    201.6267   7.6851967269e+01   2.0125618182e+00    0.1470681    0.0971291  -7.31 0.0007030113    1.819    0.450
        26  -9.0837    211.3537    200.3252   7.4113299066e+01   2.4872246631e-01    0.1427737   0.09414339  -4.18 0.0006403635    1.765    0.433
        27 -11.2097     90.8765    199.7341   1.0108590055e+02   2.0362836307e+01    0.5617096    0.2256617  29.44  0.002064023    2.842    0.648
        28  -9.0265    230.5264    198.4928   7.0198847938e+01  -2.3109851805e+00      0.13144    0.1070127 -12.53 1.012792e-05    1.027    0.026
        29  -9.6668    126.9806    197.2240   9.1950277779e+01   1.5070172089e+01    0.2432099     0.207083 -54.22 0.0007235402    1.229    0.186
        30  -9.8950    172.9494    195.5249   8.1093015260e+01   7.4504182271e+00    0.2379151    0.2035989 -66.80 0.0007722765    1.470    0.320
        31 -11.2385     68.6567    195.7078   1.0598215989e+02   2.4536890854e+01    0.3811452     0.181358  34.82  0.001558178    2.059    0.514
        32 -10.1402     45.0940    194.6437   1.1157601107e+02   2.7793060978e+01    0.2654387   0.09492132  39.65  0.001093107    2.514    0.602
        33 -11.1789     80.2796    193.5393   1.0283012032e+02   2.3409504169e+01    0.4459634    0.1427526  31.06  0.001490058    3.402    0.706
        34 -12.5012     96.5390    187.7144   9.7895690521e+01   2.2320431133e+01    0.9031741    0.2641734  40.98  0.002966486    3.143    0.682
        35 -10.7557     76.0244    185.0226   1.0271317101e+02   2.6091513280e+01    0.3499343    0.1482116  46.62  0.001363347    2.372    0.578
        36 -10.5363     68.2441    185.4691   1.0475972240e+02   2.7077232565e+01    0.2618724    0.1416843  27.48  0.001149013    2.095    0.523
        37  -8.8038     17.7084    184.6741   1.1717314129e+02   3.3066894902e+01    0.1238504   0.08673421 -51.74 0.0006629656    1.617    0.382
        38  -9.4121      6.6321    184.3318   1.1973441781e+02   3.4115967526e+01    0.2064601    0.1134903  68.81  0.001099286    1.702    0.412
        39 -10.1696     44.9913    183.0021   1.1034195893e+02   3.0638096426e+01    0.2281242    0.1398453  64.10 0.0009988259    1.682    0.406
        40  -9.2889    211.9295    182.1640   7.0490979958e+01   3.3842339729e+00    0.1952206    0.1826586 -34.17 0.0007532108    1.203    0.169
        41  -8.7443    165.3835    182.5091   8.0266508595e+01   1.1444451238e+01    0.1447774    0.1362232 -15.55 0.0001050585    1.028    0.027
        42 -10.9739    103.2839    181.3096   9.5135531302e+01   2.2763473626e+01    0.2769703    0.1730899 -46.55 0.0009371439    1.693    0.409
        43  -9.0410    174.6601    179.6660   7.7638560212e+01   1.0349067445e+01    0.1548757    0.1113298  -5.89 0.0007051419    1.751    0.429
        44 -11.5648     61.9994    177.8167   1.0533766450e+02   2.9816943371e+01    0.4487443    0.1899444  34.32  0.001827519    2.353    0.575
        45  -9.3992    170.9711    225.5330   8.6779165292e+01   2.1195126087e+00    0.2366539    0.1500897  38.89  2.67695e-05    1.498    0.333
        46 -11.0629    164.7526    226.0782   8.8182311544e+01   2.9972260756e+00    0.4603432    0.3313995  20.69  0.001891942    1.334    0.251
        47 -10.9380    229.8042    185.7953   6.7902686400e+01  -8.1245259116e-02    0.3469169    0.2405815 -54.74  0.001834427    1.918    0.479
        48  -9.6885    205.1364    175.9687   7.0559891685e+01   5.6723506874e+00    0.2550918    0.2012306   7.12   0.00138167    1.344    0.256
        49 -10.6307     56.6782    188.1529   1.0801683369e+02   2.7949120088e+01    0.2903389     0.150166  54.60  0.001292206    2.014    0.503
        50 -11.3185     56.5925    170.2588   1.0573565069e+02   3.2420179184e+01    0.4486144    0.1715874  34.85  0.001756686    2.572    0.611
        51 -10.1137    114.1844    168.7628   9.0056177450e+01   2.3929709408e+01    0.2801698    0.1908713  42.04  0.001281948    1.459    0.314
        52 -10.9905    102.0779    167.1990   9.2963144713e+01   2.6414310694e+01    0.6907109    0.1508564  40.27  0.001888458    4.216    0.763
        53 -11.8824     82.1781    165.2477   9.8009556366e+01   3.0116333187e+01    0.5895888    0.2693295  47.01  0.002264676    2.326    0.570
        54  -9.8765     38.7570    165.0077   1.0984268355e+02   3.5844875592e+01    0.2054115    0.1318944  56.48 0.0006976772    1.611    0.379
        55 -11.3634     71.6822    163.7461   1.0065030816e+02   3.2047811538e+01    0.3252167    0.2168483  26.15  0.001538373    1.703    0.413
        56  -9.9762     47.8150    164.5870   1.0733712212e+02   3.4933230772e+01    0.2001255    0.1169823  45.56 0.0009484007    1.745    0.427
        57 -10.3593     63.3222    161.5762   1.0262706447e+02   3.3757696160e+01    0.2767788    0.1279146  37.77  0.001134649    2.167    0.539
        58  -8.5198    144.5590    159.5305   8.0445694691e+01   2.0436207590e+01    0.1518979    0.1495786 -67.25 0.0001872955    1.048    0.046
        59 -10.1493    110.9893    160.0000   8.9195649062e+01   2.6638647089e+01    0.2569738   0.08747645  36.91 0.0008072449    2.976    0.664
        60 -12.0170     84.4829    155.8925   9.5716653131e+01   3.2136470475e+01    0.5978621    0.2804938  42.34  0.002339265    2.165    0.538
        61 -11.4222     51.5734    156.3311   1.0513224221e+02   3.6601154576e+01    0.5018731     0.211565  46.03  0.001977454    2.547    0.607
        62  -9.5931    219.0826    155.9345   6.3777018194e+01   7.0009970491e+00    0.2109027    0.1842535 -29.35 0.0004347409    1.012    0.012
        63 -11.0423    234.4670    152.7540   6.0455507932e+01   4.9459178489e+00    0.4381823    0.3451851 -44.59  0.002555165    1.213    0.175
        64 -11.7242     70.9143    154.7654   9.9372560762e+01   3.4457725683e+01    0.5596087     0.238743  33.42   0.00215331    2.428    0.588
        65 -10.3218    101.2751    151.9870   9.0243141326e+01   3.0343296409e+01    0.3148391    0.2025945   5.19  0.001182536    2.665    0.625
        66 -10.6415     93.5449    152.3108   9.2476854996e+01   3.1579289134e+01    0.3440424     0.210027  17.19   0.00136376    2.314    0.568
        67  -9.5565     30.0008    151.1884   1.1053424366e+02   4.0255803532e+01     0.236156    0.1288586  58.41  0.001081153    2.097    0.523
        68  -9.5406    188.8525    147.8128   6.7820487786e+01   1.4218484818e+01    0.3644403    0.1740806 -36.91  0.001413186    2.096    0.523
        69 -11.6768     57.9151    147.0909   1.0184632212e+02   3.8197119575e+01    0.6299407    0.3147784  58.26  0.002391265    2.762    0.638
        70 -10.7904     40.8304    148.5017   1.0706973365e+02   3.9844396453e+01     0.501129    0.2014156  47.82   0.00192977    2.858    0.650
        71 -10.4399    115.2052    147.5608   8.5466616617e+01   2.8923594744e+01    0.4651818     0.305346 -11.85  0.001728504    2.666    0.625
        72 -10.5928     80.4474    147.8535   9.5368757015e+01   3.4818168674e+01    0.2751661    0.1848462   3.03  0.001147101    2.274    0.560
        73  -9.4219    213.1718    155.1510   6.4687958363e+01   8.1960977502e+00    0.1906632    0.1670407 -61.11  0.001073858    1.328    0.247
        74  -9.0700     13.4683    146.5158   1.1463417541e+02   4.2863428376e+01    0.1327546    0.1084027 -87.71 0.0008085316    1.074    0.069
        75 -11.5438     91.1187    145.0025   9.1706397842e+01   3.3833815152e+01    0.6491531    0.2230219  34.84  0.002114809    3.039    0.671
        76 -10.8165    197.1658    142.7124   6.5010133667e+01   1.3615605277e+01    0.2649299     0.250495  77.00  0.000526644    1.215    0.177
        77 -11.2144     73.4402    142.2539   9.6363854986e+01   3.7310754242e+01    0.5289747    0.2445716  34.90  0.002084991    2.242    0.554
        78 -10.2880     23.8354    138.6314   1.1069789855e+02   4.4019417579e+01    0.4045846    0.2011986  64.40  0.001688219    2.701    0.630
        79 -13.6282    248.9465    199.1254   6.7120445642e+01  -4.9686940709e+00     1.698111    0.5358919 -36.68  0.007066228    2.744    0.636
        80 -10.0805     39.2925    136.4159   1.0571073133e+02   4.3118384435e+01    0.2436895    0.1671231  42.53  0.001009197    1.587    0.370
        81 -12.0723     86.1662    132.8944   9.0614760205e+01   3.7717037745e+01    0.8900857     0.298048  38.60  0.002927088    3.006    0.667
        82 -11.5313    103.1313    129.5847   8.4813098746e+01   3.5584966278e+01    0.8518033    0.3075863  38.12  0.002789659    2.856    0.650
        83  -9.6540     13.0904    129.8446   1.1279099626e+02   4.7087887556e+01    0.2959507    0.1563378  65.44  0.001351342    2.389    0.581
        84 -11.5562     61.4810    125.9472   9.6842654726e+01   4.3169876573e+01    0.6565866     0.304391  54.83  0.002254799    3.384    0.704
        85 -11.5432     45.0575    123.9735   1.0176674520e+02   4.5685353193e+01    0.6730871    0.3615018  63.51  0.002620245    2.933    0.659
        86 -10.9190     29.3429    123.2974   1.0674860292e+02   4.7437055521e+01    0.7393728    0.3508598  75.01  0.002418614    4.428    0.774
        87 -10.0937     72.4846    121.0978   9.2268399867e+01   4.2836319083e+01    0.3102204     0.186535  50.81  0.001326731    1.975    0.494
        88 -10.2047    160.5232    227.0387   8.9236663063e+01   3.4888888231e+00    0.6187342    0.2453367 -37.03  0.002376948    3.225    0.690
        89  -9.4179      3.7733    118.2016   1.1421822692e+02   5.0587898908e+01     0.214328    0.1057881  64.62 0.0009441791    2.733    0.634
        90 -10.5528     81.4829    114.5656   8.7840723513e+01   4.3044621909e+01    0.5115402    0.2910567  58.51  0.001936409    2.619    0.618
        91 -10.8841     96.0374    113.8330   8.3076316455e+01   4.0704131480e+01    0.8671544    0.2407051  38.79  0.002533986    3.691    0.729
        92 -10.4708     68.1159    111.9671   9.1596457401e+01   4.5748668180e+01      0.36235    0.1854335  49.56  0.001413349    2.487    0.598
        93 -10.3279     14.4980    110.4998   1.0962647392e+02   5.1818166894e+01    0.3678523    0.2211733  89.00   0.00167155    1.901    0.474
        94 -11.6976     46.5076    103.1924   9.7028245893e+01   5.0713355774e+01    0.8217667    0.4507606  65.67  0.002946177    3.748    0.733
        95 -11.1528     23.1244    102.6472   1.0528701599e+02   5.3110966772e+01    0.6659237    0.3601875  72.95  0.002674275    3.268    0.694
        96 -10.4352    115.7177    102.4308   7.4162469416e+01   3.9488541550e+01    0.3141364    0.1499806  47.84  0.001157735    2.208    0.547
        97  -9.3524     83.6536    101.3176   8.3725093797e+01   4.5843093252e+01    0.1521765    0.1200008  78.35  0.000704858    1.725    0.420
        98 -11.1856     65.2186     97.3391   8.8946049895e+01   4.9688000228e+01    0.5393111    0.3367333  65.85  0.002146631    2.825    0.646
        99  -9.3058     43.4576     92.4735   9.5628394163e+01   5.3626344648e+01    0.1396183    0.1220632 -42.47 4.641868e-05    1.002    0.002
       100 -10.6868     35.3209     90.4458   9.8216536203e+01   5.4958709733e+01    0.4276129    0.2502106 -82.07  0.001841833    2.579    0.612
       101  -9.5253      4.8820     91.7431   1.0999415616e+02   5.6941847612e+01    0.2419414    0.1478959  79.33  0.001236484    2.157    0.536
       102 -10.5508     88.9385     88.4540   7.8337278538e+01   4.7797098375e+01    0.6783534    0.3126828  58.74  0.001804972    5.592    0.821
       103 -11.1878     49.7814     85.4630   9.1434337723e+01   5.4505248037e+01    0.5795217     0.347849  62.92  0.002311605    3.217    0.689
       104 -13.7260    248.7910    120.8105   5.1627632285e+01   8.0775911789e+00     1.745371    0.9162656 -33.76  0.008495889    1.754    0.430
       105 -10.4519     24.5753     80.6371   1.0010589313e+02   5.8206216524e+01    0.3615177    0.2431377 -86.72   0.00147434    2.069    0.517
       106  -9.4532      8.5127     80.5575   1.0653901794e+02   5.9350274655e+01    0.1821965     0.110372 -74.95 0.0001068703    1.689    0.408
       107 -10.6057     84.1929     74.3727   7.5565011568e+01   5.1591874236e+01    0.5076189      0.29378  64.48   0.00178303    3.623    0.724
       108  -9.9997     96.7090     72.7132   7.0938806438e+01   4.9524130448e+01    0.2934899    0.1808582  64.50  0.001171471    2.539    0.606
       109 -10.1617    111.3409     85.6366   7.0559318856e+01   4.3969732584e+01    0.4822216    0.2167145  29.40  0.001436518    3.920    0.745
       110 -11.1906     52.2024     70.6558   8.6182559437e+01   5.7423066789e+01    0.4302904    0.2612979 -63.79  0.001795861    2.200    0.546
       111  -9.3446     16.6160     70.3465   1.0090887198e+02   6.1126401155e+01    0.1760045    0.1461699  77.65 0.0007228608    1.630    0.387
       112 -10.1200     37.6451     64.6361   9.0301313581e+01   6.0443989821e+01    0.2416699    0.1919181  75.04  0.001148004    2.027    0.507
       113 -11.7307     74.5606     60.5448   7.4287077074e+01   5.5954763072e+01    0.4592128    0.2850196  52.08  0.001651546    2.011    0.503
       114  -9.5908     24.9961     58.7573   9.4039875187e+01   6.2917796340e+01    0.2241143    0.1599616 -64.46  0.001283748    1.634    0.388
       115  -9.3085      7.4094     57.2563   1.0165694579e+02   6.4536691998e+01    0.1650847    0.1069745 -68.78 0.0009456689    1.675    0.403
       116 -11.2766     63.3585     55.3675   7.6626897652e+01   5.8767587568e+01    0.2950101    0.2355315 -54.69  0.001029267    1.547    0.354
       117 -10.9822     55.0216     54.9178   7.9771396810e+01   6.0123315737e+01    0.3616035    0.2245731 -57.00  0.001741087    2.153    0.535
       118 -10.1612     44.4715     55.6200   8.4423199681e+01   6.1430512673e+01    0.2613922    0.1877889 -55.72   0.00121877    1.634    0.388
       119 -12.6129     93.9721     51.9986   6.4741371802e+01   5.3724786589e+01    0.6834526    0.3237637  40.35  0.002873728    2.077    0.519
       120 -10.0596     31.0914     50.8418   8.8703667690e+01   6.3893855364e+01    0.3817249     0.203835 -62.82  0.001720679    2.780    0.640
       121 -10.3195     45.3952     49.1701   8.1717803506e+01   6.2509016454e+01    0.2453599    0.1954818   4.98 0.0005418638    1.174    0.148
       122 -12.2438     83.7363     47.8858   6.6526771209e+01   5.6416821246e+01    0.5692505    0.2395765  49.21   0.00229037    2.462    0.594
       123 -10.4876    125.7104     46.3115   5.4244922715e+01   4.7580100035e+01    0.3034887    0.1438611  39.16  0.001184932    2.468    0.595
       124 -12.6178     71.2627     42.6948   6.8890044214e+01   5.9551126715e+01    0.5286738    0.3662291  65.08   0.00257204    2.354    0.575
       125  -9.9327     45.0266     44.7796   8.0229299167e+01   6.3335582653e+01    0.2248109     0.164608 -52.08  0.001278728    1.676    0.403
       126 -11.5561     58.6187     42.8372   7.3774983377e+01   6.1666789216e+01    0.3048004    0.2454418 -55.14  0.001765827    1.688    0.408
       127 -12.4450    113.5406     41.0531   5.5408020510e+01   5.1108387353e+01     0.922747     0.157072  51.61  0.002581024    4.595    0.782
       128 -13.6677    248.8634    101.8001   4.7665508768e+01   1.1248644834e+01     1.683653    0.6783327 -39.04  0.007418537    2.084    0.520
       129  -9.9494     36.9754     40.5557   8.2214940051e+01   6.5097574631e+01    0.2237369    0.1734368 -50.48  0.001062891    1.567    0.362
       130 -12.3342     97.7017     39.3002   5.9025912591e+01   5.4833356664e+01    0.4086617    0.2608342  54.48  0.002061222    1.547    0.353
       131 -12.3116     83.0278     38.3165   6.3136740242e+01   5.7983667368e+01    0.4925137    0.3585859 -86.17   0.00206475    2.728    0.633
       132 -12.6603    249.4312     81.1857   4.3315372552e+01   1.4458788361e+01     1.388741    0.2331445 -39.62  0.004265852    4.502    0.778
       133 -12.3536    114.2513     36.0032   5.3486259781e+01   5.1614205688e+01    0.4552875    0.2563437  54.53  0.002176074    1.615    0.381
       134 -11.6053    105.6740     35.9663   5.5630650506e+01   5.3545474987e+01    0.2678547    0.2004248  60.74 0.0009506169    1.353    0.261
       135 -13.4543     73.5077     32.2951   6.3951674157e+01   6.0644554470e+01     0.532722    0.5008737  49.08  0.003454876    1.287    0.223
       136 -11.0349    157.4036    245.9166   9.2733427566e+01   6.5659643833e-01    0.2459968    0.1536034   1.02  0.001188892    2.317    0.568
       137 -13.2807    248.2113    158.0583   5.9319606465e+01   1.8227655241e+00     1.576366    0.7476723 -35.69  0.007512178    1.791    0.442
       138 -10.0252    167.4705    242.4903   9.0158777672e+01  -2.6863923630e-01    0.1285937    0.1091095  18.68 0.0008098698    1.002    0.002
       139 -10.5639    235.0432    239.9276   7.6713012346e+01  -9.1734612092e+00     0.311639    0.1330649  37.19  0.001573775    2.472    0.595
       140 -10.5622     58.8730     22.8400   6.5312768580e+01   6.4504519904e+01    0.2463887    0.1563085 -21.51 0.0007978873    1.592    0.372
       141 -13.4791     81.5736     27.6739   5.9405445379e+01   5.9677416396e+01    0.8495319    0.4967397  70.09  0.003628392    3.046    0.672
       142  -9.5552    154.8056    238.9895   9.2271550526e+01   2.2381126147e+00    0.2053296    0.1366213 -17.93  0.000946201    1.963    0.491
       143  -9.2739     40.9596     21.3124   7.2172250763e+01   6.7535090427e+01    0.1682097    0.1307968   9.86 0.0002725722    1.076    0.071
       144 -11.8650     60.9208     33.2250   6.8972766722e+01   6.2758144731e+01    0.3064296    0.2561635  51.13   0.00128302    1.505    0.336
       145 -11.1028    160.4694    235.9904   9.0634367997e+01   1.8979008187e+00    0.3499881    0.2294799 -13.94  0.001584347    2.026    0.506
       146 -11.0158     49.8554     32.0174   7.2979572000e+01   6.4704716669e+01    0.2983296    0.1530865 -33.05   0.00150777    1.900    0.474
       147 -12.9285    103.5942     29.8499   5.3953701338e+01   5.4769093288e+01    0.5513307    0.2725191  56.03  0.002526333    1.870    0.465
