#   1 NUMBER                 Running object number                                     
#   2 MAG_AUTO               Kron-like elliptical aperture magnitude                    [mag]
#   3 X_IMAGE                Object position along x                                    [pixel]
#   4 Y_IMAGE                Object position along y                                    [pixel]
#   5 X_WORLD                Barycenter position along world x axis                     [deg]
#   6 Y_WORLD                Barycenter position along world y axis                     [deg]
#   7 A_WORLD                Profile RMS along major axis (world units)                 [deg]
#   8 B_WORLD                Profile RMS along minor axis (world units)                 [deg]
#   9 THETA_WORLD            Position angle (CCW/world-x)                               [deg]
#  10 FWHM_WORLD             FWHM assuming a gaussian core                              [deg]
#  11 ELONGATION             A_IMAGE/B_IMAGE                                           
#  12 ELLIPTICITY            1 - B_IMAGE/A_IMAGE                                       
         1 -14.7553    145.0042     62.6945   9.3437655138e+01   4.0260553817e+01     1.267668     1.156791 -46.35  0.001128342    1.096    0.088
         2 -14.7797    154.8464     48.0147   8.6550912013e+01   4.0273956640e+01     1.347956     1.140648 -25.37  0.003615623    1.163    0.140
         3 -14.7941    165.1558     16.9734   7.3791550590e+01   4.1757684609e+01     1.162788     1.036536 -71.67  0.003746537    1.218    0.179
         4 -13.2941    188.8268     13.4896   6.9218129516e+01   3.5836464013e+01    0.5763174    0.3558342 -41.37  0.002109075    1.618    0.382
         5 -12.0430    198.7782    245.9698   1.1882771103e+02   3.4863508180e+00    0.2426571    0.1110787  53.49  0.001412217    2.428    0.588
         6 -11.9328    148.4728    248.3387   1.2647123764e+02   1.0376876296e+01    0.2556619    0.2136682 -20.57  0.001693784    1.849    0.459
         7 -11.5796    152.8570    246.8894   1.2568202290e+02   9.9221989953e+00    0.2577702    0.1260252  48.30   0.00106203    1.492    0.330
         8 -20.5143     88.1672    183.5998   1.3005101630e+02   2.7931910849e+01     11.80803     5.842013 -67.21   0.06880414    2.178    0.541
         9 -12.5958     26.0667    200.7552   1.4227803588e+02   3.2346035963e+01    0.2293664    0.1678001 -73.95 0.0008781813    1.580    0.367
        10 -10.9391     23.7701    191.1746   1.4216892461e+02   3.4165195727e+01    0.1569857    0.1327878 -71.72  0.001116272    1.593    0.372
        11 -11.9040    164.4534    241.4785   1.2340430063e+02   8.8574193101e+00    0.3425389    0.1367626  45.42  0.002051348    1.804    0.446
        12 -10.8018     15.2675    187.7459   1.4345014569e+02   3.5550063009e+01    0.1168334    0.1040753  85.63 0.0004655964    1.461    0.315
        13 -10.8813      4.7928    250.8111   1.4729317600e+02   2.6903327690e+01    0.1624953   0.06411328  31.13 0.0007238407    4.309    0.768
        14 -11.1663     13.6293    239.8965   1.4576431216e+02   2.7596993012e+01    0.1231572   0.06487335 -89.05 0.0008691524    1.704    0.413
        15 -12.2738    165.2496    171.5636   1.1418164463e+02   1.7570073328e+01    0.2783476    0.1895541  60.06  0.001163942    1.554    0.357
        16 -13.4808    230.0641    168.3023   1.0264381133e+02   6.4053241921e+00    0.4588663    0.2916636 -25.08  0.002759412    1.677    0.404
        17 -12.1771    185.8967    236.5938   1.1964612467e+02   6.2444639855e+00    0.2427263    0.1463666 -47.55  0.001315941    2.409    0.585
        18 -11.7312    237.0189    158.3091   9.9699478494e+01   6.2898679499e+00    0.1757402     0.138487  29.77 0.0004076661    1.095    0.087
        19 -12.1085    196.3979    232.6315   1.1760150069e+02   5.0876866385e+00    0.1913996     0.132219 -43.67   0.00124525    2.049    0.512
        20 -11.5626     22.7776    156.2357   1.4023664410e+02   4.0538090198e+01    0.1799879    0.1449649  71.20 0.0006571973    1.156    0.135
        21 -13.9208    174.2592    149.4667   1.0868126903e+02   1.9221816757e+01    0.6372889    0.3794985 -52.37  0.002945182    2.098    0.523
        22 -12.7070    174.6624    141.1113   1.0699216733e+02   2.0434263145e+01    0.2819887    0.2072295  36.93 0.0007702475    1.300    0.231
        23 -11.2430     19.7508    148.1575   1.4027808891e+02   4.2364922472e+01    0.3097934    0.2107494 -19.80   0.00183554    3.465    0.711
        24 -10.0805     28.0873    233.3067   1.4344888491e+02   2.7140484297e+01    0.1140202    0.0709354  61.19 0.0002138116    1.064    0.060
        25 -12.3666      8.5336    136.9767   1.4184984372e+02   4.5502940201e+01    0.5241742    0.3125084  -9.82  0.002663647    4.918    0.797
        26  -9.5832      6.6542    229.5720   1.4642810764e+02   2.9715475245e+01   0.08650208   0.05647743  68.80 0.0001863242    1.057    0.054
        27 -13.9140    160.4042    128.3145   1.0715023593e+02   2.5358294813e+01    0.5193918     0.489204  38.00  0.002101167    1.041    0.039
        28 -12.1132    142.0762    121.3545   1.0946981080e+02   3.0229668605e+01     0.440598    0.2285125  64.11  0.001507817    2.841    0.648
        29 -11.3732    208.0230    225.8991   1.1500931537e+02   4.0042366435e+00    0.2131644    0.1305582 -24.13   0.00100066    2.105    0.525
        30 -12.1957    199.1196    226.1761   1.1638618027e+02   5.3180478754e+00    0.1800428    0.1539184 -34.84   0.00130057    1.579    0.366
        31 -12.2703     38.4218    115.9305   1.3299303434e+02   4.7131063057e+01    0.2563193    0.1969221  17.94 0.0009808425    1.890    0.471
        32 -11.0290    162.0335    244.4724   1.2407512280e+02   8.8845377296e+00    0.1455481    0.1270547  58.63 9.133473e-05    1.287    0.223
        33 -11.3862      2.8626    112.5040   1.4135589186e+02   5.0872719866e+01    0.2010822    0.1171362 -62.34  0.001345973    1.638    0.390
        34 -11.0445    205.4849    110.1580   9.4585140288e+01   1.8710048368e+01    0.3049079    0.1883167  41.54 0.0008695596    1.573    0.364
        35 -11.1102     37.9484    102.3904   1.3132351039e+02   5.0070630661e+01    0.2100226    0.1772186 -13.03  0.001052068    1.765    0.433
        36 -10.7482    217.9780    218.3747   1.1250380827e+02   3.2153900216e+00    0.1651433    0.1452406 -40.79 0.0008840978    1.653    0.395
        37 -11.1654     24.5557    215.0676   1.4320025407e+02   3.0216315429e+01    0.1292372   0.08710661  61.32 0.0001030435    1.093    0.085
        38 -10.8020     20.6247    211.2101   1.4364538429e+02   3.1199875676e+01    0.1115496   0.07148778 -79.29 0.0004005457    1.580    0.367
        39 -12.0575    141.2065     82.1384   1.0007433235e+02   3.7664251727e+01    0.4099039    0.2584841 -27.81  0.001458553    1.836    0.455
        40 -10.9954    108.2475     82.9739   1.0833535725e+02   4.4206567800e+01    0.2153092    0.1969632  56.50  0.000339534    1.137    0.120
        41 -12.0241     60.7274     82.9792   1.2152224966e+02   5.1701827818e+01    0.2403734     0.187165  41.78   0.00050446    1.455    0.312
        42 -11.8560    188.2970    248.1830   1.2059663276e+02   4.7726126897e+00    0.2235875    0.1274622  54.17 0.0009585527    1.771    0.435
        43 -12.7403    182.4373    245.3893   1.2114814626e+02   5.8751616592e+00    0.2707468    0.1962778  63.27 0.0005102121    1.711    0.416
        44 -13.3596    158.7278     38.6884   8.2607151753e+01   4.0671566313e+01    0.5147285    0.4533469  35.05 0.0007834965    1.152    0.132
        45 -13.5062     11.6111    205.7056   1.4483881702e+02   3.2916039120e+01    0.3434593     0.258972  35.56  0.002153002    1.781    0.438
        46 -11.2071     13.4821     59.7702   1.3191891500e+02   6.1418156842e+01    0.1966169    0.1589065  82.95 0.0004736239    1.264    0.209
        47 -11.4560      1.9386     26.8985   1.2940415805e+02   6.9100811940e+01    0.1878493    0.1398845 -47.83 0.0007222863    1.194    0.162
        48 -11.5248    187.1707    244.1794   1.2031897279e+02   5.3137753166e+00    0.1526492    0.1051417  33.44 0.0003641177    1.187    0.158
