#   1 NUMBER                 Running object number                                     
#   2 MAG_AUTO               Kron-like elliptical aperture magnitude                    [mag]
#   3 X_IMAGE                Object position along x                                    [pixel]
#   4 Y_IMAGE                Object position along y                                    [pixel]
#   5 X_WORLD                Barycenter position along world x axis                     [deg]
#   6 Y_WORLD                Barycenter position along world y axis                     [deg]
#   7 A_WORLD                Profile RMS along major axis (world units)                 [deg]
#   8 B_WORLD                Profile RMS along minor axis (world units)                 [deg]
#   9 THETA_WORLD            Position angle (CCW/world-x)                               [deg]
#  10 FWHM_WORLD             FWHM assuming a gaussian core                              [deg]
#  11 ELONGATION             A_IMAGE/B_IMAGE                                           
#  12 ELLIPTICITY            1 - B_IMAGE/A_IMAGE                                       
         1 -10.6425      2.2462     60.1248   1.0489545742e+02   6.4727083123e+01    0.9094392    0.1110595 -78.69   0.00231939    6.306    0.841
         2 -11.7078    220.9688     41.1696   2.8912745795e+01   2.5169337610e+01    0.8626512    0.5556078 -34.57  0.004864387    1.346    0.257
         3 -11.6736    244.9526     22.2559   2.2516717220e+01   2.2336577428e+01    0.6868685    0.4965761 -43.37  0.002565888    1.133    0.118
         4 -10.5232      2.1456     17.5827   9.8052270902e+01   7.5259875525e+01    0.6673942    0.1116425 -68.67  0.002210624    4.031    0.752
         5  -8.0155    189.7032     15.3511   2.4972400237e+01   3.5013114176e+01    0.1470957   0.08554416 -55.30 0.0003864921    1.686    0.407
         6 -11.7472     76.9953    220.8350   9.4780927060e+01   2.0885673851e+01     1.458625     1.071409  40.56  0.009917966    1.079    0.073
         7 -12.9430      8.9596    246.6985   1.1039195196e+02   2.3209502734e+01     2.603159    0.9772031  13.76   0.01195134    4.122    0.757
         8 -11.6851     98.7080    227.4557   9.0529178246e+01   1.7213094191e+01    0.9031547    0.2480569  34.90   0.00395392    2.476    0.596
         9  -8.9514      3.3049    231.6700   1.1126382516e+02   2.6108470467e+01    0.1811472    0.1421608  82.07  0.001473585    1.415    0.293
        10  -9.1558      1.7132    226.5050   1.1151098742e+02   2.7109731369e+01    0.3299363    0.1316416  58.21  0.001985597    1.918    0.479
        11 -11.0350     90.7881    227.0175   9.2222489646e+01   1.8236996428e+01     0.492913    0.2271326  36.55  0.002715736    1.583    0.368
        12  -9.0027     49.6350    221.9581   1.0100904163e+02   2.3671333966e+01    0.2562137     0.164252  44.17  0.001630947    1.187    0.158
        13  -9.6627      7.5363    228.4942   1.1034151558e+02   2.6321165725e+01    0.2898891    0.1693381  14.43  0.001887489    1.916    0.478
        14 -12.3359     57.0125    210.6689   9.8629606425e+01   2.4926179222e+01     3.014777    0.4358627  48.00   0.00849604    6.638    0.849
        15 -12.4632      2.8533    130.8854   1.0895402812e+02   4.6882265270e+01     2.497579    0.4740845 -84.53  0.007773082    4.931    0.797
        16 -12.4637     11.9261    157.5032   1.0726696974e+02   4.0100778197e+01     3.090187    0.7415676  69.78  0.009277211    5.697    0.824
        17 -11.3611     18.3372    199.3442   1.0718434397e+02   3.0784691858e+01      0.45547    0.3465017 -29.92  0.001492711    1.887    0.470
        18 -12.8500     29.2721    190.2423   1.0414514254e+02   3.1650056170e+01     1.169361      1.01193  56.26   0.00477181    1.100    0.091
        19 -11.2688      2.4101    210.1908   1.1109949694e+02   2.9968524961e+01    0.7385626    0.2652358  75.93  0.001852525    2.695    0.629
        20 -11.8933     10.3737    206.7485   1.0924863763e+02   3.0006815809e+01    0.7915877    0.4236074  31.80   0.00255091    1.481    0.325
        21  -8.2004     53.5591    218.9790   9.9954125645e+01   2.3792327001e+01    0.1460914    0.1118028 -80.94  0.000579258    1.576    0.365
        22  -9.3383     81.3118    212.4859   9.3098746155e+01   2.1824960128e+01    0.2335514    0.1786293  51.91 0.0004873528    1.247    0.198
        23  -7.9473     45.3001    211.3220   1.0140166552e+02   2.6025248697e+01    0.1045613   0.08682022 -14.66 0.0003866709    1.627    0.385
        24 -12.2038     52.7754    237.5460   1.0116448638e+02   2.0720013844e+01     1.851815    0.5954922  19.96  0.007206997    4.167    0.760
        25  -9.7066      9.9836    195.8281   1.0905352357e+02   3.2138116286e+01    0.2389308    0.1577642  83.92  0.001438195    1.504    0.335
        26 -10.2817      8.3149    191.3421   1.0933172957e+02   3.3153471473e+01    0.4343058    0.2000157 -46.46  0.002086014    3.489    0.713
        27 -10.2739      6.4940    187.0289   1.0966138892e+02   3.4155820625e+01    0.2824832    0.1797256  69.33  0.001210901    1.383    0.277
        28 -11.3911      2.5219    164.8020   1.1010711840e+02   3.9111711538e+01     1.483143    0.2638813  86.48  0.004296992    6.764    0.852
        29 -10.1323     56.5880    168.7967   9.5390051064e+01   3.3404893836e+01    0.3523529    0.2685809 -13.92 0.0007676564    1.733    0.423
        30  -8.4036    239.7288    177.2680   5.5657960460e+01   5.1933948559e+00    0.1770291   0.07504082  25.85  0.000897587    2.421    0.587
        31  -8.4595    105.0406    172.7356   8.2747021705e+01   2.6120381702e+01    0.2335641    0.1695492 -36.78  0.001270585    1.643    0.391
        32 -10.5500     50.0542    174.1870   9.7668773179e+01   3.2960769291e+01    0.5622045    0.3219653 -42.33  0.001571259    2.378    0.579
        33  -7.5730    110.5021    167.5054   8.0560497929e+01   2.6328813867e+01     0.139811    0.1197392  34.62 0.0002166705    1.034    0.033
        34 -10.0381     83.4845    163.9914   8.7330975385e+01   3.1036537792e+01     0.602385    0.2698397  54.76  0.002317602    2.872    0.652
        35 -10.8227     58.4763    134.5010   9.0926974176e+01   4.1110803369e+01      1.15221    0.4665228 -88.64  0.003210444    5.630    0.822
        36 -11.2054     76.1554    153.9173   8.8081054424e+01   3.4259785893e+01    0.6351472    0.5729035 -15.72  0.001844921    1.285    0.222
        37 -11.6878     68.1545    144.6457   8.9229307772e+01   3.7459406671e+01    0.8854229    0.5751258  64.21  0.003003542    1.731    0.422
        38  -8.4106     32.5146    164.9302   1.0183789482e+02   3.6751194603e+01    0.1909258    0.1779064  -2.67  0.001275287    1.288    0.224
        39  -9.7193     68.1286    159.8730   9.1166461951e+01   3.3984655633e+01    0.2776828    0.2586093  13.87 0.0005072101    1.170    0.145
        40 -11.6711     54.0480    155.7484   9.4826916024e+01   3.6619367374e+01    0.4898389    0.3253389 -30.61  0.001470329    2.069    0.517
        41  -8.2388     32.2157    157.7572   1.0143363736e+02   3.8400433348e+01    0.2216131    0.1328347  45.93  0.001192525    1.433    0.302
        42 -10.5806      2.1823    182.7804   1.1062017342e+02   3.5326080770e+01     0.516616    0.1969058 -81.68  0.002583471    2.651    0.623
        43 -10.5284     80.3126    139.0356   8.4641785292e+01   3.7071339671e+01    0.3636483    0.3108378  69.17 0.0004582424    1.230    0.187
        44  -8.5949     92.8144    140.8958   8.1160905182e+01   3.4737642146e+01     0.333068    0.2872818  -4.45  0.001659797    1.317    0.241
        45  -7.9362     96.6421    137.6707   7.9455604021e+01   3.4845850339e+01    0.2619174    0.1775434  11.46 0.0008483135    1.848    0.459
        46  -9.3073    106.1836    130.3922   7.5246479365e+01   3.4845802406e+01    0.4230062    0.3328803  -2.37  0.001494989    1.547    0.354
        47  -8.8083     92.4430    126.1522   7.8572675654e+01   3.8157819523e+01    0.2757506    0.2262062  27.20 0.0004990208    1.188    0.158
        48 -10.2012     52.9445    116.3651   9.0216282952e+01   4.6269172753e+01    0.5758658     0.273309 -80.45 0.0009109939    2.641    0.621
        49  -7.8077     22.4688    119.5245   1.0161413792e+02   4.8433408797e+01    0.1313427    0.1208734  74.27 0.0001581158    1.019    0.018
        50  -8.2808    205.0110    110.8663   4.8005704036e+01   1.9255982916e+01     0.354501    0.1480951  37.27  0.001435896    2.757    0.637
        51  -8.0822    104.0312    118.8971   7.3476285695e+01   3.7788825504e+01    0.2250308    0.2025015  33.93 0.0003305506    1.043    0.041
        52 -10.1952      2.1940     73.7446   1.0612439061e+02   6.1243219702e+01    0.6284529    0.2131045  89.62  0.002377351    2.955    0.662
        53  -9.9994      1.6570     95.6750   1.0779488267e+02   5.5660017558e+01    0.5823735    0.1382125 -81.97  0.001962845    3.713    0.731
        54 -10.5800      2.0593     85.3040   1.0700946245e+02   5.8287168910e+01     0.927058    0.1231762 -80.31  0.002436682    5.998    0.833
        55  -7.8619     83.2611     97.6037   7.5413012714e+01   4.6459103855e+01    0.1555919    0.1177274  79.82 0.0006969735    1.711    0.415
        56  -7.6968    184.6414     77.6938   4.3233816772e+01   2.8338153724e+01    0.1481258    0.1057391  19.86  0.000704039    1.727    0.421
        57 -10.3927     10.9275    238.8719   1.0985516592e+02   2.4311763860e+01    0.3694395    0.1841443  78.24  0.000678858    2.059    0.514
        58  -9.5329      8.8730     60.6827   1.0136817509e+02   6.4361404361e+01    0.2525151    0.1602766 -63.22  0.001334402    1.389    0.280
        59 -11.4656    203.3934     52.8762   3.3848902942e+01   2.7567231258e+01    0.7605923    0.6959843  65.66  0.004742415    1.172    0.147
        60 -11.6880    213.9976     45.3897   3.0683106093e+01   2.6163019073e+01      0.62471    0.5909492  71.02  0.003294465    1.158    0.136
        61  -8.7218     54.4423    242.7536   1.0108452459e+02   1.9716908748e+01    0.1952511    0.1501233  18.92 0.0009252714    1.356    0.263
        62 -11.6659    228.8697     35.0283   2.6691588968e+01   2.4210588878e+01     0.711696    0.6751578 -25.27   0.00146712    1.133    0.117
        63  -9.2653     11.5105     53.1883   9.8760668765e+01   6.6160770500e+01    0.2400852    0.1589247 -19.27  0.001265402    1.622    0.384
        64  -9.4537     13.0600     60.5298   9.9059649488e+01   6.4209984081e+01    0.2887272    0.2077677 -78.96 0.0006500119    1.313    0.238
        65  -9.9378      2.1634     40.3290   1.0254180329e+02   6.9728913236e+01    0.3451407    0.1576489 -83.96  0.001560457    2.138    0.532
        66  -8.6869     18.2095     47.3878   9.3568949150e+01   6.7253846997e+01    0.1828833    0.1185963  29.72  0.000672412    1.632    0.387
        67  -7.8158    121.8870     29.9062   4.0136528727e+01   5.1034160473e+01    0.2472446    0.1755685 -67.69  0.001114757    1.729    0.422
        68  -8.4203    114.7499    238.5723   8.8156751586e+01   1.3584692339e+01    0.1733998    0.1624609 -29.58 0.0007788737    1.420    0.296
        69 -11.4687    112.0628    226.3398   8.7523993703e+01   1.5736308952e+01    0.6375199    0.4699627  11.53  0.004244798    1.362    0.266
