#   1 NUMBER                 Running object number                                     
#   2 MAG_AUTO               Kron-like elliptical aperture magnitude                    [mag]
#   3 X_IMAGE                Object position along x                                    [pixel]
#   4 Y_IMAGE                Object position along y                                    [pixel]
#   5 X_WORLD                Barycenter position along world x axis                     [deg]
#   6 Y_WORLD                Barycenter position along world y axis                     [deg]
#   7 A_WORLD                Profile RMS along major axis (world units)                 [deg]
#   8 B_WORLD                Profile RMS along minor axis (world units)                 [deg]
#   9 THETA_WORLD            Position angle (CCW/world-x)                               [deg]
#  10 FWHM_WORLD             FWHM assuming a gaussian core                              [deg]
#  11 ELONGATION             A_IMAGE/B_IMAGE                                           
#  12 ELLIPTICITY            1 - B_IMAGE/A_IMAGE                                       
         1 -13.2667    195.2919     31.8505   6.5274002621e+01   3.2948874482e+01     1.041409     1.019355 -49.43  0.006212108    1.254    0.203
         2 -14.0104    208.4836     15.9602   6.0043028441e+01   3.1752590132e+01     1.565122     1.163836  33.77   0.00906616    2.010    0.502
         3 -12.0762      2.4790     14.0338   1.1267087651e+02   7.0936538317e+01    0.8867927     0.197773 -47.34  0.003664846    4.464    0.776
         4 -11.3922     53.2294    237.9234   1.3976667854e+02   1.8319659239e+01    0.5720788    0.2197693  52.91 0.0005407039    2.260    0.558
         5 -10.1262    247.8666    250.1183   1.0382460305e+02  -1.4456789922e+01    0.3467052    0.1072717  29.80  0.001372367    3.650    0.726
         6 -11.5341    139.2925    249.1029   1.2431704276e+02   2.8104772219e+00    0.3317833    0.2523477 -74.98  0.001970357    1.593    0.372
         7 -11.0051     92.8613    249.4433   1.3340388162e+02   1.0293368071e+01     0.310997    0.2342644  50.80 0.0009378752    1.167    0.143
         8 -11.5964     89.3174    245.0679   1.3361426288e+02   1.1687814853e+01    0.4511737    0.2587196  84.91  0.001991259    2.131    0.531
         9 -12.9422      5.1218    246.2575   1.4872794034e+02   2.2331108111e+01     1.928107    0.7104981 -82.74   0.01036391    2.310    0.567
        10 -14.2848     35.5357    246.3387   1.4362904349e+02   1.8881376802e+01     12.69132     3.606231  30.27   0.02609941   17.703    0.944
        11 -15.0007      9.4471    206.8436   1.4548230100e+02   3.0032113485e+01      9.26318    0.8751863 -72.98   0.01258822    7.207    0.861
        12 -11.4044     99.0492    236.7283   1.3075678809e+02   1.1820254513e+01    0.3156896     0.223798  80.09  0.000718721    1.440    0.306
        13  -8.8851     28.4891    234.4491   1.4400612255e+02   2.2124150852e+01    0.1192936   0.08740271  76.87  6.70286e-05    1.010    0.010
        14 -11.7067     17.6740    230.8082   1.4566986764e+02   2.4092191241e+01    0.3630275    0.2102954 -76.45  0.002300285    1.487    0.327
        15 -10.5812     20.8559    229.1697   1.4499113348e+02   2.4082724901e+01    0.2020977    0.1408674  58.87 0.0005993706    1.265    0.210
        16 -10.2749     51.9703    233.4845   1.3960873263e+02   1.9404336059e+01    0.2164555     0.175728  65.40  0.001002871    1.142    0.125
        17 -12.7089     36.2055    226.1912   1.4194908665e+02   2.2934593722e+01    0.3286904    0.2951893 -85.25 0.0007823603    1.349    0.259
        18 -10.1393     25.4405    226.2701   1.4395031205e+02   2.4176670486e+01     0.166072   0.08989503  89.39 0.0009473567    1.584    0.369
        19 -12.3066    106.7997    245.4066   1.3025208286e+02   8.8685952576e+00    0.6773293    0.2837374  56.72  0.002827756    2.630    0.620
        20 -12.6603     16.5283    241.8030   1.4658430070e+02   2.1989456689e+01     1.084606    0.4704813  58.59  0.003605028    1.887    0.470
        21 -15.4387     47.9001    203.9930   1.3755190783e+02   2.6376229498e+01     12.13232     4.832637  76.97   0.03508004    6.025    0.834
        22 -10.9877     23.0905    213.5194   1.4340059338e+02   2.7169903000e+01    0.4021776    0.1428463  32.59  0.001820502    3.354    0.702
        23 -10.4236    228.2370    204.8916   9.9237242085e+01  -4.7962300933e+00    0.2593119    0.2078088 -45.37 0.0006197112    1.391    0.281
        24  -9.8472    193.0211    194.7515   1.0417548676e+02   3.3235389758e+00    0.7312722    0.3380006 -63.51  0.001479136   10.769    0.907
        25  -8.3876     67.3168    198.6457   1.3275850302e+02   2.4994828702e+01    0.1466175   0.08964227  74.05 0.0007046064    1.744    0.426
        26 -11.5917     62.7172    193.4474   1.3312540388e+02   2.6856251398e+01    0.3762101    0.2626257 -44.54  0.001782789    1.842    0.457
        27 -11.2876    126.0652    243.8802   1.2624858282e+02   5.9859093297e+00    0.2546686    0.1668265  40.01  0.001394575    1.390    0.280
        28  -8.4846    181.4905    192.4289   1.0612771483e+02   5.9920525457e+00    0.1448779    0.1366041  14.22 9.112581e-05    1.050    0.047
        29 -11.7071     68.3514    186.1895   1.3088784388e+02   2.7784343124e+01    0.3008636    0.2483826 -50.81 0.0005415319    1.395    0.283
        30 -10.9804     78.1059    174.3152   1.2681721958e+02   2.9213257544e+01     0.252174    0.2318201 -79.81 0.0003799612    1.091    0.083
        31 -13.2346     65.1597    171.7614   1.2958006267e+02   3.1721063913e+01    0.5349468    0.2809921 -46.00   0.00159358    2.242    0.554
        32  -9.5721    231.6757    169.3341   9.1443884579e+01   8.9647582251e-01    0.1379926    0.1104917 -73.13 0.0005325428    1.711    0.416
        33 -11.9611     85.6960    165.6045   1.2348938001e+02   3.0161238094e+01    0.8718768    0.5948586  59.44  0.004241633    1.563    0.360
        34 -13.9696     43.3363    217.3304   1.3980005571e+02   2.3970000190e+01     1.071901    0.7636474  68.77  0.005278412    1.179    0.152
        35 -12.8105     67.3708    143.9986   1.2440327714e+02   3.8238854945e+01     1.017006    0.6372797  89.50  0.002612416    2.107    0.525
        36 -11.9508     57.7086    132.2136   1.2486897587e+02   4.2406714565e+01     2.027305    0.6516811 -70.69  0.004375093    8.404    0.881
        37 -10.4591    163.7741    249.9094   1.1960686288e+02  -1.4488296009e+00    0.2573961     0.152501  59.06  0.001256867    2.129    0.530
        38  -9.8200     98.3457    149.9595   1.1727430203e+02   3.1891358646e+01    0.3153928    0.2630573 -59.28 0.0007762802    1.131    0.116
        39  -9.1037    101.4416    146.0212   1.1564177549e+02   3.2307753892e+01    0.2327009    0.2049645 -25.18 0.0004352411    1.331    0.249
        40 -12.0669     86.9401    148.9900   1.2009666434e+02   3.4051783378e+01    0.3052446    0.2540651 -45.90 0.0004789212    1.243    0.195
        41 -10.2430     38.7716    146.4607   1.3245400747e+02   4.1154818728e+01    0.2287741    0.1227182  37.47  0.001137704    2.076    0.518
        42 -10.5849     53.1461    228.3833   1.3891762971e+02   2.0321068576e+01    0.3316664     0.180513  88.64 0.0002726485    1.844    0.458
        43  -9.5782    109.8656    135.5836   1.1109906427e+02   3.3284136456e+01    0.3391825    0.2307629 -26.78  0.001431458    1.997    0.499
        44 -10.5751     97.0937    132.6688   1.1390533384e+02   3.6317118479e+01    0.2837622    0.2324624 -29.27  0.000395319    1.392    0.282
        45  -9.0267    106.7790    122.9406   1.0894313361e+02   3.6860980210e+01    0.2011742    0.1834501 -57.42 0.0002497565    1.049    0.046
        46 -10.7641    168.0033    112.9578   9.1066402703e+01   2.5866033465e+01     0.374849    0.2919706 -77.89   0.00067678    1.526    0.345
        47  -9.5127    204.5649    110.8667   8.3220047679e+01   1.7815518493e+01    0.3684505    0.1972273  38.55  0.001418986    2.473    0.596
        48  -9.6637     33.4422    109.4699   1.2762180171e+02   5.0474843187e+01    0.1302636    0.1080782 -58.15 -5.729607e-05    1.019    0.019
        49 -10.8991    243.3275     94.3152   7.3243035260e+01   1.2382783213e+01    0.2997257    0.1790678 -69.25   0.00135649    2.079    0.519
        50 -10.8511      1.6597     89.2702   1.3386179440e+02   5.7307128577e+01    0.3894586   0.07800066 -64.03  0.001452434    3.509    0.715
        51  -9.2880    157.8018     77.4204   8.3746165560e+01   3.5184021056e+01    0.2112259    0.1363856  45.06 0.0004436775    1.594    0.373
        52 -10.9065    191.7258    249.8599   1.1415927302e+02  -6.0548753587e+00    0.4139842    0.0766613  38.25  0.001215166    5.029    0.801
        53 -12.1459    101.2028    248.5435   1.3170367333e+02   9.1620493258e+00    0.5782842     0.342325  48.94  0.003200451    1.417    0.295
        54 -10.8952    189.9581     15.5078   6.1974586173e+01   3.6123103773e+01    0.2420641    0.1569125 -56.69 0.0007995975    1.552    0.356
