#   1 NUMBER                 Running object number                                     
#   2 MAG_AUTO               Kron-like elliptical aperture magnitude                    [mag]
#   3 X_IMAGE                Object position along x                                    [pixel]
#   4 Y_IMAGE                Object position along y                                    [pixel]
#   5 X_WORLD                Barycenter position along world x axis                     [deg]
#   6 Y_WORLD                Barycenter position along world y axis                     [deg]
#   7 A_WORLD                Profile RMS along major axis (world units)                 [deg]
#   8 B_WORLD                Profile RMS along minor axis (world units)                 [deg]
#   9 THETA_WORLD            Position angle (CCW/world-x)                               [deg]
#  10 FWHM_WORLD             FWHM assuming a gaussian core                              [deg]
#  11 ELONGATION             A_IMAGE/B_IMAGE                                           
#  12 ELLIPTICITY            1 - B_IMAGE/A_IMAGE                                       
         1 -10.9317    182.5475     31.6129   7.0353234525e+01   3.6002971021e+01    0.8028837    0.7169775  68.72  0.003971213    1.076    0.070
         2 -11.1204    189.1387     21.6196   6.6819997853e+01   3.5577061452e+01    0.6235953    0.5968309  -7.15  0.001274944    1.301    0.231
         3  -9.1619    231.7373     15.7549   6.0707572710e+01   2.6135356000e+01    0.3031386    0.1984958 -46.09  0.001220556    1.467    0.318
         4  -8.5332    204.2936     10.2213   6.2215058345e+01   3.3174546501e+01    0.2142287    0.1503087  65.72 0.0007069114    1.306    0.234
         5  -7.7271    205.2695      3.3260   6.0507970667e+01   3.3659580723e+01    0.1175872   0.09038575  46.31 0.0002563503    1.575    0.365
         6  -7.5771    175.7924      3.1054   6.3744367734e+01   4.0732433375e+01     0.164288    0.1338164  46.77  0.001016777    1.325    0.245
         7  -9.3535    114.4922    230.1689   1.3000458685e+02   1.1389115974e+01    0.3538924    0.1773258  55.01  0.001674414    1.875    0.467
         8  -9.7587    133.1954    249.7800   1.2886476291e+02   4.6482263431e+00    0.5619155    0.1858973  37.42  0.002138972    3.177    0.685
         9  -8.6267    107.9121    250.2336   1.3364123807e+02   8.7296562032e+00    0.2840223    0.1456098  38.80  0.001185807    1.899    0.473
        10  -9.8167     96.5499    249.5320   1.3565318807e+02   1.0650814796e+01    0.3704616    0.2655881  62.85  0.002368268    1.130    0.115
        11  -9.3827     88.6703    244.1261   1.3654217379e+02   1.2867075509e+01    0.2199909    0.1719456  64.70 0.0004057499    1.021    0.021
        12 -11.6328     12.0119    207.3977   1.4739394443e+02   3.0125011846e+01     0.811416    0.3269398  49.47  0.002708024    2.203    0.546
        13 -11.6951     25.1277    221.3468   1.4605480783e+02   2.5867512517e+01    0.8122087    0.7679204  70.82  0.002667837    1.519    0.342
        14 -13.5489     65.4395    212.7429   1.3770643607e+02   2.2614762540e+01     4.937555     2.749084 -83.61   0.01943752    1.798    0.444
        15 -12.4296     20.4688    231.2598   1.4754545024e+02   2.4396564459e+01     1.178578    0.5425323  84.99  0.006643164    1.954    0.488
        16 -12.6611      6.4220    243.7001   1.5055236125e+02   2.3504124309e+01    0.8012854     0.634685  89.59  0.003409972    1.335    0.251
        17 -14.3868     32.1993    244.2511   1.4645160132e+02   2.0537418780e+01     2.389179     1.523447 -68.00   0.01627661    1.693    0.410
        18  -8.9857    110.3068    225.3398   1.3021917299e+02   1.3040834088e+01    0.5081772    0.2463116 -57.26  0.001949652    2.231    0.552
        19  -8.2058      8.5654    218.2525   1.4872776543e+02   2.8238627561e+01    0.1779962    0.1511716 -52.66  0.001348984    1.812    0.448
        20 -11.6169     73.5428    198.9995   1.3446579038e+02   2.4450967830e+01     3.557375    0.6315065 -54.18   0.01004042    5.970    0.832
        21  -9.1569     25.6451    210.1776   1.4511230766e+02   2.8122786584e+01    0.2049963    0.1616273  74.32 0.0005519039    1.127    0.113
        22 -10.1953    168.8596    208.4865   1.1558501491e+02   5.7164465143e+00    0.2701891    0.2420246   3.54 -0.0001410626    1.260    0.206
        23  -8.9832     23.9373    202.8414   1.4484166138e+02   2.9862801244e+01    0.3161036    0.1872468  75.14  0.001928485    1.449    0.310
        24  -8.9539    198.4008    199.8705   1.0797304139e+02   1.6680987752e+00    0.4292379    0.2389099  31.71  0.001892801    1.921    0.479
        25  -7.6325     92.9284    199.3495   1.3036819769e+02   2.1385290660e+01     0.187956    0.1515746  61.72 0.0003756245    1.121    0.108
        26  -9.5256    105.5672    229.4870   1.3168153639e+02   1.3008051374e+01    0.3746369    0.2420207  39.85  0.002053363    1.543    0.352
        27 -12.7082     18.6038    244.2757   1.4866450778e+02   2.2093513594e+01    0.5911781    0.4280169 -77.23  0.001654037    1.439    0.305
        28  -6.9223    242.6953    194.7135   9.8546146503e+01  -5.4680553913e+00    0.1324534   0.09406476   2.96 0.0002719712    1.564    0.361
        29  -7.6132    169.7806    193.7753   1.1273179508e+02   8.3900601563e+00    0.1909108    0.1617051  70.10 0.0002984773    1.302    0.232
        30  -8.5159    190.1461    189.7061   1.0768492058e+02   5.1464427273e+00    0.5557728    0.2391734 -53.41  0.001990971    3.080    0.675
        31  -9.4560     40.1072    188.0593   1.4025263485e+02   3.1304127922e+01    0.2997932    0.1864997  47.69 0.0006315368    1.605    0.377
        32 -10.2562     30.7821    185.9808   1.4197659317e+02   3.2815521508e+01    0.4865865    0.3603237  52.29  0.002630773    1.387    0.279
        33  -9.6406     87.3707    177.4397   1.2841079992e+02   2.7261157420e+01    0.4504459    0.2596527 -46.08  0.001514703    2.056    0.514
        34  -6.9308     96.3840    182.2817   1.2708761531e+02   2.4671787629e+01    0.1332084    0.1136752 -12.22 8.804825e-05    1.730    0.422
        35  -7.9990    209.3154    188.6743   1.0361976573e+02   1.6005363822e+00    0.1362396    0.1141632 -89.48 0.0007043557    1.669    0.401
        36  -7.6430    200.0103    180.5371   1.0383059945e+02   4.9284001365e+00    0.2004299    0.1266462  67.03 0.0005300773    2.486    0.598
        37  -9.0567     83.9830    183.0587   1.3003255807e+02   2.6490588331e+01    0.3954545      0.21997  49.88  0.001888828    1.748    0.428
        38 -10.3422    101.0065    175.9998   1.2500066162e+02   2.5343738676e+01     0.204477    0.1834137  84.66            0    1.001    0.001
        39  -8.0363     36.0585    171.9915   1.3937133668e+02   3.5412638941e+01    0.1910397    0.1504716  88.52 0.0004940373    1.051    0.049
        40  -9.2786     93.8771    167.6694   1.2528680475e+02   2.8497998057e+01    0.3170177    0.2546747 -80.83 0.0005450078    1.188    0.158
        41  -7.4398     44.8829    169.0837   1.3704304364e+02   3.5087575761e+01    0.1677741    0.1321391 -61.39 0.0003596031    1.279    0.218
        42  -9.3393     17.4753    166.9792   1.4290717817e+02   3.8414204169e+01    0.3268172    0.2496852  51.34   0.00222992    1.426    0.299
        43 -10.7332     82.8040    162.7840   1.2714373200e+02   3.1432786338e+01     0.426715    0.3326753 -47.33  0.002311241    1.412    0.292
        44  -7.4894      6.0000    162.0417   1.4490789079e+02   4.0502446954e+01    0.1376984    0.1054648 -85.83 0.0002947328    1.030    0.029
        45  -8.8911     98.8601    160.0237   1.2272197679e+02   2.9468137075e+01    0.4872428     0.340271 -27.01  0.001826624    2.193    0.544
        46  -7.3840    185.2601    158.0000   1.0209757028e+02   1.2475147334e+01    0.1943026    0.1311948 -43.72 0.0004732721    1.486    0.327
        47  -9.1577    115.9144    152.6066   1.1705538107e+02   2.8147236842e+01    0.2602255    0.2328654 -64.55 0.0004226185    1.082    0.075
        48  -9.1843     54.7825    152.6138   1.3241871504e+02   3.7770414649e+01    0.2473905    0.1759952 -72.85  0.001387013    1.223    0.182
        49 -10.7776     68.1902    144.6179   1.2771127752e+02   3.7919265035e+01    0.7029524     0.444765  71.80  0.003011684    2.006    0.502
        50  -9.1382     97.9258    144.0327   1.1987629162e+02   3.3436255075e+01    0.2422117    0.2093562 -64.59 0.0003189984    1.084    0.077
        51 -10.2738    227.7044    139.1607   8.9520251834e+01   7.1032759407e+00    0.2648371    0.2387775  55.59 0.0005671479    1.196    0.164
        52 -10.0594     68.1987    135.8941   1.2613027116e+02   3.9999286660e+01    0.5344828    0.2936015  89.64  0.001988379    3.257    0.693
        53  -8.1667    114.0051    137.4821   1.1431849717e+02   3.2066391980e+01    0.2224547    0.1948494 -57.93 0.0003114406    1.099    0.090
        54  -8.4514    109.0311    143.7844   1.1696315863e+02   3.1514264648e+01    0.5225906    0.2142625 -38.79   0.00159721    3.764    0.734
        55  -7.2258     79.6604    135.6866   1.2301640452e+02   3.8389874067e+01     0.142871    0.1080819 -27.57 0.0004951787    1.698    0.411
        56  -7.7311    116.3896    133.2794   1.1275340399e+02   3.2589880368e+01    0.2128228    0.1414717 -61.24 0.0005008209    1.562    0.360
        57  -9.5427     59.8267    132.3199   1.2772409684e+02   4.1957528021e+01    0.3245209    0.1919125 -46.19  0.001595295    1.693    0.409
        58  -8.3851    181.4680    145.5993   1.0011062612e+02   1.5889973256e+01    0.2488454    0.2393186  69.59 0.0002219538    1.049    0.047
        59  -7.2303    174.4970    123.0092   9.6214957373e+01   2.2229661644e+01    0.2253823    0.1538559 -43.80 0.0009848269    1.450    0.310
        60  -8.9014    246.0654    120.5470   8.2270540830e+01   6.7101366716e+00    0.2466429    0.1984514 -43.30  0.000334975    1.117    0.104
        61  -7.6360    231.9533    120.0383   8.4436926584e+01   9.7527989119e+00    0.2306047    0.1723561 -76.36  0.001116638    1.676    0.403
        62 -11.3980      7.2282    228.8493   1.4959793726e+02   2.6264695480e+01    0.7891513    0.5072982  89.82  0.003120411    1.176    0.150
        63  -7.6480    196.9039    107.3191   8.7676915545e+01   2.0111898759e+01    0.2113367    0.1989956  62.62 0.0006623561    1.084    0.078
        64  -7.5609     67.5063    104.5241   1.1972814052e+02   4.7383396444e+01    0.1389657    0.1210693 -42.22  2.17208e-05    1.071    0.066
        65  -7.0291     96.7071     90.2902   1.0727523170e+02   4.5846986786e+01    0.1370098    0.1145364 -88.53 0.0002619184    1.549    0.354
        66  -7.9152    147.0828     77.9056   9.0293119558e+01   3.7657439410e+01    0.2243527    0.1973979 -85.77  0.000287714    1.261    0.207
        67  -7.7177    184.5328     76.0924   8.1953135587e+01   2.8872003914e+01    0.2122295    0.1478319 -38.09 0.0003112428    1.468    0.319
        68  -6.9159    135.6059     72.2877   9.1376790209e+01   4.1319746077e+01    0.1530795    0.1172314 -88.14 0.0004414823    1.772    0.436
        69  -7.0406    106.7170     72.7081   9.9160600483e+01   4.7402998754e+01    0.1408764    0.1091272   1.67 0.0002745896    1.534    0.348
        70  -9.7475    240.1120     64.5689   7.0531247351e+01   1.7493040879e+01    0.2469236    0.2283491  77.38 0.0003906467    1.188    0.158
        71  -8.1473    244.3632     60.4573   6.9095359248e+01   1.7180562150e+01    0.2156163    0.1862307  51.03 0.0006327369    1.418    0.295
        72  -7.3929    248.8542     54.1610   6.7203837367e+01   1.7139992291e+01    0.1633595    0.1603155  63.43  0.001059195    1.326    0.246
        73  -7.6708    241.5051     53.5007   6.7899444368e+01   1.8866836324e+01    0.1338233    0.1180265 -72.56 7.409477e-05    1.065    0.061
        74  -9.2962    161.4476     51.6606   7.9556552800e+01   3.8503137338e+01    0.3010684    0.2322493  41.39  0.001553795    1.349    0.259
        75  -7.8348    182.1121     49.2973   7.5171171569e+01   3.3732940971e+01    0.1964432    0.1715281  82.58 0.0003660555    1.073    0.068
        76  -9.9075    172.0348     41.7849   7.4810236585e+01   3.7284855516e+01    0.3523038    0.2790022  54.84  0.001186532    1.204    0.169
        77 -10.3632    136.9316     38.8316   8.0697268305e+01   4.6162077383e+01    0.2305589    0.2160829  27.35  0.000255872    1.077    0.072
        78 -10.1763    119.2021    249.4265   1.3145114617e+02   7.0393185699e+00    0.6929414    0.2457224  37.77 0.0007672604    2.917    0.657
        79  -7.4455    113.4536    245.4775   1.3207004251e+02   8.6894807097e+00    0.1268818    0.1029222  60.47 -1.341522e-05    1.010    0.010
        80  -7.0204    118.3623    240.2942   1.3051661800e+02   8.8255640223e+00    0.1190253   0.09932304  16.31 0.0007030446    1.707    0.414
        81  -8.1050    103.0065    237.1427   1.3308970283e+02   1.1941129940e+01    0.1904707    0.1515859  67.20 0.0004634725    1.048    0.046
        82 -11.8035     48.3890    218.7629   1.4159740848e+02   2.3624526649e+01     1.173425    0.3514853  52.34  0.004469912    3.053    0.672
