#   1 NUMBER                 Running object number                                     
#   2 MAG_AUTO               Kron-like elliptical aperture magnitude                    [mag]
#   3 X_IMAGE                Object position along x                                    [pixel]
#   4 Y_IMAGE                Object position along y                                    [pixel]
#   5 X_WORLD                Barycenter position along world x axis                     [deg]
#   6 Y_WORLD                Barycenter position along world y axis                     [deg]
#   7 A_WORLD                Profile RMS along major axis (world units)                 [deg]
#   8 B_WORLD                Profile RMS along minor axis (world units)                 [deg]
#   9 THETA_WORLD            Position angle (CCW/world-x)                               [deg]
#  10 FWHM_WORLD             FWHM assuming a gaussian core                              [deg]
#  11 ELONGATION             A_IMAGE/B_IMAGE                                           
#  12 ELLIPTICITY            1 - B_IMAGE/A_IMAGE                                       
         1 -13.6682    192.7249     27.1136   6.8917699700e+01   3.3226927133e+01     1.495053      1.34796  44.60  0.008536219    1.188    0.158
         2 -13.8441    201.8316     14.9606   6.4393546351e+01   3.2198705404e+01     1.626341     1.121231  63.94  0.007803855    1.345    0.257
         3 -13.2754    206.5632      8.8172   6.2239983132e+01   3.1614028743e+01     1.229399    0.6145428  48.49   0.00143221    2.213    0.548
         4 -12.8020     14.2713     11.9626   1.1688399039e+02   7.1829946183e+01     1.025058     0.583459 -58.54   0.00577462    2.427    0.588
         5 -12.9624      2.7454      8.9726   1.2208921688e+02   7.3119352060e+01     1.273288    0.4178392 -48.90  0.006649047    2.236    0.553
         6 -13.2375      4.6598    245.9070   1.5207684978e+02   2.4833658813e+01    0.9726115    0.7592727  88.31  0.007584271    1.385    0.278
         7 -11.1380    139.5027    249.9977   1.2922755030e+02   6.4607487914e+00    0.2505916    0.1862731  45.15  0.001708158    1.014    0.014
         8 -10.9823    125.9448    249.6525   1.3166142908e+02   8.6455499357e+00    0.3193822     0.113236  40.22  0.001373803    2.231    0.552
         9 -11.3511     98.5398    248.9729   1.3654370194e+02   1.2893916083e+01      0.37141    0.2099973  53.57  0.001741333    1.371    0.270
        10 -10.9600    101.1123    245.8460   1.3579447208e+02   1.3014971606e+01    0.2576418    0.1815142  65.02 0.0008192476    1.259    0.206
        11 -12.2551     81.7508    246.8780   1.3934983704e+02   1.5621514620e+01    0.4736663    0.3905315  75.30  0.003636683    1.202    0.168
        12 -14.4783     31.4100    247.4585   1.4793042335e+02   2.1810628839e+01     9.107046     3.162349  28.83   0.03130071    8.103    0.877
        13  -9.5900    229.4025    229.2514   1.0986843075e+02  -5.4388499907e+00    0.1420665    0.1111851 -34.09 0.0005996422    1.659    0.397
        14 -11.3501    120.4642    238.4306   1.3146789315e+02   1.1244821839e+01    0.3315041    0.1944832  88.62  0.001680105    2.815    0.645
        15  -9.0543     94.7214    216.9289   1.3410895677e+02   1.8956884628e+01    0.1694897    0.1346892  68.63 0.0003192828    1.107    0.096
        16  -8.8334    152.6946    212.9181   1.2186911492e+02   1.0006839809e+01     0.167223     0.152017  49.05 0.0003076675    1.111    0.100
        17 -10.1319    192.1786    193.1801   1.1060188074e+02   5.9398735826e+00    0.4943038    0.2759148 -65.24  0.001537827    6.025    0.834
        18 -11.5263     67.4695    196.3282   1.3750867527e+02   2.6877997317e+01    0.3293827    0.2419555 -48.29  0.001641726    1.825    0.452
        19 -13.6011     44.3492    229.8910   1.4472955771e+02   2.3371869134e+01    0.9260194    0.3405391  42.11  0.001884683    2.182    0.542
        20 -11.6110     72.7280    188.9026   1.3559249836e+02   2.7682530679e+01    0.2627032     0.223848 -60.13  0.000802925    1.385    0.278
        21 -10.9581     81.7337    176.5800   1.3207977989e+02   2.8994370014e+01    0.2284558    0.2073848 -89.31 0.0003340561    1.120    0.107
        22 -13.1290     69.0363    174.3847   1.3471610633e+02   3.1277132973e+01     0.461771    0.2814342 -44.44  0.001536931    2.226    0.551
        23 -10.2499    126.5546    174.4796   1.2139697405e+02   2.1932712960e+01    0.3157051    0.1289872  41.36  0.001230718    2.238    0.553
        24 -12.0079     88.5566    167.4340   1.2920476903e+02   2.9945059717e+01     0.897588    0.5190954  57.84  0.004332324    1.780    0.438
        25 -12.8022     67.3870    144.1936   1.3097874809e+02   3.8278419456e+01     1.078261    0.6115206  84.45  0.004742433    2.418    0.586
        26 -12.1272     58.3548    132.8979   1.3162290033e+02   4.2065563678e+01     1.857489    0.6051799 -75.65  0.004284996    8.341    0.880
        27  -9.4014    103.2975    147.3453   1.2220369731e+02   3.1990344300e+01    0.2700771    0.2034925 -35.47 0.0007863371    1.629    0.386
        28 -12.0616     89.3788    150.7521   1.2636658925e+02   3.3541097367e+01    0.2661547    0.2527016 -38.20 0.0005042895    1.240    0.193
        29 -14.6242     49.2544    220.4926   1.4319396945e+02   2.4501686469e+01     1.724952     1.472848  87.90  0.009099275    1.272    0.214
        30  -9.9362    100.6642    151.3366   1.2360242089e+02   3.1547986515e+01    0.2812504    0.2616801 -77.43 0.0008852595    1.076    0.071
        31  -8.6645    192.2011    144.1902   1.0053414198e+02   1.4315825192e+01    0.1897933    0.1765409 -79.33 0.0003918461    1.292    0.226
        32 -11.2796     28.6208    138.9885   1.4031007338e+02   4.3842861606e+01    0.2439065    0.1740091  37.11 0.0008273125    1.565    0.361
        33  -9.7091    111.0817    136.7154   1.1808637980e+02   3.2982834331e+01    0.3507923    0.2539177 -17.51  0.001454786    2.100    0.524
        34 -10.4290     98.7862    133.8911   1.2077666957e+02   3.5830147151e+01    0.2727255    0.2263487 -29.27 0.0006861291    1.447    0.309
        35 -11.1305     50.3611    129.8932   1.3334641213e+02   4.3714611224e+01    0.2771605    0.2146945 -84.37 0.0006222686    1.195    0.163
        36 -10.5325     69.3628    234.8712   1.4060539911e+02   1.9340449782e+01    0.2588266    0.1787065 -88.13  0.001511982    1.438    0.304
        37  -9.4899    107.9470    123.6215   1.1608313691e+02   3.6523638018e+01    0.2168534     0.197138 -39.50 0.0003395284    1.156    0.135
        38 -11.0497    168.2784    113.2631   9.8183461909e+01   2.5654549624e+01    0.3687486    0.3246874 -87.57 0.0007290952    1.330    0.248
        39 -15.6695      6.9328    211.4283   1.5027994092e+02   3.0704315364e+01     8.453615     1.507149 -75.63   0.03520221    4.442    0.775
        40 -10.4817      2.1464     79.9944   1.4044684049e+02   5.8979709119e+01    0.2920041    0.0636885 -70.73  0.001095114    3.561    0.719
        41 -10.7681      2.0000     44.5574   1.3383413251e+02   6.6497607189e+01    0.3780061   0.05099872 -64.89  0.001148212    5.854    0.829
        42 -10.9176    249.0303    248.3503   1.0955686594e+02  -1.0387524929e+01    0.2409519    0.1638186 -22.81  0.001702767    1.648    0.393
        43 -11.0073    238.9904    248.4703   1.1125697196e+02  -8.9733386416e+00    0.2140632    0.1571307  -8.20   0.00142316    1.377    0.274
        44 -10.5942    162.6736    249.0624   1.2487969709e+02   2.8689166551e+00     0.256667    0.1434534  36.94  0.001486164    1.414    0.293
        45 -11.3896    106.7829    247.0101   1.3487704083e+02   1.1985106432e+01    0.2936489    0.1861798  50.26  0.001895784    1.187    0.158
