#   1 NUMBER                 Running object number                                     
#   2 MAG_AUTO               Kron-like elliptical aperture magnitude                    [mag]
#   3 X_IMAGE                Object position along x                                    [pixel]
#   4 Y_IMAGE                Object position along y                                    [pixel]
#   5 X_WORLD                Barycenter position along world x axis                     [deg]
#   6 Y_WORLD                Barycenter position along world y axis                     [deg]
#   7 A_WORLD                Profile RMS along major axis (world units)                 [deg]
#   8 B_WORLD                Profile RMS along minor axis (world units)                 [deg]
#   9 THETA_WORLD            Position angle (CCW/world-x)                               [deg]
#  10 FWHM_WORLD             FWHM assuming a gaussian core                              [deg]
#  11 ELONGATION             A_IMAGE/B_IMAGE                                           
#  12 ELLIPTICITY            1 - B_IMAGE/A_IMAGE                                       
         1 -13.4166    195.0823     31.9344   6.5643097763e+01   3.2757167335e+01     1.626151     1.347982  29.71  0.009549047    1.622    0.383
         2 -12.8835    205.0341     17.4881   6.1065780735e+01   3.2149542479e+01     0.974797    0.4438326 -34.85    0.0040195    2.342    0.573
         3 -13.2518    211.3375     13.0335   5.9412331380e+01   3.1200119631e+01    0.9658278    0.6130611 -23.99    0.0025777    2.130    0.530
         4 -11.2609      2.0000      5.9607   1.1044763555e+02   7.1628948966e+01    0.6428095    0.1107595 -43.23  0.002589976    4.800    0.792
         5 -11.5762      2.4895     15.3115   1.1401121422e+02   7.0316470279e+01    0.4712004    0.2014631 -52.25  0.002518085    2.996    0.666
         6 -10.9631    189.7957     15.4945   6.2356694331e+01   3.5940174084e+01    0.2147357    0.1790913 -48.30 0.0007543092    1.301    0.231
         7 -11.0279    248.4594    249.1607   1.0348851354e+02  -1.4504937729e+01    0.2998293    0.1871116  32.33  0.001868647    1.488    0.328
         8 -11.4584    139.4909    249.0155   1.2431958957e+02   2.7581813816e+00    0.3254415    0.2694017 -82.25  0.002034033    1.416    0.294
         9 -12.7831    100.0076    247.3157   1.3186785601e+02   9.5514076968e+00    0.7355283    0.4707013  48.36  0.004231837    1.316    0.240
        10 -11.7835    108.7201    245.9443   1.3000931961e+02   8.4202575866e+00    0.5041968    0.2508642  61.01  0.001854119    2.272    0.560
        11 -12.2336     99.4550    237.2300   1.3081288424e+02   1.1605421200e+01     0.585226    0.3322932  62.37  0.002127596    1.795    0.443
        12 -10.4472     93.1283    249.9063   1.3347366686e+02   1.0131580680e+01    0.2606759     0.202116  66.18 0.0007182503    1.079    0.073
        13 -11.9656     88.8945    244.5115   1.3371036349e+02   1.1821523074e+01    0.5181782    0.2962565  83.26   0.00166205    2.152    0.535
        14 -15.6306      8.6870    209.2655   1.4585618063e+02   2.9430013115e+01     10.72669     1.277221 -73.36   0.02504682    6.267    0.840
        15 -14.0285     43.8317    217.3198   1.3978013510e+02   2.3799108318e+01     1.075871    0.7041631  63.28  0.004665144    1.327    0.246
        16 -12.7253     36.6831    226.2049   1.4193045792e+02   2.2777369633e+01    0.3362718    0.2870028 -84.83  0.000737478    1.265    0.209
        17 -14.3433     35.4951    247.1798   1.4375839163e+02   1.8663500734e+01      10.8318     3.035201  30.48   0.02316225   16.451    0.939
        18 -10.3605    228.2822    205.0060   9.9234058673e+01  -4.9315304330e+00     0.265942    0.2161584 -53.94 0.0007055882    1.555    0.357
        19 -11.2108     30.0103    233.7212   1.4374243583e+02   2.2011235034e+01    0.3623733    0.1712791  32.26  0.001883524    2.697    0.629
        20 -11.6031     63.1796    193.4511   1.3313191899e+02   2.6639053422e+01    0.3925369    0.2597832 -44.73    0.0020257    1.942    0.485
        21 -12.0561     52.0697    236.7498   1.3995220237e+02   1.8647161067e+01    0.4969707    0.2815047  80.40  0.001824778    1.705    0.414
        22  -8.4979    181.4893    192.4294   1.0618736342e+02   5.8834576618e+00    0.1446147    0.1365714  21.08 7.571164e-05    1.024    0.023
        23 -11.7242     68.6913    186.2130   1.3093312526e+02   2.7565040469e+01     0.307723    0.2539015 -49.99  0.000587655    1.401    0.286
        24  -9.7181    192.0130    193.0115   1.0408556376e+02   3.7433891989e+00    0.3702593    0.1896529 -63.93  0.001148793    4.485    0.777
        25 -11.0647     78.4193    174.3578   1.2688934330e+02   2.8970393125e+01    0.2571744    0.2326253 -77.46 0.0004452525    1.072    0.067
        26 -13.2209     65.4674    171.8097   1.2965141221e+02   3.1465066215e+01    0.5350448    0.2816336 -45.40  0.001579273    2.272    0.560
        27 -10.1113    105.9538    173.4767   1.2000372339e+02   2.4651068762e+01    0.3532301    0.1265853  45.45  0.001214885    2.784    0.641
        28 -11.9914     85.6875    165.6699   1.2366183740e+02   2.9948179767e+01    0.7508602    0.5464495  55.25  0.003835742    1.404    0.288
        29 -13.0794     66.0000    142.1505   1.2463235413e+02   3.8614001163e+01     2.485261     1.220059 -86.52  0.004516074    5.142    0.806
        30  -9.8570     98.6559    150.0403   1.1740183682e+02   3.1597486146e+01    0.3187669    0.2695101 -44.94 0.0007929409    1.226    0.185
        31  -9.2606    101.4496    146.0592   1.1584936603e+02   3.2071951568e+01    0.2929755    0.1956523 -35.71 0.0006305628    1.792    0.442
        32 -11.9802     87.1302    149.0158   1.2024483884e+02   3.3781291893e+01    0.3038317    0.2540465 -44.42  0.000497475    1.251    0.201
        33 -10.2880     39.4764    146.7911   1.3247576384e+02   4.0716701000e+01    0.2175107    0.1873375  40.17 0.0006297888    1.347    0.257
        34 -12.3204     26.1015    138.2724   1.3473847401e+02   4.4066293108e+01    0.5453153    0.2743756  50.07  0.002683226    2.366    0.577
        35  -9.5190    109.8247    135.7806   1.1138059215e+02   3.3008952822e+01    0.3529458     0.228753 -30.19  0.001466158    2.026    0.506
        36 -10.5882     97.2400    132.7159   1.1411223308e+02   3.6025588314e+01    0.2763357    0.2318497 -28.80 0.0003692762    1.340    0.253
        37  -9.0358    106.9274    122.8951   1.0915415803e+02   3.6583856425e+01     0.209904    0.1944128 -21.14 0.0002800334    1.158    0.136
        38  -9.9018     67.3635    226.4417   1.3602073563e+02   1.8696968007e+01    0.2853913    0.1449509  76.09 0.0008531748    2.428    0.588
        39  -9.4741    115.3406    240.2870   1.2800131923e+02   8.4174755147e+00    0.1209878    0.1022729  11.15 0.0007019612    1.640    0.390
        40 -10.8857    167.9546    112.9648   9.1292539795e+01   2.5657538088e+01    0.3676959    0.3083965 -83.17 0.0006292008    1.342    0.255
        41  -9.4691    204.4583    111.0269   8.3425233342e+01   1.7602771764e+01    0.4268985    0.1890052  38.08  0.001393826    3.433    0.709
        42 -10.7806    242.1478     93.7022   7.3374408780e+01   1.2522012514e+01     0.220112    0.1689884 -86.77  0.000844954    1.414    0.293
        43 -11.6632      2.3570     78.1469   1.3176980532e+02   5.9175991627e+01    0.6944075   0.07016613 -61.18   0.00224927    4.883    0.795
        44  -9.6476    157.8207     77.2238   8.4012313732e+01   3.4966886569e+01    0.2046342    0.1802664  15.66 0.0006181018    1.331    0.249
        45 -12.6410      5.2932    246.1607   1.4873960179e+02   2.2258770567e+01     1.128257    0.6165113  68.31  0.007220553    1.389    0.280
        46 -10.3263    162.8798    249.4103   1.1974446568e+02  -1.2576351103e+00    0.2334468    0.1778929  87.27  0.001314182    1.911    0.477
        47 -12.7642     16.8731    241.9176   1.4658595260e+02   2.1853082504e+01     1.194093    0.4628299  57.10  0.003083816    2.132    0.531
        48 -14.7898     52.2067    208.2078   1.3718907072e+02   2.4739832498e+01     5.986528     1.152341  50.59    0.0168511    6.132    0.837
        49 -11.2097    150.8133    228.8483   1.1910673354e+02   4.4849687436e+00    0.4487051    0.1731854  38.14  0.001760278    2.429    0.588
        50 -10.4675     53.2324    228.4612   1.3898528655e+02   2.0210125649e+01    0.2484956    0.1566656  74.94 0.0003587339    1.423    0.297
