#   1 NUMBER                 Running object number                                     
#   2 MAG_AUTO               Kron-like elliptical aperture magnitude                    [mag]
#   3 X_IMAGE                Object position along x                                    [pixel]
#   4 Y_IMAGE                Object position along y                                    [pixel]
#   5 X_WORLD                Barycenter position along world x axis                     [deg]
#   6 Y_WORLD                Barycenter position along world y axis                     [deg]
#   7 A_WORLD                Profile RMS along major axis (world units)                 [deg]
#   8 B_WORLD                Profile RMS along minor axis (world units)                 [deg]
#   9 THETA_WORLD            Position angle (CCW/world-x)                               [deg]
#  10 FWHM_WORLD             FWHM assuming a gaussian core                              [deg]
#  11 ELONGATION             A_IMAGE/B_IMAGE                                           
#  12 ELLIPTICITY            1 - B_IMAGE/A_IMAGE                                       
         1 -12.7385    222.6832     20.1055   5.4961940254e+01   2.6400642916e+01     2.101651    0.2686616 -32.66  0.005800535    4.509    0.778
         2 -13.3396    242.7102     83.5036   6.9769056963e+01   1.3986901436e+01     3.219439     1.112959 -40.94   0.01122639    3.193    0.687
         3 -12.1064    248.3746    125.5839   7.8993412860e+01   7.5425173226e+00     2.816806    0.1614515 -30.66  0.006159676    9.182    0.891
         4 -13.5801    245.3030     55.2844   6.2067432323e+01   1.6879858634e+01     2.935797     1.109009 -38.65    0.0111965    2.506    0.601
         5 -12.4386    235.0891     25.9127   5.5257329348e+01   2.2668992970e+01     1.583124    0.6049606 -29.32  0.006187364    2.299    0.565
         6 -12.2013    222.7979      5.2356   5.0644959476e+01   2.7832044118e+01      1.39154    0.9371648 -83.86  0.006890006    1.636    0.389
         7 -13.4470    245.0668     11.5075   5.0353382092e+01   2.1692631639e+01     2.938238     1.121723 -26.36   0.01194459    2.313    0.568
         8 -11.4876    204.3597     20.1837   5.7158695404e+01   3.1158413877e+01    0.7037709    0.3986043  89.92  0.002849243    2.313    0.568
         9 -10.6492     83.6328     19.3751   8.2290660319e+01   6.0665117926e+01    0.3407893    0.2438396 -38.56 0.0009243396    1.374    0.272
        10  -9.6279    155.5971     16.4315   6.3238430153e+01   4.4539086721e+01    0.3940314    0.1418546 -22.86  0.001352733    2.793    0.642
        11  -8.7111    142.6005     11.1772   6.3639075645e+01   4.8477948230e+01     0.207565    0.1368494  -2.71 0.0009473303    1.664    0.399
        12 -10.5905    189.5152      4.8348   5.4114432358e+01   3.6647176729e+01    0.5140575    0.2033191 -21.83  0.001925371    2.496    0.599
        13 -10.1170    163.5177      5.0000   5.7712216755e+01   4.3618194839e+01    0.3595325    0.2006479  71.92  0.001538709    1.851    0.460
        14  -9.9714    159.1030      2.6138   5.7506865971e+01   4.5014671092e+01      0.31048    0.2416103 -36.43  0.001239948    1.349    0.259
        15 -10.1091     17.8581      8.0638   1.0466902865e+02   7.1385143605e+01    0.3720632    0.1564261 -46.40  0.002012598    1.768    0.435
        16  -9.0785    133.3828      8.2694   6.4291335915e+01   5.1116463674e+01    0.1967464    0.1287603 -30.64 0.0003992608    1.540    0.351
        17  -9.1350      2.1057      7.2347   1.1257158005e+02   7.2609263960e+01    0.1984607    0.1019732 -49.68 0.0005725103    1.380    0.276
        18  -9.9804     70.3158      5.8365   8.0431226033e+01   6.4998460866e+01     0.266197   0.09656759 -37.46   0.00108958    2.589    0.614
        19 -10.5293    116.4773      4.2201   6.6223607986e+01   5.5647168779e+01    0.3585771    0.2602009 -27.04  0.001879856    1.376    0.273
        20  -9.6106     64.6763      4.9376   8.2048529482e+01   6.6078662539e+01    0.1838041    0.1412383 -23.75 0.0003737728    1.139    0.122
        21 -10.0608    206.6157      2.7408   5.1518098693e+01   3.2274472698e+01    0.3829888    0.2285478 -44.82  0.001768915    1.702    0.412
        22  -9.2134    153.1601      3.2660   5.8693928631e+01   4.6526967755e+01    0.3616516    0.1456778 -36.75  0.001324521    2.544    0.607
        23  -9.1474     55.5016      4.4547   8.5400417943e+01   6.7598546580e+01    0.1268263    0.1032047 -13.72 6.082154e-05    1.021    0.020
        24  -9.8642     50.9421      3.6398   8.6871906424e+01   6.8389558729e+01    0.2228674    0.1524414 -28.36 0.0002702206    1.227    0.185
        25  -9.7801     31.6371      4.0573   9.5902623379e+01   7.0769181201e+01    0.2282407      0.16656  48.12  0.001447395    2.059    0.514
        26  -9.4915    112.8074      1.7815   6.5981799085e+01   5.6758321512e+01    0.2832312    0.2047859 -37.36  0.001082949    1.500    0.333
        27  -8.5331    143.6022      2.2308   5.9909405085e+01   4.9117207739e+01    0.1949422    0.1340595   1.94 0.0003614873    1.556    0.357
        28  -9.9130    108.5636      2.0009   6.7098559700e+01   5.7713442483e+01    0.2415246    0.2021932  88.23 0.0009757724    1.558    0.358
        29  -9.2698     14.7094      2.0192   1.0361923771e+02   7.2720400956e+01    0.1609008    0.1112804 -40.28 0.0002140532    1.085    0.078
        30  -8.0927      5.3092      1.2996   1.0846658380e+02   7.3523564303e+01     0.114833   0.06140333 -34.39 0.0001931963    1.599    0.375
        31  -9.3745    190.5659    226.3236   1.0641783277e+02   6.0073439519e+00     0.166598    0.1083942 -44.98  0.001135134    2.137    0.532
        32  -9.9097    210.2307    249.5531   1.0628114919e+02   7.8087268409e-01    0.2024326    0.1366967 -30.44 0.0002678839    2.010    0.503
        33 -10.0199    193.9893    249.4714   1.0869895795e+02   3.1475984905e+00    0.2767397    0.1585844  43.51  0.001974649    1.262    0.208
        34 -10.4547    186.0788    219.5621   1.0626000015e+02   7.4634509497e+00     0.467318   0.06125476 -40.70  0.001408167   10.055    0.901
        35  -8.9490    239.7088    215.5673   9.7210004254e+01  -5.8527953555e-01      0.25256    0.1867289 -65.27  0.001415838    3.798    0.737
        36  -9.9801    160.4947    235.0119   1.1225269770e+02   9.6424883732e+00    0.1250671    0.1084099 -49.62 0.0007477108    1.576    0.365
        37 -10.3272    193.6552    219.0628   1.0496357937e+02   6.3128846309e+00    0.3105842    0.2037569 -48.35   0.00205563    2.195    0.544
        38  -9.8742    247.4862    207.1486   9.4717880311e+01  -1.0222038552e+00    0.3421246     0.230745 -46.41   0.00211981    2.678    0.627
        39  -9.4777    243.1295    200.9330   9.4381754936e+01   2.3867760049e-01    0.2638253     0.186819 -29.81  0.001805661    1.741    0.426
        40 -10.9648    217.9432    213.8457   1.0033387325e+02   2.9878274253e+00    0.4946618     0.365959 -58.95  0.003172605    2.556    0.609
        41  -9.6957    171.0000    216.0013   1.0828005517e+02   1.0290036931e+01    0.2518106   0.06602341 -44.12  0.001055038    4.968    0.799
        42  -9.0429    179.5867    216.2608   1.0688953967e+02   8.8840826032e+00    0.1346338    0.1055994 -13.85 0.0009537725    1.665    0.400
        43  -9.6507    232.7129    213.4258   9.7958818821e+01   6.9627636590e-01    0.1979671    0.1702286 -63.38  0.001412666    2.160    0.537
        44  -9.5705    177.3089    210.4641   1.0649503308e+02   9.9525420976e+00    0.1720879    0.1071264 -41.54  0.001087966    2.059    0.514
        45  -9.8039    240.3689    208.7395   9.6055847783e+01  -6.1101710757e-02    0.3008413    0.2226042 -56.26    0.0018568    2.854    0.650
        46 -10.1730    230.5009    188.4525   9.4288544191e+01   3.5727972313e+00    0.4521073    0.1947268 -40.55  0.002174604    3.183    0.686
        47  -9.8946    235.1642    203.5372   9.6038905738e+01   1.2594686748e+00    0.3937017    0.2394542 -37.64  0.002456306    2.201    0.546
        48 -10.1971    231.0344    197.7696   9.5758431096e+01   2.5074609774e+00    0.4472547    0.1785935 -32.34  0.002006236    2.895    0.655
        49 -10.5347    247.7321    216.6753   9.6166887900e+01  -1.9025455119e+00    0.3903581    0.2322151 -24.83  0.002364762    1.942    0.485
        50  -9.7086    239.8242    221.2717   9.8046288517e+01  -1.1112446255e+00    0.2347632    0.2129938 -17.20  0.001459291    1.557    0.358
        51  -9.8885    229.5435    207.4751   9.7539545670e+01   1.7724414147e+00     0.334409    0.1676439 -41.74  0.001836442    2.958    0.662
        52  -9.7797    206.3454    207.2952   1.0122857702e+02   5.5577209774e+00    0.2592165    0.1461374 -24.92  0.001531901    2.259    0.557
        53  -8.9339    173.0000    203.9422   1.0633302588e+02   1.1482082629e+01     0.156749   0.06809719 -43.05 0.0007901164    2.906    0.656
        54 -10.1748    250.0398    200.1945   9.3202231513e+01  -7.8424258394e-01    0.2884405     0.157355 -24.07  0.001231883    2.001    0.500
        55  -9.8120    246.8238    194.3286   9.2715571891e+01   2.8035051273e-01    0.2683927    0.2261257  49.75  0.001905535    1.586    0.369
        56  -9.7990    244.0079    188.6408   9.2180469799e+01   1.2976166860e+00    0.3007945    0.2453647 -48.50  0.001692478    1.990    0.497
        57  -8.7277    223.4971    201.5130   9.7563340296e+01   3.3584946058e+00    0.1169016   0.09109529  30.28 0.0008100403    1.050    0.048
        58 -10.1849    212.5578    210.6440   1.0071983573e+02   4.1836200850e+00    0.4791513    0.1414775 -31.20  0.002040232    4.596    0.782
        59  -8.8963    215.4081    198.1725   9.8342761635e+01   5.0598011563e+00    0.1424465    0.1103805 -41.96 0.0009508822    1.756    0.431
        60  -9.2109    202.1106    197.4221   1.0042670161e+02   7.3896116090e+00     0.225227    0.1558726 -39.22  0.001441357    1.820    0.450
        61  -8.9667    176.4682    197.5017   1.0481826837e+02   1.1737804867e+01      0.20674    0.1195727 -41.72  0.001202707    2.145    0.534
        62 -10.3340    224.3782    192.5931   9.5974736850e+01   4.1610996508e+00    0.3225036    0.1969149 -42.65  0.001880055    2.285    0.562
        63  -9.7719    184.9530    193.4352   1.0273782669e+02   1.0816987771e+01    0.3415108    0.1701976 -30.76  0.001750353    2.705    0.630
        64  -8.5668    219.6185    194.8354   9.7117724201e+01   4.7191441000e+00    0.1425353    0.1094623 -38.38 0.0009444793    1.707    0.414
        65  -8.5233    209.4688    194.5010   9.8736296529e+01   6.4777598896e+00    0.1205466   0.09537275  31.52 8.184327e-05    1.010    0.010
        66  -9.9199    237.0711    187.6538   9.3101383004e+01   2.5507985633e+00    0.3208115    0.1830551 -27.76  0.001892822    1.942    0.485
        67  -9.3249    235.6989    181.4596   9.2236739015e+01   3.4385980115e+00    0.2437847     0.183605 -49.21  0.001135094    2.096    0.523
        68  -9.1496    215.4031    187.7453   9.6640054242e+01   6.2373072426e+00    0.1950192    0.1148769 -35.19 0.0007031756    2.014    0.503
        69  -9.4874    210.3338    188.5122   9.7615191713e+01   7.0267068108e+00    0.2617314    0.1179273 -35.89   0.00132474    2.615    0.618
        70 -10.8059    211.0318    182.7374   9.6524981191e+01   7.5918939828e+00    0.4202495    0.2507508 -39.82  0.002038303    2.066    0.516
        71  -9.0693    161.7752    191.2366   1.0650365354e+02   1.5088160719e+01    0.1647502   0.09583715 -31.82 0.0008807895    2.443    0.591
        72  -9.3124    249.2356    184.8011   9.0698320423e+01   8.1995580377e-01    0.2522324    0.1416357 -39.98  0.001391934    2.515    0.602
        73  -9.5037    203.4837    183.0824   9.7870209071e+01   8.8860455873e+00    0.2736057    0.1212083 -35.58  0.001338637    2.639    0.621
        74  -8.2141    189.6491    184.6924   1.0053968540e+02   1.1133878350e+01    0.1276622    0.0841187  21.25 0.0007043188    1.711    0.416
        75  -9.9797    183.5916    182.2964   1.0122170874e+02   1.2529473552e+01    0.3023755    0.2049667 -34.69  0.001447727    1.754    0.430
        76  -8.6489    198.6083    190.8098   9.9975516267e+01   8.7859263417e+00    0.1462524    0.1152254 -45.81 0.0009526989    1.667    0.400
        77  -9.5306    247.4630    178.3190   8.9813602752e+01   1.7702424146e+00    0.3033656    0.1734409 -40.39  0.001659655    2.428    0.588
        78  -8.7120    225.5196    179.0709   9.3466104324e+01   5.4684487100e+00    0.1684428    0.1162755 -24.08  0.001030228    1.586    0.369
        79  -9.7338    241.7212    181.6968   9.1321239961e+01   2.3890944018e+00    0.3038927    0.2415556 -50.79  0.001934076    2.057    0.514
        80  -8.7351    219.3567    178.2600   9.4344834087e+01   6.6505118887e+00    0.1539253    0.1124451 -36.47 0.0008684667    1.665    0.399
        81  -9.3483    233.7635    175.3015   9.1441493039e+01   4.4474434169e+00    0.3131988    0.2513986  68.86  0.001912561    1.976    0.494
        82  -8.9796    204.9938    176.7746   9.6526514067e+01   9.4071493173e+00    0.2014176    0.1576953 -44.89   0.00125745    1.644    0.392
        83  -9.9920    182.2146    176.0556   1.0043766643e+02   1.3637800585e+01    0.2659733    0.1840047 -37.73  0.001344608    1.694    0.410
        84  -8.0711    100.7523    175.7306   1.1589400094e+02   2.7410205099e+01   0.09551999   0.09165864   6.64            0    1.440    0.306
        85  -9.1177    223.3952    173.4365   9.2804411046e+01   6.4984340225e+00    0.2185633    0.1481356 -30.33    0.0011981    1.653    0.395
        86  -8.1483    215.6699    173.2986   9.4078261775e+01   7.9070697469e+00    0.1134642   0.09808844  71.23  0.000702965    1.641    0.391
        87  -9.3729    227.9043    171.4847   9.1699021294e+01   5.9189969128e+00    0.2430305    0.1667869 -42.16  0.001244674    1.921    0.479
        88  -9.1907    229.1586    166.2905   9.0520636750e+01   6.3003412347e+00    0.3063534    0.1719514  -9.26  0.001517058    2.260    0.558
        89  -8.3109    187.4757    172.4584   9.8871539353e+01   1.3178511433e+01    0.1276581    0.1079312  36.80 0.0003374994    1.017    0.017
        90  -8.8654    224.5072    248.4946   1.0404351348e+02  -1.1817700510e+00    0.1326364   0.09608676 -42.11  0.001014084    2.219    0.549
        91  -8.8418    218.9561    248.9764   1.0491992022e+02  -4.2674259686e-01    0.1470954    0.1089541  54.64  0.001076432    1.722    0.419
        92 -11.2445    240.6016    123.8284   7.9811498991e+01   9.3030792909e+00     1.021565    0.3713745 -29.63  0.004080981    2.656    0.624
        93 -10.8550    175.9048    247.2765   1.1119513409e+02   6.0102324591e+00    0.3319506    0.2855244 -76.59  0.002528074    1.745    0.427
        94 -12.3137    241.1866    103.3134   7.4916059879e+01   1.1788022676e+01     1.627534      0.53771 -31.12  0.006048541    2.783    0.641
        95  -9.0406    237.2933    169.8094   8.9856628534e+01   4.4388116289e+00    0.2040116    0.1413183 -26.37   0.00123981    1.558    0.358
        96  -9.6751    218.6801    167.9628   9.2588424054e+01   8.0125065061e+00    0.3132975    0.2299927 -22.00  0.001910242    1.464    0.317
        97  -9.2212    191.4659    164.7433   9.6773859761e+01   1.3513987820e+01    0.2850607    0.1287153 -32.99  0.001283903    2.627    0.619
        98  -9.3176     70.1450    165.3061   1.2078416642e+02   3.3523723447e+01     0.177459    0.1423198 -75.45 0.0006059482    1.254    0.203
        99  -9.2722    240.1832    164.3249   8.8351706504e+01   4.5399927677e+00    0.2070725    0.1923516  85.63  0.001063495    1.683    0.406
       100  -9.3257    233.4531    154.1235   8.7440747742e+01   6.9572113344e+00     0.291223    0.1943711 -36.58  0.001567043    1.735    0.424
       101 -10.0621    234.3185    163.4899   8.9139179654e+01   5.6912358235e+00    0.3042382     0.177419 -24.14  0.001662227    1.800    0.444
       102  -9.8483    212.7346    163.0262   9.2678578357e+01   9.7369954512e+00    0.3650642    0.1926194 -33.65  0.001738263    2.091    0.522
       103 -10.0617    221.9181    160.4259   9.0607661364e+01   8.3447963889e+00    0.5041547    0.2070985 -28.44  0.002221136    2.717    0.632
       104 -10.2385    205.4629    160.8754   9.3541622614e+01   1.1393106754e+01    0.4449546    0.2717554 -34.31  0.001957109    1.819    0.450
       105  -9.6061    205.5300    154.5940   9.2313813192e+01   1.2230479721e+01    0.3154776    0.2371992   0.16  0.001368947    1.464    0.317
       106  -8.2890    176.6563    158.6725   9.8409806697e+01   1.7215013809e+01    0.1361162   0.09622844  16.95 3.653056e-05    1.744    0.427
       107  -8.9932    226.4859    156.5282   8.9075221755e+01   7.9708677223e+00    0.2486865    0.1233814 -28.08  0.001203127    2.146    0.534
       108  -8.9687    196.6769    156.9033   9.4356010600e+01   1.3623812784e+01    0.2403313    0.1207075 -27.26  0.001086066    2.445    0.591
       109  -8.7231    187.5171    155.4665   9.5765383828e+01   1.5605108862e+01    0.2274096    0.1263042 -23.38  0.001037999    2.420    0.587
       110  -9.3682    228.5387    151.0675   8.7637404598e+01   8.2583503032e+00    0.3624567    0.1277103 -26.44  0.001402421    3.274    0.695
       111  -8.7844    221.4760    152.0958   8.9036532433e+01   9.4800984982e+00    0.1822163    0.1246467 -23.85 0.0006501843    1.530    0.346
       112  -9.7132    237.2168    159.5134   8.7895737002e+01   5.6252845392e+00     0.304494    0.2065204 -24.64  0.001422039    1.530    0.346
       113  -8.7895    202.4583    151.0866   9.2168708923e+01   1.3315375194e+01    0.1890446    0.1296922 -28.54  0.000753029    1.580    0.367
       114  -9.1341    196.7431    149.8922   9.2969012535e+01   1.4611061834e+01    0.2698788    0.1564333 -29.07   0.00130199    1.937    0.484
       115 -10.5856    235.2744    147.2921   8.5751782485e+01   7.4402919799e+00     0.433123     0.317552 -33.08  0.001785446    1.518    0.341
       116  -8.5291    172.3818    149.2247   9.7449387365e+01   1.9514349250e+01    0.1710841      0.12703 -52.91 0.0005336992    1.604    0.377
       117  -9.2482    199.4518    164.5534   9.5300545382e+01   1.2034609771e+01    0.2453741    0.1270814 -33.50  0.001207425    2.181    0.542
       118  -9.3984    223.4172    146.4131   8.7545285542e+01   9.8348402662e+00    0.2780013    0.2137787 -25.97  0.001301446    1.365    0.267
       119  -9.7872    224.1468    140.0684   8.6088675150e+01   1.0515496299e+01    0.3452025     0.184786 -30.37  0.001118976    1.927    0.481
       120  -8.6846    207.6535    145.1740   9.0034395710e+01   1.3112678438e+01    0.1819343    0.1218992 -18.30  0.000774767    1.659    0.397
       121  -8.6062    200.1859    145.2089   9.1389646680e+01   1.4600671068e+01    0.2009389   0.09552538 -43.50 0.0008603791    2.501    0.600
       122  -8.4411    218.5033    144.4801   8.7985022534e+01   1.1052249244e+01    0.1353776    0.1157413  21.10 0.0008103082    1.014    0.014
       123  -9.7275    155.5528    143.2575   9.9660171254e+01   2.3781075222e+01    0.2470304    0.1322309 -49.29   0.00114284    2.100    0.524
       124  -8.8974    214.2598    142.3957   8.8286398091e+01   1.2175671574e+01    0.2177199    0.1565491 -48.50 0.0007912929    1.804    0.446
       125  -9.6805    230.0231    141.1732   8.5336553419e+01   9.2142973797e+00    0.3053542    0.1861211 -30.90  0.001251886    1.699    0.412
       126  -9.2231    233.6217    129.2929   8.2160896947e+01   1.0015551899e+01    0.3088274    0.1254951 -27.50  0.001268017    2.499    0.600
       127  -9.3097    238.5117    140.5142   8.3805879830e+01   7.6469953839e+00    0.2460794    0.1668808 -33.44 0.0008512088    1.595    0.373
       128 -10.3002    234.7547    135.6155   8.3364555744e+01   8.9866323420e+00    0.5542439    0.2767939 -36.98  0.001830377    2.172    0.540
       129  -9.5440    219.0073    137.9413   8.6513057020e+01   1.1825711099e+01    0.2964924    0.2201332 -21.64  0.001369407    1.374    0.272
       130  -8.7624    208.4476    137.9693   8.8375274390e+01   1.3962792776e+01    0.1993322    0.1315693 -29.93   0.00102738    1.591    0.372
       131  -8.4910    192.5194    137.0153   9.1094709822e+01   1.7368706673e+01    0.1987258    0.1356488 -32.87  0.001024134    1.566    0.361
       132  -8.7084    198.6321    136.1371   8.9766356412e+01   1.6241042859e+01    0.1899918    0.1271915 -18.51 0.0009446247    1.708    0.414
       133  -9.2492    225.2559    133.3286   8.4443452207e+01   1.1179304207e+01    0.3320249    0.2257593 -11.89  0.001488812    1.550    0.355
       134 -11.3330    221.7442    128.3665   8.3939443823e+01   1.2561570758e+01    0.7833145    0.2788202 -30.70   0.00298864    2.873    0.652
       135  -8.7749    212.3418    129.1706   8.5754658612e+01   1.4402918640e+01    0.1925773    0.1218071 -39.66   0.00094196    1.742    0.426
       136  -8.7975    186.3834    128.6767   9.0450451929e+01   1.9939671960e+01    0.2617674    0.1306828 -41.23  0.001124795    2.160    0.537
       137  -9.1630    199.8264    126.0159   8.7308768184e+01   1.7500950336e+01    0.2168053    0.1582112 -58.83 0.0007084113    1.906    0.475
       138  -8.7476    227.1849    125.1766   8.2300169398e+01   1.1866252966e+01    0.1769963    0.1650134 -48.20 0.0008612823    1.342    0.255
       139  -8.9784    205.8166    130.9604   8.7320877523e+01   1.5508824302e+01    0.2169118    0.1586967 -59.05  0.001079102    1.966    0.491
       140 -10.1177    180.0860    123.4112   9.0499978467e+01   2.2123114304e+01    0.4638215     0.221748 -32.49  0.001904104    2.334    0.572
       141  -9.0351    235.1279    123.6224   8.0640871671e+01   1.0438581221e+01    0.2275029    0.1735318 -31.10 0.0007135805    1.368    0.269
       142 -10.4711    230.8332    112.5201   7.8758581940e+01   1.2787262036e+01    0.6841029     0.192545 -31.55  0.002326615    3.352    0.702
       143  -8.2055     37.9930    107.2315   1.2117560559e+02   4.8985169521e+01    0.1254833    0.0958612  40.28 -0.000430966    1.493    0.330
       144  -9.9168    222.4224    104.3355   7.8163427405e+01   1.5724332980e+01    0.5018392    0.1328667 -35.29  0.001612157    3.543    0.718
       145 -10.0653    224.5490     92.7622   7.4905027171e+01   1.6847102187e+01     0.382554    0.2705835 -58.87  0.001804937    1.955    0.489
       146  -9.1644    215.7247     94.3612   7.6775075111e+01   1.8637624469e+01    0.3029194    0.1830234 -30.78 0.0007383867    1.620    0.383
       147 -10.2616    220.4749     93.9773   7.5882009903e+01   1.7605397966e+01    0.3748702     0.174488 -26.15  0.001502234    2.164    0.538
       148  -9.4786    217.9838     90.3032   7.5345402478e+01   1.8692644448e+01     0.291907    0.2446664  -9.59  0.001013231    1.159    0.137
       149  -8.1730    205.6950    105.3540   8.1315370080e+01   1.9315154520e+01    0.1440932    0.1143172 -65.65 0.0007041013    1.713    0.416
       150  -8.2878    213.3013    104.6511   7.9795170013e+01   1.7709616237e+01    0.1421613    0.1130558 -62.95 0.0005665596    1.691    0.409
       151  -8.8769    141.3071    104.6629   9.4369102110e+01   3.3665895888e+01    0.1457916    0.1135411 -85.09 0.0004275562    1.676    0.404
       152  -8.6794    212.6042    122.1740   8.4118069789e+01   1.5341691501e+01    0.1952586    0.1292821 -14.98 0.0007326916    1.661    0.398
       153  -8.8662    167.0015    101.2208   8.7823767261e+01   2.8743970494e+01    0.2177447    0.1614576 -58.04  0.001040919    1.620    0.383
       154 -10.7751    225.1016     99.2335   7.6453206514e+01   1.5833944696e+01    0.3065587    0.1895336 -31.30 0.0007910776    1.580    0.367
       155  -9.6740    216.8246     99.4791   7.7893835652e+01   1.7658172384e+01    0.2868142    0.1688977 -42.08   0.00104928    1.857    0.461
       156  -8.1761    209.0000     99.9913   7.9377514007e+01   1.9360483347e+01    0.2323996   0.08106412 -30.96 0.0007913694    2.866    0.651
       157  -9.4353    188.8954     93.1528   8.1296810787e+01   2.5060938556e+01    0.3621896    0.1955769 -43.30  0.001498681    1.994    0.498
       158  -8.3559     16.5281     93.9885   1.2522030589e+02   5.3637876034e+01    0.1597238   0.06272912 -53.93 0.0007039012    2.354    0.575
       159  -8.9356    230.7726     90.7831   7.3411523387e+01   1.5708558186e+01     0.255701    0.1648161 -21.41 0.0008875006    1.510    0.338
       160  -8.6557    209.9837     91.2151   7.6939461350e+01   2.0418774184e+01    0.2137786    0.1526608 -47.45 0.0006679864    1.599    0.375
       161 -10.0164    177.5066    242.5233   1.1042264165e+02   6.2693143725e+00    0.2804211    0.1848067 -66.34  0.001868712    2.816    0.645
       162  -9.5502    175.4003     88.1145   8.2601854968e+01   2.9049189717e+01    0.2723565     0.215338 -59.04 0.0007066672    1.506    0.336
       163  -9.0505    225.8597     87.8547   7.3431086295e+01   1.7219239461e+01    0.2636383    0.1810892 -31.32 0.0008873628    1.414    0.293
       164  -8.9525    188.2795     87.4042   7.9867140730e+01   2.6117983311e+01    0.2594405     0.171117 -49.83  0.001019766    1.765    0.434
       165  -8.3664     54.9914     88.0626   1.1332971628e+02   5.1353759000e+01    0.1459773    0.1254624 -70.92            0    1.007    0.007
       166  -9.4239    221.5412     85.6997   7.3559043950e+01   1.8510839984e+01    0.3616315     0.212411   7.12  0.001430093    2.477    0.596
       167  -8.7640    218.1931     85.1878   7.3968015500e+01   1.9362254464e+01     0.218742    0.1256961 -36.79 0.0009591759    1.733    0.423
       168  -8.6377    205.8572     84.9848   7.5998666844e+01   2.2302003189e+01    0.2414932     0.154792 -49.64 0.0009141208    1.863    0.463
       169  -8.7790    225.1600     81.6857   7.1926667649e+01   1.8218616698e+01    0.2555713    0.1857279 -35.65 0.0007344364    1.374    0.272
       170  -8.7820    206.5071     78.5032   7.4118943815e+01   2.3092242324e+01    0.2621961    0.1252625 -39.90  0.001019338    2.142    0.533
       171  -8.8071    200.6278     77.4654   7.4851505232e+01   2.4667895538e+01    0.3113362     0.101177 -42.07 0.0009548759    3.421    0.708
       172  -8.7555    183.5049     77.5135   7.8021883697e+01   2.8829683839e+01    0.2725016    0.1284133 -42.83  0.001019448    2.260    0.558
       173  -8.5819    174.3962     78.1984   8.0018270009e+01   3.0924794638e+01    0.2212749    0.1357111 -43.52 0.0007488895    1.711    0.415
       174  -8.6249    150.4765     78.5104   8.5251984188e+01   3.6504501135e+01    0.1489329    0.1440728   6.65 6.581946e-05    1.023    0.023
       175  -9.0211    130.3034     78.6430   9.0104109237e+01   4.0926189820e+01    0.1504432    0.1154882 -76.11 0.0007039189    1.716    0.417
       176  -9.9684    157.4762     76.0149   8.2953596238e+01   3.5320414172e+01    0.3458535    0.1350088 -41.28  0.001204618    2.570    0.611
       177 -11.6358    245.2554    157.7893   8.6269704114e+01   4.3645769935e+00      1.58947    0.4325987 -34.27  0.006058842    3.824    0.739
       178  -8.4864    223.4469     76.4541   7.0799353085e+01   1.9328351366e+01    0.1447133     0.136036  -6.08 0.0001305675    1.029    0.028
       179  -8.5801    232.4177    247.1882   1.0272062893e+02  -2.2021562969e+00     0.108312   0.09524053 -24.88 0.0007064072    1.692    0.409
       180  -8.5252    206.3668     74.1811   7.2943436387e+01   2.3749213474e+01    0.2176051    0.1293127 -38.09 0.0009425007    1.686    0.407
       181  -8.8042    195.1765     72.4832   7.4410266606e+01   2.6741166336e+01    0.2528043    0.1707071 -34.04  0.000727161    1.462    0.316
       182  -9.1819    163.2990     71.8225   8.0447304565e+01   3.4649133120e+01    0.3188599    0.1202455 -40.67  0.001082372    2.658    0.624
       183  -8.7759    222.4418     71.0131   6.9480110757e+01   2.0299862111e+01    0.2581824    0.1719627 -30.60 0.0007463026    1.437    0.304
       184 -10.8138    223.5080     66.3966   6.8053127736e+01   2.0657390917e+01    0.5891653    0.2481259 -18.54  0.002068869    2.800    0.643
       185  -9.6687    132.3975     69.7877   8.6947006795e+01   4.2128938014e+01    0.2129695     0.138873 -26.83 0.0009467226    1.691    0.409
       186  -8.0568    218.3165     68.6364   6.9462001016e+01   2.1613972222e+01    0.1554225    0.1099449 -57.70 0.0007040805    1.768    0.434
       187  -8.8763    193.6125     67.8224   7.3341526353e+01   2.7819142638e+01    0.2196431    0.1334645 -39.29 0.0008984618    1.664    0.399
       188  -8.4912    187.2671     68.6391   7.4734006371e+01   2.9276357546e+01    0.1552413    0.1148164 -57.96 0.0004324713    1.643    0.391
       189  -9.0204    163.5042     65.0048   7.8326315002e+01   3.5721537406e+01    0.2349194    0.1490162 -31.21  0.000978195    1.573    0.364
       190  -8.3032    197.3093     64.6345   7.1760734572e+01   2.7360093344e+01    0.1593031    0.1141751 -59.89 0.0007038187    1.753    0.430
       191  -9.0716    187.1563     62.4149   7.2901485584e+01   3.0234777475e+01    0.2889473    0.1119822 -26.44 0.0009037058    2.736    0.634
       192  -9.6787    157.9601     62.2155   7.8634626305e+01   3.7526127041e+01    0.3451883    0.1990629 -41.71  0.001173134    1.767    0.434
       193 -11.1734    243.8330    138.7804   8.2586174804e+01   6.8351670172e+00     1.393431    0.4434677 -42.16  0.004476013    5.098    0.804
       194 -11.1337    227.0022     51.5168   6.3416867172e+01   2.1710710860e+01     0.388128    0.2632038 -56.06  0.001526796    1.747    0.428
       195 -10.9405    226.6546     55.6889   6.4630890771e+01   2.1274790347e+01    0.3183503    0.2362113  -2.70  0.001221101    1.439    0.305
       196  -9.8058    153.2368     59.7512   7.8880216535e+01   3.9072891605e+01    0.2797067    0.1810215 -35.82  0.001015802    1.523    0.343
       197  -8.4823     26.0078     59.9699   1.1682747539e+02   6.0272976304e+01    0.1452678    0.1121977 -63.45 0.0004075085    1.028    0.028
       198  -8.7763    192.4561     54.9830   6.9714736901e+01   2.9959057517e+01    0.2384384    0.1465297 -27.43  0.001033106    1.603    0.376
       199  -9.4890    152.7033     52.5413   7.6637875463e+01   4.0362449706e+01    0.2820787    0.1344141 -31.93   0.00107742    2.068    0.516
       200  -8.7577     95.2890     52.9554   9.1684028754e+01   5.2747686959e+01    0.1961321    0.1649036 -33.56 0.0002649434    1.107    0.097
       201  -8.6541    172.1804     50.1890   7.1881498077e+01   3.5835616557e+01    0.2086868    0.1726038 -51.97 0.0002664354    1.324    0.245
       202  -9.2405    207.8599     47.3529   6.4944263006e+01   2.7038732264e+01    0.5953269    0.1479873 -33.53  0.001807599    3.397    0.706
       203 -10.2360    224.2926     53.6502   6.4389360338e+01   2.2110400121e+01    0.2557116    0.2391035 -21.80 0.0007176318    1.036    0.035
       204  -8.8717    174.4174     45.2453   6.9853095942e+01   3.5967076381e+01    0.3091395    0.1519954 -22.09  0.001162143    2.195    0.544
       205  -8.5928     95.4976     45.9866   8.9192689301e+01   5.4003812913e+01    0.2003481     0.116529 -18.73 0.0008096221    2.476    0.596
       206  -9.1847    168.9726     44.1627   7.0517941536e+01   3.7522664601e+01    0.4196557    0.1897811 -33.28  0.001585449    2.128    0.530
       207  -8.0984      1.0000     43.9995   1.2274672396e+02   6.5247576286e+01    0.1787344   0.04813977 -69.41 0.0003895682    2.764    0.638
       208  -8.6603    173.4855     40.0672   6.8316558021e+01   3.6921150284e+01    0.2297505    0.1489518 -25.06  0.000998867    1.543    0.352
       209  -8.6775    179.4801     37.9401   6.6554348741e+01   3.5637818551e+01    0.2313931    0.1473428 -26.36 0.0006852939    1.556    0.358
       210  -9.2478    168.5469     37.2442   6.8272764749e+01   3.8585654975e+01    0.2876978    0.1395997 -31.51 0.0007986653    1.993    0.498
       211  -8.6353    173.4333     34.9732   6.6621023915e+01   3.7609476722e+01    0.2324748    0.1464496 -25.70 0.0008243333    1.580    0.367
       212  -9.3931    168.0771    250.0276   1.1268123891e+02   6.8638733045e+00    0.1566834    0.1077949  40.19  0.000342677    1.085    0.079
       213 -10.0349    169.7076     31.2778   6.6023617132e+01   3.9060844681e+01    0.4868672     0.205174  -8.25  0.001360697    4.431    0.774
       214  -8.0341     26.6973     33.7168   1.0989903987e+02   6.5717190780e+01    0.1188537   0.07345349 -35.71 0.0001817344    1.554    0.357
       215  -9.5136    250.3467    245.0929   9.9856101889e+01  -4.5544808025e+00    0.1800431    0.1174333 -11.41 0.0008184539    1.717    0.418
       216  -8.4513    174.2957     28.6203   6.4320115203e+01   3.8182736143e+01    0.1619115    0.1098292 -55.91  0.000529466    1.755    0.430
       217  -9.1277    166.4548     27.9469   6.5447663733e+01   4.0332346917e+01     0.232031    0.1441733 -27.61  0.000872147    1.592    0.372
       218  -8.9196    162.4812     26.0031   6.5476554731e+01   4.1613802998e+01    0.2237616    0.1453993 -26.05 0.0004608529    1.530    0.346
       219  -9.5271     73.0334     25.5549   8.8615915340e+01   6.1522459842e+01    0.2750094    0.1785106 -39.03  0.001474659    1.391    0.281
       220  -8.1413    237.3657    244.6997   1.0167645363e+02  -2.7060674728e+00   0.09309997   0.07022101  51.01   0.00070339    1.730    0.422
       221  -8.7080    171.5949     20.8406   6.2089416048e+01   3.9816784732e+01    0.2325099     0.149139 -21.31 0.0009685268    1.578    0.366
       222  -9.2524    136.9612     24.7486   7.0111672382e+01   4.8277690175e+01    0.3065842    0.1972687 -22.66 0.0009873136    1.550    0.355
       223  -9.0516      3.4308     23.7999   1.1715455708e+02   6.9294538744e+01    0.1644269   0.07067319 -54.03 0.0005383374    1.626    0.385
       224  -9.7539    241.0535    241.3505   1.0069412623e+02  -2.9650906577e+00    0.2934924    0.2317738  77.14  0.001942919    3.195    0.687
       225  -9.1214    118.3400     24.9536   7.4603739879e+01   5.2669296115e+01     0.209301    0.1705585 -19.98 0.0004886674    1.177    0.150
       226  -9.2827    202.0633    242.5831   1.0666419822e+02   2.6129074925e+00    0.1614621    0.1479861  85.11  0.001364874    1.713    0.416
       227  -9.4140     92.0205     15.8141   7.8023570356e+01   5.9574032348e+01     0.225348    0.1778809 -19.12 0.0003714715    1.159    0.138
       228  -8.8904      2.5038     15.9729   1.1531410174e+02   7.0900110908e+01    0.1640077   0.08242118 -59.24 0.0003190932    1.474    0.322
       229  -8.6271     80.2963     12.6455   8.0304676351e+01   6.2266792135e+01    0.1295436    0.1009872 -54.39 0.0007033873    1.693    0.409
       230  -8.5002    214.6545    241.3385   1.0460506181e+02   8.6553541898e-01   0.09711938    0.0727701  57.72 0.0007048172    1.779    0.438
       231  -8.1327     38.6709     10.7088   9.5803306622e+01   6.8859056206e+01    0.1227679   0.07990547 -17.29 0.0002504808    1.624    0.384
       232  -8.9688    248.2695    240.0447   9.9469534986e+01  -3.8846636826e+00     0.136834    0.1038401  18.01 0.0005829376    1.171    0.146
       233 -10.7957    191.6605    236.6489   1.0753918979e+02   4.7550136983e+00    0.4194222    0.2888856  74.55  0.002591064    2.806    0.644
       234  -9.6659    206.8854    237.5711   1.0530596091e+02   2.3690337474e+00    0.2412195      0.15145  66.17  0.001349994    3.210    0.689
       235  -9.9437    217.1561    234.6415   1.0335914810e+02   1.1019771897e+00    0.2573204     0.175792  45.25  0.001413429    1.344    0.256
       236  -8.7912    170.6140    234.1874   1.1055294932e+02   8.2108880118e+00    0.1238995   0.09982298 -15.36 0.0009529248    1.721    0.419
       237  -8.9347    240.2579    231.6759   9.9480709105e+01  -2.0657697495e+00    0.1546897    0.1257388 -31.00  0.001232646    1.789    0.441
       238  -8.3948    245.2982    231.6004   9.8725378406e+01  -2.7937478450e+00   0.08849091   0.07979617  55.57 0.0006394176    1.817    0.450
       239  -8.1603    207.4993    231.4698   1.0442447425e+02   2.8635999797e+00    0.1105213   0.07895941  33.74 0.0001250154    1.028    0.027
       240  -9.5529    230.0452    236.6395   1.0168331200e+02  -9.8759284119e-01    0.2107146    0.1780663 -72.23  0.001362786    2.512    0.602
       241  -9.5195    235.1672    229.3197   9.9908454850e+01  -1.1151148944e+00    0.1972687    0.1678717 -27.19  0.001562922    1.662    0.398
       242  -9.0393    229.1301    228.2342   1.0066678549e+02  -1.1664168645e-01    0.1831047    0.1409724 -43.94  0.001354864    2.079    0.519
       243  -9.4643    228.8045    222.6670   9.9926073325e+01   4.3833195793e-01    0.2354777    0.1822789  54.84  0.001701541    1.718    0.418
       244 -10.1739    217.2369    223.1389   1.0178070384e+02   2.1765718467e+00    0.3110688    0.2453089 -46.55  0.001904662    1.956    0.489
       245  -9.0183    211.8487    227.9146   1.0327634904e+02   2.5440055372e+00    0.1615665    0.1459372  -5.76   0.00133538    1.391    0.281
       246  -9.7997    199.1405    226.5795   1.0508962338e+02   4.6443235309e+00    0.1964431    0.1681345 -47.49  0.001543699    1.691    0.408
       247  -9.6278    246.7409    225.9955   9.7705786828e+01  -2.5442382088e+00    0.2202542    0.1830839  48.32  0.001718801    1.664    0.399
       248  -8.8393    223.2859    227.0246   1.0138906651e+02   8.7824878214e-01    0.1470246    0.1181119  22.82  0.001152551    1.147    0.128
       249  -9.3763    205.9368    225.7764   1.0391152169e+02   3.6699141971e+00    0.1894973    0.1583838 -35.21  0.001484972    1.631    0.387
