#   1 NUMBER                 Running object number                                     
#   2 MAG_AUTO               Kron-like elliptical aperture magnitude                    [mag]
#   3 X_IMAGE                Object position along x                                    [pixel]
#   4 Y_IMAGE                Object position along y                                    [pixel]
#   5 X_WORLD                Barycenter position along world x axis                     [deg]
#   6 Y_WORLD                Barycenter position along world y axis                     [deg]
#   7 A_WORLD                Profile RMS along major axis (world units)                 [deg]
#   8 B_WORLD                Profile RMS along minor axis (world units)                 [deg]
#   9 THETA_WORLD            Position angle (CCW/world-x)                               [deg]
#  10 FWHM_WORLD             FWHM assuming a gaussian core                              [deg]
#  11 ELONGATION             A_IMAGE/B_IMAGE                                           
#  12 ELLIPTICITY            1 - B_IMAGE/A_IMAGE                                       
         1 -14.0810     67.7532    144.3041   1.2971045286e+02   3.7902005486e+01     2.786976     1.245978 -89.98  0.005501505    3.963    0.748
         2 -13.3196    204.7224      2.0211   6.3727708943e+01   3.2725507470e+01      1.72759    0.8683283  74.45  0.003504908    2.032    0.508
         3 -14.2518    183.1887     24.4972   7.3650834146e+01   3.6126715795e+01      1.92751     1.409296  -9.32  0.005331913    1.448    0.310
         4 -13.8906    190.2500     16.9922   7.0189705151e+01   3.5091245339e+01     1.864362     1.015606 -34.79  0.005778097    1.752    0.429
         5 -13.0043    196.6782      9.3473   6.6913962583e+01   3.4165120657e+01     0.758639     0.656795 -21.89  0.001199296    1.144    0.126
         6 -12.1730     41.9274      4.8028   1.0202159418e+02   6.9593469428e+01    0.3754359    0.3083115  42.05  0.002526558    1.540    0.351
         7 -10.9738     32.8913     24.1743   1.1473693002e+02   6.7208740389e+01    0.1819616     0.152364 -63.00  0.001238433    1.264    0.209
         8 -11.4311    248.7511    248.7741   1.1214808112e+02  -3.6540083283e+00    0.2812818    0.1983463  11.40  0.002425954    1.299    0.230
         9 -10.3944    202.1943    250.3745   1.1883676542e+02   2.6121142098e+00    0.1469612   0.06916221  47.76 0.0009543191    1.722    0.419
        10 -11.6313    162.6726    248.6083   1.2439627794e+02   8.3594087227e+00    0.2813809    0.2417923  63.42  0.002535002    1.345    0.257
        11 -12.5769    139.9986    247.6867   1.2767068952e+02   1.1623382514e+01    0.4757503    0.3665488 -78.72  0.004055897    1.753    0.430
        12 -11.3758    144.1228    242.5702   1.2657737074e+02   1.1630098222e+01    0.2001807    0.1352073  50.32 0.0004207537    1.096    0.088
        13 -16.4999     59.5371    213.6330   1.3754196290e+02   2.6685777129e+01     6.613763     2.584006  53.85   0.04072561    1.938    0.484
        14 -11.4366     62.3981    191.8352   1.3547475048e+02   2.9858421502e+01    0.4199132    0.2118069  60.27  0.001783858    1.670    0.401
        15  -8.8916    181.6142    192.2117   1.1451549619e+02   1.1932335806e+01    0.1321373    0.1090137 -13.05 0.0002421721    1.469    0.319
        16  -9.3427     66.3680    185.5238   1.3423788014e+02   3.0447390524e+01    0.1947232    0.1083707  59.61 0.0007120987    1.496    0.331
        17  -9.9388    221.4744    177.4976   1.0562633958e+02   6.8707829688e+00    0.1215499   0.09617845  25.27 6.712756e-05    1.049    0.047
        18 -11.6571     88.4665    174.7489   1.2904682361e+02   2.9416970912e+01    0.2330649    0.2111758  84.93 0.0006566597    1.213    0.176
        19 -13.4263     92.7391    166.2093   1.2722303276e+02   3.0328118191e+01     2.974129     0.536647  49.52  0.001727528    5.900    0.831
        20 -15.5823     19.2951    243.7039   1.4509793476e+02   2.6530983334e+01      1.53747    0.8388615 -76.08  0.009217165    1.994    0.498
        21 -18.4764      2.4727    126.7322   1.4248188026e+02   4.8002948172e+01     15.07278    0.4393491 -77.23   0.02718475   20.261    0.951
        22 -11.1558    132.1892    173.0197   1.2050511845e+02   2.3021586840e+01    0.4432375    0.1787996  40.08  0.002032539    2.388    0.581
        23 -10.9069    138.1017    171.6202   1.1919238367e+02   2.2261527452e+01    0.2888735    0.2443362  16.67  0.001897029    1.511    0.338
        24 -11.0196    183.9472    214.7013   1.1725640034e+02   8.8707741003e+00     0.248053    0.1659296 -33.31  0.001724099    1.936    0.483
        25 -10.8347    230.0284    207.5582   1.0913805946e+02   2.3856712548e+00    0.1829989    0.1578614  29.64 0.0003892639    1.238    0.193
        26  -9.2620    194.3134    157.1160   1.0650060886e+02   1.4301860008e+01    0.2002675    0.1547625   3.40 0.0008489335    1.474    0.322
        27 -10.6587    105.0331    149.3221   1.2243521227e+02   3.1572471143e+01    0.2547978    0.2214324  76.61 0.0007781525    1.030    0.029
        28  -9.9464    107.4004    145.3707   1.2133296433e+02   3.1936178888e+01    0.3004875    0.1856644 -44.19   0.00160804    1.995    0.499
        29 -12.3818     94.2295    149.0410   1.2466508810e+02   3.3288098238e+01    0.2438379     0.214812  57.32 0.0004312082    1.154    0.133
        30 -10.2187    133.6943    143.8240   1.1558580858e+02   2.7737022498e+01    0.5402814    0.1297162 -54.24  0.001533031    6.166    0.838
        31 -11.7245     46.8141    146.2818   1.3444019537e+02   4.0020286821e+01    0.2973445    0.1887158  74.85  0.001924125    1.406    0.289
        32 -10.2397    114.0750    135.3318   1.1824081489e+02   3.2737006912e+01    0.2790567     0.228146  -6.38  0.001063826    1.887    0.470
        33 -12.5236     44.2972    128.7691   1.3311784837e+02   4.3831910056e+01     0.514594    0.3091311  81.47  0.003085606    1.608    0.378
        34 -11.0312    102.3035    132.2977   1.2031432277e+02   3.5274552314e+01    0.3557133    0.2589927  25.64   0.00137901    1.869    0.465
        35  -9.6111    160.8168    127.9821   1.0699779708e+02   2.5331757864e+01    0.2217527    0.1575417 -71.60  0.001086662    1.974    0.493
        36  -9.6030    119.0135    128.0100   1.1582844557e+02   3.3284173608e+01    0.1993686    0.1657203  -7.48  0.001070142    1.742    0.426
        37  -9.9048    109.9379    122.9108   1.1690280736e+02   3.5857067022e+01    0.1889933    0.1735489  75.47 0.0003615183    1.026    0.025
        38  -9.5959    122.6760    121.6395   1.1377310929e+02   3.3852368078e+01    0.1325659    0.1081194  -5.60 0.0007042675    1.780    0.438
        39  -9.6497    135.0000    120.0112   1.1071320386e+02   3.1852104002e+01    0.2211953   0.07703492 -46.65 0.0008057492    2.965    0.663
        40 -10.7663    168.2844    113.0607   1.0219236236e+02   2.6311334422e+01    0.3428711      0.27498 -84.17  0.001133786    1.624    0.384
        41 -10.2927     23.0549    112.2120   1.3637511774e+02   4.9365042472e+01    0.1896519   0.09787816  62.53  0.001015094    1.962    0.490
        42  -9.5483    205.3129    110.3729   9.4666026929e+01   1.8716313985e+01    0.3273577     0.148877  39.95  0.001315267    2.302    0.566
        43 -13.5384     76.7923    171.7086   1.3096450398e+02   3.1543972680e+01    0.3676912    0.2609658 -42.43  0.001633884    2.190    0.543
        44  -9.2842     60.0757     97.6560   1.2460315280e+02   4.8603445280e+01    0.1652106    0.1465847  76.39 0.0004452637    1.128    0.114
        45 -10.1249     27.2022     94.4268   1.3312508971e+02   5.2806185315e+01    0.3438721    0.1033034  40.79   0.00157389    3.304    0.697
        46 -11.0223     21.1690     92.9522   1.3460171972e+02   5.3638174238e+01    0.2364609    0.1765412  49.45 0.0007584002    1.471    0.320
        47  -9.2448    153.4542     75.5101   9.5471306450e+01   3.6095544517e+01    0.1458941    0.1435311 -33.95 0.0001000825    1.011    0.011
        48 -10.9872    192.9623    194.5620   1.1298696738e+02   9.7447069208e+00    0.6460142    0.3378046 -60.55  0.002551696    5.711    0.825
        49 -11.9562     76.9464    192.9418   1.3298376493e+02   2.7860311978e+01    0.2983128    0.2167551 -49.02  0.001381998    2.023    0.506
        50 -11.9883     80.9680    186.3452   1.3164827120e+02   2.8438320391e+01    0.2282617    0.1992922 -67.00 0.0006984067    1.438    0.305
        51 -12.6680    124.8581    243.8314   1.2959965788e+02   1.4145922855e+01    0.5116054    0.2219643  55.12  0.003004514    1.994    0.499
        52  -9.8278    198.3247    245.6565   1.1885758275e+02   3.5793663536e+00   0.09394068   0.06780925  59.66 0.0007050706    1.736    0.424
