#   1 NUMBER                 Running object number                                     
#   2 MAG_AUTO               Kron-like elliptical aperture magnitude                    [mag]
#   3 X_IMAGE                Object position along x                                    [pixel]
#   4 Y_IMAGE                Object position along y                                    [pixel]
#   5 X_WORLD                Barycenter position along world x axis                     [deg]
#   6 Y_WORLD                Barycenter position along world y axis                     [deg]
#   7 A_WORLD                Profile RMS along major axis (world units)                 [deg]
#   8 B_WORLD                Profile RMS along minor axis (world units)                 [deg]
#   9 THETA_WORLD            Position angle (CCW/world-x)                               [deg]
#  10 FWHM_WORLD             FWHM assuming a gaussian core                              [deg]
#  11 ELONGATION             A_IMAGE/B_IMAGE                                           
#  12 ELLIPTICITY            1 - B_IMAGE/A_IMAGE                                       
         1 -14.7959    158.4749     42.3129   8.4250080831e+01   4.0060204479e+01     1.387349     1.063591 -11.18  0.003952845    1.420    0.296
         2 -13.5224    169.0951     13.5940   7.2624159411e+01   4.0756098196e+01     0.875632     0.484484  74.44  0.003639896    1.862    0.463
         3 -14.2106    169.9138      6.9791   7.0245577375e+01   4.1185646814e+01     1.086866     0.705377  72.88  0.003887914    1.509    0.337
         4 -11.3706    189.9531     14.7115   7.0399901983e+01   3.5150271292e+01    0.2026816    0.1850149  82.15 0.0006751814    1.090    0.083
         5 -11.8946    188.9227    250.1435   1.2226267655e+02   3.4553709610e+00    0.1962711    0.1041578  32.36 0.0008074415    1.347    0.257
         6 -11.7364    176.1902    250.0521   1.2433193197e+02   5.1503166543e+00    0.1778383    0.1224712  27.12 0.0006331465    1.120    0.107
         7 -10.1431    153.4459    250.5095   1.2816752205e+02   8.1261457436e+00    0.1059782   0.07543228  34.66 6.356306e-06    1.021    0.021
         8 -20.0078     80.7321    194.8774   1.3621943975e+02   2.6046770128e+01     11.78735     5.709037 -69.39   0.06482187    2.379    0.580
         9 -12.4768    147.9306    189.2456   1.2173281473e+02   1.7098902025e+01    0.3731563    0.1748629  27.87  0.001658596    2.557    0.609
        10 -12.7942    125.6947    186.7912   1.2591599296e+02   2.1009253819e+01    0.5315952    0.2742613  53.35  0.001687733    2.038    0.509
        11 -11.8421     21.9420    240.9906   1.5000018566e+02   2.4951991983e+01    0.1516059    0.1033559  77.49 0.0008375824    1.334    0.251
        12 -14.2320    207.3511    179.3594   1.0892918542e+02   8.7392663159e+00    0.7183359    0.5612172  14.59   0.00420036    1.088    0.081
        13 -13.6459    196.7636    172.5073   1.0961240680e+02   1.1393645924e+01     0.618388    0.3697377 -41.41  0.002551188    1.999    0.500
        14 -12.3692    123.4127    166.4059   1.2347608508e+02   2.4928210084e+01    0.4482223    0.2708409  66.33 0.0008059134    2.351    0.575
        15 -13.8105    137.4843    171.5579   1.2121785336e+02   2.1686524813e+01    0.6592863    0.4538755 -74.07  0.003503565    2.155    0.536
        16 -14.0203    131.9432    171.6504   1.2241853400e+02   2.2591121150e+01    0.8736382    0.3300631  45.13  0.002899626    2.366    0.577
        17 -13.7317    177.4913    169.9598   1.1278726603e+02   1.5069511219e+01    0.4675555    0.3981684  13.56  0.002998905    1.102    0.093
        18  -9.8338     26.2147    227.7358   1.4879846423e+02   2.6596137125e+01   0.09390063   0.05040479  60.59 0.0002335553    1.394    0.283
        19 -10.6077     16.7947    225.8441   1.5037199607e+02   2.7776691149e+01   0.09752082   0.06550857  89.96 0.0003416687    1.477    0.323
        20 -12.0615    168.7058    176.0562   1.1555152909e+02   1.5671375907e+01     0.230364    0.1615892  36.18 0.0007087757    1.216    0.178
        21 -12.0804    201.8956    165.8206   1.0746105684e+02   1.1418392089e+01    0.3070949    0.2706693 -80.34  0.001497731    1.850    0.459
        22 -11.5078    223.6773    163.6903   1.0327209362e+02   7.9971488626e+00    0.2135343    0.1922884  -1.46 0.0005182435    1.229    0.186
        23 -12.5473    199.1814    222.8059   1.1710264542e+02   4.8896423889e+00    0.3155702    0.1222715  37.29  0.001152855    1.985    0.496
        24 -12.8596     22.7931    220.2316   1.4911307311e+02   2.8131789453e+01    0.2174065    0.1621621 -73.15  0.001520129    1.631    0.387
        25 -11.0943     28.5144    218.5472   1.4801289266e+02   2.7863074404e+01    0.2631616    0.1499819 -44.00  0.001548393    3.579    0.721
        26 -11.2593    150.9182    243.4077   1.2786392668e+02   9.2889604026e+00    0.1611515    0.1374611  11.43 0.0005334895    1.329    0.248
        27 -10.1932     22.8115    156.2130   1.4589198671e+02   4.0025797697e+01    0.1388221    0.1249001 -75.83 0.0004943868    1.295    0.228
        28 -14.9760    146.7237    170.7235   1.1913228683e+02   2.0267768074e+01    0.8861498    0.6941189 -47.65   0.00539692    1.480    0.324
        29 -14.0997    134.1524    146.2221   1.1762910251e+02   2.6811827663e+01     1.207095     0.350478 -54.74  0.003570505    5.264    0.810
        30 -14.4016    136.7763    125.5332   1.1286030809e+02   3.0267699784e+01    0.8530002    0.5673726 -52.64  0.004163663    1.652    0.395
        31 -11.5185     16.0917    154.3000   1.4735394171e+02   4.0997996275e+01    0.3593954     0.229272 -11.74  0.002020684    2.968    0.663
        32 -11.1569     16.4213    208.8459   1.4983989809e+02   3.0626412752e+01    0.1428951    0.1052111 -67.23  0.001124291    1.712    0.416
        33 -12.6169    174.3810    148.4642   1.0937453884e+02   1.8949240926e+01    0.3595181     0.296053 -59.58  0.001646205    1.592    0.372
        34 -13.2550    148.5754    148.3833   1.1479748435e+02   2.3784445904e+01    0.4248157    0.3482307 -15.18 0.0006099901    1.416    0.294
        35 -14.2445    143.4532    144.5097   1.1519275260e+02   2.5427996182e+01    0.8578626    0.4507218 -59.67  0.003563712    2.773    0.639
        36 -12.7990     11.4084    206.1715   1.5067303198e+02   3.1529251900e+01    0.4321709    0.2141907  30.92  0.002251507    1.992    0.498
        37 -10.4417      7.9058    238.5680   1.5224025742e+02   2.6584318776e+01    0.1136387   0.07213582  54.83 0.0009553093    1.052    0.049
        38 -12.9211    155.1632    147.4768   1.1319075929e+02   2.2720707389e+01    0.3397545    0.2445562  33.66  0.001371275    1.304    0.233
        39 -11.9362     27.4097    145.6820   1.4402521949e+02   4.1833749516e+01    0.2823751    0.2303854  51.84  0.001241608    1.183    0.155
        40 -13.8702    157.4726    178.2938   1.1815108139e+02   1.7229568788e+01    0.5669475    0.3312272 -46.35  0.002834937    2.027    0.507
        41 -13.4311    156.8178    200.5404   1.2160374790e+02   1.4020300252e+01    0.5652267    0.3330918 -61.63  0.002262589    2.814    0.645
        42 -11.8317    177.0362    143.3183   1.0779955356e+02   1.9270347202e+01    0.1992228    0.1655551  35.87 0.0006046636    1.111    0.100
        43 -13.9592    118.7248    135.7603   1.1932672215e+02   3.1606986487e+01     0.677447    0.5640375 -72.97  0.002786623    1.339    0.253
        44 -14.7799    122.5479    128.3284   1.1691587296e+02   3.2412262057e+01     1.085308    0.7274283  22.22  0.003865248    1.906    0.475
        45 -11.7988    153.1898    194.4859   1.2144998685e+02   1.5468901635e+01    0.2128115    0.1822419  54.33 0.0005819245    1.271    0.213
        46 -13.5762    153.4792    188.8515   1.2057408359e+02   1.6266142709e+01    0.4324553    0.3188685 -32.96  0.001491089    1.627    0.385
        47 -13.5783    162.7837    201.7915   1.2064850352e+02   1.2916299091e+01    0.7054662    0.4022985 -59.36  0.002889695    2.968    0.663
        48 -12.9756    160.7382    127.9945   1.0793874623e+02   2.5054593915e+01    0.4177227    0.3395879 -43.96  0.001847715    1.327    0.246
        49 -13.0359    157.3006    191.4566   1.2020931580e+02   1.5261137817e+01    0.3831131    0.2593567 -53.25  0.001511422    1.924    0.480
        50 -12.8978    196.3858    236.1030   1.1933218122e+02   3.8737358413e+00      0.24594     0.152857 -16.22  0.001681042    1.984    0.496
        51 -12.0978    168.8609    202.6558   1.1963463755e+02   1.1854002860e+01    0.2176976    0.1780081  55.22 0.0006778457    1.451    0.311
        52 -10.7397    205.6249    110.0992   9.4925906704e+01   1.8672039832e+01    0.2633798    0.1940461  36.59 0.0006740929    1.329    0.248
        53 -12.9772    138.1174    198.2698   1.2492659883e+02   1.7252292069e+01    0.5844967    0.2708004  53.53  0.002723099    2.561    0.610
        54 -11.5878     24.4447    106.8336   1.4121125376e+02   5.0803202907e+01    0.3317927    0.2001986   5.31  0.001579669    2.426    0.588
        55 -13.6431    174.7903    193.4426   1.1716628783e+02   1.2170449329e+01    0.4265057    0.3526752 -50.80  0.002039164    1.619    0.382
        56 -12.5820     41.1726     93.1844   1.3390460318e+02   5.2470379845e+01     0.568479    0.3547957 -25.93  0.002793137    2.370    0.578
        57 -13.1725    179.9895    192.4387   1.1604268912e+02   1.1473318270e+01    0.3705411    0.2921907 -54.34  0.001507423    1.807    0.447
        58 -11.5196    125.1290     90.9740   1.0738137275e+02   3.9498255073e+01    0.2899581    0.2096362  50.94 0.0004982657    1.403    0.287
        59 -13.9170    176.7599    188.4153   1.1601381968e+02   1.2544882258e+01     0.679895    0.3879362 -59.45  0.003160458    3.504    0.715
        60 -10.2614    105.6544     82.0808   1.1034806538e+02   4.5297080034e+01     0.201818    0.1811664 -44.32 0.0003764882    1.100    0.091
        61 -14.1538    167.0905    191.1444   1.1827236245e+02   1.3729704941e+01    0.6040296    0.5063596  62.15  0.003992104    1.505    0.335
        62 -14.1886    148.0601     57.0055   9.1343116084e+01   4.0465241667e+01    0.9006932    0.7920038 -16.12 0.0009499636    1.164    0.141
        63 -11.7028    167.9941    242.4805   1.2485066783e+02   7.0732242802e+00    0.1677442    0.1547263  -5.38 0.0007989397    1.386    0.278
        64 -12.9171    162.3496     33.6931   8.0596269331e+01   4.0217093390e+01    0.4222399    0.3945435  29.03 0.0009000807    1.085    0.078
        65 -11.0123     13.3791     59.8704   1.3864810239e+02   6.2637610440e+01    0.1832611    0.1611045  61.05 0.0004783385    1.272    0.214
        66 -12.8298    197.5193    245.4989   1.2031919589e+02   2.7771608716e+00    0.3322296    0.1285985  46.33  0.001644957    2.852    0.649
        67 -11.8631     28.9100    244.3318   1.4896214151e+02   2.3791488480e+01    0.2020682    0.1131648 -86.14  0.001566035    1.884    0.469
