#   1 NUMBER                 Running object number                                     
#   2 MAG_AUTO               Kron-like elliptical aperture magnitude                    [mag]
#   3 X_IMAGE                Object position along x                                    [pixel]
#   4 Y_IMAGE                Object position along y                                    [pixel]
#   5 X_WORLD                Barycenter position along world x axis                     [deg]
#   6 Y_WORLD                Barycenter position along world y axis                     [deg]
#   7 A_WORLD                Profile RMS along major axis (world units)                 [deg]
#   8 B_WORLD                Profile RMS along minor axis (world units)                 [deg]
#   9 THETA_WORLD            Position angle (CCW/world-x)                               [deg]
#  10 FWHM_WORLD             FWHM assuming a gaussian core                              [deg]
#  11 ELONGATION             A_IMAGE/B_IMAGE                                           
#  12 ELLIPTICITY            1 - B_IMAGE/A_IMAGE                                       
         1 -14.2775    238.0954     46.4030   7.9356431432e+00   2.0172498774e+01     1.822976       1.4611 -36.21  0.008500436    1.061    0.058
         2 -12.5662    248.8929     43.8424   6.4063727687e+00   1.8350616932e+01    0.8165874    0.3121847 -24.69  0.003530455    2.519    0.603
         3 -11.6793     50.6868     37.7905   4.8066002209e+01   6.5450376700e+01    0.7734352    0.4357431  24.26  0.003371476    2.161    0.537
         4 -11.4705    206.1908     31.3738   7.1190803078e+00   2.8937849909e+01    0.3496482     0.229027 -70.14  0.001789876    1.618    0.382
         5 -11.8821      9.5556     17.5675   6.5269911491e+01   7.4646141591e+01    0.3555423    0.1926633 -55.45   0.00188381    1.566    0.362
         6 -12.3121    134.1545      9.0191   8.6441996610e+00   4.9996128091e+01    0.8948441     0.486339 -69.77  0.003620693    2.317    0.568
         7 -11.4273     10.4419      6.9450   5.9188364621e+01   7.6795435948e+01    0.3996241    0.2973019 -60.70  0.002452957    1.465    0.317
         8 -12.7240    108.1931      3.2404   1.0639406695e+01   5.7537350930e+01    0.9653291    0.3851881  75.74  0.003461682    2.771    0.639
         9 -12.0950     84.2983      3.3141   1.6233829781e+01   6.3701546450e+01     1.204008    0.3527541  67.05  0.003745112    3.828    0.739
        10 -12.6745      2.3613    168.4224   8.8516540191e+01   3.8141714384e+01    0.8543039    0.2751209 -88.69  0.003721538    2.871    0.652
        11 -12.2852    158.8659    246.8574   6.0670660260e+01   4.9717698059e+00    0.4138902    0.3487298  54.90  0.003158484    1.644    0.392
        12 -12.9224    126.9748    225.0259   6.4341060089e+01   1.2262346177e+01    0.6452531     0.463789  29.13  0.003365451    1.140    0.123
        13 -13.4738    122.2552    215.0135   6.4152726241e+01   1.4517499148e+01    0.9961836    0.6576314  69.18  0.005462888    2.265    0.559
        14 -14.0081    134.8736    243.6465   6.4826609267e+01   8.4936553588e+00     1.444257     0.702512  49.95  0.007746743    2.373    0.579
        15 -13.7430    115.7405    234.0254   6.7587752099e+01   1.2402700861e+01     1.118271    0.7301244 -63.82  0.006367977    2.080    0.519
        16 -13.1325     27.2806    128.6304   7.8918569098e+01   4.5574545203e+01     1.480654     1.000363  88.65  0.006198972    1.362    0.266
        17 -15.0067     63.1305    144.2750   6.9751407141e+01   3.7596873511e+01     5.227844      2.46966  70.67   0.01820108    3.494    0.714
        18 -12.6401     37.4163    174.7692   7.9994589586e+01   3.3550156271e+01     1.495171    0.5927241  63.48  0.006266742    2.764    0.638
        19 -12.9425     29.1906    153.1266   8.0526873947e+01   3.9378618827e+01     2.240745    0.6937677 -83.86  0.007978016    3.648    0.726
        20 -14.4885     83.5339    169.1167   6.7457116362e+01   2.8981226451e+01     1.723589     1.038476  76.57  0.007922679    2.222    0.550
        21 -14.8204     75.6804    198.3265   7.2696278037e+01   2.3989148445e+01     2.351612       1.4887 -75.92   0.01133906    1.817    0.450
        22 -13.4203     60.0868    173.9668   7.4099799063e+01   3.1097536118e+01      1.11716    0.6966305  62.39  0.004262379    1.560    0.359
        23 -14.2744     46.0508    157.2124   7.6174690675e+01   3.6622931964e+01      2.40732    0.7210418 -74.42  0.008593656    3.536    0.717
        24 -13.0379     59.7635    226.3022   7.8478442750e+01   2.0728835501e+01    0.8115618    0.5520708 -86.52  0.004514713    1.667    0.400
        25 -14.4506     48.0265    217.8352   8.0421901423e+01   2.3595712535e+01     3.617575     1.248901  80.18   0.01238097    6.005    0.833
        26 -13.7577     38.9950    202.5937   8.1483049524e+01   2.7513430034e+01     2.163655    0.6171241  56.83  0.008413701    3.573    0.720
        27 -11.4510     53.9787    248.8636   8.0979533046e+01   1.7600901473e+01    0.3019318    0.2298946  64.41  0.001447088    1.246    0.197
        28 -12.7346     64.4071    247.2233   7.8871217269e+01   1.6697112072e+01    0.5891184     0.387054  54.76  0.003070823    1.268    0.212
        29 -10.5268     54.4089    242.2110   8.0534510777e+01   1.8628138341e+01    0.3125309    0.1290884  50.13  0.001523921    1.856    0.461
        30 -12.7287     44.6303    246.4487   8.2654408792e+01   1.8995648094e+01    0.5908722    0.4779457 -46.03   0.00455456    1.878    0.468
        31  99.0000     12.7134    212.3049   8.7670697317e+01   2.8200538369e+01      1.45119    0.2612709  59.38  0.005202603    4.798    0.792
        32 -11.6186      5.4403    214.1100   8.9236666170e+01   2.8497163488e+01    0.3842094    0.2208472  42.64  0.001883805    1.323    0.244
        33 -11.5225      2.0120    220.2927   9.0085431319e+01   2.7638985660e+01    0.2907516    0.1707364  71.90  0.001269611    1.410    0.291
        34 -12.5867     24.5390    248.5505   8.6544773002e+01   2.0690781735e+01     0.543255    0.2215613  44.95  0.002647505    1.596    0.373
        35 -13.5350      8.8691    233.7853   8.9072485853e+01   2.4633895818e+01     1.442713          nan  51.74  0.005359826    4.776    0.791
        36 -12.8274      8.5075    222.0684   8.8831016363e+01   2.6753400972e+01    0.5563339    0.3341065  61.32  0.002237488    1.262    0.207
        37 -12.6436     12.7596    247.9984   8.8707863895e+01   2.1888864422e+01    0.3962458    0.3330631  60.29  0.002447131    1.266    0.210
        38 -13.5244      4.6722    244.2768   9.0104995277e+01   2.3224205934e+01    0.6546459    0.3872771  79.57  0.004884477    1.581    0.367
        39 -12.7681     34.1512    221.2388   8.3544772308e+01   2.4453373529e+01    0.5772007    0.4127761  67.75  0.002458126    1.222    0.182
        40 -13.0460     28.4111    213.3779   8.4385365585e+01   2.6506049544e+01    0.9567251    0.3680443  82.70  0.004595441    2.970    0.663
        41 -12.8588      9.1030    191.4792   8.7739205471e+01   3.2653711693e+01    0.8162484    0.2865218  78.00  0.003758325    2.808    0.644
        42 -12.5184      3.7010    185.7087   8.8781428201e+01   3.4301687636e+01      0.66397     0.298033 -80.60  0.002585049    2.118    0.528
        43 -11.8344    184.0731    218.4832   5.2325828435e+01   5.2378066658e+00    0.2365656    0.1870259 -11.68  0.001672108    1.280    0.219
        44 -12.1462    167.6108    212.3523   5.4560990054e+01   8.3848593768e+00    0.5500546    0.3821508 -53.23   0.00336066    2.055    0.513
        45 -12.2870    148.0780    211.5502   5.8341100237e+01   1.1337985415e+01    0.7044074    0.3682199  48.71  0.003555717    2.151    0.535
        46 -12.9805    105.9152    209.1343   6.6990251275e+01   1.7834450626e+01    0.7637027     0.582472 -55.47  0.004286996    1.590    0.371
        47 -12.6589    104.6875    199.1590   6.6102033108e+01   1.9814301924e+01    0.9644399    0.2960324  42.14  0.003817839    2.676    0.626
        48 -13.5260    106.9510    194.2356   6.4977415457e+01   2.0402908765e+01    0.6630589    0.6137226  83.77  0.003176562    1.220    0.181
        49 -12.2132     95.2167    207.0141   6.9126118620e+01   1.9706364289e+01    0.6558649     0.444952 -74.28  0.003893641    1.825    0.452
        50 -11.7480    152.5403    189.4062   5.4159575196e+01   1.4201462812e+01    0.4116417    0.2039176  28.16  0.001904815    2.005    0.501
        51  -9.1643     55.2659    189.3222   7.6722785343e+01   2.8384194632e+01    0.1108722   0.09599362 -33.80 0.0006466522    1.561    0.359
        52 -12.0322    136.0956    186.1483   5.7223986703e+01   1.7388310063e+01    0.3248289    0.2358505  14.51  0.001458296    1.503    0.334
        53 -12.1928    137.7480    181.4942   5.6127677107e+01   1.7958368456e+01      0.45243    0.3161543 -73.21  0.002311096    2.188    0.543
        54 -13.2599    107.3331    176.8699   6.2542867345e+01   2.3735126041e+01    0.9553937    0.6218244 -78.84  0.004718326    2.107    0.525
        55 -11.4054    125.8347    173.9700   5.7664440871e+01   2.1325566093e+01    0.3760078    0.1962762 -47.81  0.001741933    2.133    0.531
        56 -11.4667     74.7943    133.8223   6.4666892594e+01   3.8481196129e+01    0.3375628    0.2844816   8.87 0.0006936511    1.442    0.306
        57 -10.9288      2.8167    129.8225   8.6691587347e+01   4.7161621117e+01    0.3279794     0.231896  56.81   0.00169624    1.266    0.210
        58 -11.1628      1.5081    125.9822   8.6888838102e+01   4.8186753190e+01     0.363055    0.2656634 -67.10  0.001628555    1.350    0.259
        59 -14.3905     81.0664    241.6808   7.5218713804e+01   1.5619048006e+01     2.040179    0.6310318  48.48  0.009350424    2.808    0.644
        60 -10.4589     12.6638    117.6842   8.2712417690e+01   4.9536044451e+01    0.3855169    0.2653919  65.85  0.001896689    1.339    0.253
        61 -12.0126     11.3718    110.1359   8.2514178915e+01   5.1547166665e+01    0.6774274    0.3953791  81.88   0.00258225    1.594    0.373
        62 -10.2735      2.4751    113.6780   8.5848676542e+01   5.1196921705e+01    0.2639561    0.1811042  71.83  0.001393169    1.290    0.225
        63 -12.8567    150.3273    105.7009   3.7413656674e+01   3.0325475934e+01    0.5857438    0.4687514 -72.29  0.002823672    1.564    0.361
        64 -10.6431     57.4294     99.0844   6.3961103141e+01   4.9754923900e+01    0.3658666    0.2572191  78.07  0.001722953    1.677    0.404
        65 -12.1054    105.8515     93.7112   4.6041508143e+01   4.2561184503e+01    0.5466698    0.2839837 -56.13  0.002063476    2.150    0.535
        66 -11.1221     84.1295    106.7682   5.6329647898e+01   4.3626903219e+01    0.3056632     0.191977 -32.94  0.001254987    2.118    0.528
        67 -13.6941     94.8259    233.3552   7.1766398576e+01   1.5236025003e+01     2.591367    0.9899663  57.83  0.009823854    4.609    0.783
        68 -10.4339     39.1515     88.0741   6.8827034230e+01   5.4869141171e+01    0.3383652    0.2267902  19.30  0.001675325    1.713    0.416
        69 -11.5933      2.5903     81.9382   8.3255265804e+01   5.9280452826e+01    0.7939889    0.2622193 -76.45  0.003205028    2.480    0.597
        70 -11.5128     65.0917    111.1690   6.3683289084e+01   4.5579180246e+01      0.69591    0.4461705 -84.31  0.002871742    1.840    0.456
        71 -12.8851    124.4452     74.9195   3.4994670610e+01   4.2433707382e+01    0.9883224    0.3472478  51.61   0.00312977    2.909    0.656
        72 -11.2808     29.1642     81.0318   7.1673353739e+01   5.7702069787e+01    0.6139488    0.3620366  43.83   0.00297199    1.812    0.448
        73 -12.0688     16.9914     73.7839   7.5816733311e+01   6.0558140015e+01    0.6691565    0.5421506  89.34  0.002555745    1.188    0.158
        74 -10.9550    249.5630     71.6131   1.2714195648e+01   1.4836054555e+01    0.3314658    0.2481003 -38.21  0.002082166    1.119    0.107
        75 -12.0246      6.0621     68.1340   8.0065793863e+01   6.2650091431e+01    0.6830541    0.4318652  69.54  0.003618564    1.702    0.412
        76 -10.6981     33.3717     67.8383   6.6934456220e+01   6.0672837761e+01    0.3887839    0.2456838 -56.52  0.001938139    1.408    0.290
        77 -11.0550     26.8985     58.4921   6.7784680441e+01   6.3648863648e+01     0.737476    0.1703162 -64.58  0.002316883    3.715    0.731
        78 -11.6004     53.1022     58.5418   5.4935699457e+01   6.0460825083e+01    0.6176386    0.3982986  48.84  0.002889341    1.775    0.436
        79 -13.0331    109.2200     51.2185   3.0975186929e+01   5.0632744442e+01    0.9150559    0.6383756 -57.13  0.004077354    1.657    0.397
        80 -12.7561    100.9185     45.9330   3.1394194716e+01   5.3584377349e+01     1.288795    0.7419471  37.81  0.005246837    1.958    0.489
        81 -13.6110     26.8216    235.8631   8.5656264422e+01   2.2589954562e+01     1.154377    0.3476233  62.67  0.005408619    3.222    0.690
        82 -12.9472    142.3109    232.2185   6.2110043696e+01   9.0981651734e+00    0.6203701    0.3680884  47.90  0.003700126    1.757    0.431
        83 -11.9281     48.8006     47.2809   5.2942868821e+01   6.3689958938e+01    0.8814793    0.2597851 -50.90  0.002954439    3.085    0.676
        84 -11.4758    160.5074    227.0030   5.7936095811e+01   7.3407886187e+00    0.3506983    0.2327971  38.48  0.002263073    1.340    0.254
        85 -11.5571      7.1102     46.4683   7.5784988231e+01   6.8038278900e+01     0.433548    0.4008946  83.03  0.002493167    1.179    0.152
        86 -12.3396      7.0796     40.1711   7.4376637880e+01   6.9575035138e+01    0.7809532    0.2667296 -54.97  0.003369181    2.210    0.547
        87 -11.7745     16.5340     40.8117   6.8708787046e+01   6.8826722534e+01    0.7064946    0.4471274 -84.84  0.003576664    1.879    0.468
        88 -11.6571     86.8872     33.1902   3.0509558862e+01   5.9084041683e+01    0.4694819    0.4140015 -64.72  0.002506256    1.294    0.227
        89 -11.6311    155.9959    224.9846   5.8546337702e+01   8.2412859493e+00    0.3253995    0.2586879 -18.95  0.002228114    1.427    0.299
        90 -10.7226      1.8673     44.4037   7.8455212264e+01   6.8776885911e+01    0.3532157    0.2035954 -77.79  0.001632698    1.564    0.361
        91 -10.6503     37.6229     30.6208   5.1958504745e+01   6.8899894495e+01    0.2594306    0.2535361 -58.61  0.001628888    1.183    0.155
        92 -13.5962      7.0060    151.3689   8.6584590236e+01   4.1693609415e+01     1.331524    0.5296844  57.72  0.006011209    2.193    0.544
        93 -10.5644     79.3186     15.3350   2.4288631184e+01   6.3518320888e+01     0.152433    0.1036213  23.32  0.000704888    1.699    0.411
        94 -12.3671      2.6180    141.5314   8.7341412584e+01   4.4336205721e+01    0.5639966     0.302714  80.19  0.002388292    1.614    0.380
        95 -11.7398     18.0655    199.8982   8.6048409337e+01   3.0141250255e+01    0.6115877    0.2528839  57.32  0.002474735    1.943    0.485
        96 -14.0860     13.9243    176.6395   8.5993420515e+01   3.5396315674e+01      1.47314    0.6748466  82.47  0.005600568    2.054    0.513
