#   1 NUMBER                 Running object number                                     
#   2 MAG_AUTO               Kron-like elliptical aperture magnitude                    [mag]
#   3 X_IMAGE                Object position along x                                    [pixel]
#   4 Y_IMAGE                Object position along y                                    [pixel]
#   5 X_WORLD                Barycenter position along world x axis                     [deg]
#   6 Y_WORLD                Barycenter position along world y axis                     [deg]
#   7 A_WORLD                Profile RMS along major axis (world units)                 [deg]
#   8 B_WORLD                Profile RMS along minor axis (world units)                 [deg]
#   9 THETA_WORLD            Position angle (CCW/world-x)                               [deg]
#  10 FWHM_WORLD             FWHM assuming a gaussian core                              [deg]
#  11 ELONGATION             A_IMAGE/B_IMAGE                                           
#  12 ELLIPTICITY            1 - B_IMAGE/A_IMAGE                                       
         1  -9.7968      2.1387     11.1577   6.1098978769e+01   7.2116131450e+01    0.2105294    0.1591994  19.82  0.001572144    1.550    0.355
         2 -10.6483      6.3329      8.9276   5.7754039970e+01   7.2104200974e+01    0.5183538    0.2142295  37.01  0.002609025    3.534    0.717
         3  -8.2550     55.9269      9.9444   3.5194516485e+01   6.5608896205e+01    0.1562635    0.1496916 -63.41 0.0005858737    1.653    0.395
         4  -8.0605     91.5924      9.2941   2.3875850948e+01   5.8897000281e+01    0.1206309   0.09632425 -82.37 0.0006985908    1.828    0.453
         5  -8.8769     21.2342      9.6892   5.0219362370e+01   7.0533118217e+01     0.213587   0.08798282  37.44  0.001090706    2.739    0.635
         6  -8.6365     79.3438      4.8371   2.5372140268e+01   6.1776467680e+01    0.2556954    0.1107094 -21.64  0.001239778    2.513    0.602
         7  -8.5255     70.0487      6.2433   2.8730083345e+01   6.3450298083e+01    0.1702161    0.1375725  27.51 0.0005900482    1.017    0.017
         8  -8.6363     33.6316      5.4171   4.2195908302e+01   6.9501111252e+01    0.1849683    0.1327309 -47.71  0.001122709    2.442    0.591
         9  -9.2678    248.2015      3.9467   1.6613024367e+00   2.4230586240e+01    0.1856503    0.1649881 -17.96  0.001384726    1.623    0.384
        10  -8.4222     15.6802      3.5521   5.0075115579e+01   7.1918889357e+01    0.1808706   0.08591065 -33.47  0.000996187    1.920    0.479
        11  -8.1943    243.6788      3.6810   1.9075167801e+00   2.5158880310e+01    0.1015306   0.08377726  50.24 0.0004959193    1.667    0.400
        12  -8.2085     62.5162      1.4804   2.9045519384e+01   6.5256076230e+01    0.1196642   0.09645609  25.52 0.0001261906    1.040    0.038
        13  -8.6560    168.8320    247.0285   6.4823276406e+01  -1.2544368236e-01    0.2655719    0.1480393  35.09 0.0009041303    1.515    0.340
        14  -9.4838    233.8355    249.0499   5.2789400044e+01  -9.7261494312e+00    0.3703958    0.2526129 -51.95   0.00213544    2.682    0.627
        15  -9.6421    237.4003    242.2489   5.1037184837e+01  -9.3117398475e+00    0.5256054    0.2495627  12.56  0.002206428    2.879    0.653
        16  -9.3533    242.2638    249.0327   5.1297260443e+01  -1.0799571504e+01     0.468391    0.1346559 -32.47  0.001906047    3.584    0.721
        17  -9.2777    249.8909    249.0030   4.9970373380e+01  -1.1738440913e+01    0.2814192    0.1688806 -30.97  0.001536086    1.653    0.395
        18  -8.7449    250.3603    237.0734   4.7900899171e+01  -1.0302438781e+01    0.2248941    0.1496336  -5.19 0.0007387823    1.292    0.226
        19  -9.8129    246.0876    234.5130   4.8203925766e+01  -9.4251004194e+00    0.4823155     0.213987  23.24  0.001989113    2.366    0.577
        20  -8.8549    245.3456    243.2710   4.9810153017e+01  -1.0462725749e+01    0.1856843    0.1276868   7.39 0.0006009361    1.194    0.162
        21  -9.5098    248.4934    241.9991   4.9052317215e+01  -1.0696605314e+01    0.3093362    0.1945428 -35.68  0.001220452    1.738    0.425
        22 -10.4146    223.2397    243.8102   5.3852272123e+01  -7.6252003701e+00    0.4012088    0.3522881  -8.92  0.002425417    1.280    0.219
        23  -9.0152    210.8909    246.5538   5.6588358478e+01  -6.2839737598e+00    0.2381533    0.1686037 -55.37 0.0009306981    2.385    0.581
        24  -9.6054    214.8217    250.3465   5.6458502625e+01  -7.3502803671e+00    0.3667446    0.1349104  31.45  0.001302733    2.430    0.588
        25  -8.9341    185.2479    250.1751   6.2057234974e+01  -3.0821433526e+00    0.2590313    0.1440175  37.79 0.0007076638    1.574    0.365
        26  -9.3535    128.0153    248.5068   7.3252825183e+01   5.9115829252e+00    0.2720411     0.110554  32.71 0.0008119704    2.352    0.575
        27  -8.9994    134.9661    250.4929   7.2101191202e+01   4.5127112880e+00    0.2530881    0.1520819  43.03  0.000705434    1.419    0.295
        28  -8.9324    131.8443    247.5820   7.2359622145e+01   5.4857711514e+00    0.2137692    0.1761347  79.40 0.0006648584    1.494    0.330
        29  -9.7504    104.0034    246.8055   7.7908150074e+01   9.8138138677e+00    0.5085041     0.275167 -89.34  0.002179026    3.533    0.717
        30 -10.1380     76.4890    247.0313   8.3416069290e+01   1.3660356960e+01    0.3179563     0.193271  47.28 0.0004949084    1.364    0.267
        31  -8.9918     93.7847    249.1935   8.0212728019e+01   1.0856310479e+01    0.2472156    0.1371853  57.44   0.00129903    1.802    0.445
        32 -10.4735     88.4942    246.9286   8.1031513913e+01   1.2022436045e+01    0.4310744    0.3261897  34.69  0.001849335    1.305    0.234
        33 -10.0516     82.4822    246.1450   8.2147797350e+01   1.3007238615e+01    0.3488304    0.2951791  71.13  0.001531422    1.107    0.097
        34 -10.2651     77.7186    242.4325   8.2731609992e+01   1.4364928640e+01    0.3654913    0.2187778 -75.81  0.001911263    1.855    0.461
        35  -9.1952     88.6205    242.1763   8.0513714381e+01   1.2896153846e+01    0.2397371    0.1925605  60.28 0.0007521953    1.095    0.087
        36  -9.9306     82.6582    238.6477   8.1355334003e+01   1.4411377235e+01    0.3545378    0.1889957  37.81  0.001144225    1.678    0.404
        37  -9.6622     51.6558    249.0964   8.8363388657e+01   1.6469888203e+01    0.2091119    0.1507582  50.81  0.000294553    1.164    0.141
        38  -8.7387     26.7517    250.3016   9.2993357799e+01   1.9114235537e+01    0.1887162    0.1093248  45.68  0.000749643    1.457    0.314
        39  -8.5181    169.0522    243.0470   6.4190450114e+01   4.7131701215e-01    0.2105861    0.1689333  89.80 0.0007233692    2.061    0.515
        40 -10.2469    120.4382    245.8029   7.4456097202e+01   7.5380779777e+00    0.4584418    0.2602169  62.96  0.001915105    2.398    0.583
        41  -9.2150    115.0838    242.5143   7.5149164594e+01   8.9420807448e+00    0.1873476    0.1401334  39.71 0.0006239755    1.152    0.132
        42  -8.4766     13.3476    247.3139   9.5177921865e+01   2.1075628811e+01   0.09321059   0.08067442 -51.28 0.0007047001    1.719    0.418
        43  -8.8360     57.0489    246.5154   8.7138551095e+01   1.6291556351e+01     0.176805   0.09899062  40.32 0.0006545163    1.572    0.364
        44  -9.2964    159.1813    244.1588   6.6343986990e+01   1.8252332456e+00    0.2921178    0.1857692  22.63    0.0012332    1.575    0.365
        45  -8.9860    159.9843    239.9826   6.5571013916e+01   2.3881238707e+00    0.2761966    0.1965197  85.52  0.001044576    2.742    0.635
        46 -10.0291    196.4142    242.0877   5.8636030005e+01  -3.5459783511e+00    0.4003027    0.2933261  60.20    0.0019408    2.270    0.560
        47  -8.4495    201.5460    242.5380   5.7718631179e+01  -4.3693384183e+00     0.202425    0.1577329 -43.39  0.001048884    1.620    0.383
        48  -8.5393    204.2189    239.2277   5.6670849571e+01  -4.2784446663e+00    0.1826055    0.1359417  25.79  0.001112928    1.165    0.142
        49  -9.7245    180.8054    240.9600   6.1522905058e+01  -1.0138309816e+00     0.418808    0.2580206  15.39  0.001885492    1.790    0.441
        50  -8.1678    146.2924    239.6312   6.8329466880e+01   4.6076939264e+00    0.1725338    0.1177742 -86.35 0.0007280387    2.668    0.625
        51  -9.2786    134.9222    241.9837   7.0997259300e+01   5.9825755068e+00    0.2168666     0.186307  38.75 0.0004209877    1.014    0.014
        52  -8.2719    135.3000    238.6530   7.0468960666e+01   6.5119396488e+00    0.1617343    0.1336347 -89.86 0.0009753258    1.542    0.352
        53  -8.4690     97.2562    242.5841   7.8805253913e+01   1.1579071495e+01    0.1713777    0.1096968  30.02 0.0009052404    1.608    0.378
        54  -9.5166     28.6278    241.1564   9.2082764552e+01   2.0653896005e+01    0.2193085    0.1513334  62.58 0.0005985812    1.151    0.131
        55  -8.8697     34.2831    247.5055   9.1462873499e+01   1.8809769290e+01    0.1950503    0.1311303  48.41 0.0005613128    1.276    0.216
        56  -9.3120     61.1661    240.9196   8.5869776178e+01   1.6846778556e+01    0.1993765    0.1453634  50.01  0.000480855    1.169    0.145
        57  -9.2786     36.8118    240.2715   9.0500245981e+01   1.9915959320e+01    0.1892528    0.1356196  52.63 0.0007270026    1.188    0.158
        58  -9.9246      2.5618    239.5612   9.6656517003e+01   2.3594440014e+01    0.2031501    0.1457817  70.84 0.0005017882    1.028    0.027
        59  -9.8784    124.5603    238.9948   7.2746644826e+01   8.1289905688e+00    0.3283996     0.183157  31.61  0.000615863    1.708    0.414
        60 -10.0047     71.2118    238.3891   8.3644051659e+01   1.6026403428e+01    0.2694819    0.1918892  45.83 0.0004433158    1.223    0.182
        61  -9.3768     52.2692    238.1540   8.7376013309e+01   1.8503714496e+01    0.2134314    0.1531343  56.01 0.0004740602    1.157    0.136
        62 -10.8829     17.4811    237.7753   9.3911217106e+01   2.2485958570e+01    0.3662913    0.1953203  33.13  0.001324341    1.999    0.500
        63  -8.2455    209.2137    238.2434   5.5556288208e+01  -4.8654704335e+00    0.1685793   0.09595051 -48.35 0.0004536021    2.406    0.584
        64  -8.4390    173.0050    238.4976   6.2704210119e+01   5.8675041509e-01    0.1963259     0.110517  34.77 0.0005109144    1.535    0.349
        65  -9.2859     45.1242    244.1296   8.9215956029e+01   1.8202546870e+01    0.2329138    0.1324724  44.91 0.0006830086    1.488    0.328
        66  -9.5888    106.6404    238.0239   7.6350331991e+01   1.1048912432e+01      0.24262    0.2081502  28.54  0.000512703    1.223    0.182
        67  -9.7428    109.1720    234.6805   7.5414387765e+01   1.1299820702e+01    0.6833274    0.2303636  50.98  0.002421506    3.600    0.722
        68  -9.0374    230.6453    236.6773   5.1315169718e+01  -7.6666983529e+00    0.1912603    0.1809427 -42.93 0.0008566956    1.663    0.399
        69  -9.2020    226.4010    237.0470   5.2150283907e+01  -7.1351956788e+00    0.2491158    0.1667842  22.67  0.000464831    1.294    0.227
        70  -9.0150    216.8287    235.6032   5.3680319156e+01  -5.5846831052e+00    0.1930227    0.1801964 -62.67 0.0008454121    1.720    0.419
        71  -9.1382    213.6376    231.6489   5.3614012846e+01  -4.5479496041e+00    0.2602677    0.2308849  74.88 0.0009945745    1.959    0.490
        72  -9.5297    175.3563    233.1144   6.1385450353e+01   1.0934331270e+00    0.4401629    0.3295254 -65.07  0.002458584    2.017    0.504
        73  -8.3677    149.0111    236.4976   6.7317851189e+01   4.7196343754e+00    0.2032794     0.112058  38.27 0.0008355673    1.564    0.361
        74  -8.9202     43.8852    235.8676   8.8823110938e+01   1.9965051524e+01     0.194921    0.1409963  50.05 0.0004317088    1.213    0.175
        75  -8.6958    203.0205    234.4515   5.6115785785e+01  -3.3919638505e+00    0.2130287    0.1765395 -52.04 0.0007907567    1.697    0.411
        76  -8.6390    198.8703    235.5207   5.7096941581e+01  -2.9299165466e+00    0.2375811    0.1082047  31.12  0.001116393    2.006    0.501
        77  -8.4997    185.6493    234.9664   5.9610776647e+01  -8.2048952008e-01    0.1702252    0.1496393  -2.16 0.0004598947    1.116    0.104
        78  -9.7043    131.5592    234.2478   7.0646937139e+01   7.8975071550e+00    0.3001671    0.2019239 -21.67  0.001517326    2.225    0.551
        79  -8.9793    142.2490    233.2915   6.8264855328e+01   6.3666775637e+00    0.3479804    0.1891317  24.57  0.001586954    2.111    0.526
        80  -8.4087    122.8354    233.9983   7.2450724929e+01   9.3180159534e+00    0.2052422    0.1423286  77.31  0.001068421    1.993    0.498
        81  -8.4337     99.7794    234.0228   7.7305218721e+01   1.2838946280e+01    0.2104141    0.1326901  74.95  0.001066284    2.053    0.513
        82  -8.8767     77.7316    234.1682   8.1900619164e+01   1.5972138575e+01    0.2218643    0.1712951  44.95  0.001400413    1.169    0.145
        83  -9.5778     68.7968    232.4507   8.3559720180e+01   1.7524254780e+01    0.4394634    0.1750578  61.01  0.001702567    3.483    0.713
        84  -8.5743     38.4693    234.5029   8.9765290155e+01   2.0865484671e+01    0.1193511   0.09143137  68.52 0.0008094248    1.047    0.045
        85  -9.1463      6.5258    234.5170   9.5702136372e+01   2.4199227354e+01    0.2008026   0.09439308  35.67  0.001119396    2.094    0.523
        86  -9.6864    235.0797    232.1299   4.9741095048e+01  -7.6465345971e+00    0.3756181    0.2396237   3.83  0.001443085    1.530    0.346
        87  -8.3587    194.4277    232.5018   5.7469112271e+01  -1.7901266170e+00    0.1271675    0.1085828  14.30 0.0001593607    1.046    0.044
        88  -9.1179    186.1939    230.3621   5.8752554073e+01  -1.7072684266e-01     0.297297    0.2255887 -82.43   0.00151474    2.662    0.624
        89  -8.1994    165.1889    232.5606   6.3378511725e+01   2.8078028687e+00     0.191202    0.1111155  25.11 0.0009389875    1.739    0.425
        90  -8.6146    155.8474    232.2725   6.5269495508e+01   4.3596381082e+00    0.3184654    0.1043076  35.47  0.001198835    2.785    0.641
        91  -9.3662     10.7754    231.4978   9.4768848093e+01   2.4387659513e+01    0.1728257    0.1296905  70.03 0.0005319854    1.034    0.032
        92  -9.6493    246.5928    227.8792   4.6970978418e+01  -8.6053536721e+00     0.461408    0.1677501 -28.62  0.002027354    2.889    0.654
        93  -8.9860    206.6445    230.0086   5.4671182401e+01  -3.2649891041e+00    0.3176937    0.1566465  34.52  0.001372905    1.837    0.456
        94  -8.3253    139.7559    229.8017   6.8284964684e+01   7.4004988227e+00    0.1781574    0.1407039  56.32 0.0004841973    1.346    0.257
        95  -8.7327    125.7852    230.3624   7.1334426578e+01   9.5346115213e+00    0.2409299    0.1682431  32.89 0.0007875533    1.324    0.244
        96  -9.6614    127.7935    227.0804   7.0447887193e+01   9.8355339869e+00     0.336346    0.2060391  61.71  0.001551191    2.105    0.525
        97  -9.7068     31.6612    229.6398   9.0721805084e+01   2.2606289993e+01    0.2080779    0.1732692  71.52 0.0004586847    1.082    0.076
        98  -8.6802      1.4097    230.2903   9.6397212112e+01   2.5504777017e+01    0.1562186   0.07989653  83.77 0.0009475289    1.659    0.397
        99  -9.2104    144.8494    226.4410   6.6703595950e+01   7.1893072740e+00    0.3562891    0.1631761  38.44  0.001322179    1.921    0.479
       100  -8.8749    151.4649    228.9690   6.5685343417e+01   5.6521517608e+00    0.2806449    0.2114497  87.86  0.001323211    2.090    0.521
       101  -9.3254    148.3901    224.2494   6.5613619946e+01   7.0108209694e+00    0.3215781    0.2527224  81.94  0.001177663    1.803    0.445
       102 -10.3174    114.5495    228.0196   7.3419895714e+01   1.1752569435e+01    0.5939782    0.2079167  40.02  0.002375675    2.446    0.591
       103  -8.8558    102.6988    229.1331   7.6097004825e+01   1.3356428860e+01    0.2417913    0.1705334  34.72 0.0005417006    1.346    0.257
       104  -7.8923    229.4974    228.4624   5.0117960517e+01  -6.3629746632e+00    0.1235037    0.1004394   3.18 0.0008091315    1.041    0.040
       105  -8.9270    161.7339    227.8560   6.3358563841e+01   4.1762814355e+00    0.2782949    0.2228865  36.14   0.00133389    1.130    0.115
       106  -9.5603     93.7941    233.8575   7.8538004617e+01   1.3752753455e+01     0.370874    0.2343686  66.71   0.00198423    1.769    0.435
       107  -8.9648     95.1881    227.6145   7.7513646939e+01   1.4781901143e+01    0.2524845    0.2004617   3.17  0.001178371    1.768    0.434
       108  -9.0167     93.8136    223.9545   7.7367141599e+01   1.5723675672e+01    0.3122803     0.190325  79.00 0.0009843763    2.233    0.552
       109  -9.5417     61.1854    227.5902   8.4652430632e+01   1.9505594223e+01     0.278829    0.1850004  44.76 0.0007480903    1.346    0.257
       110  -9.0304     47.7162    227.8839   8.7418330912e+01   2.1120458048e+01    0.2306625    0.1905925   2.37  0.001175258    1.851    0.460
       111  -8.3322     39.0958    228.5202   8.9186176148e+01   2.2000864733e+01    0.1690097     0.103719  40.10  0.000590069    1.542    0.351
       112  -8.7863     20.4425    227.9170   9.2751755794e+01   2.4144059135e+01    0.2537711    0.1312045  39.73  0.001504751    1.795    0.443
       113  -9.6653    179.3502    225.4948   5.9333749546e+01   1.7205083825e+00    0.3876494    0.2628718 -10.56  0.001274944    1.802    0.445
       114  -8.2687    206.0436    226.0168   5.4105209422e+01  -2.5632900059e+00    0.1758174    0.1622983  81.97 0.0007334544    1.714    0.417
       115  -9.5816      5.7647    225.4016   9.5345409096e+01   2.6080923682e+01    0.1988459    0.1539983  76.98  0.000307033    1.042    0.041
       116  -9.9722    242.6678    216.9632   4.5724114418e+01  -6.5574845887e+00    0.3051371     0.204218  -9.16  0.001550293    1.387    0.279
       117  -8.9407    238.6762    224.6801   4.7803170355e+01  -7.1018940032e+00    0.3126093    0.1596894  13.96  0.001483809    2.448    0.591
       118  -9.1595    238.5385    221.0589   4.7187187973e+01  -6.5706249184e+00    0.2700818    0.1555339 -35.59 0.0008493867    1.702    0.412
       119  -8.5060    190.5715    225.4525   5.7056205075e+01  -6.7530176137e-02     0.321315     0.163247  24.39  0.001459715    2.131    0.531
       120  -9.2435    192.2827    221.2851   5.6001194632e+01   3.4097418043e-01    0.2682467    0.2426481 -89.63  0.001202321    1.667    0.400
       121  -9.4588     73.5055    224.7132   8.1793485292e+01   1.8463046293e+01    0.2731999    0.2117531  10.58 0.0007994229    1.827    0.453
       122  -9.2570     10.6323    225.2215   9.4431433048e+01   2.5659901222e+01     0.192374    0.1342714  48.14 0.0006640579    1.342    0.255
       123  -8.2637    173.3531    223.1512   6.0179200394e+01   3.0945910377e+00    0.2117458    0.1668198  64.56 0.0006314423    1.774    0.436
       124  -8.5136    169.5961    224.1843   6.1129425314e+01   3.5311881321e+00    0.2187013      0.16381  14.91 0.0005096609    1.345    0.256
       125  -9.0926    165.9754    224.0000   6.1854803199e+01   4.1576100069e+00    0.4269294    0.1779985  47.21  0.001702694    2.681    0.627
       126  -9.9621    120.1991    219.0294   7.0954183931e+01   1.2626159560e+01     0.502823    0.2702594  64.41  0.001951024    3.076    0.675
       127  -9.0819    104.8131    223.6738   7.4951704076e+01   1.4119746460e+01    0.2998587    0.1989948  74.67  0.001528155    1.914    0.477
       128  -9.3195    225.6313    221.9526   4.9687134023e+01  -4.8674941637e+00    0.2403854    0.2298543 -34.95  0.001112765    1.494    0.331
       129  -8.6507    216.3051    223.0430   5.1623389710e+01  -3.6570285289e+00    0.1989666    0.1743929  48.32 0.0007017245    1.573    0.364
       130  -8.8879    202.3428    220.9706   5.3950987657e+01  -1.1996326039e+00     0.335142    0.1441938 -32.60  0.001324676    2.580    0.612
       131  -8.0359    140.4845    222.5020   6.7043007476e+01   8.6388141561e+00    0.1355802    0.1191918  45.82  0.000127124    1.097    0.088
       132  -8.5716    158.9733    220.3400   6.2737589629e+01   5.9707604573e+00    0.2234438    0.1871623  79.05  0.000729822    1.631    0.387
       133  -8.9852     82.7642    220.4600   7.9340237097e+01   1.8051336991e+01    0.2529841     0.143052  70.05  0.001179042    2.246    0.555
       134  -9.1109     54.1961    221.0962   8.5486442063e+01   2.1736881353e+01    0.2434486    0.1691038  53.28  0.000580683    1.263    0.208
       135  -9.0973     51.4048    217.2284   8.5707727861e+01   2.2898283573e+01    0.2531509    0.1486773  89.59 0.0008716948    1.770    0.435
       136  -9.2920     17.9261    220.2859   9.2732756425e+01   2.5960402012e+01    0.2042007    0.1571209  57.14 0.0004718332    1.178    0.151
       137  -9.3411    132.9724    219.7161   6.8253372852e+01   1.0408910631e+01    0.3577237     0.244477  23.83  0.001112829    1.569    0.363
       138  -8.9757    132.1482    215.2115   6.7750629085e+01   1.1427300103e+01    0.2744298    0.2078205  79.11 0.0009863408    1.751    0.429
       139  -8.7849     62.1798    218.8906   8.3590322630e+01   2.1187976468e+01    0.3854907     0.165178 -74.16   0.00172265    2.582    0.613
       140  -9.0210     42.9018    220.0344   8.7726410916e+01   2.3319403108e+01    0.1987915    0.1532284  53.18 0.0004767432    1.175    0.149
       141  -8.4222    218.7527    219.3207   5.0503220219e+01  -3.4572703978e+00    0.1789081    0.1028892  26.16 0.0005367751    1.655    0.396
       142  -8.1060    210.1787    219.1051   5.2098804170e+01  -2.1208883808e+00     0.157751    0.1522981 -16.04  0.000548052    1.345    0.257
       143  -8.4706    185.1854    218.8420   5.7015368615e+01   1.8959508261e+00    0.1935657    0.1689596  30.42 0.0005698976    1.147    0.128
       144  -9.4095     97.3584    218.5061   7.5914700730e+01   1.6309896857e+01    0.3494925    0.2111925  53.30  0.001014376    1.609    0.379
       145  -9.3211     92.9936    213.7880   7.6274718107e+01   1.7954161262e+01    0.3667211    0.2007613  64.30   0.00161658    2.364    0.577
       146  -8.6273      1.4144    218.9226   9.5793886269e+01   2.7789238389e+01    0.1585152   0.08782139 -84.53 0.0003678868    1.506    0.336
       147  -8.1847    175.7842    218.4278   5.8881263197e+01   3.5141690511e+00    0.1911727    0.1165034  25.39 0.0007788826    1.635    0.388
       148  -9.2017    152.6611    218.1287   6.3730557443e+01   7.4334226600e+00    0.2755009      0.20776  26.62 0.0005573281    1.254    0.203
       149  -8.9148    142.7411    217.1528   6.5725642862e+01   9.2811812823e+00    0.3113436    0.1900629 -52.61  0.001548007    1.841    0.457
       150  -8.6667    163.8150    216.7257   6.1111567879e+01   5.8170970140e+00      0.24171    0.1473612  34.71  0.000774286    1.491    0.329
       151  -9.5640    108.3612    216.8331   7.3261668488e+01   1.4956436897e+01    0.4351703    0.1724481  35.91  0.001353651    2.358    0.576
       152  -9.3847    230.9322    215.4306   4.7547521792e+01  -4.6693827781e+00    0.4004475    0.2216013   4.33   0.00145732    2.504    0.601
       153  -9.4461    235.7013    208.9172   4.5495833241e+01  -4.3876577081e+00    0.4380856     0.272539 -13.14  0.001492055    1.657    0.397
       154  -8.5853    169.2397    215.9040   5.9823260575e+01   5.0536389099e+00    0.2437025    0.2005633  84.11 0.0009699443    1.819    0.450
       155  -8.7461     76.0131    215.8991   8.0283475453e+01   1.9962828577e+01    0.2666282    0.1912227 -38.55  0.001465232    1.889    0.471
       156  -9.0749     72.3561    211.0870   8.0536191190e+01   2.1500685772e+01    0.3941033    0.1782746  63.92  0.001509363    3.255    0.693
       157  -9.4338     11.4749    215.7039   9.3686537537e+01   2.7537366542e+01    0.2131617    0.1709735  55.65   0.00062027    1.217    0.179
       158  -9.5324    213.5872    212.4436   5.0247325757e+01  -1.5957595971e+00    0.3676561    0.3154566  -9.21  0.001635124    1.083    0.077
       159  -9.0935     86.4804    214.9535   7.7868461780e+01   1.8671317258e+01    0.2511159     0.178429  42.40 0.0005658298    1.294    0.227
       160  -8.3539    185.6811    214.3710   5.6134614017e+01   2.5788343182e+00    0.1879485    0.1599304  67.02 0.0009221958    1.656    0.396
       161  -9.2706     32.6703    213.7608   8.9304781456e+01   2.5801671651e+01    0.2243387    0.1851412  46.83  0.000607133    1.262    0.207
       162  -9.2855    116.5382    220.4406   7.1958019798e+01   1.2931458638e+01    0.1891444    0.1601422   4.56 0.0001076746    1.430    0.301
       163  -9.1868    116.1002    210.0447   7.0559466343e+01   1.5119354905e+01    0.2930272    0.2039598  73.67 0.0009369017    1.859    0.462
       164  -8.3820    161.4035    212.2063   6.0865212514e+01   7.0576019627e+00    0.1758118    0.1336656 -60.79 0.0004706366    1.654    0.396
       165  -8.5905    144.7776    211.6565   6.4397507465e+01   9.9993614940e+00    0.2974141    0.1582304  31.88 0.0005203849    1.850    0.460
       166  -8.5446    147.7579    210.1714   6.3496133132e+01   9.7795443529e+00    0.2171478    0.1644324  86.37  0.001082725    1.973    0.493
       167  -8.5549    125.0455    211.9654   6.8835108018e+01   1.3256018189e+01    0.2161483    0.1669566  -0.70  0.001128908    1.712    0.416
       168  -9.1009     66.8928    211.9968   8.1843473146e+01   2.2042604269e+01    0.3488677    0.1505224  41.36  0.001271251    2.072    0.517
       169  -9.6478      2.8419    211.6796   9.5110395151e+01   2.9161780938e+01    0.2115104    0.1725514  52.01 0.0006019269    1.284    0.221
       170  -9.0557    204.1651    210.6431   5.1749674686e+01   1.8807225363e-01    0.2356851    0.2023502 -62.42 0.0007342509    1.686    0.407
       171  -9.2813    175.1140    209.6852   5.7505040810e+01   5.1813392866e+00    0.3633508    0.2572548  72.45  0.001636955    2.586    0.613
       172  -8.0571     44.5215    211.5682   8.6636279157e+01   2.4936555745e+01    0.1242987    0.1022692  72.87 6.082834e-05    1.023    0.023
       173  -8.1525    192.3733    210.1978   5.4025350118e+01   2.1885952014e+00    0.1790284    0.1257038 -50.39 0.0005747441    1.738    0.425
       174  -9.2110     96.6643    209.0443   7.4821886725e+01   1.8406770998e+01    0.3291518    0.1839663  49.05 0.0008057875    1.706    0.414
       175  -9.1982     99.4665    206.1511   7.3784236887e+01   1.8595511927e+01    0.3596798    0.2314596  81.21  0.001162838    2.126    0.530
       176  -8.8568     85.9936    209.7571   7.7327577105e+01   1.9853241191e+01    0.2929487    0.1670833  68.76   0.00131834    2.277    0.561
       177  -8.3502     57.8076    209.1636   8.3531846200e+01   2.3840274273e+01    0.1598906    0.1493134 -46.31 0.0006316629    1.340    0.254
       178  -9.3304    246.4744    206.9840   4.3241554698e+01  -5.6419905285e+00    0.2929878    0.1799178 -28.58  0.001085542    1.443    0.307
       179  -9.4278    250.0749    202.4119   4.1776059676e+01  -5.4751566600e+00    0.3532048    0.1734581 -30.23  0.001149846    1.833    0.455
       180  -8.6436    135.1269    208.1504   6.5975491697e+01   1.2336454322e+01    0.2063899      0.18059  14.62 0.0005006162    1.199    0.166
       181  -8.4655    126.4105    208.2366   6.7952913452e+01   1.3789725331e+01    0.1813638    0.1340445 -72.07 0.0004449394    1.639    0.390
       182  -9.5937     24.5274    207.6684   9.0500315817e+01   2.7968390499e+01    0.2344912    0.1996812  88.16  0.000530172    1.113    0.102
       183  -8.2391    165.2971    207.5714   5.9225861175e+01   7.2553295740e+00     0.192594    0.1240653  26.98 0.0009373098    1.549    0.354
       184  -7.8512    156.3451    207.6849   6.1189969268e+01   8.7816637393e+00    0.1393719    0.1078175  67.53 0.0007047807    1.716    0.417
       185 -10.1218     11.5811    202.5009   9.2783292241e+01   3.0335969584e+01    0.2429699    0.1761504  59.14 0.0005833397    1.238    0.192
       186  -8.6475    199.0362    199.7871   5.0755631803e+01   2.8748724364e+00    0.3892609    0.1091558  36.38  0.001277219    3.669    0.727
       187  -9.4942    194.7166    203.3946   5.2303530321e+01   2.9741635293e+00    0.3873281    0.2449222 -38.20  0.001422409    1.605    0.377
       188  -9.6333    192.4701    197.1407   5.1585911329e+01   4.4627998970e+00    0.4348048    0.3011124 -60.26  0.001897648    2.102    0.524
       189  -9.7548     77.7930    205.5561   7.8655400545e+01   2.1950065086e+01    0.3771176    0.1964191  39.36  0.001455213    1.790    0.441
       190  -8.7202     88.5364    204.9239   7.6121805315e+01   2.0527432748e+01    0.2064861    0.1673611  44.23 0.0005476883    1.167    0.143
       191  -8.4086     56.3747    205.2259   8.3432370712e+01   2.4886768272e+01    0.1816686    0.1096992 -85.84 0.0008431145    1.720    0.419
       192  -8.5743     50.0895    205.5183   8.4850356972e+01   2.5596758661e+01    0.1850649    0.1151999  38.89  0.001025351    1.572    0.364
       193  -9.0369     38.7621    205.3329   8.7296270889e+01   2.6956822140e+01    0.3261093    0.1727733  21.20  0.001587604    2.654    0.623
       194  -8.8937      2.2459    205.3797   9.4848460175e+01   3.0541483647e+01    0.1845554    0.1178105  51.18 0.0005297383    1.437    0.304
       195  -9.5080    163.5957    202.9346   5.8773892710e+01   8.4295459954e+00    0.4090667    0.2480415  56.40  0.001066672    2.208    0.547
       196  -8.2708    151.0050    204.4599   6.1811649553e+01   1.0335692969e+01    0.2159064    0.1285094  39.10 0.0007871735    1.556    0.357
       197  -8.7629    130.8473    204.0037   6.6271197534e+01   1.3910868398e+01    0.3717348    0.2118328  35.51  0.001719965    1.663    0.399
       198  -8.7247    120.9822    204.2030   6.8557458188e+01   1.5534803682e+01     0.249554    0.1846389  19.33 0.0007774735    1.563    0.360
       199  -8.7019    238.7930    203.5353   4.3945611449e+01  -4.0255951818e+00    0.2735666    0.1175815  40.08  0.001225115    2.474    0.596
       200  -8.7784    178.4358    203.2877   5.5653944799e+01   5.7759981266e+00    0.2569168    0.1717149  34.31 0.0006113523    1.401    0.286
       201  -9.0803    140.7388    201.6370   6.3630233835e+01   1.2690411622e+01    0.4615364    0.2990396 -88.95  0.001841366    3.075    0.675
       202  -8.2369    211.1284    201.9121   4.8771455032e+01   5.1095050316e-01    0.1959358    0.1520418 -63.16 0.0006148576    2.018    0.505
       203  -8.8333    243.0917    200.8355   4.2684215999e+01  -4.2433764278e+00    0.2228811    0.1561659 -31.12  0.000817408    1.312    0.238
       204  -9.0836    183.7416    203.8122   5.4637208955e+01   4.7663622581e+00    0.3066645    0.2452239  68.02  0.001047608    1.828    0.453
       205  -8.6086     59.9135    200.8418   8.2158115334e+01   2.5413400119e+01    0.2282797    0.1556778  46.88 0.0008146725    1.377    0.274
       206  -9.4851    149.6214    198.6481   6.1105691332e+01   1.1735080608e+01    0.4056518    0.2895859 -89.88  0.001236839    2.348    0.574
       207  -8.7443    123.6760    199.0007   6.7104379592e+01   1.6180369926e+01    0.3043311    0.1970769  63.96  0.001065108    1.996    0.499
       208  -9.3231    112.9330    198.8492   6.9582664359e+01   1.8014036881e+01    0.4538052    0.3266536  71.70  0.001926893    1.695    0.410
       209  -8.9055     28.7090    199.7210   8.8964923580e+01   2.9280697402e+01    0.2577427    0.1679022 -79.16  0.001125356    1.355    0.262
       210  -8.5607    187.5373    198.9750   5.2949420659e+01   4.9852073841e+00    0.2092831    0.1734859  23.23 0.0004407481    1.121    0.108
       211  -8.3300    177.0152    198.9229   5.5150583784e+01   6.8309493436e+00    0.2047477    0.1733156  76.57 0.0006330038    1.662    0.398
       212  -8.3435    134.0017    199.0407   6.4726567560e+01   1.4396787236e+01    0.1992709     0.162778  60.47  0.000560018    1.327    0.246
       213  -8.8327     88.7086    198.5779   7.5219683634e+01   2.1903339770e+01    0.2984809    0.1764615  75.88  0.001286638    2.419    0.587
       214  -8.4261     21.0013    198.7291   9.0533957300e+01   3.0273936837e+01    0.1635585    0.1352408  64.82  0.000479789    1.130    0.115
       215  -8.3375    237.1624    198.1868   4.3227876578e+01  -2.9621931967e+00    0.1653337    0.1413191 -35.54 0.0004908818    1.342    0.255
       216  -8.3680    202.2661    197.4630   4.9668339438e+01   2.7342860586e+00    0.2106343    0.1648211 -58.67  0.000410918    1.755    0.430
       217  -8.8855    103.7082    198.1887   7.1642960354e+01   1.9659150880e+01    0.2637569     0.186743  33.27 0.0006804198    1.416    0.294
       218  -8.1276     43.8089    198.6274   8.5547956188e+01   2.7873593566e+01    0.1747466    0.1012585  46.66 0.0005787723    1.619    0.382
       219  -8.4882     60.7239    196.4915   8.1473160088e+01   2.6289970565e+01    0.2706448    0.1467395 -86.59  0.001237705    2.195    0.544
       220  -8.5883     51.2666    197.6244   8.3765275518e+01   2.7217124908e+01    0.1593379    0.1219538  26.41 0.0006794819    1.543    0.352
       221  -8.7863    170.1980    196.1710   5.6103300179e+01   8.5587501612e+00     0.292104    0.1814388  25.98 0.0008078394    1.705    0.413
       222  -8.4135    142.8013    196.3149   6.2239919466e+01   1.3417837214e+01    0.2051814    0.1246571  30.88 0.0007597817    1.666    0.400
       223  -8.4125     83.0349    196.4928   7.6265354943e+01   2.3212935406e+01    0.2054489    0.1266672  38.63 0.0009242534    1.563    0.360
       224  -8.3749    215.7021    195.1579   4.6604307295e+01   8.9458953818e-01     0.197172    0.1618955 -45.66 0.0005053028    1.437    0.304
       225  -8.8391    185.2088    194.8084   5.2645464138e+01   6.1527923713e+00    0.2348686    0.2122453 -82.63 0.0005798989    1.502    0.334
       226  -8.3019    180.1648    194.8603   5.3718138245e+01   7.0344340575e+00    0.1963525    0.1556411   9.07 0.0006297774    1.301    0.231
       227  -9.2080    245.4615    193.1277   4.0813848840e+01  -3.4145464653e+00    0.2193071    0.1926117 -69.33 0.0008073979    1.865    0.464
       228  -8.5854    224.4669    193.7892   4.4690607594e+01  -2.9505753541e-01     0.236908    0.1200772 -41.98 0.0008958506    1.992    0.498
       229  -8.8261    160.7599    193.9369   5.7760079950e+01   1.0686510297e+01    0.2482762    0.2025542 -75.41 0.0009638519    1.635    0.388
       230  -8.5687     76.9338    193.8830   7.7353907103e+01   2.4684945827e+01    0.2155149    0.1450792  66.83 0.0005044821    1.602    0.376
       231  -8.7097     43.9762    193.5781   8.4994333617e+01   2.8996171332e+01    0.3398022    0.1711541  76.55  0.001504252    2.513    0.602
       232  -9.6842      5.2515    193.5059   9.3465468567e+01   3.2853179426e+01     0.219552    0.2033017  11.77 0.0008676634    1.500    0.333
       233  -8.4241    205.1761    192.2597   4.8088505811e+01   3.1479239068e+00    0.2679603   0.09752089 -39.46  0.001018406    2.709    0.631
       234  -8.8466    152.9494    192.7281   5.9287415543e+01   1.2337019675e+01    0.3212413    0.1748199  44.64 0.0009739443    1.811    0.448
       235  -8.1796    126.7925    193.3333   6.5431707007e+01   1.6856288518e+01    0.1987858    0.1282878  30.22 0.0005697342    1.599    0.374
       236  -9.0903    116.7814    191.6441   6.7513815602e+01   1.8941969856e+01    0.3687792    0.1592297  36.05 0.0007998235    2.261    0.558
       237 -10.2399     92.4584    189.3624   7.2994459778e+01   2.3409788619e+01    0.8574371    0.3541704  49.90  0.003253817    2.668    0.625
       238  -8.1235     38.7486    192.3994   8.6062245439e+01   2.9853578904e+01    0.1481992    0.1223859  23.16 0.0004295866    1.500    0.333
       239  -8.2525    198.7866    191.3873   4.9194270726e+01   4.3998626741e+00    0.1816276    0.1668489 -21.39 0.0004664082    1.128    0.114
       240  -8.3208    172.3642    191.2520   5.4704844532e+01   9.1179566834e+00    0.1935235    0.1343626 -54.25 0.0005527186    1.692    0.409
       241  -8.9759    139.4250    190.4405   6.1972238806e+01   1.5243726372e+01    0.3106921    0.2131189  77.42  0.001059005    2.360    0.576
       242  -9.2346     16.5205    190.9570   9.0872930783e+01   3.2427329615e+01    0.2202019    0.1367163  53.80 0.0005817799    1.515    0.340
       243  -9.2249    216.8727    188.4415   4.5073818810e+01   1.8364963035e+00    0.4051467      0.26345 -56.48  0.001932085    2.271    0.560
       244  -8.9621    249.2720    185.5607   3.8711130734e+01  -2.8095643160e+00    0.2716066    0.1357706 -44.03 0.0007251501    2.111    0.526
       245  -8.2826    163.9729    189.7551   5.6261410228e+01   1.0934874156e+01    0.2228858    0.1470989  36.43 0.0006544348    1.449    0.310
       246  -8.5701    164.7837    186.5670   5.5470442630e+01   1.1422339653e+01    0.2570308    0.2037822 -65.58 0.0006860647    1.591    0.372
       247  -8.3948    148.4009    189.1384   5.9661121351e+01   1.3896844799e+01    0.1987107     0.139377 -63.77 0.0009348429    1.768    0.434
       248  -8.7598    129.2722    188.3889   6.3988694628e+01   1.7489052688e+01    0.2922938    0.2003357  83.19 0.0009459272    2.306    0.566
       249  -8.1639    237.3512    188.2671   4.1288466622e+01  -1.4276352652e+00    0.1763725    0.1098874 -40.70 0.0007945216    1.598    0.374
       250  -8.8683    190.7333    187.5506   5.0088036419e+01   6.5148331812e+00    0.3852483    0.2389411  34.43  0.001712612    1.579    0.367
       251  -9.1217    156.0306    187.6397   5.7640569427e+01   1.2813072505e+01     0.284422    0.2314844 -72.03  0.000881086    1.560    0.359
       252  -9.3045    120.5898    185.8201   6.5611462381e+01   1.9573445451e+01    0.4837516    0.2675548 -74.67  0.001775639    3.107    0.678
       253  -9.1029     69.6435    188.3140   7.8353614825e+01   2.6980269589e+01    0.2946531    0.2035917  31.84 0.0009849349    1.548    0.354
       254  -8.9456     66.9068    184.9250   7.8565934317e+01   2.8138757255e+01     0.359273    0.1818801  64.47  0.001317297    2.699    0.630
       255  -8.7008     54.8417    186.8825   8.1714685697e+01   2.9240047812e+01     0.369359    0.1820729  67.89  0.001307203    2.792    0.642
       256  -9.0612     48.3576    187.6418   8.3336409828e+01   2.9848134171e+01    0.2761945    0.1560318  39.55 0.0009683808    1.745    0.427
       257  -8.3273     34.4339    188.1455   8.6620998157e+01   3.1292690141e+01    0.2521673    0.1248795  64.42  0.001177726    2.264    0.558
       258  -7.7010    230.6438    187.3016   4.2297313712e+01  -2.1809832136e-01    0.1193954    0.1081181 -82.44  0.000703817    1.710    0.415
       259  -8.9829    109.5368    186.0379   6.8322898482e+01   2.1410688058e+01    0.3656285    0.2448573  77.89  0.001390789    2.115    0.527
       260  -8.5651      9.7751    187.6046   9.2073480327e+01   3.3777620882e+01     0.156776   0.09476457  47.77 0.0005336116    1.604    0.377
       261  -9.3782      3.0156    187.1060   9.3489764836e+01   3.4450605934e+01    0.1770988    0.1418705  84.02 0.0005309194    1.031    0.030
       262  -9.3512     25.6510    186.0966   8.8425519357e+01   3.2659311255e+01    0.3272431    0.1527849  38.66  0.001383636    2.098    0.523
       263  -9.1394    210.1018    184.1429   4.5523212654e+01   3.7276591439e+00    0.2767864    0.1830704 -40.14 0.0006263216    1.496    0.332
       264  -8.5327    202.7178    184.3883   4.7025501299e+01   4.9688735879e+00    0.2370447    0.1664905 -48.17 0.0006309479    1.595    0.373
       265  -8.8207    183.0290    184.6007   5.1119125803e+01   8.4595238064e+00    0.2368694    0.1922097 -50.64 0.0008067548    1.386    0.278
       266  -8.8081    174.1060    183.4523   5.2809289671e+01   1.0320434382e+01    0.2610243    0.1989368 -61.05 0.0006946528    1.647    0.393
       267  -8.8474    142.6697    184.0803   6.0046211493e+01   1.6004310195e+01    0.2732129    0.2039832  30.76 0.0005572098    1.333    0.250
       268  -8.3915    224.3502    183.2676   4.2650066988e+01   1.4727989674e+00    0.1859483    0.1160916 -43.63 0.0006289652    1.661    0.398
       269  -8.8667     44.4952    182.4916   8.3667822854e+01   3.1494007669e+01    0.3044012    0.1552416  66.14  0.001076723    2.384    0.581
       270  -8.3632     81.4514    186.2739   7.5211680140e+01   2.5779765171e+01    0.1818934    0.1291108 -79.11 0.0004731189    1.486    0.327
       271  -8.5283    133.3693    182.4052   6.1932337174e+01   1.8057443242e+01    0.2749449    0.1391615  33.91 0.0009656429    2.025    0.506
       272  -8.6330     37.9664    181.7660   8.5139023520e+01   3.2388907869e+01    0.2211249    0.1652866 -80.18  0.000573901    1.182    0.154
       273  -9.0700     36.7985    178.1860   8.5028533133e+01   3.3350953585e+01    0.6277183    0.2479027  83.07  0.001711255    6.636    0.849
       274  -9.2367    147.3946    180.4843   5.8257256587e+01   1.5897226281e+01     0.300061    0.2442307  88.74 0.0009050425    1.624    0.384
       275  -9.0217     58.3516    180.9887   8.0136995729e+01   3.0178517771e+01    0.2843218    0.1605525  43.96 0.0008598641    1.735    0.424
       276  -9.4026     25.7707    179.1021   8.7733978340e+01   3.4258005874e+01    0.5724291    0.2254865  80.84  0.001921187    4.555    0.780
       277  -9.1110    205.2235    178.6596   4.5374195106e+01   5.5592948094e+00    0.3575084    0.2079081 -39.05  0.001691717    1.662    0.398
       278  -8.3584    159.1697    179.8261   5.5415727342e+01   1.3835027389e+01    0.2027586    0.1664133  13.01 0.0006475815    1.301    0.231
       279  -8.5903    137.6822    179.2084   6.0303769127e+01   1.7967127740e+01    0.2958567    0.2117133  83.30  0.001295418    2.152    0.535
       280  -8.5935    113.2813    179.7148   6.6322867608e+01   2.2206780742e+01    0.2549463    0.1650139  40.34 0.0006808813    1.496    0.331
       281  -9.0369     15.1031    180.5292   9.0319133326e+01   3.4915071193e+01    0.1615215    0.1161445  35.46 0.0008052325    1.549    0.354
       282  -9.2546    191.2304    178.0405   4.8079085702e+01   8.2041021865e+00    0.2603213    0.2241011 -56.57 0.0005984491    1.385    0.278
       283  -8.9032     78.9328    158.3090   7.1429406064e+01   3.2798151680e+01    0.3742729    0.1424763  32.26  0.001270448    2.832    0.647
       284  -9.3699     73.8468    178.6351   7.5981146786e+01   2.8660577371e+01    0.4956178    0.2090337  36.25  0.001822619    2.333    0.571
       285 -10.5020     75.8806    170.3128   7.4210087555e+01   3.0350240248e+01       1.2405    0.4734769 -74.07  0.003504611    5.050    0.802
       286  -8.9192    250.5216    172.5281   3.5950364007e+01  -9.4973110729e-01    0.2485527    0.1659464 -26.72 0.0006055793    1.305    0.234
       287  -9.3610    249.0003    177.1747   3.7119303415e+01  -1.4541025009e+00    0.2891481     0.205645 -39.30 0.0008466575    1.369    0.269
       288  -8.6037    247.4539    173.5250   3.6654601678e+01  -6.3435158445e-01     0.197586    0.1072868 -28.46  6.63321e-05    1.706    0.414
       289  -8.4336     22.0221    178.7664   8.8574509577e+01   3.4692325567e+01    0.1484824    0.1005789  33.99 0.0008791981    1.630    0.387
       290  -8.4661    231.0567    177.0095   4.0180405104e+01   1.4189143988e+00    0.1905346    0.1639004 -65.10 0.0006368613    1.650    0.394
       291  -8.2536    217.6233    177.1374   4.2672421612e+01   3.6590387612e+00    0.2052798    0.1642979 -48.83  0.000836005    1.439    0.305
       292  -8.8267    177.6481    177.0377   5.0752005249e+01   1.0922787904e+01    0.2698757     0.196719  10.44 0.0007993815    1.623    0.384
       293  -8.4069    129.0256    177.0069   6.1971263980e+01   2.0032611558e+01     0.236931    0.1800855  80.47 0.0007533874    1.749    0.428
       294  -8.9269     88.8342    176.5442   7.1894415312e+01   2.6939873474e+01    0.2780121    0.1831958 -85.06 0.0009388032    1.892    0.471
       295  -9.1473     58.7474    175.5162   7.9320927047e+01   3.1423023254e+01    0.4762334    0.2206191  66.41  0.001675408    3.682    0.728
       296  -8.9472     55.7510    170.3546   7.9378933578e+01   3.3030959734e+01    0.3923367    0.2134117  78.72  0.001627331    2.629    0.620
       297  -9.0683    183.0063    175.8954   4.9367968716e+01   1.0141294687e+01    0.2496464    0.2026481 -43.03 0.0006351726    1.269    0.212
       298  -9.2305    158.7510    174.7904   5.4504822184e+01   1.4958433136e+01    0.3696187    0.2601395  78.49  0.001142843    2.436    0.590
       299  -7.9339     97.9932    177.0000   6.9662595640e+01   2.5384843054e+01    0.2378417   0.08002065  35.87 0.0008040314    2.954    0.661
       300  -9.1007     12.5843    176.0713   9.0509087472e+01   3.6153957400e+01    0.2562899    0.1283799  83.06  0.001278211    2.044    0.511
       301  -9.2077    103.8191    174.2771   6.7727976705e+01   2.5060974624e+01    0.4092496    0.2533866  67.37  0.001706028    2.271    0.560
       302  -8.3953    224.3745    174.2001   4.0821052104e+01   3.0126223790e+00     0.186989    0.1186223 -44.40 0.0003830472    1.621    0.383
       303  -8.4000    171.6582    174.7276   5.1589504061e+01   1.2514775533e+01    0.1495226    0.1119117   4.32 0.0003685561    1.613    0.380
       304  -8.6590    151.7966    174.2559   5.6003923528e+01   1.6392855283e+01    0.2655555    0.1728001  41.36  0.000668384    1.502    0.334
       305  -7.9795    140.6751    174.7077   5.8719711351e+01   1.8391993735e+01    0.1496734     0.116559  -2.91 0.0003305299    1.617    0.382
       306  -8.4367    142.6984    172.3311   5.7766259071e+01   1.8529554230e+01    0.2079277    0.1397894 -40.21 0.0002738875    1.553    0.356
       307  -9.4097    175.5605    172.2117   5.0214049711e+01   1.2276398439e+01    0.3118237    0.2540824 -51.36 0.0007583394    1.337    0.252
       308  -8.5688    218.8184    168.1820   4.0609314417e+01   5.0240942964e+00    0.2321109    0.1762264 -43.29 0.0006165878    1.345    0.257
       309  -8.8079    194.7538    172.2170   4.6153820804e+01   8.6540213782e+00    0.3058888    0.1562364  33.37  0.001271108    2.111    0.526
       310  -8.4532    198.3953    170.1538   4.4983153170e+01   8.3665436921e+00    0.1969939    0.1309673 -49.73 0.0005085145    1.663    0.399
       311  -8.9742    133.7871    171.9521   5.9841124521e+01   2.0281963513e+01     0.414388    0.2472202  26.65  0.001735134    1.970    0.492
       312  -9.6804    121.2113    170.3268   6.2629743886e+01   2.2950056759e+01     0.371574    0.2548555 -75.42 0.0008761841    1.918    0.479
       313  -9.0974     45.3229    171.1208   8.2112710333e+01   3.4084793996e+01    0.3648497    0.1904185  78.29  0.001537507    2.631    0.620
       314  -8.8565    186.6878    170.8804   4.7549608912e+01   1.0422609323e+01    0.2679873    0.1865238  30.06  0.001302062    1.474    0.321
       315  -9.3664    230.7060    169.9662   3.8815789403e+01   2.6652551806e+00    0.2269676     0.191351  20.47 0.0006489566    1.208    0.172
       316  -8.2891    205.8323    170.0374   4.3478449436e+01   7.0203672769e+00    0.2181044    0.1585534 -62.10 0.0006032099    1.934    0.483
       317  -8.6825    162.2132    170.1515   5.2764728955e+01   1.5261498484e+01    0.3383665    0.1774216  49.11 0.0009625084    2.090    0.521
       318  -9.0446    108.7449    169.6162   6.5641616610e+01   2.5310399517e+01    0.3961048    0.1876401  38.51  0.001579771    2.075    0.518
       319  -8.8824    112.1599    167.7539   6.4424996928e+01   2.5150474361e+01    0.2880535    0.2030794  85.20  0.001269606    2.001    0.500
       320  -9.1115     37.9567    169.6847   8.3778605948e+01   3.5236217488e+01    0.3704969    0.1459612  35.01  0.001326232    2.538    0.606
       321  -9.1338     18.5100    170.0786   8.8572267348e+01   3.7030148447e+01    0.2377788    0.1748153  25.99 0.0009345638    1.638    0.390
       322  -8.3802    244.4229    169.2481   3.6305417252e+01   5.3480463438e-01    0.1802946    0.1115154 -43.25 0.0009375587    1.598    0.374
       323  -8.5241    237.0736    169.5165   3.7609057504e+01   1.6815267536e+00    0.1800327    0.1299061  38.79 0.0005530855    1.520    0.342
       324  -9.0803    166.8683    168.2872   5.1322413330e+01   1.4746964958e+01    0.2945764     0.231717  72.37 0.0009783119    1.731    0.422
       325  -8.2775    149.6749    169.3386   5.5504770838e+01   1.7849118219e+01    0.2251015    0.1771194  79.11 0.0007523439    1.729    0.422
       326  -8.8527    191.9470    166.5034   4.5530743386e+01   1.0270942802e+01     0.258848    0.1964005 -52.87  0.000539378    1.491    0.329
       327  -8.4459    184.9781    166.5425   4.6996852518e+01   1.1595395971e+01    0.2389483    0.1916111 -65.24 0.0007728818    1.597    0.374
       328 -10.0514    137.0665    165.1264   5.7672816852e+01   2.1183522260e+01    0.5788684    0.4151866  69.34   0.00243526    1.893    0.472
       329  -8.2649    179.7365    165.9922   4.8000703502e+01   1.2715702264e+01    0.2051251    0.1881461 -10.56 0.0005960956    1.050    0.047
       330  -9.8743     94.8913    162.6677   6.7955324514e+01   2.9269824836e+01    0.8326292    0.4451203  74.61  0.002355202    5.236    0.809
       331  -9.3298     20.5252    166.2282   8.7701989346e+01   3.7754517644e+01    0.2881613    0.1241353  49.08  0.001172204    2.436    0.589
       332  -8.2018    234.1400    164.8196   3.7157673546e+01   2.9598587156e+00    0.1864267    0.1419521 -13.78 0.0004819892    1.286    0.223
       333  -9.2478     33.7788    163.2290   8.4062843685e+01   3.7209671091e+01    0.5935686    0.2023759  52.17  0.002134147    3.840    0.740
       334  -8.0598    240.2617    164.3525   3.6013293621e+01   2.0168410078e+00    0.1360043   0.09303306 -11.16 0.0001995384    1.615    0.381
       335  -8.6920    212.9247    163.4846   4.0732856745e+01   6.9220926797e+00    0.2545102    0.1847995 -50.67 0.0005926429    1.543    0.352
       336  -8.5904    159.5035    164.1343   5.2124449796e+01   1.7050839387e+01    0.2401811    0.2074334  70.71  0.000821016    1.389    0.280
       337  -9.0639    246.1569    162.8758   3.4731109792e+01   1.2981335440e+00    0.1925665    0.1593696 -36.94 0.0004674518    1.184    0.155
       338  -8.5734    204.9507    162.5340   4.2068579754e+01   8.5688896359e+00     0.222765    0.1769344 -36.18 0.0004634326    1.201    0.167
       339  -9.2400     60.8324    163.1272   7.7031651092e+01   3.4131499784e+01    0.4073259    0.1844646  36.98  0.001760189    2.224    0.550
       340  -8.3155     60.3301    159.6553   7.6640014047e+01   3.5038128408e+01    0.2997248    0.1528491  70.82   0.00106392    3.483    0.713
       341  -9.3008      3.4048    162.2673   9.1462620703e+01   4.0060213987e+01    0.3626832    0.1671416  59.73   0.00146548    2.382    0.580
       342  -8.7459    172.0044    162.4890   4.8943023572e+01   1.4934230057e+01    0.2179295     0.128191  18.74 0.0008105225    2.588    0.614
       343  -9.0695    126.1229    162.0751   5.9769590071e+01   2.3933431732e+01    0.3152654    0.2073208  43.93 0.0006901154    1.514    0.339
       344  -8.6839    193.8402    160.9603   4.3955580946e+01   1.0975496688e+01    0.2139759     0.157192  16.26 0.0009235537    1.567    0.362
       345  -7.7740    186.5072    161.5059   4.5595381524e+01   1.2289205660e+01    0.1472564    0.1380049  -8.07 -1.463772e-05    1.001    0.001
       346  -8.9317    177.4340    160.5605   4.7333199038e+01   1.4256122717e+01    0.2771725    0.2398034 -64.03 0.0008492543    1.359    0.264
       347  -8.7359    151.8065    160.7428   5.3201504167e+01   1.9288794293e+01    0.2795008    0.2013807 -77.21  0.001144798    2.059    0.514
       348  -9.8070    238.3202    149.9858   3.3364843901e+01   4.7649967267e+00    0.3582894    0.2068797  24.87  0.001629964    2.382    0.580
       349  -8.5907    239.7717    152.9696   3.3748038940e+01   4.0092035434e+00    0.1944196    0.1543669 -27.84 0.0004292066    1.101    0.091
       350  -9.8709    250.1929    157.6635   3.3020281122e+01   1.4983427722e+00    0.3301141    0.1598902 -37.97 0.0007925117    1.784    0.439
       351  -9.3224    246.5762    155.4774   3.3154117835e+01   2.4471302549e+00    0.3256308    0.2055124  -6.93  0.001564097    2.153    0.536
       352  -9.6542    240.4039    145.2411   3.2026533223e+01   5.2079792466e+00    0.2472547    0.1722959 -36.30 0.0004377129    1.257    0.205
       353  -9.7087    242.7270    143.3274   3.1250664364e+01   5.1269387935e+00    0.4173966    0.1961291 -27.89  0.001743017    2.366    0.577
       354  -8.7088    227.1653    158.7595   3.7122011616e+01   5.2061499621e+00    0.2399772     0.173398 -47.43  0.001273634    1.459    0.314
       355  -9.4543    105.5685    157.5893   6.4179011550e+01   2.8683047796e+01    0.4238438    0.2888211  86.09  0.001146171    2.185    0.542
       356  -8.7148    196.6532    158.0464   4.2752826346e+01   1.0992431576e+01    0.2288765    0.1753016 -53.66 0.0007425779    1.473    0.321
       357  -9.1636    167.5578    157.1406   4.8775624934e+01   1.6921035788e+01    0.3118524    0.2472889 -78.34 0.0008993516    1.730    0.422
       358  -9.1716    142.8482    157.9532   5.4756826425e+01   2.1659047661e+01    0.3757412    0.2300408  34.90  0.001035067    1.684    0.406
       359  -8.3454    144.3982    154.2836   5.3584831166e+01   2.2164231548e+01    0.2110594    0.1836351  85.44 0.0005786147    1.378    0.275
       360  -8.2749    113.8907    163.0000   6.3069973086e+01   2.5950153528e+01    0.2405572   0.08402926  37.77 0.0005436229    2.855    0.650
       361  -8.4462    217.8884    156.4712   3.8313697248e+01   7.2808280059e+00    0.2778508    0.1671886 -51.33 0.0008343817    1.918    0.479
       362  -8.2332    188.0360    157.2731   4.4354414690e+01   1.2821979174e+01    0.2110774    0.1594158 -61.51 0.0007346293    1.656    0.396
       363  -9.2360     40.2564    156.9967   8.1594911338e+01   3.8037990883e+01    0.3045552    0.1926725  30.97 0.0008748174    1.751    0.429
       364  -9.3751     35.3507    155.6917   8.2718916200e+01   3.8862614333e+01    0.3450158    0.1744607  35.54  0.001687289    2.083    0.520
       365 -10.0521    156.9618    156.1028   5.0982642164e+01   1.9262923181e+01    0.4568779    0.2536836  38.53  0.001604167    1.820    0.451
       366  -9.2194    119.7294    155.2164   5.9993968339e+01   2.6699080677e+01    0.3753619    0.2683747  88.42  0.001616227    2.053    0.513
       367  -9.1604     81.7465    154.6769   7.0025165018e+01   3.3257632030e+01     0.464017    0.2676685  67.48  0.001588597    2.687    0.628
       368  -9.3744     49.3236    154.8005   7.8866224465e+01   3.7562747670e+01    0.3397364    0.1999551  68.67  0.001445491    2.172    0.540
       369  -8.3247     22.3055    156.3498   8.6194969587e+01   3.9937827632e+01    0.1311907   0.08277148 -46.62 0.0003094545    1.703    0.413
       370  -8.0601    204.5446    155.4639   4.0625288007e+01   9.9653165025e+00    0.1431723    0.1330071 -20.94 0.0001447337    1.034    0.033
       371  -9.2162     98.0651    154.8364   6.5638952352e+01   3.0616625188e+01    0.3480269    0.1885504  45.87 0.0009798508    1.917    0.478
       372  -8.0977    180.9813    154.5092   4.5239720319e+01   1.4770215199e+01    0.2220108    0.1461621  41.10  0.000553238    1.541    0.351
       373  -9.8821    132.7366    152.9545   5.6187413712e+01   2.4750285642e+01    0.4643749    0.3961343 -52.06  0.001267425    1.186    0.157
       374  -9.7608    138.8606    144.5767   5.2787642129e+01   2.5425828098e+01    0.4505619    0.3209612 -69.95  0.001691468    1.836    0.455
       375  -9.5645    133.5116    147.9852   5.4901783729e+01   2.5723213213e+01     0.384304    0.2653179 -31.67  0.001602424    1.640    0.390
       376  -8.5121    136.6815    147.3371   5.3957331559e+01   2.5242922891e+01    0.2121617    0.1964132  71.11 0.0008827886    1.175    0.149
       377  -9.0616     67.8623    153.5648   7.3625319290e+01   3.5525660926e+01    0.3645217    0.2170568  78.71  0.001139842    2.544    0.607
       378  -9.7569      9.8266    152.8423   8.9003028523e+01   4.1787161641e+01    0.4365949    0.1660677  22.97   0.00200134    3.146    0.682
       379  -8.4456    151.5088    152.5252   5.1482142255e+01   2.1128756510e+01    0.1500438    0.1494109  26.86 4.776075e-05    1.046    0.044
       380  -9.0662    110.7857    151.8759   6.1646401474e+01   2.9110925447e+01    0.3881737    0.2075765  38.27 0.0009850678    1.886    0.470
       381  -9.8290     29.9508    151.3067   8.3589301605e+01   4.0449179209e+01    0.3652091    0.1925957  64.97    0.0016661    2.407    0.585
       382  -8.4161     20.3170    152.6459   8.6288382116e+01   4.0993514565e+01    0.1343991   0.08353212  71.05 0.0007046182    1.744    0.427
       383  -8.9817    189.4877    150.0314   4.2450129566e+01   1.3956367479e+01    0.2812804    0.2275294 -63.20 0.0008671913    1.495    0.331
       384  -8.1168    182.4389    150.9308   4.4131044096e+01   1.5194957848e+01    0.2058908    0.1292019 -64.05 0.0008060935    2.433    0.589
       385  -8.6105     98.4879    150.5669   6.4683282660e+01   3.1566402330e+01    0.2559715    0.1441275 -67.97 0.0007810947    2.189    0.543
       386  -9.6308    248.9519    149.0634   3.1457839947e+01   3.1123271320e+00     0.316034    0.1676765 -36.92 0.0007486903    1.623    0.384
       387 -10.2373    242.8670    154.8086   3.3619545316e+01   3.1756669756e+00    0.4689562    0.2099796 -51.15  0.001826401    3.041    0.671
       388  -8.5032    162.4022    150.2483   4.8418227562e+01   1.9408791529e+01    0.2169378    0.1436904 -54.73 0.0009452616    1.679    0.404
       389  -8.0602    212.9768    149.5167   3.7720719015e+01   9.4608479279e+00     0.193315    0.1408913  42.73 0.0003680862    1.466    0.318
       390  -8.5524    198.8568    148.8743   4.0294175150e+01   1.2317327944e+01    0.2156296    0.1785785 -77.77 0.0005528457    1.626    0.385
       391  -9.3208     90.3333    147.9886   6.6405679693e+01   3.3533488770e+01     0.396175     0.266939  80.44  0.001298213    2.164    0.538
       392  -9.2014     88.3066    144.6349   6.6303943563e+01   3.4668695551e+01    0.3304423    0.2235673 -79.43  0.001010723    1.872    0.466
       393 -10.4206     54.8520    144.5879   7.5748087411e+01   3.9399718523e+01    0.7212375    0.3823362  69.07   0.00273315    3.200    0.688
       394  -9.7514     40.1365    148.1200   8.0399795747e+01   4.0204412191e+01    0.4542801    0.2375101  60.85  0.001913217    2.509    0.601
       395 -10.4752    148.9285    145.1201   5.0433508192e+01   2.3264817977e+01    0.6319856    0.4270732  87.85    0.0015793    2.837    0.647
       396  -8.9937    122.2110    148.1593   5.7847670525e+01   2.7867626924e+01     0.325787    0.2297007  40.90  0.001264311    1.423    0.297
       397  -9.2085     52.9102    148.8341   7.6978126017e+01   3.8595720894e+01     0.272586    0.2184027  43.86 0.0008790138    1.328    0.247
       398  -8.6964    233.4655    147.1194   3.3570644043e+01   6.1103930114e+00    0.2149422    0.1214338 -36.73  0.001026058    1.579    0.367
       399  -9.8253     73.0597    129.0570   6.7533919749e+01   4.0763971363e+01    0.3632315    0.2549157  88.04  0.001055881    1.952    0.488
       400 -11.1900     68.3650    142.4041   7.1522039858e+01   3.8182496768e+01    0.6837591    0.5508897 -48.87  0.003735213    1.202    0.168
       401 -10.7734     59.7871    135.1024   7.2664846807e+01   4.1103274487e+01      0.75932    0.2916827  32.09  0.002956805    2.757    0.637
       402 -10.2199     71.3466    133.9018   6.9029749918e+01   3.9836976676e+01    0.6551813    0.3142713  22.53  0.002514991    2.804    0.643
       403  -8.0995    223.2017    146.6060   3.5231620123e+01   8.0673396736e+00    0.1732139    0.1301767  29.14 0.0001926737    1.462    0.316
       404  -7.5946    206.3179    146.2778   3.8263943353e+01   1.1343437830e+01      0.14378    0.1096711   2.65 0.0002054055    1.574    0.365
       405  -8.3163    175.5643    145.7969   4.4452802129e+01   1.7634220286e+01    0.2126917     0.141174 -54.22 0.0007230176    1.690    0.408
       406  -9.0428     13.0062    145.8532   8.7438345700e+01   4.3200407323e+01    0.2742389    0.1704669  79.64  0.001418713    1.677    0.404
       407  -8.9665     77.9705    146.9373   6.9645011308e+01   3.5703498611e+01    0.2306772    0.1699148  77.45 0.0006232361    1.667    0.400
       408  -9.0773    247.1575    143.5618   3.0600274201e+01   4.3256464794e+00    0.2639275    0.1827643 -23.51 0.0007896836    1.403    0.287
       409  -8.4660    250.4897    140.9335   2.9540336833e+01   4.1952323686e+00    0.1923551    0.1505436 -31.63 0.0004846057    1.092    0.084
       410  -8.8551    165.4735    143.7971   4.6243754765e+01   2.0134760791e+01    0.2778753    0.2382884  86.75  0.000656524    1.460    0.315
       411  -9.7175    124.9594    142.4581   5.5865827057e+01   2.8653005847e+01    0.4746113    0.3215743 -81.62  0.001350313    2.368    0.578
       412  -9.3550     31.3813    144.0259   8.2239284094e+01   4.2073017367e+01    0.2707174    0.1638431  41.24 0.0009166828    1.791    0.442
       413 -10.1599    106.4923    144.2628   6.1199707186e+01   3.1676321580e+01    0.6988118    0.4324374  78.14   0.00218564    3.209    0.688
       414  -7.5637    194.3063    143.6764   4.0035750362e+01   1.4226319620e+01    0.1453488     0.118178 -76.61 0.0003728763    1.644    0.392
       415  -9.2878      3.0962    141.9028   8.9625854325e+01   4.4833987903e+01    0.2736366    0.1398397  66.60  0.001361299    2.315    0.568
       416  -8.2335    181.8549    141.3385   4.2073321592e+01   1.7236535373e+01    0.2093087    0.1816915 -50.80 0.0004864162    1.195    0.163
       417  -8.5709    134.0000    139.9519   5.2954945879e+01   2.7438156914e+01    0.2600957   0.08733726 -47.57 0.0008050252    2.960    0.662
       418  -9.7850     44.4373    139.8087   7.7936960218e+01   4.1769211429e+01    0.3832968    0.1906811  26.81  0.001630253    2.290    0.563
       419  -9.8065     23.5563    138.1716   8.3625700689e+01   4.4189838357e+01    0.4799927    0.2341172  64.51  0.002002071    2.971    0.663
       420  -9.0451     18.4817    138.5081   8.5084380451e+01   4.4526781370e+01     0.253654    0.1316828  17.83  0.001172486    2.444    0.591
       421  -7.5145    218.6520    138.3233   3.4224529393e+01   1.0412616087e+01    0.1416705    0.1109784 -73.07  0.000704939    1.744    0.427
       422  -8.6195    197.4867    137.4596   3.7985556828e+01   1.4777802116e+01    0.2445628    0.1909656 -68.43 0.0006041871    1.641    0.391
       423  -8.6309    172.1175    137.8918   4.3377548178e+01   1.9970080001e+01    0.2343648    0.2055028 -80.58 0.0006721815    1.370    0.270
       424  -7.8771    168.6562    138.6997   4.4337490691e+01   2.0531813824e+01    0.1575598    0.1202241   3.67 0.0005910493    1.677    0.404
       425  -9.0157    240.5266    137.5264   3.0375972953e+01   6.4945933369e+00    0.1354602    0.1180427 -33.16 9.502661e-06    1.028    0.028
       426  -8.0683    207.4474    137.5256   3.6089546321e+01   1.2755079637e+01     0.144209    0.1337519 -40.85 0.0003840715    1.077    0.072
       427  -9.3173    140.5739    136.6809   5.0526325981e+01   2.6832728238e+01    0.3293183    0.1886829  29.64  0.001277347    2.116    0.527
       428  -9.3960    111.9780    136.9061   5.8080724182e+01   3.2406503004e+01     0.420303    0.2374359  43.89  0.001082949    1.813    0.448
       429  -8.8657    112.8226    133.0896   5.6973068166e+01   3.3136660384e+01    0.3409262    0.2458952 -81.62  0.001166095    1.959    0.490
       430  -9.2558     91.2369    136.6294   6.3821165918e+01   3.6119526494e+01    0.3781702    0.1826497  27.56  0.001413671    2.563    0.610
       431  -9.3260    248.6033    135.0692   2.8605966066e+01   5.4878232797e+00    0.2909354    0.1886043 -38.12 0.0008467172    1.325    0.245
       432  -8.9460    250.8180    129.4181   2.7093855053e+01   6.0367634076e+00     0.490664    0.1091177 -36.79  0.001509945    4.133    0.758
       433  -8.1953    162.6579    136.3321   4.5139457349e+01   2.2290333222e+01    0.2300966    0.1843996 -87.70 0.0007793396    1.685    0.407
       434  -9.4965    152.4648    135.4108   4.7311152793e+01   2.4636167556e+01     0.606504    0.2047599  41.51  0.001904999    3.061    0.673
       435  -8.9120     39.0494    136.1412   7.8909499859e+01   4.3232117303e+01    0.2405911    0.1694767  58.23  0.000760843    1.616    0.381
       436  -9.4351    127.7323    134.7292   5.3355568018e+01   2.9870066720e+01    0.4776395    0.2883947  35.74  0.002010761    1.734    0.423
       437 -10.2802     83.3311    133.3932   6.5412779024e+01   3.8169306347e+01    0.5504096    0.3337902 -59.75   0.00161058    1.634    0.388
       438  -7.9250    231.2369    133.9892   3.1118777527e+01   8.7952997265e+00    0.1842153    0.1048614 -38.22 0.0003711713    1.567    0.362
       439  -8.6485    179.3179    133.6698   4.0819407266e+01   1.9305592363e+01    0.2715942    0.1738684 -51.93 0.0006893601    1.684    0.406
       440  -8.6486    237.4105    133.2207   2.9951981941e+01   7.7894757993e+00    0.1909664    0.1137789 -46.59  0.000438151    1.612    0.379
       441  -9.7683    135.4359    124.3472   4.8833083698e+01   3.0613413200e+01    0.5301508    0.2915957  32.41  0.002018946    2.128    0.530
       442  -9.7146    130.8355    118.3144   4.8501549000e+01   3.2890208034e+01    0.5447587    0.3575737  82.07  0.001942261    3.042    0.671
       443  -9.1356    142.9515    131.4272   4.8674795626e+01   2.7494649012e+01    0.2844796     0.214961 -62.90 0.0006147164    1.535    0.348
       444  -8.5094    246.9722    129.9822   2.7783252440e+01   6.6181976942e+00    0.2037933    0.1469211 -58.81 0.0005594424    1.621    0.383
       445  -7.9521    204.7025    130.3365   3.4963733817e+01   1.4650248558e+01    0.1460504    0.1133056 -69.85  0.000571136    1.654    0.395
       446  -7.9955    192.5956    129.8483   3.7184556608e+01   1.7253709494e+01    0.2103398    0.1334164 -50.76 0.0005633822    1.664    0.399
       447  -9.2831    168.3172    129.4560   4.2207747169e+01   2.2510209308e+01    0.3071208    0.2361618 -89.16 0.0007047014    1.855    0.461
       448  -9.3998    152.9204    128.9423   4.5638265864e+01   2.5922769438e+01     0.413265    0.2568067 -58.95 0.0009984915    1.980    0.495
       449 -10.0293     99.3010    127.8262   5.9547380062e+01   3.6832693964e+01     0.567959     0.374852 -86.51  0.001795767    2.597    0.615
       450  -9.4547     12.9684    129.2113   8.5451031029e+01   4.7162208217e+01    0.3899575    0.2149612  69.05  0.001663112    2.334    0.572
       451 -10.0478    132.0782    131.1000   5.1356860119e+01   2.9811347183e+01    0.5067593    0.3209688 -68.18  0.001209257    2.291    0.563
       452  -8.2371    211.5244    129.0234   3.3410418246e+01   1.3508212565e+01    0.2014224    0.1159999 -58.57 0.0007024446    2.377    0.579
       453 -10.5489     61.2485    125.8529   7.0446811595e+01   4.3161519033e+01    0.8410021    0.4879797  68.44  0.003298784    2.988    0.665
       454  -8.8203     43.0490    129.0000   7.6553531444e+01   4.4549468630e+01    0.2366279    0.1790937  35.43  0.001208405    1.467    0.318
       455 -10.1625     39.4934    126.2819   7.7158881060e+01   4.5578407372e+01    0.2403948    0.2142778 -55.45 0.0002529013    1.050    0.047
       456  -9.4733     50.0036    128.2577   7.4325494917e+01   4.3957976976e+01    0.4306753    0.2470842  76.99  0.001708391    3.010    0.668
       457 -10.4301     44.3833    123.4012   7.5153033424e+01   4.5760973888e+01     0.812925     0.423575  88.61  0.002876425    3.816    0.738
       458  -9.3538     28.4303    129.2347   8.0949249457e+01   4.5919682776e+01    0.3321311    0.1781271  28.90  0.001675802    2.100    0.524
       459  -9.8610    117.4904    125.6948   5.3930347242e+01   3.3941362202e+01    0.5070099    0.4039746 -50.93  0.001411096    1.251    0.200
       460  -8.8639    179.0620    124.5452   3.8685284320e+01   2.1179468817e+01    0.2747771    0.2039609 -56.79 0.0005746916    1.491    0.329
       461 -10.1221     28.5299    122.4244   7.9853121888e+01   4.7548066930e+01    0.6131114    0.3099687  78.19  0.002290481    3.762    0.734
       462  -7.7523    228.3221    124.6584   2.9549479878e+01   1.0973273658e+01    0.1416578    0.1043764 -66.56 0.0007050494    1.725    0.420
       463  -9.5382     75.7815    123.9483   6.5621457561e+01   4.1590837935e+01    0.3897379    0.2068726  25.44  0.001614465    2.256    0.557
       464  -7.8161    188.3577    123.6946   3.6568902259e+01   1.9341131571e+01    0.1523157    0.1191219 -81.72 0.0007040237    1.723    0.420
       465  -8.4083      3.2507    123.3687   8.7516018977e+01   4.9178816239e+01     0.155306    0.1067766  38.44 0.0009496404    1.708    0.414
       466  -8.5896    171.9565    121.4455   3.9445308389e+01   2.3344328917e+01    0.2347077    0.1986651 -43.19 0.0004216123    1.159    0.137
       467  -9.8968    157.9499    121.4990   4.2607269479e+01   2.6399097276e+01    0.3808123    0.3339597  28.26   0.00121099    1.188    0.159
       468  -8.2428     83.8771    122.3890   6.2826039900e+01   4.0710936406e+01    0.2861191    0.1475219  30.25  0.001159963    2.165    0.538
       469  -9.2062     90.0055    120.9353   6.0652047719e+01   4.0049527268e+01    0.4880576    0.2458667  32.76  0.001688541    2.152    0.535
       470  -9.8181    141.5366    118.4307   4.5790103330e+01   3.0601316575e+01    0.4250878    0.2925042 -67.42   0.00125062    1.971    0.493
       471  -9.3944     71.1288    119.9011   6.6153887170e+01   4.3237666014e+01    0.2976273    0.2026941  75.20  0.001186267    2.235    0.553
       472  -9.6080    105.2548    117.7134   5.5392112053e+01   3.8092656076e+01    0.4278112    0.2665081  25.61  0.001143832    1.926    0.481
       473  -9.1776    122.9510    118.0526   5.0533858468e+01   3.4568724789e+01     0.472239    0.2077295  33.16  0.001581512    2.837    0.648
       474  -9.5925     18.9143    118.0669   8.2114571908e+01   4.9374011637e+01    0.3350476    0.1939231  11.49  0.001764115    2.202    0.546
       475  -9.3752      2.7869    116.9565   8.6850787787e+01   5.0706203117e+01    0.3930575    0.1845359  73.67  0.001656904    3.346    0.701
       476  -7.7644    185.7879    116.0057   3.5218888099e+01   2.1376716381e+01    0.1955282      0.11733 -39.98 0.0003416479    1.606    0.377
       477  -9.8632    109.2352    113.8760   5.3275445115e+01   3.8206045999e+01    0.5311243    0.3384303 -71.53  0.001355034    2.457    0.593
       478  -9.0240    250.2377    114.8135   2.4108226935e+01   8.5335446116e+00     0.195836    0.1635648 -55.81 0.0006812575    1.200    0.167
       479 -10.7156    248.9631    107.7245   2.2784481422e+01   9.9173666767e+00    0.4363767    0.3348899 -37.84  0.001991183    1.137    0.121
       480 -10.4356    249.3484    102.3435   2.1591683697e+01   1.0711809920e+01    0.3270425    0.3071076  48.97  0.002153594    1.245    0.197
       481 -10.0617     92.6887    112.2773   5.7731458600e+01   4.1594738297e+01    0.5201339    0.3131897 -66.25  0.001421391    2.213    0.548
       482  -7.9272    167.4611    114.4214   3.8669034181e+01   2.5738876933e+01    0.1497425    0.1480022 -56.16 7.041037e-05    1.030    0.029
       483 -10.8192    133.8272    109.7105   4.5477064899e+01   3.4101960437e+01    0.7882581    0.3735736 -46.80  0.002359106    2.138    0.532
       484  -9.8444     79.0704    112.3910   6.1944404903e+01   4.3814234635e+01    0.5155782    0.3667507  79.41  0.001685797    2.187    0.543
       485  -8.6716     74.9889    114.7623   6.3783706213e+01   4.3885213578e+01    0.2744024    0.1517872  29.32  0.001188252    1.995    0.499
       486  -9.8900     61.8490    114.1387   6.7791770925e+01   4.5885536368e+01    0.4275989    0.2239518  21.21  0.001813448    2.386    0.581
       487  -9.8242     32.8266    113.8160   7.7034373973e+01   4.9215969085e+01    0.6965067    0.1490331  28.34   0.00235445    4.535    0.779
       488  -9.7488    122.0801    112.5256   4.9339589016e+01   3.5957922934e+01    0.3225423    0.2554313  77.46 0.0007325092    1.669    0.401
       489  -8.6791    174.8213    111.7380   3.6407192061e+01   2.4625657719e+01     0.281814    0.1878274 -63.43 0.0007231646    1.956    0.489
       490  -8.9049    159.1559    111.6698   3.9825972233e+01   2.8139368154e+01     0.267629      0.20286 -53.86 0.0005917856    1.401    0.286
       491  -9.4871     48.2037    111.3276   7.1582335568e+01   4.8225112289e+01    0.5441079    0.2339216  52.99   0.00182189    4.344    0.770
       492  -9.3679     14.0540    111.0135   8.2542235013e+01   5.1388384726e+01    0.3042518     0.175379  67.37  0.001490011    2.446    0.591
       493  -9.9584     66.3606    110.2624   6.5466692574e+01   4.6185392902e+01    0.3884258    0.2748368 -79.51  0.001799751    1.852    0.460
       494  -9.4295     69.0519    104.9136   6.3314205146e+01   4.7042887167e+01    0.5815398    0.2439754  23.36  0.002037398    3.367    0.703
       495  -9.0056    146.1545    110.7185   4.2647703051e+01   3.1215084135e+01    0.3541115    0.1349795  43.90  0.001169029    2.664    0.625
       496  -9.2132      7.5147    108.8778   8.4285538188e+01   5.2310022198e+01    0.2277136     0.141336  43.23  0.000860675    1.948    0.487
       497  -8.1571    189.3443    108.0774   3.2569488071e+01   2.2088186215e+01      0.21735    0.1275996 -48.91 0.0007358646    1.740    0.425
       498 -10.4653    112.2611    106.1924   5.0388368290e+01   3.9308199924e+01    0.6971998    0.2482386  39.29  0.002287497    2.944    0.660
       499 -10.3593    108.8189     98.6562   4.9309849809e+01   4.1599479269e+01    0.5802216    0.3914886  71.88  0.001267075    2.463    0.594
       500  -9.6361    150.4173    102.6606   3.9482334300e+01   3.1896049272e+01    0.4490171    0.2527922 -56.53  0.001115884    2.263    0.558
       501  -9.8596     83.3384    104.1928   5.8548034291e+01   4.5006108285e+01    0.7759655    0.2677598  34.31  0.002631888    3.150    0.683
       502  -9.1432     82.0839     99.7204   5.7769065648e+01   4.6209975940e+01     0.370163     0.251114 -72.99  0.001081252    2.145    0.534
       503 -10.4062     45.6552    102.1836   7.0457761986e+01   5.0649723223e+01    0.6821364    0.4067095  72.01  0.002717116    3.380    0.704
       504 -10.6554     22.4523    102.5245   7.8365718713e+01   5.2754004335e+01    0.5689913     0.389382  76.84   0.00218401    1.954    0.488
       505  -8.4890    166.7406    103.9496   3.6133071624e+01   2.7951131574e+01    0.2469937    0.1693602 -65.86 0.0007535271    1.927    0.481
       506  -9.5661     97.4355    102.9614   5.3864902860e+01   4.2835215047e+01    0.7945502    0.2443907  33.25  0.002212279    4.448    0.775
       507 -10.3808    128.5716    101.9918   4.4764548288e+01   3.6835930327e+01    0.3882173    0.2957121 -75.23 0.0009330068    1.792    0.442
       508  -9.3736    131.9421     96.5302   4.2366851675e+01   3.7218059472e+01    0.6199768    0.1934018  39.33   0.00174766    3.946    0.747
       509  -8.5151      6.7659    102.9405   8.3627389506e+01   5.3728971003e+01    0.1949683      0.12477  80.12   0.00106598    1.944    0.486
       510  -7.8117    175.7042    102.3239   3.3825707139e+01   2.6224568458e+01    0.1526447    0.1175665 -73.79 0.0002646596    1.622    0.383
       511  -8.2032    159.8283    100.8272   3.6830037255e+01   3.0124293227e+01    0.2091448    0.1761391 -65.86 0.0004656624    1.327    0.246
       512 -10.2281     64.1128     96.6775   6.2880412661e+01   4.9607668677e+01    0.6602294    0.3729208 -67.73  0.002122432    2.435    0.589
       513  -9.0976     94.8896     96.6976   5.2922913003e+01   4.4656702775e+01    0.2783931    0.2100876 -51.71 0.0005887792    1.361    0.265
       514 -11.0900    246.8933     92.4596   1.9811080280e+01   1.2744734181e+01    0.5534968    0.1965625 -37.60  0.002245886    2.462    0.594
       515  -8.6352      9.6600     96.1881   8.1559397641e+01   5.5103248610e+01    0.3620957    0.1410001  -3.31  0.001360114    4.672    0.786
       516  -9.3295    139.6994    104.2123   4.2507674337e+01   3.3967792040e+01    0.3216838    0.2457072 -69.64 0.0007511987    1.669    0.401
       517  -8.1706    164.6170     93.8469   3.3919979633e+01   3.0346197263e+01    0.2145525    0.1363133 -49.61 0.0006086217    1.653    0.395
       518  -9.7348     52.9791     93.4892   6.5887133282e+01   5.1776914321e+01    0.4768467    0.2114395  41.03  0.001621081    2.643    0.622
       519  -9.3361     47.7837     91.5929   6.7235596057e+01   5.2818787367e+01    0.4319105     0.182569  19.05  0.001676597    3.184    0.686
       520  -8.1322    176.4236     93.1714   3.1310424198e+01   2.7745901057e+01    0.2121678    0.1332331 -51.04 0.0005351624    1.684    0.406
       521 -10.0526    123.9483     91.0583   4.2918826469e+01   4.0034416358e+01    0.6460039    0.4077559  32.57  0.001177454    1.756    0.431
       522  -8.4363    107.4574     92.4757   4.7952646773e+01   4.3154942787e+01     0.233119     0.197163  16.05 0.0006711821    1.247    0.198
       523  -9.5446    113.4044     90.4847   4.5663920390e+01   4.2360596412e+01    0.8109601    0.1875182  43.02  0.002196715    4.372    0.771
       524  -9.1459    138.7639     91.8242   3.9315276031e+01   3.6633240836e+01    0.2797106    0.2346655 -75.45 0.0006924595    1.446    0.308
       525  -8.8936      5.0280     91.8305   8.2402076802e+01   5.6360170054e+01    0.1850709    0.1222498  56.07 0.0007699836    2.023    0.506
       526  -9.3498     34.7945     89.7444   7.1421839002e+01   5.4603060584e+01    0.3941268    0.2515668 -88.45  0.001647724    2.546    0.607
       527  -8.8221     28.7880     90.5959   7.3768282545e+01   5.4961311772e+01    0.2408201    0.1727832  35.06    0.0011861    1.637    0.389
       528  -9.0917     23.4545     89.6698   7.5480597058e+01   5.5613508847e+01    0.3050346     0.208101   1.15  0.001754752    1.712    0.416
       529  -8.9446     99.1762     89.1808   4.9464126569e+01   4.5436222205e+01    0.3198517    0.1090515  35.74 0.0009975139    3.438    0.709
       530 -10.2373     86.4698     85.6252   5.2397799551e+01   4.8481943738e+01    0.6998038    0.4009376 -50.36  0.002010887    1.814    0.449
       531  -9.3231    140.8447     82.5871   3.6167668802e+01   3.7893396170e+01    0.3415999    0.1938687 -54.71 0.0007486381    2.226    0.551
       532  -9.0028    141.1252     76.6170   3.4363054681e+01   3.8894748351e+01    0.5285324    0.2480817 -50.85  0.001921795    2.675    0.626
       533  -9.5783     68.3629     86.1006   5.8575543300e+01   5.1308303257e+01    0.7038637    0.2567178  25.20  0.002220216    4.230    0.764
       534  -9.5866     48.1589     83.8597   6.5118038352e+01   5.4474826069e+01    0.3723261    0.2682014  81.34  0.001554191    2.393    0.582
       535  -8.1025    158.0243     83.9587   3.2642525143e+01   3.3673932678e+01    0.1812081    0.1671325 -39.67 0.0004853476    1.094    0.086
       536  -9.4899    104.7623     83.0450   4.5964473800e+01   4.5579250016e+01    0.4146473    0.2812976 -62.40  0.001262084    2.026    0.506
       537  -9.4452    107.5650     76.0672   4.3004792058e+01   4.6343652350e+01    0.6999321    0.2051741  40.19  0.002113686    3.714    0.731
       538  -9.5359    130.0131     82.6272   3.8866517705e+01   4.0326133379e+01    0.5644178    0.1618715  45.38  0.001704141    3.438    0.709
       539  -9.3626     24.6810     80.6248   7.3016620157e+01   5.7517758201e+01    0.3443565    0.2376992  82.63  0.001325535    2.305    0.566
       540  -8.3049    150.4758     80.5163   3.3338365315e+01   3.6043751140e+01    0.2652982    0.1324873 -48.53 0.0008262823    2.235    0.553
       541  -8.6900     74.6927     80.3221   5.4723204083e+01   5.1536689794e+01    0.2502685    0.1674491 -55.46 0.0008037946    1.682    0.405
       542  -9.1705      9.5665     80.5141   7.8660668036e+01   5.8615702193e+01    0.2525214     0.163233  65.42 0.0009912923    2.396    0.583
       543 -10.0775    248.9258     80.2163   1.6962420642e+01   1.4244154597e+01    0.2638299    0.1611008  54.91 0.0009092328    1.861    0.463
       544  -8.7091    119.1391     79.7437   4.0878875812e+01   4.3235776308e+01    0.2616729     0.198309 -51.67 0.0009575089    1.461    0.316
       545  -8.8520     40.1442     80.3152   6.7134884769e+01   5.6133901580e+01    0.2482748     0.121221  14.82  0.001090438    2.608    0.617
       546  -8.0302    184.2151     78.0159   2.5894123764e+01   2.8560783960e+01    0.1930422    0.1151882 -36.91 0.0006099988    1.668    0.401
       547  -8.7959     92.8244     78.4611   4.8207506498e+01   4.8768963713e+01    0.3379197    0.1325895  32.92   0.00113906    3.157    0.683
       548  -7.8435    157.0000     75.9832   3.0632137266e+01   3.5301907027e+01    0.2325354   0.08420429 -36.62 0.0003571923    2.815    0.645
       549  -9.2641    128.0947     75.2056   3.7140968875e+01   4.2099923916e+01    0.3500569     0.234236 -58.16 0.0007890314    1.915    0.478
       550  -9.2643     54.1374     76.5745   6.0903688128e+01   5.5279478040e+01    0.5046093    0.1359943  29.58  0.001650186    4.233    0.764
       551  -9.9310     63.0920     73.4939   5.6718976371e+01   5.4680231288e+01    0.3974727    0.2575893 -59.57 0.0009956566    1.929    0.482
       552  -9.7546     82.4963     72.4933   4.9674408607e+01   5.1777828343e+01    0.3674652    0.2764711 -72.39  0.001005131    2.084    0.520
       553  -8.1726    163.4346     73.1881   2.8523885443e+01   3.4251043046e+01    0.2093346    0.1325201 -48.98 0.0009408582    1.674    0.403
       554  -8.4522    151.4042     73.1864   3.1037139679e+01   3.7090641821e+01     0.204857    0.1350589 -48.31 0.0006448202    1.620    0.383
       555  -8.4390    115.8305     72.5871   3.9585670707e+01   4.5246630445e+01    0.2314909    0.1736888 -42.96 0.0005674929    1.390    0.280
       556  -8.9518    105.8768     71.7477   4.2139604202e+01   4.7478532423e+01    0.2557401    0.1884408 -66.52 0.0007711982    1.952    0.488
       557  -9.3099     94.9032     70.6430   4.5091851331e+01   4.9852086503e+01    0.3882363    0.2200066 -53.08   0.00121764    2.246    0.555
       558  -9.3972     51.4671     69.4782   5.9787980756e+01   5.7063933468e+01     0.406143    0.2354882 -65.92  0.001458447    2.787    0.641
       559  -8.6411     16.7639     70.0052   7.3536538472e+01   6.0400817850e+01    0.2116378    0.1596742 -74.21 0.0008274145    1.567    0.362
       560  -9.4142     31.4959     68.6208   6.7305920818e+01   5.9461086845e+01    0.3710873    0.1791663  -4.98  0.001470385    3.542    0.718
       561  -8.7251    147.0970     67.7702   3.0405225120e+01   3.8998706681e+01    0.2492485    0.1923606 -50.33 0.0006031734    1.391    0.281
       562  -8.7572    132.3907     67.8227   3.3822804609e+01   4.2399371319e+01    0.2874171    0.1099822  54.08  0.001000479    2.665    0.625
       563  -9.4122    138.0938     64.7390   3.1530829764e+01   4.1592013825e+01    0.5241039     0.250782 -53.29  0.001876412    3.026    0.670
       564  -8.8958    121.7525     65.8888   3.5900051326e+01   4.5112778227e+01    0.2574394    0.1952257 -54.84 0.0005788447    1.560    0.359
       565  -8.9261    110.1656     63.4404   3.8243532190e+01   4.8030642989e+01    0.2377703    0.1914339 -44.38 0.0005598044    1.347    0.258
       566  -9.5070     97.2087     61.5082   4.1384816305e+01   5.1011664049e+01    0.4763884     0.279797 -23.96  0.001972275    1.975    0.494
       567  -8.6199     37.4853     64.0352   6.3586110457e+01   5.9783490564e+01    0.1931664     0.114505 -50.93  0.001018853    1.576    0.366
       568  -9.1505     66.5126     61.8095   5.1728164081e+01   5.6406031804e+01    0.4324183    0.1721831  27.85  0.001594392    3.193    0.687
       569  -7.6464    158.2718     61.6586   2.6303901319e+01   3.7315627666e+01    0.1459057    0.1088058 -68.22 0.0002730339    1.611    0.379
       570  -9.6059     73.2425     59.4235   4.8517806141e+01   5.5752758542e+01    0.3623987    0.2195411 -47.15  0.001161095    1.811    0.448
       571  -8.5957    124.6239     60.5838   3.3488937812e+01   4.5336095782e+01    0.3030078    0.1053863  40.51 0.0009598206    3.375    0.704
       572  -8.8438    130.8872     57.8637   3.1102025405e+01   4.4336854877e+01    0.2244921     0.174978 -74.15 0.0009436632    1.697    0.411
       573  -8.8761     39.7801     57.9835   6.0772861410e+01   6.0707414908e+01    0.2643749    0.1445722  -4.24  0.001181934    2.618    0.618
       574  -9.8291     23.5085     56.3112   6.7036250315e+01   6.2649459362e+01    0.3948428    0.2766121 -88.73  0.002016669    2.861    0.650
       575  -9.4818      7.3389     56.8330   7.4101383040e+01   6.3726798020e+01    0.2386849    0.1886305 -89.93  0.001124036    1.825    0.452
       576  -8.4780    114.1812     57.5919   3.5231963312e+01   4.8118662010e+01    0.2135933    0.1236446  39.56 0.0009548733    1.701    0.412
       577  -8.1992    139.9982     56.0187   2.8447810225e+01   4.2499668745e+01    0.2252679    0.1706048 -71.59 0.0005997594    1.702    0.412
       578  -8.7856    119.1490     55.8128   3.3346638427e+01   4.7304051455e+01    0.2115131      0.19076 -83.72  0.000702811    1.340    0.254
       579  -8.5833     44.3062     55.4329   5.8097574773e+01   6.0654223700e+01    0.2010967    0.1533162 -61.52 0.0008295512    1.771    0.435
       580  -9.0962     62.9407     54.6513   5.0583392879e+01   5.8233574718e+01    0.2449263    0.1833013 -43.44 0.0006292131    1.420    0.296
       581  -8.9134     53.9782     53.6424   5.3642740006e+01   5.9717952610e+01    0.3219105    0.1805041 -57.86  0.001246425    2.786    0.641
       582  -9.7497    249.7013     54.2746   1.1472906379e+01   1.7840279658e+01    0.2063978      0.17343  88.90  0.001375459    1.192    0.161
       583  -8.7134    105.7053     53.1026   3.6060259963e+01   5.0629642683e+01    0.2153236    0.1721122 -51.66 0.0007123004    1.503    0.335
       584  -9.2963     92.4416     50.5337   3.9073971236e+01   5.3726993989e+01    0.3209947    0.2139571 -46.79  0.001123776    1.781    0.439
       585  -8.7526     76.2286     50.7618   4.4436364832e+01   5.6707201613e+01    0.4303361    0.1736926  27.34  0.001405724    4.068    0.754
       586  -8.4243    145.0000     49.0089   2.5256003915e+01   4.2328546045e+01    0.2159498   0.08120131 -32.00 0.0005791163    2.840    0.648
       587  -8.8903    129.5970     49.2384   2.8676976104e+01   4.5906530080e+01     0.186909    0.1363641 -14.13 0.0005222547    1.599    0.375
       588  -7.8664    163.5010     48.4773   2.1581658383e+01   3.7975091373e+01    0.1391517    0.1299931  72.85 0.0008102584    1.001    0.001
       589  -8.4349    112.3214     46.6775   3.2082584664e+01   5.0156768814e+01    0.2036452    0.1622049 -73.43 0.0007275597    1.759    0.432
       590  -8.7988     82.0694     46.4412   4.0904566373e+01   5.6333558634e+01    0.2357377    0.1825452 -46.41 0.0008258406    1.556    0.357
       591  -9.4040     12.4604     47.1276   6.9102714765e+01   6.5281671558e+01    0.2635401    0.1449916 -11.27  0.001456535    1.974    0.494
       592  -8.9294     16.8176     44.5158   6.6299942935e+01   6.5438559370e+01    0.1756471    0.1516737 -50.35  0.000597055    1.362    0.266
       593  -8.3577     45.0437     44.3444   5.3891628631e+01   6.2520040409e+01    0.1713559    0.1473243  -3.83  0.000611893    1.089    0.081
       594  -9.9484    133.1095     42.3872   2.5709633577e+01   4.6026527892e+01    0.3944804     0.243294 -10.60  0.001790039    2.205    0.546
       595  -9.9944      5.0471     41.6886   7.0854682430e+01   6.6792425702e+01    0.3228833    0.1851994 -67.06  0.001783565    2.282    0.562
       596  -8.7760    106.0376     41.3465   3.1913922160e+01   5.2255611121e+01     0.233541    0.1887747 -58.68 0.0007400093    1.609    0.379
       597  -9.1980     69.5269     41.2325   4.3257919657e+01   5.9345963034e+01    0.2733689    0.2083416 -58.49  0.001079798    2.024    0.506
       598  -8.4545     36.8608     40.7801   5.6033739110e+01   6.4124867021e+01     0.152151    0.1432904 -14.42 0.0006055976    1.337    0.252
       599  -8.4310    120.6346     47.2340   3.0161423993e+01   4.8232665222e+01     0.185843    0.1328813 -17.12 0.0009375925    1.581    0.367
       600  -8.6072    155.6864     39.2974   2.0338239796e+01   4.1060421504e+01    0.1386712    0.1023969 -74.48  0.000701328    1.604    0.376
       601  -8.8448    126.4219     36.6669   2.5333245676e+01   4.8310171001e+01      0.36101    0.1930227 -41.21  0.001655928    2.089    0.521
       602  -8.9458     95.5125     37.9866   3.3651395325e+01   5.4913239867e+01     0.192395    0.1295142 -31.69 0.0006493617    1.566    0.361
       603  -8.4594     48.9674     38.4386   5.0040410140e+01   6.2955046181e+01     0.186641    0.1139524  31.25 0.0006675976    1.610    0.379
       604  -9.3260     21.6493     37.2916   6.1587013747e+01   6.6308999676e+01    0.2476913    0.1546396  24.41  0.001513485    1.695    0.410
       605  -9.4376     26.1480     35.2188   5.8733899625e+01   6.6223790754e+01    0.2889981    0.1920924 -49.25 0.0008564533    1.690    0.408
       606  -8.5146     58.3142     42.6462   4.7953198901e+01   6.0933193544e+01    0.2187359    0.1482643 -44.22 0.0007937271    1.670    0.401
       607  -8.3850     80.5407     36.0786   3.7532383675e+01   5.8110657961e+01     0.194882    0.1244603 -30.34   0.00103144    1.604    0.377
       608  -8.8292     73.7535     34.9734   3.9368098325e+01   5.9506249637e+01    0.2394232    0.1690768  37.43  0.000761528    1.323    0.244
       609  -9.0135     72.0930     30.8042   3.8294417045e+01   6.0362372429e+01    0.4078847    0.1577394 -41.92  0.001648914    3.226    0.690
       610  -8.2086    111.8277     34.5857   2.8057877848e+01   5.1867804685e+01    0.1836136    0.1253207  65.21 0.0006487395    1.621    0.383
       611  -9.5422      8.7866     34.1126   6.6593220219e+01   6.7912949913e+01    0.2830647    0.1477324  19.78  0.001231256    2.018    0.504
       612  -8.3817    119.3791     33.1695   2.5764820386e+01   5.0348324362e+01    0.1814314    0.1221396 -40.93 0.0006101226    1.677    0.404
       613  -8.8228     60.8340     32.6803   4.3095129906e+01   6.2025750417e+01    0.2080756    0.1656037 -57.40 0.0008121582    1.992    0.498
       614  -8.8414     48.6292     33.0993   4.8063830020e+01   6.3817538653e+01    0.1879016    0.1620308  24.00 0.0006724368    1.285    0.222
       615  -9.1473     12.9669     30.3036   6.3171441517e+01   6.8247751472e+01    0.2278828    0.1579395 -58.04  0.001064257    1.913    0.477
       616  -7.9885    101.5082     29.4777   2.8887282271e+01   5.4725573723e+01    0.1333061    0.1178674  33.23 6.172733e-05    1.021    0.021
       617  -8.6658     81.5101     27.4378   3.3874081953e+01   5.9035973760e+01    0.1979368     0.175777 -72.50 0.0006328811    1.659    0.397
       618  -9.5841      3.3912     27.2303   6.6853251593e+01   6.9468906219e+01    0.2163838    0.1812991 -60.46 0.0009646093    1.651    0.394
       619  -8.7989     91.8823     26.2885   3.0338407850e+01   5.7109750292e+01    0.2048526    0.1726847 -34.24 0.0005601706    1.371    0.271
       620  -8.4436     64.0979     26.5054   3.9369579156e+01   6.2312730032e+01    0.1918911     0.112192  39.60  0.001032429    1.588    0.370
       621  -8.9950     76.1020     25.3985   3.4790067748e+01   6.0307293892e+01    0.3036075    0.1273853  38.46  0.001181145    2.216    0.549
       622  -8.6859    104.2861     24.1100   2.6223129645e+01   5.4735358866e+01    0.2143531    0.1572674  11.89  0.001199543    1.487    0.327
       623  -7.9693     53.6649     24.7166   4.2560748241e+01   6.4240977712e+01    0.1287394   0.08209101   9.41 0.0003558457    1.620    0.383
       624  -8.1336     34.4164     23.2018   5.0059184531e+01   6.7144746692e+01    0.1525744    0.1041799 -39.53  0.000939984    1.624    0.384
       625  -9.0150    121.0395     21.6878   2.1524452747e+01   5.1249344703e+01    0.1872701    0.1548284  52.50 0.0004505776    1.065    0.061
       626  -9.4063     15.5307     22.3156   5.8748382863e+01   6.9315158511e+01    0.2611708    0.1029436  22.50  0.001321499    2.590    0.614
       627  -8.6426     48.3942     21.2851   4.3196356269e+01   6.5488552094e+01    0.1908672    0.1380491 -32.11  0.000982461    1.485    0.327
       628  -8.7956     63.7972     20.9298   3.7145123703e+01   6.3050702209e+01    0.2107078    0.1638292 -40.96 0.0009699388    1.667    0.400
       629  -8.3560     94.7702     20.5617   2.7369636785e+01   5.7143263226e+01    0.1771666    0.1187566  62.28 0.0007253477    1.627    0.385
       630  -8.8837     74.0514     19.4566   3.3037258459e+01   6.1375346139e+01    0.2194819    0.1676939 -39.28 0.0007439528    1.633    0.387
       631  -8.6647     38.6685     19.0569   4.6338636558e+01   6.7159942892e+01    0.1964143    0.1507909  29.13  0.001312305    1.367    0.268
       632  -8.1279     87.7222     17.3464   2.8061359678e+01   5.8929895354e+01    0.1157445   0.09982029 -63.88 0.0004268676    1.633    0.388
       633  -8.3900     97.3633     15.2004   2.4670201201e+01   5.7135745874e+01    0.1675075    0.1143799 -33.34 0.0007513258    1.676    0.403
       634  -7.9827     30.2903     15.7035   4.8631104074e+01   6.8682532683e+01   0.09616189   0.09093951  -4.73 0.0002701614    1.556    0.357
       635  -8.0654    142.2971     14.3683   1.5222030188e+01   4.7004527326e+01    0.1365561   0.08788446  35.09 0.0007030441    1.729    0.422
       636  -8.5309     53.2421     14.6295   3.8322214196e+01   6.5541801665e+01    0.2195686    0.1053692  45.64  0.001116203    2.108    0.526
       637  -9.0069     77.3518     12.9515   2.9315683631e+01   6.1427042938e+01    0.2678166    0.1548323  55.48  0.001194247    1.773    0.436
       638  -8.8676    175.8063    247.8110   6.3554629544e+01  -1.3101821800e+00     0.298234    0.2099649  69.99  0.001338624    2.762    0.638
       639  -9.0027    152.9510    249.5277   6.8356263267e+01   1.9151068110e+00     0.251117    0.1419446  23.84 0.0008647017    1.878    0.468
       640  -8.4698    156.4328    247.9419   6.7436684120e+01   1.6359028246e+00    0.1642219    0.1264639 -50.23 0.0005503902    1.579    0.367
       641  -9.1408    112.9206    248.5854   7.6312950758e+01   8.1743935835e+00    0.2225208    0.1794472 -83.34 0.0008742182    1.459    0.314
       642  -9.9510     64.4230    248.3089   8.5875159903e+01   1.5014588231e+01    0.2487162    0.1709825  49.79 0.0004678927    1.201    0.167
       643  -8.9828     67.7438    244.9529   8.4938300229e+01   1.5218389349e+01    0.1660803    0.1203913 -75.68 0.0009788452    1.445    0.308
       644  -9.0609    203.3300    247.8859   5.8227078102e+01  -5.3939745605e+00    0.2790205    0.1498292  24.62  0.001204205    1.706    0.414
       645  -9.3192    149.3730    242.8297   6.8148553644e+01   3.5775263956e+00    0.2832372     0.181414  36.73 0.0007109448    1.327    0.246
       646  -9.9051    143.5549    247.7286   7.0005175081e+01   3.6586383238e+00    0.3647466    0.1890926  36.91 0.0008514203    1.622    0.383
       647  -9.7835    146.6443    245.3342   6.9053101114e+01   3.5815032613e+00    0.3048408    0.1698261  58.83  0.001386344    2.661    0.624
       648  -9.4191     20.6591    247.7718   9.3923046917e+01   2.0238902026e+01    0.1983705    0.1474421  61.48 0.0004268737    1.082    0.076
