#   1 NUMBER                 Running object number                                     
#   2 MAG_AUTO               Kron-like elliptical aperture magnitude                    [mag]
#   3 X_IMAGE                Object position along x                                    [pixel]
#   4 Y_IMAGE                Object position along y                                    [pixel]
#   5 X_WORLD                Barycenter position along world x axis                     [deg]
#   6 Y_WORLD                Barycenter position along world y axis                     [deg]
#   7 A_WORLD                Profile RMS along major axis (world units)                 [deg]
#   8 B_WORLD                Profile RMS along minor axis (world units)                 [deg]
#   9 THETA_WORLD            Position angle (CCW/world-x)                               [deg]
#  10 FWHM_WORLD             FWHM assuming a gaussian core                              [deg]
#  11 ELONGATION             A_IMAGE/B_IMAGE                                           
#  12 ELLIPTICITY            1 - B_IMAGE/A_IMAGE                                       
         1 -15.4717      6.8840     69.5241   2.9210618307e+02   6.9247210202e+00   0.07589505   0.04738297 -61.89  0.004156095    1.560    0.359
         2 -15.2050    119.9369     54.7782   2.9072750582e+02   6.4434927179e+00    0.0652443    0.0411956  -6.55  0.002571607    2.238    0.553
         3 -15.1213    122.6706     36.7508   2.9058867672e+02   6.6358353300e+00   0.06783178   0.03671958   9.54  0.003923858    2.550    0.608
         4 -15.2018     42.4016      8.1174   2.9133448646e+02   7.4296375678e+00    0.0984018   0.06692971 -45.22  0.008888073    1.484    0.326
         5 -13.9571     25.6844     32.4964   2.9167092889e+02   7.2444094451e+00   0.06041362   0.03799164  74.23  0.005634703    2.251    0.556
         6 -14.0364      8.0248      3.4034   2.9169941197e+02   7.6817935950e+00   0.06962268   0.03835515  46.44  0.005930083    1.973    0.493
         7 -15.1732      8.2666     29.4553   2.9185189898e+02   7.3796595854e+00   0.06264832   0.04457249  47.41  0.006810897    1.483    0.326
         8 -15.2353     13.7785     20.4280   2.9173510289e+02   7.4522152979e+00   0.05924747    0.0439995 -33.17  0.006023329    1.471    0.320
         9 -14.4165     24.8175     13.9413   2.9157023426e+02   7.4636236857e+00   0.04442786   0.02501171  29.37   0.00392561    1.779    0.438
        10 -13.2360    187.0904     13.3067   2.8971383273e+02   6.5331608738e+00   0.05026339   0.02836114 -33.54   0.00347681    2.225    0.551
        11 -14.2372    189.7801     26.6742   2.8976316034e+02   6.3633684472e+00    0.0729676   0.03953491  79.71  0.005472764    3.567    0.720
        12 -12.3861    194.9996     23.5599   2.8968505401e+02   6.3690071508e+00    0.0264736   0.01492692 -61.60  0.001976437    1.724    0.420
        13 -14.7852    166.3285     30.3780   2.9005261878e+02   6.4566260506e+00   0.06498915   0.03332428  28.68  0.003383048    1.958    0.489
        14 -12.7773    139.4152     21.6414   2.9030733774e+02   6.7133343031e+00   0.02989825   0.02244675  48.00 0.0006842462    1.398    0.285
        15 -13.3390    232.0622      2.5134   2.8913694509e+02   6.3963910960e+00   0.07116972   0.02918824  15.86  0.004900276    3.677    0.728
        16 -12.4070    222.9321     21.4330   2.8935417679e+02   6.2313456220e+00   0.01857792   0.01776446  82.31   0.00136815    1.069    0.065
        17 -13.5324    215.3020     20.6743   2.8943651879e+02   6.2844169641e+00   0.03273703   0.02045346 -43.55  0.002190054    1.658    0.397
        18 -13.9748    218.7554     15.0663   2.8936362318e+02   6.3290213499e+00   0.04213645   0.02857029 -33.24  0.003965557    1.678    0.404
        19 -13.2895    215.0449      9.4944   2.8937252014e+02   6.4148188815e+00    0.0283995   0.01839321  16.37  0.001785216    1.733    0.423
        20 -15.7176     99.8928     12.9463   2.9070648753e+02   7.0422597550e+00   0.06901874   0.04153125  21.93  0.002967221    1.775    0.437
        21 -11.9218    202.1684     10.9792   2.8952808667e+02   6.4724834706e+00   0.01301671   0.00844924 -42.90  0.001183347    1.599    0.374
        22 -11.6200    162.3306      8.9357   2.8996996288e+02   6.7271688035e+00    0.0156075  0.009140282  53.95   0.00146538    2.042    0.510
        23 -11.3033    126.1933      8.5959   2.9038022937e+02   6.9403794476e+00    0.0113851  0.007653717 -55.75  0.001200243    1.432    0.302
        24 -11.1569    153.8235      8.1178   2.9006210076e+02   6.7859048390e+00  0.009718833  0.008810132  68.69   0.00033293    1.162    0.139
        25 -12.0809    121.0849      4.1229   2.9041179718e+02   7.0215372635e+00   0.01890521   0.00779872  38.41  0.001554421    2.380    0.580
        26 -11.2585     67.6547      3.7403   2.9101975053e+02   7.3346043858e+00    0.0121083   0.01006353 -32.49  0.001312681    1.268    0.212
        27 -12.1705     26.1682      3.8805   2.9149478921e+02   7.5719727447e+00   0.01546673    0.0111381   4.11  0.001479756    1.642    0.391
        28 -12.2923     80.9620      1.8996   2.9085671375e+02   7.2790556487e+00   0.02810131   0.01120032  20.01  0.002121144    3.131    0.681
        29 -11.2603     59.2473      2.0245   2.9110558195e+02   7.4028842563e+00   0.01366945   0.01091424 -77.50  0.001560432    1.320    0.243
        30 -11.1477     62.4872      1.5116   2.9106549284e+02   7.3901217748e+00   0.01200383   0.00817245  27.32 0.0008078482    1.494    0.331
        31 -10.9064    212.5748    200.2475   2.9053947636e+02   4.2266132312e+00  0.009794376  0.005691926 -50.91 0.0009517805    1.668    0.400
        32 -14.9171     95.8636    236.4023   2.9208221237e+02   4.4826295718e+00   0.09162853   0.05239544  56.96  0.008378849    2.227    0.551
        33 -13.7075     57.4220    246.9327   2.9258218935e+02   4.5821582489e+00   0.05479078   0.03010189  10.03  0.004825343    2.442    0.591
        34 -13.8962     27.6413    246.2211   2.9291704153e+02   4.7616141166e+00   0.03353897    0.0331863   1.99  0.003753073    1.031    0.030
        35 -12.5573     26.2159    236.8712   2.9287800483e+02   4.8779887870e+00   0.02515874   0.01412671  -7.08  0.002037551    3.041    0.671
        36 -11.8623      2.8787    249.8964   2.9322069303e+02   4.8612804129e+00   0.02028415   0.01278968  32.80  0.002091976    1.581    0.367
        37 -14.2864      9.0488    245.7574   2.9312600084e+02   4.8737594375e+00   0.04842146    0.0328017  52.69  0.003003494    1.638    0.389
        38 -12.7070    164.6925    195.0040   2.9105297230e+02   4.5641470797e+00   0.03776358   0.02078365 -85.75  0.003160582    2.718    0.632
        39 -13.8881     30.0207    169.9134   2.9243822874e+02   5.6308534292e+00   0.05016685   0.04481219   2.73  0.006128456    1.191    0.160
        40 -14.2609     22.4060    181.1136   2.9259142657e+02   5.5450393980e+00   0.04422816   0.03541056 -19.18   0.00414055    1.412    0.292
        41 -15.1630      8.1205    183.5901   2.9276895564e+02   5.5984459430e+00   0.06291763   0.06170087 -77.00  0.008083099    1.017    0.017
        42 -15.5035     15.6674    175.4257   2.9263455637e+02   5.6495662463e+00    0.1319837   0.08206308  80.57   0.01182655    2.316    0.568
        43 -12.8170    201.4594    191.7916   2.9061554754e+02   4.3886545118e+00    0.0197644   0.01636017 -41.02  0.001761004    1.227    0.185
        44 -10.6430    107.6110    193.1678   2.9169196346e+02   4.9149847910e+00  0.009862155  0.005589379 -51.27 0.0009471145    1.705    0.413
        45 -10.5906     81.2480    193.3885   2.9199358759e+02   5.0644194103e+00  0.009652711  0.005803516  38.30 0.0009543769    1.667    0.400
        46 -12.4092     98.3832    187.3356   2.9176244541e+02   5.0356618620e+00   0.02052313   0.01738761 -31.37  0.002429163    1.243    0.196
        47 -12.6054     48.6606    181.2249   2.9229279715e+02   5.3927793476e+00   0.02896183   0.01544602 -50.38  0.002747003    1.820    0.450
        48 -11.3605    198.7384    183.1623   2.9059512505e+02   4.5041315363e+00   0.01246297  0.008092438  10.84  0.001239411    1.832    0.454
        49 -11.3937    122.7835    182.0519   2.9145311536e+02   4.9559913424e+00   0.02116643   0.01133248  67.54  0.001644599    3.219    0.689
        50 -11.2556    109.6490    183.5832   2.9161182241e+02   5.0140818606e+00   0.01258936  0.006646564  19.90  0.001134299    2.135    0.532
        51 -12.5098     85.4155    180.1168   2.9186733251e+02   5.1939226289e+00   0.02149298   0.01559204  63.20  0.002297624    1.610    0.379
        52 -12.4612    194.9505    177.4849   2.9060441198e+02   4.5916665374e+00   0.01539895   0.01396373  69.10  0.001353031    1.161    0.139
        53 -13.2626    124.0547    166.6884   2.9134730049e+02   5.1263172648e+00   0.03363128   0.02120304 -81.41  0.003277741    1.925    0.481
        54 -11.1107    177.4706    167.5001   2.9074387151e+02   4.8082089631e+00  0.006504668  0.006346553 -54.57 0.0002634074    1.007    0.007
        55 -12.7416     25.5389    156.9836   2.9241266745e+02   5.8062001528e+00   0.02885602   0.02160385  36.24  0.003239059    1.345    0.257
        56 -12.3820    237.5469    160.0000   2.9001576392e+02   4.5470136417e+00   0.02227458  0.003750157  27.08  0.001169015    6.062    0.835
        57 -12.5884     77.6315    157.1948   2.9181991859e+02   5.5039162842e+00   0.02145556   0.01528771  24.26  0.001322986    1.450    0.311
        58 -13.1842     74.1675    153.5010   2.9183746587e+02   5.5666018025e+00   0.03438138   0.02316101  15.85  0.003415996    1.650    0.394
        59 -12.4672    122.4835    155.8564   2.9130077684e+02   5.2606433577e+00   0.01975791    0.0155175 -24.23  0.002223999    1.431    0.301
        60 -12.5652    111.6456    155.7740   2.9142378205e+02   5.3241657715e+00   0.02809672   0.01574829  62.88   0.00241443    2.590    0.614
        61 -11.9975     55.5631    156.1551   2.9206535451e+02   5.6430611211e+00   0.01964064   0.01293532  -4.61  0.001517486    2.025    0.506
        62 -12.9488    208.7419    154.8004   2.9031236013e+02   4.7739684464e+00   0.03276337   0.01820148  27.91   0.00316694    1.823    0.451
        63 -12.2050     85.8618    153.2455   2.9170262685e+02   5.5021490004e+00   0.02531549   0.01423855 -44.42  0.002421963    1.846    0.458
        64 -11.4997     41.7973    154.4875   2.9221243466e+02   5.7415768336e+00   0.01502939  0.009660957  65.74  0.001447701    2.023    0.506
        65 -12.4865      6.3441    148.0030   2.9257836523e+02   6.0203712943e+00    0.0251435   0.01889132 -77.05  0.002785022    1.422    0.297
        66 -12.1073    103.5636    149.7455   2.9148004064e+02   5.4405211485e+00   0.01727022   0.01324479 -38.13  0.001508515    1.365    0.267
        67 -12.0528    244.9742    147.9853   2.8985966645e+02   4.6427355077e+00   0.01586501   0.01151342 -62.41  0.001742065    1.349    0.259
        68 -11.4556     38.5675    145.8444   2.9219797248e+02   5.8601338504e+00   0.01102927  0.009160439   4.88 0.0007804763    1.318    0.241
        69 -11.2842     44.6237    145.1880   2.9212499754e+02   5.8328818197e+00   0.01166029  0.009457657  11.46 0.0004711045    1.332    0.249
        70 -11.5251    149.1796    140.9252   2.9090776102e+02   5.2790115416e+00   0.01305835   0.01102762  72.55  0.001527488    1.301    0.231
        71 -11.6921     88.7967    141.0421   2.9159662317e+02   5.6263526177e+00   0.01160657  0.006715968 -37.92  0.001003032    1.972    0.493
        72 -12.8919     43.9454    137.8810   2.9208934634e+02   5.9212999523e+00   0.03899466   0.01964405 -39.25  0.003390515    2.338    0.572
        73 -10.6376     39.0088    136.4686   2.9213727322e+02   5.9660402639e+00   0.01263713  0.006651918  21.20 0.0009088072    2.093    0.522
        74 -11.0102     56.4259    137.7540   2.9194623029e+02   5.8509251959e+00  0.009681943  0.005725379 -51.17 0.0009494687    1.637    0.389
        75 -12.7795    246.3195    134.8852   2.8976620323e+02   4.7862235952e+00   0.02309474   0.01465869  57.72  0.002271741    1.900    0.474
        76 -11.7354     62.7657    134.2633   2.9185317582e+02   5.8547824965e+00   0.02120535   0.01379383  39.91  0.002211928    1.556    0.357
        77 -13.2040    231.2739    134.0182   2.8993211503e+02   4.8834832297e+00    0.0202181   0.01527723  44.48  0.002265384    1.364    0.267
        78 -12.1945    110.6172    131.8585   2.9129322213e+02   5.6066296274e+00     0.024966   0.01572804 -13.65  0.002325834    2.254    0.556
        79 -12.7065    223.0918    128.1197   2.8998998595e+02   4.9990470512e+00   0.01780004   0.01319757  64.11  0.001926101    1.565    0.361
        80 -12.7160    109.8772     96.1374   2.9108892650e+02   6.0238114493e+00   0.01716792   0.01196754  56.52 0.0003127424    1.632    0.387
        81 -13.2496    111.9314    101.2544   2.9109598898e+02   5.9528092988e+00    0.0248984   0.01695652  56.94  0.002037556    1.694    0.410
        82 -14.4530    105.1867    123.0008   2.9130241072e+02   5.7403846902e+00   0.08574964   0.04736273  19.15  0.008026531    2.043    0.510
        83 -14.9721    105.9216    108.7675   2.9120928179e+02   5.9006778963e+00   0.06503403   0.05949478 -69.15  0.007207313    1.085    0.078
        84 -13.3809     32.5499    111.7588   2.9206418886e+02   6.2889527644e+00   0.03069501   0.02025914 -66.20   0.00321479    1.520    0.342
        85 -12.1807     25.1682    127.1760   2.9224001160e+02   6.1531144359e+00   0.01480777   0.01268581 -38.99 0.0009893645    1.188    0.158
        86 -13.5327     28.9152    122.6448   2.9217034487e+02   6.1839724308e+00   0.03218719   0.01856721 -52.64  0.003184543    1.663    0.399
        87 -12.5450    132.8565    131.3840   2.9103691826e+02   5.4836565181e+00   0.04160621    0.0161088 -62.57  0.003357587    2.518    0.603
        88 -11.4282    184.9839    124.0382   2.9039934847e+02   5.2669964642e+00   0.01260811  0.008736562  50.55 0.0007737795    1.564    0.361
        89 -12.3716    180.8208    121.0916   2.9042918018e+02   5.3251499291e+00   0.01575339   0.01288743   4.29  0.001199521    1.352    0.260
        90 -13.4227     84.6634    115.5872   2.9149233717e+02   5.9445155714e+00   0.05816156   0.02649625  12.78  0.004385317    3.313    0.698
        91 -12.7109      4.0866    119.8633   2.9243720136e+02   6.3588160542e+00   0.03280089    0.0198191  21.12  0.002308063    1.781    0.439
        92 -13.6696     22.4286     86.6246   2.9203032930e+02   6.6377408776e+00   0.04648215    0.0267216  21.28  0.004282326    1.883    0.469
        93 -14.4544      2.6348     96.9114   2.9231749739e+02   6.6325517667e+00   0.07469118   0.04408864 -77.20  0.006024633    2.008    0.502
        94 -15.0285     18.0981    111.0140   2.9222472123e+02   6.3806582364e+00   0.06576142   0.06011386  57.85  0.005344541    1.135    0.119
        95 -14.4255     20.8284     96.7654   2.9210888811e+02   6.5297100470e+00   0.05507383   0.03233137  24.41   0.00536047    1.776    0.437
        96 -14.5477     29.2390     92.6972   2.9198867521e+02   6.5283801629e+00   0.05272245   0.04261297  39.44  0.006150097    1.255    0.203
        97 -11.9994     46.2894    109.5453   2.9189422341e+02   6.2354854660e+00   0.02100767   0.01294301 -46.49  0.001690076    1.631    0.387
        98 -12.0008    176.0907    111.8358   2.9042784380e+02   5.4594773729e+00   0.01072235  0.009117376  62.12  0.001258405    1.264    0.209
        99 -12.3676    121.2097    111.6849   2.9105233729e+02   5.7786575443e+00   0.01769662  0.009997134  46.70  0.001681578    1.919    0.479
       100 -11.6604     62.2779    110.5747   2.9171789458e+02   6.1315087433e+00   0.02541788   0.01514912  88.04  0.002251193    2.459    0.593
       101 -12.9185     62.5752     99.8607   2.9165075917e+02   6.2536586417e+00   0.03886493   0.02494708 -76.17  0.003220754    1.751    0.429
       102 -10.9461    222.3534    109.6858   2.8988835913e+02   5.2162256849e+00  0.007052663  0.004856947  61.68 0.0007045681    1.734    0.423
       103 -10.7699    152.1789    105.3963   2.9066185577e+02   5.6722809416e+00  0.009933961  0.005665309  39.71 0.0009551889    1.767    0.434
       104 -13.0435    137.0882     96.1497   2.9077871979e+02   5.8664092442e+00   0.02232624   0.01672404 -82.27  0.001570683    1.484    0.326
       105 -13.0229    134.9358    103.2055   2.9084532469e+02   5.7973239173e+00    0.0427528   0.01430626  31.48  0.002582962    2.814    0.645
       106 -13.0484    123.0775    102.6814   2.9097739380e+02   5.8719228700e+00    0.0251817   0.01682052  23.19  0.002649123    1.565    0.361
       107 -12.0204     43.0597     91.1656   2.9182177791e+02   6.4665629435e+00   0.03029067   0.01414162 -71.53  0.002512413    2.528    0.604
       108 -12.5343     47.2509    100.4444   2.9182912889e+02   6.3351717281e+00   0.02822917   0.01848692  36.25  0.002968337    1.528    0.345
       109 -12.4191     52.7164     98.1341   2.9175300418e+02   6.3304090004e+00   0.02363603   0.01569106 -35.17   0.00201499    1.689    0.408
       110 -12.2543    128.0453     95.8813   2.9088021706e+02   5.9217934076e+00   0.01519123  0.008415461  47.15  0.001420746    1.977    0.494
       111 -12.9987     98.1965     94.5461   2.9121267888e+02   6.1096486164e+00   0.03386411   0.01421188  40.70   0.00284085    2.416    0.586
       112 -11.2899     75.9625     95.7613   2.9147358972e+02   6.2238794235e+00  0.009353602  0.008567956 -18.27 0.0002387971    1.146    0.127
       113 -11.4379     49.5032     95.0771   2.9177149316e+02   6.3842517001e+00   0.01018172  0.006307446 -61.23  0.001023569    1.566    0.362
       114 -13.2046    178.3354     85.6528   2.9024602558e+02   5.7489286264e+00   0.06282121   0.03191597 -78.73  0.005163469    2.725    0.633
       115 -14.7450    160.9104     80.4969   2.9041379660e+02   5.9093967224e+00   0.08274151    0.0483739 -21.51    0.0014811    2.543    0.607
       116 -14.5620    170.4064     77.1402   2.9028554184e+02   5.8931714680e+00   0.05158851   0.03515222  10.88  0.005365394    1.705    0.413
       117 -13.8807     90.0035    109.5008   2.9139519856e+02   5.9840741471e+00   0.05577455   0.03450485   9.54  0.005397161    2.004    0.501
       118 -11.9653     89.7147     87.6041   2.9126808798e+02   6.2388296954e+00   0.02095828   0.01082319  37.20  0.001960206    1.915    0.478
       119 -11.9663    125.3863     86.7097   2.9085585214e+02   6.0431391287e+00   0.01693898   0.01289025  51.09  0.001891253    1.400    0.286
       120 -12.7238    131.2509     85.4642   2.9078154917e+02   6.0236250466e+00   0.02940065   0.01537782  40.31  0.002754775    1.933    0.483
       121 -10.5378     79.0121     87.5086   2.9138964557e+02   6.3016776275e+00  0.009725538  0.006461428  27.97 0.0004453415    1.527    0.345
       122 -13.6485    188.3622     84.3546   2.9012406001e+02   5.7058224605e+00   0.03293139    0.0191087  16.09   0.00183138    2.013    0.503
       123 -12.5315    241.8278     83.8305   2.8951235697e+02   5.4017270935e+00    0.0221261    0.0129303  39.38  0.002191037    1.722    0.419
       124 -13.2390    238.6940     80.4156   2.8952759457e+02   5.4593349817e+00   0.02879618   0.01394542  34.07  0.002576059    2.016    0.504
       125 -10.9179     98.2517     84.1944   2.9115036671e+02   6.2289584480e+00   0.00918779  0.007430663  60.22 0.0004891179    1.350    0.259
       126 -11.4788    219.6723     75.0041   2.8971170253e+02   5.6322038298e+00   0.01257744   0.01073107 -23.17 0.0005347776    1.266    0.210
       127 -12.6418    217.3830     79.4483   2.8976431822e+02   5.5941850890e+00    0.0234183   0.01792979 -10.41  0.002006947    1.548    0.354
       128 -12.9787    210.8234     77.1971   2.8982553737e+02   5.6582285062e+00   0.02903779   0.01843428  57.18  0.002738985    1.887    0.470
       129 -12.0876    113.9310     80.7057   2.9095070048e+02   6.1787117755e+00   0.01647556   0.01556551  57.36  0.001117828    1.087    0.080
       130 -12.8892     65.0949     58.5694   2.9137609345e+02   6.7163144615e+00   0.03599468    0.0213574  39.90  0.003446213    1.703    0.413
       131 -13.5617     39.3158     67.9682   2.9172647167e+02   6.7562145713e+00    0.0986445   0.02493894  31.09  0.006806215    3.545    0.718
       132 -14.1606     61.2326     65.7614   2.9146305063e+02   6.6554861284e+00   0.07303406   0.03141506  26.14  0.006185392    2.403    0.584
       133 -12.9669     56.4314     79.2650   2.9159829387e+02   6.5271108240e+00   0.02190113   0.01603797 -30.97  0.001655218    1.527    0.345
       134 -14.0104     60.7809     75.1992   2.9152442665e+02   6.5490351982e+00   0.02929715   0.02844768 -78.01 0.0009803083    1.029    0.029
       135 -11.8016    235.7302    248.7526   2.9056489374e+02   3.5321990141e+00   0.01096015  0.004491867  38.80  0.000899059    2.407    0.585
       136 -11.8638      5.6788     51.1390   2.9201057809e+02   7.1440767277e+00   0.01742857   0.01049407 -48.21  0.001451662    1.643    0.391
       137 -13.2595    135.0080     79.5856   2.9070364118e+02   6.0698118578e+00    0.0378256   0.01722742  30.04  0.002840593    2.165    0.538
       138 -11.7469     90.9881     80.1764   2.9120929928e+02   6.3173161458e+00   0.01917214   0.01280269 -25.16   0.00192226    1.858    0.462
       139 -12.1033     69.4633     80.3993   2.9145628391e+02   6.4388993489e+00   0.05389392  0.008118436 -52.98  0.003119764    4.827    0.793
       140 -13.9028     87.7542     65.4319   2.9115831681e+02   6.5063361072e+00   0.04267408   0.02311622 -53.57  0.003085848    1.758    0.431
       141 -13.4050     92.4779     58.8136   2.9106493586e+02   6.5555232685e+00   0.03611366   0.02152686 -79.10  0.003405123    2.046    0.511
       142 -12.7328     77.2122     73.4606   2.9132649838e+02   6.4743977775e+00   0.02580829   0.01624795  14.89  0.001875098    1.824    0.452
       143 -12.6708     81.9231     70.1504   2.9125299972e+02   6.4854700755e+00   0.02474491    0.0136592  39.38  0.002384588    1.821    0.451
       144 -12.0031     41.8790     77.1910   2.9175210191e+02   6.6348803265e+00   0.01449024   0.01363678 -49.49 0.0008448842    1.045    0.043
       145 -12.2717    192.7486     75.0005   2.9001823222e+02   5.7884082613e+00   0.01802397   0.01036837  48.12  0.001721803    1.915    0.478
       146 -13.4786    199.3975     70.0164   2.8991273059e+02   5.8073971788e+00    0.0353956   0.02119903  14.29  0.002459879    1.979    0.495
       147 -13.7536    131.7819     66.8020   2.9066415127e+02   6.2361344581e+00   0.06064828   0.03954342  28.97  0.005945744    1.548    0.354
       148 -13.8396    170.3699    242.5703   2.9127104706e+02   3.9814271871e+00   0.04612117   0.03295327  15.84  0.004986893    1.531    0.347
       149 -13.2166    111.1751     42.0528   2.9075152215e+02   6.6410845634e+00   0.02646435   0.01450975  22.48  0.001435008    1.960    0.490
       150 -11.7924     41.3089    250.1092   2.9278441426e+02   4.6380762191e+00   0.01282663  0.009120885 -58.15  0.001393188    1.358    0.264
       151 -14.3777    101.7316     50.6489   2.9091060905e+02   6.5963869549e+00   0.05067465   0.02627969  41.27  0.002235444    1.969    0.492
       152 -11.8789    158.1894     64.1450   2.9034718247e+02   6.1139936424e+00   0.01854391  0.009837343 -77.05  0.001601906    2.399    0.583
       153 -11.6979    100.6006     64.4294   2.9100572629e+02   6.4437524258e+00   0.01732351   0.01093985 -43.35  0.001553427    1.640    0.390
       154 -13.3262     79.2911     60.3241   2.9122447013e+02   6.6141767893e+00   0.03229902   0.02287479 -26.64  0.003407718    1.661    0.398
       155 -13.8864    177.8777     57.7522   2.9008459862e+02   6.0737436589e+00   0.03356073   0.02691907  70.53  0.002207336    1.410    0.291
       156 -11.7988     38.9036     60.5756   2.9168716167e+02   6.8440053220e+00    0.0166534   0.01122528  58.60  0.001702149    1.747    0.428
       157 -12.9353     25.5655     59.3820   2.9183241695e+02   6.9345385096e+00   0.02482513    0.0151423 -35.58  0.002413226    1.895    0.472
       158 -11.8255    248.0420     54.3112   2.8926515918e+02   5.7062502829e+00   0.02252739   0.01289154 -75.76  0.002089268    2.066    0.516
       159 -11.7695    250.0443     48.9702   2.8921042910e+02   5.7562227759e+00   0.01448443   0.01100205 -47.70 0.0004861614    1.303    0.233
       160 -11.5589    231.5143     55.5053   2.8946034934e+02   5.7884842748e+00   0.01364306  0.006415331  28.16  0.001202986    2.142    0.533
       161 -13.2704     66.9311     50.8180   2.9130892149e+02   6.7952690574e+00   0.02879009   0.02441209  -2.84  0.003405215    1.297    0.229
       162 -12.9934     67.2239     43.3291   2.9126092367e+02   6.8800760627e+00   0.03420463   0.01652362 -60.44  0.003103069    1.979    0.495
       163 -12.2414     70.5088     36.5171   2.9118277760e+02   6.9397976933e+00   0.01375373   0.01145699   5.87 0.0007786159    1.308    0.236
       164 -11.4845     86.3189     49.4938   2.9107965325e+02   6.6987219717e+00   0.01143292   0.01007499 -54.54 0.0005462064    1.108    0.097
       165 -12.0745    169.1738     43.3670   2.9009783007e+02   6.2902361213e+00   0.02590891   0.01098871  30.98  0.001769072    2.295    0.564
       166 -12.8276    153.2308     46.8958   2.9030068244e+02   6.3418620807e+00   0.02998264   0.01350669  17.62  0.001429584    2.832    0.647
       167 -13.1754    159.2946     43.4285   2.9021082427e+02   6.3467663989e+00   0.03392242    0.0153656  28.05  0.002630838    2.222    0.550
       168 -13.5247      8.8644     42.8902   2.9192507200e+02   7.2210635172e+00    0.0571793   0.03213171  50.09  0.005370622    2.035    0.509
       169 -12.9565     34.1993     32.9639   2.9157640623e+02   7.1900201298e+00   0.02321679   0.01426751  41.40   0.00187219    1.661    0.398
       170 -12.7548    147.0101    238.4994   2.9151258990e+02   4.1633774915e+00   0.01890823   0.01424601 -86.84  0.001257188    1.511    0.338
       171 -12.5212    145.0033    231.5125   2.9149394992e+02   4.2557515756e+00    0.0227981  0.007515831 -56.10  0.001750867    2.707    0.631
       172 -13.8373      9.9166    210.6913   2.9290886380e+02   5.2745409635e+00   0.04901304   0.03584696  18.21  0.005393646    1.463    0.316
       173 -12.9299     16.0847    197.6013   2.9276111993e+02   5.3905851388e+00   0.03711781   0.01312084 -47.50  0.002640635    2.899    0.655
       174 -12.6623     24.5613    217.4571   2.9278203227e+02   5.1121349610e+00   0.02934252    0.0237047  77.98   0.00284769    1.399    0.285
       175 -13.9339     25.6254    227.7442   2.9283076113e+02   4.9869892283e+00   0.04622551   0.01852471 -46.46  0.003716273    2.601    0.615
       176 -13.7676     20.3767    224.4178   2.9287087471e+02   5.0556324782e+00   0.02757962   0.02471766   7.97  0.001842731    1.176    0.150
       177 -12.7869    236.0023    229.8933   2.9044962853e+02   3.7485013260e+00   0.01554379  0.007732291  43.01  0.001395368    2.100    0.524
       178 -13.4718     57.5209    203.6620   2.9232483756e+02   5.0822081488e+00   0.04871526   0.01974265 -68.90  0.003784517    2.836    0.647
       179 -14.2426    217.6230     41.9771   2.8953755745e+02   6.0252273101e+00   0.05596967   0.02635351  22.95  0.004865701    2.323    0.570
       180 -13.5659    205.1425     40.1447   2.8966872136e+02   6.1188182177e+00    0.0402197   0.01450419  41.84  0.003098125    2.884    0.653
       181 -12.9204     75.7875     37.5638   2.9112873412e+02   6.8972627305e+00   0.01766301   0.01236958  24.04 0.0008233261    1.478    0.324
       182 -11.4356     25.6970     43.0045   2.9173338960e+02   7.1229781743e+00  0.009420894  0.008192271 -58.60 0.0004031721    1.121    0.108
       183 -11.9165    104.7675     36.7067   2.9079274009e+02   6.7398382113e+00   0.01519317  0.008800901 -64.28  0.001482495    1.716    0.417
       184 -12.5459    242.3774     36.0174   2.8922014168e+02   5.9501681740e+00   0.03194023   0.01238068  29.07  0.002604574    2.547    0.607
       185 -13.1336     56.1149     27.7404   2.9129484585e+02   7.1241213032e+00   0.02686234   0.01652304  28.36  0.001835961    1.643    0.391
       186 -11.7885     45.4498     36.5043   2.9146895644e+02   7.0843658890e+00    0.0113403  0.008541171  11.24 0.0005785989    1.472    0.321
       187 -12.6431     47.3832     32.1624   2.9142098016e+02   7.1233694991e+00   0.02465932   0.01367904 -28.33  0.002125623    2.545    0.607
       188 -13.2539     53.0645    214.3097   2.9243869198e+02   4.9846623435e+00   0.02784595   0.01781683  60.35  0.002736113    1.930    0.482
       189 -14.0291     67.2510    223.0646   2.9232896643e+02   4.8017253344e+00   0.04629116   0.03461535   6.78   0.00508594    1.528    0.346
       190 -12.9394    152.2826     31.3830   2.9021879172e+02   6.5264064542e+00   0.02255349   0.01249682 -52.73  0.001272648    1.728    0.421
       191 -14.4981    145.6994     30.8506   2.9029069508e+02   6.5706751582e+00   0.05009978   0.02876133  26.74  0.004132628    1.780    0.438
       192 -11.3459     51.7131     36.4564   2.9139711445e+02   7.0488426183e+00   0.01567069  0.006725102  23.50  0.001286254    2.543    0.607
       193 -11.3963    211.3414     33.2458   2.8955685293e+02   6.1624223085e+00   0.01036277  0.009282531  38.01 0.0004233929    1.133    0.117
       194 -12.3597     97.3853     28.5573   2.9082835838e+02   6.8765681486e+00   0.02469687   0.01241377 -54.26  0.002289857    1.880    0.468
       195 -14.7880     62.8546    214.9069   2.9233071030e+02   4.9214109351e+00    0.0615627   0.03450726  43.07  0.005939372    1.851    0.460
       196 -13.1158    216.1201     29.1370   2.8947785004e+02   6.1820669155e+00   0.02241353   0.01431849  65.12  0.001569582    2.041    0.510
       197 -10.8465    163.3470    225.3161   2.9124845033e+02   4.2214679294e+00  0.007043453  0.004863394 -27.35  0.000704797    1.723    0.420
       198 -13.7847     94.5039    218.7769   2.9199320354e+02   4.6943432927e+00    0.0217776   0.01775851  44.90   0.00185567    1.260    0.206
       199 -13.8076     98.8781    216.7594   2.9193142945e+02   4.6924671493e+00    0.0311676   0.02238443 -54.89  0.003428403    1.345    0.257
       200 -11.6619    248.8926    225.3005   2.9027586203e+02   3.7269625346e+00    0.0111609  0.008093191  46.28  0.001210787    1.440    0.306
       201 -12.8067     85.0911    215.4588   2.9208071767e+02   4.7869684242e+00   0.01564633   0.01387777  51.04  0.001527262    1.165    0.142
       202 -10.8958     60.5617     15.7592   2.9117255203e+02   7.2368006647e+00  0.009087899  0.006370265 -79.08 0.0008232786    1.596    0.374
       203 -10.4839    200.2992     15.3169   2.8957534558e+02   6.4333155913e+00  0.006846622  0.004852895 -30.36 0.0007011776    1.614    0.381
       204 -12.2994    185.7140    213.4995   2.9092378805e+02   4.2288154096e+00   0.01409512  0.008353177 -81.66  0.001292239    2.154    0.536
       205 -11.0616    136.6871    211.0091   2.9146684683e+02   4.5408553474e+00  0.009588529  0.008319471 -63.41 0.0007626688    1.132    0.116
       206 -11.8730     80.2835    208.5737   2.9209464797e+02   4.8943134625e+00   0.01629835   0.01017935  56.67  0.001585131    1.921    0.479
       207 -11.7455     71.7822    206.3784   2.9217846801e+02   4.9686764206e+00   0.01392936   0.01073148 -41.68  0.001566845    1.327    0.246
       208 -11.5481     70.7801     16.9982   2.9106320052e+02   7.1635731283e+00   0.01070887  0.009367417  29.27 0.0003972789    1.162    0.139
       209 -10.7475    149.9417    206.5418   2.9128944128e+02   4.5159743968e+00  0.009995106  0.006541721  23.84  0.001025563    1.591    0.372
       210 -12.5606     45.2788    197.3633   2.9242700250e+02   5.2255225365e+00   0.02394226   0.01356941 -66.96  0.002303254    1.806    0.446
       211 -12.6754     41.8551    201.1243   2.9248829842e+02   5.2017004797e+00   0.01503623   0.01359475  71.72  0.001500448    1.167    0.143
       212 -12.1187    121.6038     27.6169   2.9054628829e+02   6.7474389494e+00   0.01698632   0.01074799  39.45 0.0009932279    1.594    0.373
       213 -13.1273     39.2432    195.1939   2.9248292938e+02   5.2853359298e+00    0.0239551   0.02257675  65.26  0.002048519    1.095    0.086
       214 -10.4537    250.3235    200.3312   2.9011092615e+02   4.0071082672e+00  0.007033857  0.004837458 -29.51 0.0007050172    1.702    0.412
