#   1 NUMBER                 Running object number                                     
#   2 MAG_AUTO               Kron-like elliptical aperture magnitude                    [mag]
#   3 X_IMAGE                Object position along x                                    [pixel]
#   4 Y_IMAGE                Object position along y                                    [pixel]
#   5 X_WORLD                Barycenter position along world x axis                     [deg]
#   6 Y_WORLD                Barycenter position along world y axis                     [deg]
#   7 A_WORLD                Profile RMS along major axis (world units)                 [deg]
#   8 B_WORLD                Profile RMS along minor axis (world units)                 [deg]
#   9 THETA_WORLD            Position angle (CCW/world-x)                               [deg]
#  10 FWHM_WORLD             FWHM assuming a gaussian core                              [deg]
#  11 ELONGATION             A_IMAGE/B_IMAGE                                           
#  12 ELLIPTICITY            1 - B_IMAGE/A_IMAGE                                       
         1 -14.0433    178.7830     74.7971   8.5760969686e+01   3.0215188079e+01      3.26614     1.476103 -47.29    0.0082652    2.438    0.590
         2 -14.6440    170.7454     57.4504   8.2137762679e+01   3.5054557273e+01     9.652266     5.062676  88.17   0.02718481    4.859    0.794
         3 -12.5957    231.5123     59.8931   7.3298898973e+01   1.9614798029e+01     1.329734    0.5067478 -35.44  0.003151468    2.324    0.570
         4 -14.0408    222.3358     34.9303   6.8025650060e+01   2.5179497470e+01      2.29369     0.863918 -41.35  0.009107512    2.381    0.580
         5 -12.7267    212.3652     45.6230   7.2078338732e+01   2.6223267796e+01     1.091382    0.8504297  40.30  0.005739308    1.471    0.320
         6 -14.9214    244.5217    138.8256   9.0346966578e+01   4.6810661680e+00     4.439103     2.964662  71.77   0.02064803    2.552    0.608
         7 -13.2415    206.0045     58.9368   7.6601153009e+01   2.5912143363e+01     4.947395     2.095321 -62.88   0.01089739    8.010    0.875
         8 -14.8209    215.0073      6.5348   6.1467423494e+01   3.0206052772e+01     4.685106     1.223777  72.18   0.01612398    3.557    0.719
         9 -15.5334    241.1198     11.9451   6.0540387750e+01   2.3441717641e+01     2.814088     1.857761 -88.87   0.01133461    1.471    0.320
        10 -14.8505    243.2135     92.0588   7.9667701068e+01   1.2184939879e+01     5.054894     1.821054 -33.09   0.01890645    2.519    0.603
        11  -9.3170    116.0110     12.4992   7.7807324544e+01   5.4402512012e+01    0.3092479    0.2102831  51.82  0.001458364    1.335    0.251
        12 -10.8872    120.2701      8.8694   7.5461097220e+01   5.3757987516e+01    0.4183424    0.3731096  51.49  0.001504552    1.072    0.067
        13  -9.5548    146.1256      8.0844   7.0395305376e+01   4.7503914749e+01    0.3135553    0.2149695 -31.14  0.001198811    1.559    0.358
        14  -9.3593    140.6408      7.9421   7.1262385114e+01   4.8889922125e+01    0.2743843    0.1968015 -32.52  0.000799388    1.500    0.333
        15 -11.7929      5.0521      7.4824   1.1753254544e+02   7.2867263207e+01    0.6929568    0.4625309 -36.08  0.004991055    1.137    0.121
        16 -10.5911    249.5079    196.1655   1.0126451309e+02  -4.2741979554e+00    0.4001988    0.2478888 -16.39  0.002293035    1.590    0.371
        17  -9.2047     56.2934    249.9839   1.4336863057e+02   1.8094661068e+01    0.1689371    0.1161082  55.85 0.0004730115    1.134    0.118
        18  -9.1064    101.0188    176.0007   1.2717147672e+02   2.5777595803e+01    0.1811631     0.162798  73.08 -0.007547014    1.025    0.024
        19 -11.3692    223.1236    247.8300   1.1436636130e+02  -6.3361383274e+00     1.070555    0.1924039  38.08  0.003686469    4.687    0.787
        20 -10.1125    235.7226    246.1838   1.1203119415e+02  -7.9921927054e+00    0.4489026    0.1405767  32.81  0.001995566    2.936    0.659
        21 -10.1731     69.6712    145.3329   1.2986428456e+02   3.7321178988e+01    0.3217437     0.240276  69.71  0.001188954    1.356    0.263
        22 -10.2886     66.4928    144.0414   1.3045921616e+02   3.8049030618e+01    0.4223439    0.2764424 -80.24  0.001281083    1.520    0.342
        23  -9.1334    222.6767    145.4243   9.5534538265e+01   7.9286011077e+00    0.2498929    0.1375716  52.35 0.0009711082    2.019    0.505
        24  -8.9351    124.6617    145.0768   1.1620894113e+02   2.8282508231e+01    0.1916391    0.1804604 -64.53 0.0006639413    1.069    0.064
        25  -8.7679    192.2710    144.1050   1.0099355900e+02   1.4467738884e+01    0.1996511    0.1837143 -33.60 0.0003906886    1.106    0.096
        26 -10.5792    246.7045    244.4382   1.0997290816e+02  -9.3653317837e+00    0.8096629    0.1992477  35.04  0.003320948    3.573    0.720
        27  -9.0306    149.1971    131.7197   1.0744326428e+02   2.6166759518e+01    0.2456161    0.1924647  67.95 0.0008433255    1.459    0.315
        28 -10.1198    189.5063    136.0549   9.9697335864e+01   1.6537650957e+01    0.2723925    0.2008189  29.52 0.0003576526    1.463    0.316
        29  -8.4723    122.0117    130.0092   1.1362809126e+02   3.2100948764e+01      0.17121    0.1637749 -72.97 0.0009444965    1.020    0.019
        30 -10.2222    160.3685    128.3731   1.0409063777e+02   2.4434372585e+01    0.3755746    0.2862606  59.02  0.001798414    1.404    0.288
        31  -8.5080    136.3250    128.3389   1.0971085151e+02   2.9587829076e+01    0.1540138    0.1216864  -3.34 0.0007051316    1.725    0.420
        32 -11.7719    214.8408    116.0687   9.0066169387e+01   1.4507249099e+01     0.669144    0.4466283 -73.96  0.002738172    2.579    0.612
        33 -12.0648    204.9306    110.2954   9.0420741506e+01   1.7737104975e+01    0.5756946    0.4380197  46.82  0.002515899    1.347    0.257
        34 -10.6163    135.0000    109.0366   1.0525358511e+02   3.3986263952e+01    0.7885861    0.1742685 -45.13  0.002046012    4.473    0.776
        35 -10.5490    167.8702    113.6710   9.8751737639e+01   2.5678658762e+01    0.4150389    0.3214405 -59.02 0.0009349145    1.446    0.308
        36 -10.9581    198.3152    106.2687   9.0625939035e+01   1.9975249347e+01    0.3443719    0.2153312  47.34  0.001522195    1.630    0.386
        37  -8.7469    218.6809    231.6845   1.1265927962e+02  -3.8071769340e+00     0.122429   0.07739174  14.09 0.0003219038    1.654    0.396
        38  -8.5215     34.5145    227.9870   1.4559395973e+02   2.4467669389e+01    0.1456307   0.08786923 -81.62  0.001001766    1.513    0.339
        39 -10.0311    148.0033     97.1614   9.8853019898e+01   3.3529551316e+01    0.3763587    0.2870062  16.58  0.001161036    1.676    0.403
        40 -12.6172    238.1297     36.9434   6.6805636865e+01   2.1176504950e+01    0.9806244    0.4465123  75.26  0.002963169    2.471    0.595
        41  -9.2795    134.4138     94.1536   1.0133830310e+02   3.7202359994e+01    0.2758906    0.2191637  59.45 0.0006921977    1.354    0.262
        42 -10.2850    221.6729    226.7389   1.1135294353e+02  -3.6748950466e+00    0.3184222    0.1318736  46.90   0.00148356    2.534    0.605
        43 -13.1575      8.6018    209.3925   1.4897961648e+02   3.0583067452e+01    0.7587079    0.5285793  78.66  0.004116826    1.039    0.037
        44 -10.9224    158.7230     88.3979   9.3886674820e+01   3.2708276146e+01    0.5765073    0.3966463  17.29  0.002371717    2.100    0.524
        45  -8.6053    194.4254     88.2722   8.6590400755e+01   2.4056540816e+01     0.210345    0.1387169 -44.84 0.0006407651    1.510    0.338
        46 -10.1471    142.3958     85.7496   9.6920504816e+01   3.7062395667e+01    0.3737306     0.321608  55.50 0.0007484338    1.193    0.162
        47 -12.1543    194.6690     59.5460   7.8548754810e+01   2.8659322835e+01     1.105112    0.6365428  32.07  0.004331682    2.483    0.597
        48 -12.5206    241.4987    206.0781   1.0442198351e+02  -4.2513111220e+00     1.591461    0.4019467  35.69  0.005520519    4.236    0.764
        49  -9.0129    202.9996     80.8738   8.3066793595e+01   2.3218480227e+01    0.2790023    0.1950426 -58.63 0.0007572316    1.625    0.384
        50 -11.6216    156.8185     77.5269   9.1115297131e+01   3.5168724819e+01    0.4101107    0.3166301 -35.34 0.0006991684    1.294    0.227
        51 -13.9076     40.4048    184.5328   1.4125202627e+02   3.2287332336e+01     1.566975     1.242584 -26.06  0.001647031    2.178    0.541
        52  -8.9506    151.7060     70.8669   9.0226879749e+01   3.7594788580e+01    0.2544693    0.2019158  -6.07  0.001205483    1.495    0.331
        53 -10.1889    144.1877     59.2307   8.8232740428e+01   4.1400030624e+01    0.3867975     0.283251 -60.88 0.0006682671    1.664    0.399
        54  -9.0159     36.1815     62.6135   1.2293247606e+02   6.0026604692e+01    0.2326285    0.1576219 -68.69 0.0008873467    1.627    0.385
        55  -7.9264    203.6884    152.6825   1.0066253353e+02   1.0567535699e+01    0.1476654    0.1081247   8.07 0.0002284862    1.642    0.391
        56  -8.7288    115.9156     59.1923   9.5295139828e+01   4.7938682005e+01     0.218743    0.2001324 -75.04 0.0004847293    1.285    0.222
        57  -9.3827    133.3982    143.6124   1.1381751063e+02   2.6900326411e+01    0.6370246    0.1340229 -52.42  0.001501971    6.124    0.837
        58  -9.6006    180.7129     51.1742   7.8442048189e+01   3.3451917972e+01    0.4091711    0.2702211  72.34  0.001858595    1.631    0.387
        59  -8.1572     72.5859     58.4536   1.0843575215e+02   5.6238701099e+01    0.1349624    0.1206439 -31.42 0.0002158524    1.042    0.041
        60  -9.0015    130.9921     54.2960   8.9708229760e+01   4.5356284469e+01    0.1991189    0.1851047  39.48 0.0002460448    1.059    0.056
        61  -9.1082    175.0316     49.9795   7.9070715394e+01   3.5080812508e+01    0.2216823    0.2166823  81.21  0.000429252    1.002    0.002
        62  -9.2099    197.3292     43.9797   7.3715646547e+01   3.0219863861e+01    0.4139593    0.1751662 -47.94   0.00103787    2.567    0.610
        63  -9.3022    194.1006     40.2562   7.3123234535e+01   3.1541643879e+01    0.3355704    0.2221373  88.29  0.001224451    1.745    0.427
        64  -8.2623    165.4882     39.4120   7.7476988296e+01   3.9007218566e+01    0.1469248    0.1371041  49.21 0.0001700854    1.058    0.054
        65  -9.8489    203.3753     36.5570   7.0793690442e+01   2.9669572973e+01    0.3226304    0.2113288 -61.83 0.0002758646    1.659    0.397
        66  -8.5026    190.0940     36.0933   7.2502049566e+01   3.3109746494e+01    0.2057995    0.1571084 -54.23 0.0007598174    1.333    0.250
        67 -13.2260     51.2981    175.4120   1.3806759472e+02   3.2958427968e+01    0.9530021    0.8428296 -84.16  0.002791592    1.187    0.157
        68  -8.1092    206.7029     33.7153   6.9581291980e+01   2.9193054197e+01    0.1370111    0.1060962  34.64 0.0002769432    1.546    0.353
        69  -8.6421    186.3271     30.2302   7.1326696106e+01   3.4811655864e+01    0.1973834    0.1530111 -66.23 0.0006868388    1.355    0.262
        70 -10.2904    178.4848     23.9947   7.0586152532e+01   3.7571166369e+01    0.4319991    0.3060429 -51.90  0.001678738    1.478    0.324
        71 -10.4186    181.6777     23.3289   6.9933032538e+01   3.6823951673e+01    0.4764283    0.3321287 -76.17  0.001916107    1.611    0.379
        72  -8.7178    192.6756     22.0230   6.8087570072e+01   3.4148442178e+01    0.1809027      0.17084 -39.78 0.0003255353    1.123    0.109
        73  -9.4827    173.9067     16.2732   6.8876752500e+01   3.9600386972e+01    0.2792962      0.21777 -68.87 0.0007675208    1.360    0.265
        74  -9.6491    136.4753     16.0093   7.4905383976e+01   4.9135880803e+01     0.204739    0.1378257 -21.35 0.0008156814    1.585    0.369
        75  -9.2456    234.8912    173.7895   9.9401412667e+01   1.2290195990e+00    0.2209645    0.1826812  58.53 0.0008384653    1.606    0.377
        76  -9.8529    178.9104    199.3804   1.1464373106e+02   7.4893873434e+00    0.2025755    0.1880712 -26.41 0.0002333715    1.201    0.167
        77  -9.5675    216.0914    168.8344   1.0175211936e+02   5.4482661691e+00    0.2869398    0.2152634  59.53  0.001051371    1.694    0.410
        78  -9.0639    211.9296    166.4443   1.0203070245e+02   6.6289838453e+00    0.3419422    0.2189872  67.11  0.001069507    2.673    0.626
