#   1 NUMBER                 Running object number                                     
#   2 MAG_AUTO               Kron-like elliptical aperture magnitude                    [mag]
#   3 X_IMAGE                Object position along x                                    [pixel]
#   4 Y_IMAGE                Object position along y                                    [pixel]
#   5 X_WORLD                Barycenter position along world x axis                     [deg]
#   6 Y_WORLD                Barycenter position along world y axis                     [deg]
#   7 A_WORLD                Profile RMS along major axis (world units)                 [deg]
#   8 B_WORLD                Profile RMS along minor axis (world units)                 [deg]
#   9 THETA_WORLD            Position angle (CCW/world-x)                               [deg]
#  10 FWHM_WORLD             FWHM assuming a gaussian core                              [deg]
#  11 ELONGATION             A_IMAGE/B_IMAGE                                           
#  12 ELLIPTICITY            1 - B_IMAGE/A_IMAGE                                       
         1 -14.9305      6.3462     71.3341   1.0857697795e+02   6.1346679109e+01     1.634181     0.773644 -55.24  0.006082249    1.583    0.368
         2 -14.3056    190.1433     25.6126   4.0113037821e+01   3.4619198502e+01     1.550011    0.8265646 -55.66  0.007419503    1.930    0.482
         3 -13.3615    187.8533     12.9385   3.7145541104e+01   3.6574405501e+01    0.8294662    0.4168654 -33.07  0.004133804    2.065    0.516
         4 -14.2391    166.7478     30.1721   4.4479397381e+01   3.9765626442e+01      1.05783    0.7388824  65.32  0.003618415    1.308    0.235
         5 -14.4705    147.5829     29.3577   4.7357892338e+01   4.4586323117e+01     1.319014    0.8028873  69.36  0.006159284    1.575    0.365
         6 -14.0676    130.3982     28.2054   5.0248004562e+01   4.8908062679e+01     1.308975    0.9014958  70.95  0.006379596    1.470    0.320
         7 -13.9487    122.0069     37.4445   5.5245362343e+01   4.9763275353e+01    0.9231392    0.4735177  38.86  0.002539598    2.116    0.527
         8 -13.7238      2.6337     10.7728   9.1286052084e+01   7.3263195786e+01     1.003097    0.3892969 -47.00  0.005369462    2.279    0.561
         9 -13.1452      8.1441      2.6315   8.3826989862e+01   7.3998822557e+01    0.4759019    0.3863081  33.73  0.003505362    1.856    0.461
        10 -16.0115     14.3740     20.0041   8.8650767577e+01   7.0855701516e+01     1.976063     1.048286 -24.02   0.01136009    1.721    0.419
        11 -13.3627     17.4727     11.5583   8.2965234642e+01   7.1841087299e+01    0.4443895    0.3226595 -41.27  0.001212929    1.618    0.382
        12 -12.5997    229.9198      2.7755   3.1190212295e+01   2.8122249141e+01    0.7829856    0.2235488  65.96  0.003407932    3.116    0.679
        13 -13.3045    217.5948     29.3478   3.8026519072e+01   2.7790763083e+01    0.7903056    0.3805974 -74.14  0.003406521    2.628    0.619
        14 -14.4303    216.6521     13.7920   3.4586858612e+01   2.9830663573e+01     1.045166    0.8442737 -23.54   0.00671172    1.570    0.363
        15 -15.1438     98.1114     12.3091   5.1723972369e+01   5.8057930498e+01     1.594422    0.6780265  55.07  0.007255288    1.985    0.496
        16 -11.6556     59.8859     17.0136   6.5701562540e+01   6.5196924950e+01    0.3651884    0.2083661 -35.15  0.001971771    1.917    0.478
        17 -11.4718     46.7876     13.3937   6.9322782226e+01   6.7787735061e+01    0.2875816    0.2062865  36.95  0.001245425    1.396    0.284
        18 -12.9783    224.7037     21.0759   3.5503675699e+01   2.7216535101e+01    0.5883927    0.3623142 -69.68  0.002392637    1.501    0.334
        19 -13.9492     41.7975      4.7474   6.7147218554e+01   6.9545499004e+01    0.7294887    0.4849915   7.32  0.003587926    1.368    0.269
        20 -11.5805    152.7589      9.2683   4.0423019683e+01   4.5427115740e+01     0.255888    0.2037904  50.27  0.001082159    1.253    0.202
        21 -11.9566     71.4810     17.6245   6.1773906137e+01   6.3015355929e+01    0.3191712    0.2418009 -28.87 0.0009298511    1.441    0.306
        22 -10.1642    145.1957      8.3954   4.1246793233e+01   4.7348405751e+01    0.1753846    0.1126391  81.03 0.0002390336    1.515    0.340
        23 -10.6613     58.0253      6.9816   6.1647405797e+01   6.6618579284e+01    0.1652828    0.1531729 -64.00  0.001009679    1.668    0.401
        24 -11.8761    120.1444      3.8371   4.3858742590e+01   5.3744939237e+01    0.2656909    0.1889042  69.34 0.0005768251    1.279    0.218
        25 -11.0730    117.4835      1.4685   4.3508040753e+01   5.4555178858e+01    0.2423136    0.1611943  65.17 0.0006217161    1.304    0.233
        26 -11.9444     79.5177      2.1379   5.2391204427e+01   6.2917635758e+01    0.5927071       0.1734  50.49  0.002476554    2.568    0.611
        27 -11.7607     61.4165      1.7621   5.7883570186e+01   6.6494139452e+01    0.3938462    0.1466835  51.69  0.001496629    2.421    0.587
        28 -11.0046    181.5547      1.4978   3.4891073608e+01   3.9190695183e+01    0.2684786    0.1076875  73.40  0.001207927    2.154    0.536
        29 -14.2483     25.3088     14.0375   7.9942405501e+01   7.0632417968e+01    0.6893983     0.431804  21.33  0.003426217    1.486    0.327
        30 -11.5662     48.9023    181.7302   1.1211253655e+02   3.0672721493e+01    0.3785643    0.2242656 -51.77  0.001894534    1.844    0.458
        31 -13.1327    108.0849    246.6540   1.0625723267e+02   8.4077519386e+00    0.7135215    0.4853466 -85.46  0.004091062    1.888    0.470
        32 -13.5501     98.4111    238.4761   1.0733933537e+02   1.1369450396e+01    0.9839951    0.4806017  36.61  0.004854123    1.810    0.448
        33 -12.7087     56.3470    246.6175   1.1656480542e+02   1.5585491398e+01    0.7747217    0.3322183  29.21  0.003605478    2.819    0.645
        34 -12.8519     28.5393    246.1899   1.2176603781e+02   1.8970498841e+01    0.4504852    0.2962683  72.85  0.003064459    1.225    0.184
        35 -12.0331      2.8751    249.7450   1.2647107712e+02   2.0957901848e+01    0.3523273    0.2199875  62.96  0.001900164    1.160    0.138
        36 -13.5713      9.4115    245.6507   1.2516415470e+02   2.1090526425e+01    0.7460863    0.3666417  59.88  0.003472192    1.558    0.358
        37 -12.3123    198.1452    181.5652   7.6591282162e+01   5.5691068050e+00    0.3368095    0.2746384  45.28  0.001515286    1.363    0.266
        38 -11.3672     86.3225    180.6762   1.0262845637e+02   2.5779188929e+01    0.1522309    0.1030259  69.88 0.0005140133    1.681    0.405
        39 -12.8369    124.0909    166.8152   9.0580238409e+01   2.2638901313e+01    0.6663827    0.4315028 -76.93  0.002727777    2.195    0.544
        40 -11.6626    238.5205    160.0000   6.4607345571e+01   2.4077595724e+00    0.2729058   0.07691849  44.17 0.0009420079    3.994    0.750
        41 -12.2344     77.3347    156.9185   1.0118310787e+02   3.3000503781e+01    0.5090817    0.3421702  30.96   0.00184938    1.623    0.384
        42 -13.3209     73.8778    153.5589   1.0156723228e+02   3.4357114664e+01    0.8295565    0.5135465  29.91   0.00347652    1.790    0.441
        43 -11.5618     55.1673    156.5072   1.0722362727e+02   3.6143724587e+01    0.3590574    0.2264799 -12.07  0.001506409    2.891    0.654
        44 -12.3507    210.7180    154.5637   6.8432945921e+01   8.3189975596e+00    0.4118434    0.2336919  23.16   0.00166619    2.546    0.607
        45 -12.1845    111.6792    156.4943   9.1761266871e+01   2.7389412776e+01    0.5027314    0.3143821  74.69  0.001884401    2.629    0.620
        46 -11.4626    103.2805    150.0745   9.2736377626e+01   3.0469201593e+01    0.4144304    0.2691883 -31.51  0.001734907    2.005    0.501
        47 -11.8994     60.4459    148.3190   1.0447946680e+02   3.7543181574e+01    0.3773599    0.3006933 -10.50  0.001977021    1.667    0.400
        48 -11.1897     10.8740    143.6748   1.1775437258e+02   4.3747172576e+01    0.2543837    0.1983344 -57.07  0.001602486    1.266    0.210
        49 -12.4029     42.9058    136.5969   1.0770573845e+02   4.2622011342e+01    0.5634404    0.4334896 -15.63  0.003055048    1.690    0.408
        50 -10.3271     62.7944    138.5877   1.0212842327e+02   3.9707472142e+01    0.1802017    0.1327607  47.98 0.0002898057    1.442    0.307
        51 -12.1208    246.6317    135.1604   5.8075242066e+01   5.2595136559e+00    0.3276857    0.2354237 -83.52  0.001617928    2.414    0.586
        52 -10.4154     10.8530    133.8912   1.1670187818e+02   4.6156404459e+01     0.173356    0.1315462  76.83  0.000657493    1.298    0.230
        53 -12.3901    135.8950    132.5949   8.0034438637e+01   2.8336050732e+01    0.6718954    0.1877719  43.29  0.001893869    3.619    0.724
        54 -12.2584    223.0591    127.6827   6.0224001335e+01   1.0925599156e+01    0.2941995    0.2334679 -51.05  0.001592655    1.252    0.201
        55 -13.8895    108.2856    124.4528   8.5607181539e+01   3.5817347186e+01     1.352347    0.6133835  37.16  0.004907461    2.333    0.571
        56 -13.4697    109.6059    117.5381   8.3501829269e+01   3.7210813732e+01     1.796914    0.5945095  31.96  0.004530847    5.059    0.802
        57 -11.1668     65.5634    126.5184   9.8982651178e+01   4.2390835309e+01    0.2622909    0.2512518 -76.19  0.001427452    1.054    0.051
        58 -11.0426     59.8938    125.0999   1.0047121185e+02   4.3510156441e+01    0.3227169    0.1904916  21.60  0.001246695    2.067    0.516
        59 -12.5629     28.6135    122.3807   1.0984306422e+02   4.7613244754e+01    0.4013696    0.3000678 -62.18  0.002317784    1.133    0.117
        60 -12.6522    181.0182    120.9010   6.6530926317e+01   2.1039190983e+01    0.3797583     0.270713  48.25  0.001101995    1.465    0.318
        61 -13.0555    134.5604    103.1328   7.2723406334e+01   3.5229021117e+01     1.273783    0.3713175  49.13  0.003600975    3.684    0.729
        62 -13.0625    120.5318    102.1200   7.6241515331e+01   3.8505154121e+01     0.579054    0.3651451  38.24  0.001708262    1.657    0.396
        63 -13.3186     85.1689    115.1544   9.0296001427e+01   4.2225621612e+01     1.580788    0.7497418  26.17  0.005503532    2.793    0.642
        64 -13.8200     93.8261    109.8609   8.6262585122e+01   4.1996050810e+01     1.623923     0.584097  36.91  0.005391853    2.954    0.662
        65 -11.9021      4.2210    119.9358   1.1703093144e+02   5.0006530087e+01    0.4412508    0.1878193  16.03  0.001775257    2.983    0.665
        66 -14.0034      6.8046     43.5054   1.0132358467e+02   6.7185393374e+01     1.239282     0.802171 -56.84  0.007738424    1.428    0.300
        67 -14.5225     16.1824    108.9476   1.1175200974e+02   5.1920163682e+01      1.78707      1.02048 -83.03  0.009019481    1.797    0.443
        68 -14.2632     22.0307     95.4722   1.0741152268e+02   5.4751795724e+01     1.606912    0.9470116  -0.16  0.008196535    2.207    0.547
        69 -13.4546     29.8345     89.7983   1.0339117120e+02   5.5457057480e+01    0.9630223    0.5886859  71.64  0.002153437    2.747    0.636
        70 -13.5589    171.4195    242.5549   9.2786249211e+01  -6.1080875867e-01    0.7454491    0.5077174  26.30  0.004368398    1.283    0.221
        71 -13.6869      3.5696     63.5757   1.0805512992e+02   6.3195784645e+01    0.5054091    0.4351645   1.26    0.0025084    1.344    0.256
        72 -13.1864      2.2180     97.2516   1.1468674825e+02   5.5576742178e+01    0.7522504     0.268151 -71.60  0.003294452    2.311    0.567
        73 -12.4573    120.3022    111.5707   7.8891073847e+01   3.6436732245e+01    0.5567493    0.4222389  88.82  0.002427228    1.849    0.459
        74 -12.1793     31.7522    110.9066   1.0690631207e+02   5.0184404179e+01    0.3275256    0.2547519 -48.44 0.0009145663    1.174    0.148
        75 -11.7177     61.5048    109.2580   9.6577747850e+01   4.7242229287e+01    0.4368918    0.3144858 -68.35  0.002187216    1.427    0.299
        76 -11.2512    222.8213    109.1764   5.6030170858e+01   1.4301811984e+01    0.1971592    0.1676981 -11.71  0.001084613    1.343    0.255
        77 -14.7594    107.0342    105.0458   8.0958164276e+01   4.0620847690e+01     1.766038     1.328095  13.32  0.007968347    1.674    0.403
        78 -10.9189     33.3205    105.2771   1.0532626868e+02   5.1423822719e+01    0.2271649    0.1656321  -2.91  0.001162559    1.682    0.405
        79 -12.1936    162.8343     98.7523   6.4697264936e+01   2.9644083053e+01     0.513273    0.4005057 -44.72  0.001575814    1.255    0.203
        80 -12.0861     61.5722     98.5964   9.3999056589e+01   4.9807014871e+01    0.4818964    0.3321867  84.84  0.002139602    2.296    0.564
        81 -10.8292     48.5049    100.9909   9.9142691072e+01   5.0882712525e+01    0.3468969    0.1531785 -43.63  0.001381043    2.189    0.543
        82 -11.6209     46.1591     98.8365   9.9479290886e+01   5.1669594991e+01    0.3536461    0.2396507 -54.61  0.001434142    1.287    0.223
        83 -11.4530     52.4928     98.0082   9.7041652651e+01   5.1123675853e+01    0.4486749    0.2281783 -29.59  0.001743871    2.737    0.635
        84 -12.0811     49.1605     94.4726   9.7378839949e+01   5.2364547105e+01    0.4670679    0.3513559 -76.57  0.001969173    1.535    0.349
        85 -10.5020     67.3941     97.7904   9.1776102084e+01   4.9175188412e+01     0.219294    0.1213874 -44.51 0.0009529374    1.687    0.407
        86 -12.6608    136.6267     95.6912   7.0092231797e+01   3.6332516420e+01    0.5383945    0.3603074  54.93  0.001730064    1.582    0.368
        87 -12.1312    126.6107     93.3926   7.2069616269e+01   3.9056958393e+01    0.6506233    0.4296433 -72.92  0.002508408    2.442    0.591
        88 -11.5894     42.6504     90.6603   9.8832194734e+01   5.3998254739e+01    0.3212321    0.2207071 -61.16 0.0007556546    1.365    0.267
        89 -11.6561     89.7956     88.2631   8.1548302439e+01   4.7656747853e+01    0.4398977      0.32379  52.77  0.002116367    1.568    0.362
        90 -13.5427    187.9114     84.6404   5.5904067457e+01   2.6392835941e+01    0.8279083    0.4043295  43.67  0.002460429    2.410    0.585
        91 -11.4156    147.2222     85.8678   6.4650540763e+01   3.5837046020e+01    0.4251907    0.2726316  53.15  0.001857243    1.573    0.364
        92 -11.6740    151.9761     84.0104   6.3012081850e+01   3.5064123762e+01    0.2989321    0.2202495  29.45   0.00135839    1.624    0.384
        93 -12.1991    242.2971     84.0391   4.7564307850e+01   1.4604632389e+01    0.4014156    0.2306459  73.97  0.001933926    2.245    0.555
        94 -12.4085    237.3188     80.1889   4.7338244316e+01   1.6221557316e+01    0.3665204     0.257715  75.66  0.002006977    1.622    0.383
        95 -13.6507    160.6488     81.0513   6.0256780323e+01   3.3537791444e+01    0.9812741    0.6303797  20.61    0.0037821    2.603    0.616
        96 -14.4254    169.1175     77.3191   5.7469113631e+01   3.2165861554e+01     1.610535    0.5464997  54.23   0.00536811    2.897    0.655
        97 -13.2654     39.8203     65.7389   9.3190067561e+01   5.9864467816e+01     2.022249    0.6974198  36.23  0.008028843    3.247    0.692
        98 -13.2243     91.1216     58.1658   7.1292365030e+01   5.3353959958e+01    0.5708202    0.4644338 -49.82  0.003073259    1.399    0.285
        99 -12.6192     59.9426     61.1415   8.3551118350e+01   5.8207774900e+01    0.9433316    0.4725658 -23.27    0.0030507    3.027    0.670
       100 -13.2672     65.0304     49.4908   7.7365193610e+01   5.9570618165e+01    0.8502761    0.6673407 -31.91  0.002897592    1.220    0.181
       101 -13.4551     75.2345     73.1291   8.1831560013e+01   5.3406891439e+01     1.596314     0.843929  14.12  0.005499213    3.612    0.723
       102 -12.2174     87.5138     65.5816   7.5066101926e+01   5.2703272034e+01    0.4246749    0.3272177   3.88  0.001459285    1.464    0.317
       103 -13.0677     55.0273     81.8439   9.1908205182e+01   5.4545457661e+01    0.5378169    0.4612914 -22.96  0.002275941    1.112    0.101
       104 -14.0727     61.0868     75.7083   8.7829862445e+01   5.5060060948e+01    0.8255747    0.5511774 -48.22  0.002123776    1.403    0.287
       105 -11.8760     47.4776     81.9755   9.4800391262e+01   5.5453330381e+01    0.4518749    0.2317606 -57.95  0.002040157    1.877    0.467
       106 -13.8172    214.0285     79.1848   5.0283694319e+01   2.1349643221e+01    0.9729557    0.6000674  83.20  0.004381133    2.157    0.536
       107 -12.6783    135.5402     79.7739   6.5688764054e+01   3.9739534673e+01    0.7317054    0.3999146  51.52  0.002344571    1.829    0.453
       108 -11.8761    114.3599     80.3936   7.1573203968e+01   4.4383829094e+01      0.35901    0.3266889 -65.38 0.0006307084    1.220    0.180
       109 -11.5456     42.1407     77.4209   9.5624390399e+01   5.7081901829e+01     0.470386    0.2052058 -59.12  0.001972491    2.277    0.561
       110 -10.6130     27.8062     76.6620   1.0111127895e+02   5.8658788868e+01    0.1926382    0.1405664 -45.92 0.0008449511    1.138    0.121
       111 -13.6371    198.9827     70.0338   5.0284066793e+01   2.6273445830e+01    0.8911564    0.5470324  41.14  0.002916583    2.055    0.513
       112 -11.6031    200.1686     62.8673   4.8286794317e+01   2.7131117237e+01     0.330644    0.2376034 -59.61  0.001706256    1.371    0.271
       113 -14.4840    164.1350     71.5295   5.6826955221e+01   3.4376654196e+01     1.811942    0.9285676  63.54  0.007145893    2.154    0.536
       114 -10.6755     98.0608     84.2889   7.7693171200e+01   4.6944854940e+01    0.2124011    0.1957866  30.91 0.0005937426    1.099    0.090
       115 -12.6923    134.9119     66.4410   6.1734001924e+01   4.2297954553e+01    0.5933282    0.4679485  24.48  0.001381818    1.455    0.313
       116 -10.7456    100.0112     65.5357   7.1025905562e+01   5.0243602055e+01    0.2221829    0.1411247  44.61 0.0005432576    1.562    0.360
       117 -13.5192    177.8316     57.8477   5.0471100719e+01   3.3249995659e+01    0.7941755     0.637005 -61.19  0.002549528    1.249    0.199
       118 -13.3952     81.8002     56.9927   7.4002226655e+01   5.5341944900e+01      1.04425     0.597254 -20.46  0.004433874    2.279    0.561
       119 -12.0702     24.5881     59.9737   9.7971768961e+01   6.2557662687e+01    0.3684993    0.2372902 -44.21   0.00146925    1.272    0.214
       120 -14.3820    119.9291     54.7281   6.1679742174e+01   4.7736872712e+01    0.9469612    0.5733908  37.45  0.003142174    1.742    0.426
       121 -11.0303     47.4703     56.8641   8.7125079302e+01   6.0756035776e+01    0.2508777    0.2015559  58.61  0.001091339    1.844    0.458
       122 -11.9387    246.6860     52.5131   4.0240318338e+01   1.8472271830e+01     0.574361    0.2305906 -49.99  0.002598037    2.172    0.540
       123 -11.4573    248.9769     49.0000   3.9277854126e+01   1.8501654663e+01     0.262121    0.1975688  80.47  0.001281862    1.369    0.269
       124 -11.0973    231.9894     55.7041   4.2484719473e+01   2.1069556623e+01    0.1866067    0.1597753 -81.90 0.0008202862    1.114    0.102
       125 -12.0803    135.6312     50.2947   5.6415932658e+01   4.4717382076e+01    0.5308352    0.2916571  38.56  0.001788195    2.063    0.515
       126 -13.5728    103.0693     50.5926   6.4892991815e+01   5.2147168323e+01    0.6782346    0.4713561 -48.64 0.0009100991    1.676    0.403
       127 -12.7970     97.8059     50.7994   6.6540788499e+01   5.3230101093e+01    0.4084335    0.3303697 -65.33  0.001496772    1.663    0.399
       128 -10.6066     36.6613     53.7055   9.0681104630e+01   6.2654638942e+01    0.1358718   0.08543438 -19.93   0.00070292    1.652    0.395
       129 -11.1350     77.4824     53.9533   7.4413425911e+01   5.6663635596e+01    0.2889597    0.2221159 -26.78  0.001010225    1.259    0.205
       130 -10.6039     23.3697     50.2507   9.5534976423e+01   6.4639885998e+01    0.1644281     0.128017 -22.36 0.0004413723    1.114    0.102
       131 -13.0583    157.7204     44.2943   5.0093735319e+01   4.0171471195e+01    0.8299906    0.4739796  39.88  0.003535009    2.079    0.519
       132 -12.0777    147.5074    239.1424   9.7175924995e+01   3.6757311064e+00    0.2118174    0.1622085  49.05 0.0008651869    1.293    0.227
       133 -12.4252     24.7164    217.0496   1.2066143202e+02   2.5323023325e+01    0.6220844    0.4216528  51.50  0.004009624    1.297    0.229
       134 -14.0901    217.6662     42.3042   4.1019213960e+01   2.6091964568e+01     1.210802    0.5222527  66.17  0.004032766    2.287    0.563
       135 -13.1287    204.9225     40.2384   4.2003630337e+01   2.9285714963e+01    0.7426689    0.3732657  88.71  0.003086073    2.611    0.617
       136 -11.7715     14.2669    223.7003   1.2313949683e+02   2.4988652433e+01     0.410277    0.1721573  82.75  0.001937957    2.340    0.573
       137 -13.6261     25.8605    227.2540   1.2111017937e+02   2.3049995326e+01    0.7760059    0.3524064 -58.80  0.004044004    2.528    0.604
       138 -12.2691    109.5110     42.1383   6.0046402195e+01   5.1997050514e+01    0.4958594    0.2219251  54.26   0.00134133    2.155    0.536
       139 -13.4572     20.3397    225.4024   1.2206761385e+02   2.4017673677e+01    0.5085689    0.4161124  88.45    0.0025791    1.186    0.157
       140 -13.7722     65.2337    223.3279   1.1275018530e+02   1.9127626479e+01    0.8207067    0.5960406  39.55  0.004957399    1.338    0.252
       141 -12.4121    113.7526     38.1645   5.7513431390e+01   5.1583703104e+01    0.3918014     0.317946  51.90   0.00126995    1.157    0.136
       142 -11.0965     55.3860     41.1070   7.7954254494e+01   6.2501279205e+01     0.200512    0.1575428   9.24 0.0003492591    1.182    0.154
       143 -12.3968     75.9817     37.3213   6.8543840456e+01   5.9612729107e+01     0.359374    0.2435548  43.00 0.0007736396    1.446    0.308
       144 -12.0577     69.4765     36.6983   7.0640719250e+01   6.0884609063e+01     0.479799    0.2394653  33.20  0.001456367    2.023    0.506
       145 -12.9246    242.0896     35.5798   3.7091246900e+01   2.1707832330e+01    0.5743214    0.3831158  65.13  0.002430898    1.617    0.381
       146 -10.7072    104.4518     36.9542   5.9525338372e+01   5.3839001218e+01    0.2040395    0.1347379 -30.86  0.001027051    1.597    0.374
       147 -13.8817     64.1667    214.8096   1.1213519779e+02   2.1098850267e+01    0.6214854    0.4126327  69.55  0.003095707    1.447    0.309
       148 -14.0874     92.2807    230.7091   1.0776351474e+02   1.3797026432e+01    0.6654996    0.6225607  74.64  0.004470721    1.137    0.120
       149 -12.9267     59.4831    212.9837   1.1297844899e+02   2.2115930917e+01    0.3813317    0.2077045 -65.25  0.001216225    1.827    0.453
       150 -12.3245     94.5617    218.3442   1.0581550406e+02   1.5995857990e+01    0.2984524     0.214412  45.80  0.001378698    1.233    0.189
       151 -12.6993     45.3542     33.7157   7.9214676792e+01   6.5148235539e+01    0.5831754    0.3669765  16.41  0.003229261    1.620    0.383
       152 -10.7049     29.4559     35.1607   8.7204741735e+01   6.6856400332e+01    0.2335248    0.1530011  42.13  0.001321455    2.106    0.525
       153 -11.2732    200.9987    214.9775   8.2344914879e+01  -7.6722948208e-01    0.1637875    0.1406966  -2.60 0.0008528708    1.051    0.049
       154 -11.3129    156.3551    215.1523   9.1659728344e+01   6.5597058214e+00    0.2042021    0.1671778  22.65  0.001163506    1.157    0.136
       155 -12.6084      4.5197    211.4979   1.2435061004e+02   2.8490896302e+01    0.4549029    0.2209156 -76.30  0.002607084    1.771    0.435
       156 -11.9462     66.0397     25.1823   6.7048846840e+01   6.3100919620e+01    0.4563448    0.3533632  32.88  0.002792354    1.190    0.160
       157 -10.6766     98.1225     27.4744   5.7671991428e+01   5.6432428240e+01    0.2095577    0.1224035  52.70  0.001027754    1.579    0.367
       158 -12.6145     48.0713     20.8388   7.2313827936e+01   6.6643630934e+01    0.6221265    0.2360759  38.78  0.002364695    2.513    0.602
       159 -10.8163    202.6591     21.8016   3.7773583884e+01   3.2112627238e+01    0.1788333    0.1696977  -9.89 0.0009454759    1.368    0.269
       160 -10.6867    136.5312    211.0859   9.5378734634e+01   1.0712554668e+01    0.1971918     0.138953 -53.55 0.0008802537    1.565    0.361
       161 -12.4850     41.5912    206.1679   1.1625974576e+02   2.5841384802e+01    0.2575557    0.1780482  72.45  0.001054016    1.279    0.218
       162 -10.4463    248.7860     18.1909   3.2991248319e+01   2.2492146195e+01    0.1436399    0.1338247 -86.34 0.0006809651    1.327    0.247
       163 -12.7080    139.0424     21.8814   4.6509607357e+01   4.7519810229e+01    0.5411031     0.259143  54.20  0.001732283    1.822    0.451
       164 -11.4181     73.0387    207.9886   1.0941997292e+02   2.1391064094e+01    0.2031257    0.1645723 -29.91  0.001150847    1.735    0.423
       165 -10.8979    149.7432    207.4097   9.1829812782e+01   9.1809429405e+00    0.2746684    0.1228278  41.21  0.001128769    2.058    0.514
       166 -12.1466     57.4534    203.4858   1.1246581810e+02   2.4502481481e+01    0.5216175    0.2584296 -89.28  0.002281645    2.463    0.594
       167 -12.6018     16.3219    197.0327   1.2101653118e+02   3.0582122614e+01    0.5773098    0.2057267 -62.94  0.002660268    2.569    0.611
       168 -13.6817     40.4573    195.2560   1.1551511123e+02   2.8462914791e+01    0.7948692     0.416032  72.40  0.003809669    2.057    0.514
       169 -13.1170     55.8391     27.4619   7.2034614834e+01   6.4521018760e+01    0.6865181    0.3322568  39.43  0.002512089    1.992    0.498
       170 -13.7258     29.6736    169.4025   1.1552941410e+02   3.5789809393e+01     0.851405    0.5023718 -42.84  0.004275192    2.161    0.537
       171 -15.4934      9.1146    180.0368   1.2137444516e+02   3.5139787303e+01     2.233415     1.127571 -76.04   0.01203932    1.635    0.388
       172 -13.0742     22.1341    181.4011   1.1848711604e+02   3.3644355308e+01     0.560312    0.3537709 -70.48  0.002018588    1.402    0.287
       173 -12.3196    200.9754    191.5806   7.8001601695e+01   3.2501500653e+00    0.3983289    0.2985028 -11.80  0.001395516    1.376    0.273
       174 -11.0626     79.9954    193.0980   1.0595391055e+02   2.3790661902e+01    0.3954288     0.131935  45.26   0.00144098    2.822    0.646
       175 -12.4051     98.7024    187.5899   1.0059949764e+02   2.2182104942e+01    0.4036708    0.3047604   7.76  0.001980201    1.834    0.455
       176 -11.4359    155.5033    185.5183   8.6614730960e+01   1.2605513449e+01    0.1460039     0.138431  19.24  0.000308384    1.005    0.005
