#   1 NUMBER                 Running object number                                     
#   2 MAG_AUTO               Kron-like elliptical aperture magnitude                    [mag]
#   3 X_IMAGE                Object position along x                                    [pixel]
#   4 Y_IMAGE                Object position along y                                    [pixel]
#   5 X_WORLD                Barycenter position along world x axis                     [deg]
#   6 Y_WORLD                Barycenter position along world y axis                     [deg]
#   7 A_WORLD                Profile RMS along major axis (world units)                 [deg]
#   8 B_WORLD                Profile RMS along minor axis (world units)                 [deg]
#   9 THETA_WORLD            Position angle (CCW/world-x)                               [deg]
#  10 FWHM_WORLD             FWHM assuming a gaussian core                              [deg]
#  11 ELONGATION             A_IMAGE/B_IMAGE                                           
#  12 ELLIPTICITY            1 - B_IMAGE/A_IMAGE                                       
         1 -14.0182    235.1790     58.6099   6.9587455716e+00   2.1628640753e+01     1.053185    0.5082408 -59.17  0.005560779    2.245    0.555
         2 -13.5329    249.0603     21.6592   3.5858057913e+02   2.3526456330e+01    0.9590783    0.4030709 -34.22  0.001941531    1.852    0.460
         3 -13.2269    240.1101     14.6717   3.5762804106e+02   2.5773533505e+01    0.4104711    0.2715514 -62.90  0.002952013    1.238    0.192
         4 -13.6477    245.3909      6.0242   3.5569205429e+02   2.5722627440e+01    0.9832119    0.6455281 -33.38  0.007126098    1.405    0.288
         5 -10.8367     99.7721     21.9075   1.4639844004e+01   5.6769463725e+01    0.3606768    0.2652475  44.93  0.001883048    1.397    0.284
         6 -12.8720     28.5427     20.0676   4.3523632313e+01   7.2930920503e+01    0.3145362    0.2611777  16.92 0.0004467274    1.097    0.088
         7 -11.3289      8.5493     15.5347   5.7536890747e+01   7.6400454894e+01    0.3589318    0.2623709  73.16  0.001309721    2.347    0.574
         8 -12.0911     14.4975     17.6886   5.3282337173e+01   7.5333635874e+01    0.3827901    0.3634985  -5.36  0.002337167    1.168    0.143
         9 -12.3264     11.2798     11.1609   5.2308152824e+01   7.6948702842e+01    0.4897605     0.403973  41.60  0.001951274    1.451    0.311
        10 -11.7520      3.5439     10.7253   5.9888877931e+01   7.7816730482e+01    0.4114417    0.2644185 -33.05  0.001615234    1.435    0.303
        11 -10.8616    217.1781     16.0049   3.5910220864e+02   2.9848787300e+01    0.3769189    0.1561546  64.44  0.001966296    2.671    0.626
        12 -12.1707     75.2907     10.7482   1.5787628209e+01   6.4213964198e+01    0.6251551    0.3312642  50.61  0.001849498    1.675    0.403
        13 -13.0693     65.2727     11.6973   1.9496062856e+01   6.6555035967e+01    0.3930635    0.2806872  39.88 0.0005127202    1.349    0.259
        14 -11.7132     54.0863     13.7968   2.5110602895e+01   6.8895473096e+01    0.3245203    0.2587618  36.28 0.0004534926    1.164    0.141
        15 -10.4916     26.7747     13.2301   4.0534223330e+01   7.4379926064e+01    0.1814713    0.1407446  -0.79  0.000460874    1.329    0.247
        16 -12.1799    234.5300      9.2657   3.5678909950e+02   2.7303770849e+01    0.2229813    0.1619901 -57.43  0.001010494    1.044    0.042
        17 -10.1116    154.9482      8.8565   1.8069426935e+00   4.4177809309e+01    0.2388576     0.162644  77.63  0.001315044    1.349    0.259
        18  -9.7286    145.5038     11.9651   3.7096467310e+00   4.6182764800e+01    0.1902403    0.1238682 -34.25 0.0005236211    1.558    0.358
        19  -9.8282    145.0677      8.0073   2.5078011746e+00   4.6675603833e+01    0.2124164    0.1278067 -64.58 0.0005559882    1.589    0.371
        20  -9.3180    113.9885      8.7624   6.6726722491e+00   5.4496533110e+01    0.1718886    0.1027709  72.88 0.0002864764    1.476    0.323
        21 -11.8922     82.1783      6.9152   1.2034813550e+01   6.2866244864e+01    0.2346158    0.2111193  57.27 0.0002732867    1.062    0.058
        22  -9.4989    101.9650      6.4747   7.7318658498e+00   5.7820170721e+01    0.1965874    0.1030462 -78.78 0.0006737185    2.398    0.583
        23 -10.2607     68.2704      5.4737   1.5084501710e+01   6.6481728993e+01    0.2269323      0.19923  43.60 0.0005524657    1.095    0.087
        24  -9.9641     36.2753      6.0010   2.9202715060e+01   7.3679422885e+01    0.2899485    0.1329872  31.58  0.001166015    2.694    0.629
        25 -10.8804     58.6045      5.1255   1.8125692017e+01   6.8849114212e+01     0.327414    0.2508255 -73.90  0.001452035    1.677    0.404
        26  -9.4406    223.0022      5.4762   3.5651733412e+02   2.9796320836e+01    0.1444196   0.09633628 -86.25 0.0002514494    1.442    0.307
        27 -11.2896    178.9222      3.7282   3.5850507112e+02   3.9073939187e+01    0.2261979    0.1793718 -88.34 0.0002981054    1.165    0.142
        28  -9.9055    164.2521      4.2434   3.5968318464e+02   4.2395961057e+01    0.1710268    0.1524592 -72.47 0.0004932398    1.108    0.097
        29 -10.9711     97.4914      3.3310   7.1804391022e+00   5.9254580338e+01    0.2378318    0.2065208  70.16 0.0006949576    1.042    0.040
        30 -10.2750     28.5154      3.9222   3.2672852759e+01   7.5455627175e+01    0.2561581    0.2015278  75.17  0.001422425    1.954    0.488
        31 -11.1288     20.6411      2.3699   3.7446883026e+01   7.7065430173e+01    0.3870016    0.2403839  30.86  0.001537763    1.464    0.317
        32 -10.5081      4.6026      2.7468   5.3540891128e+01   7.9224881523e+01    0.3162304    0.1383604 -31.68  0.001392313    2.634    0.620
        33 -10.3033     91.1249      2.1305   7.8241501391e+00   6.1000126822e+01     0.205882    0.1612356  52.90 0.0004609049    1.216    0.178
        34 -10.4113     32.6515      1.6249   2.8197657399e+01   7.4948015022e+01     0.238023    0.1519108  46.02 0.0005938223    1.379    0.275
        35 -13.6736    247.3186     43.7894   3.0386600097e+00   2.1379302756e+01     1.005726     0.355925 -51.02    0.0051257    2.363    0.577
        36  -9.9613    120.9395      1.4405   2.9643776628e+00   5.3353830039e+01    0.2113272    0.1153827  75.75  0.001026871    1.595    0.373
        37 -10.2997     73.5750      1.4649   1.1418736640e+01   6.5528833524e+01    0.2713263    0.1182247  66.98 0.0009844329    1.996    0.499
        38  -9.1152    238.3297    200.7148   3.3311701637e+01   1.9279577127e+00   0.08931689   0.08061562 -22.06 0.0003144869    1.613    0.380
        39 -11.6279    248.7870    248.2398   3.8774000434e+01  -4.4881183345e+00    0.4049487    0.1577946 -22.96  0.002493565    2.220    0.549
        40 -11.4203    224.6824    247.9930   4.2422676262e+01  -2.4480921721e+00    0.2647109    0.1333736 -40.98   0.00169248    2.461    0.594
        41 -11.3197    227.5807    243.6112   4.1359766937e+01  -2.2081364559e+00    0.2694385    0.1214194  10.39  0.001595218    2.205    0.546
        42 -10.8699    182.9779    246.5029   4.9395531471e+01   1.7009099015e+00    0.1641962    0.1137433  11.16  0.001065454    1.104    0.094
        43  -9.6175     72.3736    249.8837   7.2993244942e+01   1.3277840236e+01    0.1467172    0.1045449 -44.47 0.0009323066    1.775    0.436
        44 -11.9278     21.9588    248.8727   8.4295771128e+01   1.8388246740e+01    0.5042107    0.1615638  34.02  0.002434034    2.040    0.510
        45 -10.2244     13.3171    249.7042   8.6228053064e+01   1.8976843723e+01    0.1952524    0.1183868  42.58 0.0008046134    1.215    0.177
        46 -10.6863     10.5084    248.4610   8.6805928293e+01   1.9438909699e+01    0.1578536    0.1383515  70.58   0.00069513    1.269    0.212
        47 -10.6721     22.0599    198.7890   8.2005427578e+01   2.8709102204e+01    0.3514153    0.1976281  -2.47   0.00139944    2.474    0.596
        48  -9.9016    177.4367    198.2414   4.3348679524e+01   9.3304629063e+00    0.1588524    0.1152737 -46.89 0.0009472237    1.673    0.402
        49  -9.6625     50.7422    197.5683   7.4090159299e+01   2.6138992359e+01    0.2039324    0.1029547  36.73   0.00094804    1.645    0.392
        50  -9.9921    134.9360    196.3545   5.2149620572e+01   1.5414505220e+01    0.1843568    0.1534776  16.87 0.0005143951    1.050    0.048
        51  -9.4346     40.2880    196.7045   7.6893616938e+01   2.7447797112e+01    0.1406434   0.08457372  52.67 0.0001914821    1.550    0.355
        52  -9.3248    209.6282    193.1601   3.6631067650e+01   6.1016982033e+00    0.1547833   0.08939178 -25.55 0.0002148826    1.515    0.340
        53 -11.7377     15.3580    192.2266   8.3488972131e+01   3.0801279625e+01    0.3771188    0.2939295  13.35  0.001475511    1.370    0.270
        54  -9.2545    172.3354    192.2988   4.3377481926e+01   1.0968201373e+01    0.1326051   0.08632652  -4.77 0.0007032842    1.654    0.395
        55 -10.1392    244.3166    188.6679   3.0498202418e+01   2.8382928708e+00   0.09427214   0.07897553 -39.69 0.0007047121    1.687    0.407
        56 -10.4404     62.2734    184.6967   6.9574684402e+01   2.7785711759e+01    0.2588456    0.2375746   1.30 0.0008766972    1.175    0.149
        57 -11.7648     15.5856    182.1692   8.2900869593e+01   3.3178574829e+01    0.4551381    0.2384645  53.89   0.00220705    1.722    0.419
        58 -11.5262     29.0302    180.8146   7.8900291296e+01   3.2327650813e+01    0.6447402    0.2239473  32.25  0.002589422    2.294    0.564
        59 -10.4571     23.9513    180.7868   8.0387299674e+01   3.2800060250e+01    0.2478812     0.171093  38.94  0.000417111    1.267    0.211
        60 -10.4594     17.7002    173.1386   8.1750728252e+01   3.5226622194e+01    0.2239969    0.1463986  65.85 0.0008414178    1.457    0.314
        61 -10.5906    248.2209    168.9879   2.6666037866e+01   4.9563527172e+00    0.1474307    0.0697853 -33.86 0.0004934575    1.647    0.393
        62 -10.3884      2.5334    165.0676   8.5931467976e+01   3.8379530983e+01    0.1939059    0.1218218  89.09  0.000296923    1.519    0.342
        63  -9.7104      7.6788    163.3223   8.4257305528e+01   3.8472668573e+01    0.1507597   0.08202638  53.68 0.0003666678    1.675    0.403
        64  -9.1319    133.7487    162.6930   4.6676028352e+01   2.2249912954e+01      0.14012    0.1047273 -14.17 0.0001610903    1.509    0.337
        65  -9.8150     55.6760    161.3385   6.8790366873e+01   3.4325976935e+01    0.4295399    0.1900813  86.01  0.001259533    4.585    0.782
        66  -9.2450    117.0341    161.7604   5.0766337802e+01   2.5183841415e+01    0.1867175    0.1166143  33.51 0.0003481098    1.511    0.338
        67 -11.8868     17.3306    159.7527   8.0980464263e+01   3.8661641142e+01    0.3513147    0.3104552  87.55  0.001224182    1.106    0.096
        68 -10.6575      2.8526    157.1711   8.5469202909e+01   4.0372178243e+01    0.2265271    0.1817836  10.16 0.0008079471    1.367    0.268
        69 -10.4687    250.4997    154.9571   2.3935543154e+01   6.5385957486e+00    0.1801683   0.08429307 -33.31  0.001048221    1.642    0.391
        70 -10.6913     11.9805    153.8651   8.2322751529e+01   4.0606193323e+01    0.3942297    0.1707839  54.33  0.001619376    2.243    0.554
        71  -9.7044    158.2652    154.0021   3.9307135314e+01   1.9914498371e+01    0.1785183    0.1150275 -41.39 0.0005018512    1.509    0.337
        72 -10.9170    236.2448    151.1342   2.5141768661e+01   8.7966953247e+00    0.2078263    0.1232886  21.59  0.001229992    2.106    0.525
        73  -9.6296    222.9992    151.5263   2.7107150666e+01   1.0476821154e+01     0.137669    0.1079747  76.00  0.000808752    2.486    0.598
        74  -9.9935     53.0537    148.8771   6.7994969343e+01   3.7871651536e+01    0.2320936    0.1800167  53.04            0    1.270    0.213
        75 -12.0065     13.7881    148.0028   8.1313546049e+01   4.2016661237e+01    0.2535072    0.2244133  70.89 0.0002779148    1.041    0.040
        76 -10.3262    234.0014    147.2306   2.4733809161e+01   9.6342929183e+00    0.1629332     0.125949 -25.17 0.0006754152    1.015    0.015
        77 -10.7130      6.7135    145.4205   8.3554678851e+01   4.3194573437e+01    0.2546296     0.121084  23.67  0.001087214    2.019    0.505
        78  -9.3827    218.4793    144.5064   2.6451958383e+01   1.2145179689e+01    0.1214125   0.09969668 -26.96 0.0008096576    1.056    0.053
        79 -10.1827     17.0417    143.0346   7.9802871487e+01   4.3093392188e+01    0.2470891    0.1414216  56.03   0.00112482    1.723    0.420
        80 -11.0196    239.6388    140.3735   2.2708315063e+01   9.8587545517e+00    0.2090576     0.155223 -21.50   0.00048847    1.124    0.110
        81  -9.9957    189.3134    140.0013   3.0321455741e+01   1.7302868745e+01    0.1877548    0.1502266 -31.70 0.0004855982    1.112    0.100
        82  -9.8624    207.4299    136.1940   2.6515879898e+01   1.5057186887e+01    0.1753577    0.1041126 -44.06 0.0005085486    1.595    0.373
        83 -12.3467     37.6277    135.3537   7.1581514914e+01   4.3271904052e+01    0.2889724    0.2613772  65.64 0.0003189447    1.073    0.068
        84 -10.9147     36.3913    131.2043   7.1488274524e+01   4.4530494975e+01    0.2871638    0.2414702 -87.97 0.0009462477    1.189    0.159
        85 -11.5186    241.7334    134.4970   2.1346398700e+01   1.0397849531e+01    0.2243838    0.1665249 -30.16 0.0007097083    1.046    0.044
        86 -11.7549     17.4515    132.5201   7.8728084479e+01   4.5903126123e+01     0.613921    0.2919357  56.19  0.002485656    2.227    0.551
        87 -10.1331     47.0571    133.6695   6.7898199622e+01   4.2652946977e+01    0.2072358    0.1865021  27.20 0.0003273635    1.112    0.101
        88 -10.5734     53.1147    133.0722   6.5606388974e+01   4.2054851208e+01    0.2288583    0.1967683 -30.78 0.0004245977    1.280    0.219
        89 -10.2877    249.3426    131.3013   1.9820423561e+01   9.8392915383e+00    0.1110798   0.07491931  -8.31 0.0007037983    1.676    0.403
        90  -9.3451     64.3205    131.3136   6.1297988116e+01   4.0981989871e+01    0.1583494    0.1169366 -24.60 0.0007038823    1.653    0.395
        91 -11.7578      4.9107    130.0604   8.3199501663e+01   4.7421352065e+01    0.2472464    0.2351252 -72.13 0.0003022889    1.085    0.078
        92 -10.5264    217.0400    129.3199   2.3685372956e+01   1.4651453874e+01    0.2130816    0.1431717 -26.88 0.0004103684    1.318    0.241
        93 -10.5213     73.5872    129.2590   5.7674063649e+01   4.0115190935e+01    0.2867211    0.2799178  50.44 0.0007866833    1.010    0.009
        94 -10.1836     43.2378    127.9982   6.8454140578e+01   4.4640926422e+01    0.2063645    0.1913558 -88.55  0.001116261    1.070    0.065
        95 -10.2438     24.6527    127.3012   7.5456305672e+01   4.6735265436e+01    0.1597648   0.09736015  54.53  0.000499735    1.687    0.407
        96  -9.5003     55.7256    126.6924   6.3572450691e+01   4.3415629484e+01    0.1530769    0.1143702 -31.15 0.0002484662    1.548    0.354
        97 -10.1209     82.5168    124.5079   5.3650350502e+01   3.9864864059e+01    0.3007926    0.1552549 -57.77 0.0007448869    2.004    0.501
        98 -10.1419    229.4891    124.5164   2.1014386496e+01   1.3511256850e+01    0.1200833   0.09595875 -29.73 7.455787e-05    1.003    0.003
        99  -9.8718     47.1614    124.1180   6.6345706351e+01   4.5221201045e+01    0.2193753    0.1997252 -21.20 0.0005624465    1.189    0.159
       100 -10.8792     10.3608    122.4864   8.0523387176e+01   4.9147745116e+01    0.3202138     0.171328  50.56 0.0008072415    1.878    0.468
       101 -10.1032     68.3735    121.7925   5.8010617006e+01   4.2869029354e+01    0.2155219    0.1403963 -50.77 0.0005074453    1.559    0.359
       102 -10.0793     61.2309    121.3398   6.0535556176e+01   4.4065336188e+01     0.208426    0.1892825 -51.35 0.0004969944    1.125    0.111
       103 -10.0999     56.2288    120.7949   6.2306029124e+01   4.4923435740e+01    0.2795283    0.1441976  60.86 0.0009586787    2.808    0.644
       104  -9.3752     35.4806    121.5111   7.0471470290e+01   4.7275580918e+01    0.1471369    0.1424681  77.59 -4.947507e-05    1.001    0.001
       105 -11.2828    248.7820    118.3596   1.7474406449e+01   1.1656236779e+01    0.1750034    0.1436818  20.09  0.001299586    1.496    0.332
       106  -9.6297     85.4792    118.0336   5.1209613627e+01   4.0971776232e+01    0.2353157     0.123193 -34.58  0.000810134    2.655    0.623
       107 -10.3229      1.4710    117.9851   8.3680227827e+01   5.0886579920e+01    0.2143101    0.1275577 -80.84 0.0008467374    1.556    0.357
       108 -10.2722      4.5130    115.4610   8.2264617648e+01   5.1417692557e+01    0.2737682     0.139754 -32.98 0.0008714711    2.299    0.565
       109  -9.4102     73.4948    116.9540   5.5136528391e+01   4.3301744832e+01    0.2189252    0.1546831 -59.47  0.000983828    1.448    0.309
       110 -10.4521     16.0746    115.5898   7.7540463350e+01   5.0647966123e+01     0.234599     0.186895  81.62 0.0003831267    1.239    0.193
       111 -11.2246    248.6069    111.8269   1.6257722329e+01   1.2558324979e+01     0.168359   0.08023661 -41.83 0.0007405272    1.688    0.407
       112 -10.4387    159.7994    111.7199   2.9664914604e+01   2.7693294033e+01     0.320065    0.1281494  49.99  0.001196679    2.723    0.633
       113 -10.4866     55.1456    110.3599   6.0654347356e+01   4.7860910332e+01    0.2569166    0.2032284 -48.59 0.0004800325    1.284    0.221
       114 -11.9744     12.4481    109.1438   7.8349468892e+01   5.2676099153e+01    0.4235433    0.3072281 -67.34  0.001408292    1.294    0.227
       115 -11.2674     43.9930    109.3707   6.4985268351e+01   4.9612921084e+01     0.288439    0.2576064 -66.38  0.001521782    1.110    0.099
       116 -10.6551     20.1556    108.4172   7.4949122268e+01   5.2311541252e+01    0.2695812    0.1450659  11.21  0.001136921    2.048    0.512
       117 -11.1804     75.1266    104.2864   5.1561963422e+01   4.6246377061e+01    0.2908181    0.2449103  78.63 0.0003340249    1.360    0.265
       118 -10.3897      3.1128    104.8696   8.1956507032e+01   5.4387207278e+01    0.2432656    0.1976182  -3.27  0.001345234    1.349    0.259
       119 -11.2586     31.0163    107.4565   7.0127345813e+01   5.1593437669e+01    0.5136887    0.3188944  81.08  0.002212126    1.925    0.481
       120  -9.9680     91.8473    100.9040   4.4790969512e+01   4.3943153217e+01    0.2428199    0.2161159 -10.73 0.0009455923    1.264    0.209
       121 -10.4250     61.5513    108.2392   5.7669536603e+01   4.7472240186e+01    0.2235242     0.138913 -47.46 0.0009436772    1.651    0.394
       122 -11.2333    249.1765     98.6631   1.3676178460e+01   1.4231941467e+01    0.2073666    0.1186979 -41.57 0.0008111846    1.366    0.268
       123  -9.6295     10.1722     99.1560   7.8214084405e+01   5.5565217375e+01    0.1901962     0.153461  58.99 0.0002798409    1.277    0.217
       124 -10.6189     76.8489     97.8153   4.9250396450e+01   4.7546323234e+01    0.2465284    0.2374577 -24.08 0.0003039044    1.074    0.069
       125 -10.1587     62.6936     97.9860   5.4784358471e+01   4.9951037581e+01    0.2237454    0.1981419 -55.95 0.0004553652    1.139    0.122
       126  -9.5868     52.1408     97.1042   5.8952312676e+01   5.1798668884e+01    0.2239996    0.1920067 -30.41 0.0002800799    1.239    0.193
       127 -10.6123     14.9940     97.0649   7.5722968187e+01   5.5821307131e+01    0.2509089    0.1487658 -41.99 0.0007991293    1.729    0.422
       128 -10.7055      7.7783     92.7357   7.8561755736e+01   5.7460013574e+01    0.3033791    0.1201475  38.55  0.001165455    2.564    0.610
       129 -11.5660     57.2877     90.8003   5.5185104812e+01   5.2653396990e+01    0.3405965    0.2862067 -43.73 0.0006833231    1.209    0.173
       130 -10.1647     17.0525     88.2221   7.3407768053e+01   5.8081503622e+01     0.245919      0.18167 -49.03 0.0004333686    1.298    0.230
       131 -10.6307     35.0975     90.4264   6.5092339683e+01   5.5777528033e+01    0.2580508    0.2099166 -78.69 0.0002936532    1.282    0.220
       132 -10.2720     22.3489     88.4256   7.0833663385e+01   5.7596760917e+01     0.367827    0.2106672  78.86  0.001505289    2.264    0.558
       133  -9.1648    114.6813     88.2770   3.4205329921e+01   4.1940431968e+01    0.1530721    0.1210683  86.90 0.0001711884    1.574    0.365
       134 -11.6982    248.5912     85.6748   1.1212036002e+01   1.6019442738e+01    0.3098647    0.1360905 -55.09  0.001503676    2.837    0.648
       135 -11.4605    184.8146     85.2951   1.8786931179e+01   2.7250798217e+01    0.2291842    0.1962581 -43.20  0.000258785    1.047    0.045
       136  -9.6927    109.3421     86.0007   3.5053909848e+01   4.3597716450e+01     0.208933     0.191368 -49.08 0.0002935598    1.106    0.096
       137 -11.6794    239.4559     84.3526   1.1836383555e+01   1.7596909410e+01    0.1930133    0.1722339 -34.85 0.0007782115    1.158    0.136
       138  -9.8074      8.2309     85.2171   7.7367096477e+01   5.9475743066e+01    0.2019311    0.1557843  53.92  0.001066084    1.385    0.278
       139 -10.8037     18.0207     81.6702   7.1781977623e+01   5.9772090391e+01    0.3555917    0.2338582  36.46  0.001721938    1.571    0.364
       140  -9.5964      1.4792     80.9779   8.0282985001e+01   6.0947059832e+01    0.2021363    0.1258836 -73.18 -2.655713e-05    1.471    0.320
       141 -10.4820    120.0702     79.9126   3.0266650156e+01   4.2411292821e+01    0.2307208    0.2256002  32.04 0.0008687314    1.079    0.073
       142 -11.8193     88.1591     77.1821   3.9053240486e+01   5.0101016978e+01    0.2564364    0.2546197 -88.55  0.001388252    1.028    0.027
       143 -10.1363     84.8517     73.8317   3.9124323944e+01   5.1529267183e+01    0.2297225    0.2180429  54.65 0.0003639167    1.035    0.034
       144 -10.3587     26.5239     78.0802   6.6621932820e+01   5.9967831247e+01    0.2549103    0.1880614  40.28  0.000496345    1.414    0.293
       145  -9.7504    211.9545     76.2556   1.3071884813e+01   2.3390522563e+01     0.165056    0.1417285 -44.73 0.0003588395    1.036    0.035
       146 -10.4582    168.2345     74.6261   1.8712623639e+01   3.2427700589e+01    0.3763899    0.1631196 -44.03  0.001548952    2.129    0.530
       147  -9.2960     36.7247     76.6671   6.1022856585e+01   5.9191877235e+01    0.1551183    0.1063424 -31.79 0.0004068356    1.600    0.375
       148 -10.9406     21.8931     76.1835   6.8650725941e+01   6.0904542917e+01    0.2165934    0.1949602  61.76  0.000632906    1.202    0.168
       149  -9.5420     44.5144     74.4438   5.6513002082e+01   5.8711072350e+01    0.1469194    0.1442175  15.34 0.0001041493    1.028    0.027
       150 -10.6073      7.2525     73.1128   7.6078962813e+01   6.2769204599e+01    0.3156824    0.1746296 -17.38  0.001041795    2.026    0.506
       151 -10.1469    160.0287     71.5519   1.9274972985e+01   3.4738607859e+01    0.2090423    0.1758495 -46.09 0.0001156045    1.120    0.107
       152 -13.4626     16.1764     67.3535   6.9902436291e+01   6.3689054173e+01    0.4297504    0.3788111 -88.02  0.001035728    1.217    0.178
       153 -11.2563    102.9151     69.4981   3.1751952082e+01   4.8403616717e+01    0.3102789    0.2382265 -49.82 0.0003748249    1.346    0.257
       154 -11.3779     92.8856     68.7263   3.4640075208e+01   5.0841123391e+01     0.495539    0.3046946 -60.42  0.001650151    2.056    0.514
       155  -9.4034     45.1352     70.8145   5.5120792383e+01   5.9517600371e+01    0.1963549    0.1652129 -22.56 0.0003152131    1.254    0.203
       156  -9.9835    166.0609     68.5012   1.7438657647e+01   3.3879415930e+01     0.348234    0.2156107 -84.12  0.001333658    2.316    0.568
       157 -11.1532     50.4611     67.9632   5.1594401819e+01   5.9382482487e+01    0.3175454    0.2537982 -37.69 0.0008182889    1.283    0.221
       158 -11.1179      6.3678     67.7928   7.5692029199e+01   6.4216706276e+01    0.2408536    0.2150487 -34.98   0.00026975    1.071    0.066
       159 -11.3603    130.3153     65.8790   2.3475017736e+01   4.2597252378e+01      0.36101    0.2643537  39.32 0.0005959077    1.547    0.353
       160  -9.9491      2.4673     67.5106   7.7918109801e+01   6.4477820167e+01    0.1392889    0.1227923 -49.04 0.0008093551    1.040    0.038
       161 -12.3003     29.8569     62.6497   6.0788568605e+01   6.3550805752e+01    0.5655717    0.5534449 -16.21  0.001646821    1.048    0.045
       162  -9.3755    120.4480    200.4384   5.6196372864e+01   1.6643954134e+01    0.1355395    0.1158645  12.91 0.0003426676    1.032    0.031
       163  -9.8073     81.7181     64.9607   3.7210464615e+01   5.4071672275e+01    0.2061775    0.1934189 -47.70 0.0002647759    1.107    0.096
       164  -9.9540    109.1855     64.2014   2.8177605354e+01   4.7941097922e+01    0.2225242       0.2066  18.21 0.0007359482    1.209    0.173
       165 -11.8203     46.7632     60.6144   5.0937331877e+01   6.1695228696e+01    0.4675317    0.3104638 -28.68 0.0009586707    1.778    0.438
       166 -11.6362      3.5495     61.9019   7.6347648337e+01   6.5887849437e+01    0.3695155    0.2598552 -35.43 0.0005688652    1.353    0.261
       167 -12.3140     11.3032     56.4433   7.0345974195e+01   6.6833481249e+01    0.7712901     0.493132 -52.30  0.003914142    1.419    0.295
       168 -11.6015      3.0409     52.9909   7.4978725511e+01   6.8183703025e+01    0.4652539    0.3197052 -57.70    0.0022507    1.307    0.235
       169 -11.2133      8.0373     51.5566   7.1305028317e+01   6.8270087752e+01    0.4246479    0.2506116  61.08 0.0008653582    2.286    0.563
       170 -13.2910     12.1025     47.2045   6.7359750474e+01   6.9055793561e+01    0.6411356    0.4300517  63.20   0.00139697    1.999    0.500
       171 -11.3185    160.0623     63.9644   1.7179152603e+01   3.5939313612e+01    0.4253785    0.2961418  13.72  0.001917382    2.445    0.591
       172 -10.3887    209.8883     62.9751   1.0303690007e+01   2.5615982943e+01    0.1960305     0.147579 -50.86 0.0007273371    1.125    0.111
       173  -9.8355     90.5828     61.1882   3.2756654048e+01   5.2853373747e+01    0.2906086    0.1761364  57.92 0.0006420768    1.742    0.426
       174 -10.2274    189.0756     59.9641   1.1972144492e+01   3.0182716994e+01    0.1924398    0.1656488 -55.79 0.0003038479    1.010    0.009
       175 -10.3075    167.6136     59.4255   1.4745489924e+01   3.4918857089e+01    0.2783518    0.1708699 -57.67 0.0006202832    1.683    0.406
       176  -9.5589    150.5014     60.5255   1.7837188433e+01   3.8689399566e+01    0.1417154    0.1318769 -72.37 -2.151891e-05    1.008    0.008
       177 -10.4660    135.5025     58.6930   2.0131318267e+01   4.2555066154e+01    0.3544562    0.2431915 -84.35  0.001624017    1.822    0.451
       178  -9.4167    115.0651     60.1807   2.5267599839e+01   4.7254249924e+01    0.2008684    0.1099013  54.46 0.0002877733    1.762    0.433
       179 -10.2496    110.3672     56.8221   2.5335095187e+01   4.8975174407e+01    0.2386542    0.1959486  70.57 0.0004063434    1.221    0.181
       180 -11.2568    115.5371     55.0736   2.3415495356e+01   4.8013338983e+01    0.2651851    0.2185028  63.82  0.001374579    1.168    0.144
       181 -10.7777     89.0142     54.9779   3.0986311106e+01   5.4386940076e+01    0.3125154    0.2427751 -58.13  0.001031503    1.433    0.302
       182 -13.5228    149.6481     51.1912   1.5233190878e+01   4.0309569075e+01    0.3755014    0.3210306 -64.60  0.000753869    1.102    0.093
       183 -11.1750    105.2031     52.5229   2.5195513818e+01   5.0965949949e+01    0.2714282    0.2470671 -80.80 0.0002536282    1.125    0.111
       184 -11.2019     53.8595     48.6833   4.2755393525e+01   6.3068235908e+01    0.3883082    0.3124233  34.36  0.001959625    1.188    0.158
       185 -10.1149     38.9708     52.5434   5.2188495251e+01   6.4739425704e+01    0.3048383    0.1568175 -24.52 0.0007460982    3.398    0.706
       186  -9.4535    134.2673     51.6363   1.8151485555e+01   4.3967947242e+01    0.1521872    0.1032535 -64.78 0.0004897016    1.650    0.394
       187 -10.9358    181.1105    249.9043   5.0185427092e+01   1.4502910388e+00    0.2409992    0.1432408   8.22  0.001576047    1.385    0.278
       188 -10.6649     72.8629    244.8773   7.2493415352e+01   1.4106908025e+01    0.2544458    0.1686514  27.19 0.0008620818    1.184    0.155
       189 -12.2039     74.6424    239.0630   7.1608421016e+01   1.4962655949e+01    0.4808384    0.4416866 -45.28  0.002583786    1.344    0.256
       190 -12.8632    247.6140     35.7972   1.4366784684e+00   2.2237502863e+01     0.474764    0.3232968 -48.39  0.003207186    1.081    0.075
       191 -11.8845     44.7220     43.3571   4.5233069483e+01   6.5797481706e+01    0.5245748    0.4106635 -62.41 0.0007966864    1.536    0.349
       192 -11.7057     52.1042     43.1122   4.1234739192e+01   6.4513634731e+01    0.6988472    0.3514334  29.96  0.002756171    2.301    0.565
       193 -11.1329    180.1568     47.0017   9.7560235892e+00   3.3874702828e+01    0.2113715    0.1729633 -80.84 0.0002669176    1.176    0.149
       194 -12.0737    121.5211     46.7241   1.9158082660e+01   4.7869409537e+01    0.2818915    0.2435886  76.70 0.0001981819    1.103    0.094
       195 -10.9601    222.0602     45.9496   5.3529952627e+00   2.5524046065e+01     0.178399    0.1410641 -52.14 0.0003200676    1.012    0.012
       196 -10.9316    237.0506     44.2580   3.8414715816e+00   2.3051380699e+01    0.2066191    0.1317362 -41.94 0.0008734432    1.206    0.171
       197 -11.1630    143.1654     42.8770   1.3774794146e+01   4.3068565750e+01    0.4668133    0.2889853  31.00  0.002009707    2.522    0.604
       198  -9.2032      2.3124     45.2631   7.3788159564e+01   7.0138125227e+01     0.140332   0.08512592 -34.43 0.0001820003    1.538    0.350
       199 -10.8499    126.9528     43.2517   1.6842551556e+01   4.7030397186e+01     0.242103    0.2072114 -66.20 0.0002344338    1.152    0.132
       200 -10.6453    107.9563     42.5857   2.0829875241e+01   5.1885181205e+01    0.2947407      0.21929  54.09 0.0006055901    1.279    0.218
       201 -10.2719     72.8558     43.1025   3.2004273068e+01   6.0212586030e+01    0.2180203    0.1979742  88.80 0.0002935579    1.239    0.193
       202 -10.9478     16.8605     42.2839   6.2437757933e+01   6.9813551207e+01    0.3126368    0.1746202 -52.92  0.001130466    1.670    0.401
       203  -9.4966    131.2551     41.9635   1.5579994113e+01   4.6141334213e+01    0.1820201    0.1207536 -36.72 0.0006873028    1.537    0.349
       204  -9.9946     90.5117     41.8599   2.5368199423e+01   5.6297768203e+01    0.3057353    0.1940069  74.54  0.001308519    1.971    0.493
       205 -10.1851     98.0885     40.5908   2.2650798273e+01   5.4643163427e+01    0.2973599    0.2371234 -12.31   0.00133419    1.548    0.354
       206 -10.0701     68.8728     41.4985   3.2889895470e+01   6.1377238865e+01    0.2305607    0.1373007  47.56  0.001026827    1.572    0.364
       207 -11.6852     55.9213     36.8386   3.6477264078e+01   6.4944691176e+01    0.6004716    0.4015541   2.31  0.002592626    2.322    0.569
       208 -11.9103    225.7863     39.9650   3.7615266311e+00   2.5557991904e+01    0.2117522    0.1754299 -33.78  0.001506534    1.256    0.204
       209 -10.7555    154.9987     63.6323   1.7942799107e+01   3.7153405464e+01    0.2645964    0.2107241 -50.15 0.0004174459    1.186    0.157
       210 -10.1141    148.6791     39.9656   1.2001766256e+01   4.2121787445e+01    0.1939058    0.1628356 -52.20 0.0003714739    1.136    0.120
       211  -9.6396    102.5367     40.5170   2.1426123804e+01   5.3550569092e+01    0.1469703    0.1363247  76.07 1.244449e-05    1.022    0.021
       212 -11.9892     83.8605     38.0463   2.5894677873e+01   5.8505357412e+01    0.5277801    0.3732723 -10.33  0.001119397    1.929    0.482
       213 -10.6248     87.4743     33.5959   2.2850047801e+01   5.8308167521e+01    0.2312266    0.1990763 -18.96 0.0001052746    1.319    0.242
       214 -11.6946    233.5605     39.3879   3.0776577842e+00   2.4229627398e+01    0.2253263     0.134353  88.20 0.0008583635    1.911    0.477
       215 -10.0619     78.8541     46.9249   3.1352557012e+01   5.8182391827e+01    0.2306807    0.1917399  25.85 0.0005505391    1.308    0.235
       216 -11.4436     27.7422     37.5406   5.3013263027e+01   6.9623714932e+01    0.2450884    0.2330258  20.63 0.0002302021    1.122    0.109
       217 -11.1624     23.9927     34.4976   5.4254911814e+01   7.0759298301e+01    0.3775401    0.2793021 -33.56  0.001905309    1.325    0.245
       218 -12.2370    122.7316     63.5804   2.4498596045e+01   4.4812725623e+01    0.3508841    0.3240977 -55.07 0.0009204846    1.085    0.078
       219  -9.9870    110.9991     34.1990   1.6972250287e+01   5.2330584377e+01    0.2813142    0.1764394  49.11  0.001316436    1.595    0.373
       220 -10.3399     63.9741     34.7111   3.1830644568e+01   6.3615321888e+01    0.2028334     0.172875  45.50 0.0002973983    1.091    0.083
       221 -10.8487     92.7902     34.0309   2.1477870022e+01   5.6934454458e+01    0.2309627    0.1922045 -74.32  0.001222188    1.330    0.248
       222 -10.2192     34.0520     33.2930   4.6902702121e+01   6.9579196782e+01    0.2275875    0.2006262 -28.29 0.0007162514    1.136    0.120
       223 -10.6176     75.9293     33.1963   2.6466986484e+01   6.1142170281e+01    0.3299452    0.1944278  54.29 0.0008485811    1.571    0.364
       224 -10.6242      9.8794     24.8260   6.0958826742e+01   7.4355194206e+01     0.423684    0.1808586  10.38  0.001731563    2.682    0.627
       225 -10.2911     19.0106     30.8928   5.6291278980e+01   7.2125196982e+01    0.2506124     0.212197  20.35 0.0007243987    1.158    0.136
       226 -11.3445      7.8729     30.2347   6.4911249890e+01   7.3337459855e+01    0.4241705    0.2766062 -77.74  0.001546822    1.932    0.482
       227 -11.4356     13.0982     30.4703   6.0732139128e+01   7.2836378609e+01    0.4217978    0.3782395  27.66  0.002039155    1.213    0.175
       228  -9.4266    119.4114     31.7091   1.4298153077e+01   5.0523966896e+01    0.1873959    0.1412357 -10.90 0.0009419765    1.705    0.413
       229  -9.7665    162.8246     28.8634   6.8356666424e+00   4.0131474290e+01    0.2780267    0.1078717 -22.39   0.00101918    3.473    0.712
       230  -9.7017    126.1928     28.8473   1.2029708064e+01   4.9162806390e+01    0.2006499    0.1554236  45.69  0.001066017    1.421    0.296
       231 -10.1427     48.9776     28.4641   3.5773088917e+01   6.7796868012e+01    0.2402176    0.1868994 -11.66 0.0002048909    1.469    0.319
       232 -12.6416    231.8452     26.7574   5.4759832511e-01   2.5960621382e+01    0.3192535    0.2188883 -83.25 0.0009589753    1.474    0.322
       233 -11.3308    111.6785     27.1416   1.4151345050e+01   5.3081275175e+01    0.3244388    0.2810767  68.13  0.000966771    1.067    0.063
       234 -10.0772     80.0053     27.9691   2.2690314902e+01   6.0936404905e+01    0.2449054    0.1665278  28.60  0.001149283    1.786    0.440
       235 -10.0164    198.7552     28.4622   3.2479092411e+00   3.2183826964e+01    0.2281024    0.1125671  85.09  0.001140411    2.219    0.549
       236  -9.6954    118.5048     27.5408   1.2956511826e+01   5.1284826937e+01     0.141721    0.1284091  75.66 -1.382635e-05    1.042    0.040
       237 -10.2662     70.0461     25.4891   2.4950428829e+01   6.3662195990e+01    0.3757635    0.1153287  50.80  0.001286559    2.816    0.645
       238 -11.6315     69.7240     21.5629   2.3109165464e+01   6.4277836605e+01     0.355628    0.2821673 -87.54  0.001327659    1.550    0.355
       239 -10.0782     54.9972     24.9584   3.0943873086e+01   6.7121250497e+01    0.2001687    0.1843266  30.58  0.001176069    1.022    0.022
       240  -9.5527      1.2630     25.3710   6.8840201756e+01   7.4870728656e+01    0.1419707   0.07732587 -37.23 0.0006983513    1.657    0.397
       241 -10.8239    153.0037     23.9065   6.5338305755e+00   4.3063432220e+01     0.208448    0.1754435 -56.77            0    1.108    0.098
       242 -10.3890    218.9505     25.6627   1.1241523983e+00   2.8471531857e+01    0.1607586    0.1257461 -61.33 0.0005145752    1.063    0.059
       243 -10.1219      4.3162    243.9571   8.8046006030e+01   2.0778956364e+01      0.15432    0.1202711  55.05 0.0004598534    1.128    0.113
       244 -11.0849     32.9980    241.9850   8.1506267194e+01   1.8673435858e+01    0.1892699    0.1463465  36.86 0.0007343693    1.023    0.023
       245 -10.1790    193.0732     20.9293   1.8608446043e+00   3.4224152369e+01    0.1807383      0.14798 -61.76 0.0003316028    1.012    0.012
       246  -9.3783    156.5002     21.5377   5.4200843911e+00   4.2484527642e+01     0.132425    0.1163287 -78.19 0.0001898104    1.033    0.031
       247 -10.0574     81.8553     19.7046   1.8272562395e+01   6.1563949583e+01    0.3564439    0.1576853 -44.89  0.001414355    2.626    0.619
       248  -9.6976     41.5007     19.5052   3.4876615310e+01   7.0722529848e+01    0.2494308     0.124468  44.41 -0.0002365158    1.841    0.457
       249  -9.8687    210.7843     19.1964   2.0629664709e-01   3.0764347462e+01    0.1403189    0.1318766  79.78 0.0004390132    1.331    0.249
       250  -9.7017     89.0048    240.9653   6.8446638791e+01   1.3019396328e+01    0.1907487      0.13399 -11.47  0.001125068    1.712    0.416
       251 -12.4845     34.5698    237.6914   8.0927771806e+01   1.9345618364e+01    0.7002139    0.2460218  19.41  0.002974994    2.795    0.642
       252 -11.3996     30.2371    233.7526   8.1749653687e+01   2.0518576016e+01    0.4038998    0.1993278  59.36  0.001884813    1.973    0.493
       253 -11.3542      2.4765     15.4774   6.3510626373e+01   7.6934648803e+01    0.2691002    0.2326369  11.91  0.001043777    1.178    0.151
       254 -10.0249     45.2156    244.4074   7.8824515872e+01   1.7048596402e+01    0.1762841   0.08157714  35.08 0.0004139697    1.582    0.368
       255 -11.3817     34.1089     22.6017   4.1210971524e+01   7.1562611518e+01    0.2506565    0.2071189  15.61 0.0001555352    1.142    0.125
       256 -11.3227    183.0851    234.2653   4.7713358586e+01   3.3231546477e+00    0.2333735    0.1516857  21.80 0.0009608091    1.323    0.244
       257 -10.8804    229.4719     16.0811   3.5844400830e+02   2.7528744365e+01    0.1648167   0.09094545 -34.58  0.000649918    1.542    0.351
       258 -10.4323    131.9495     16.0603   6.7117696247e+00   4.9163149524e+01     0.202049    0.1754314 -80.01 0.0003381166    1.035    0.033
       259  -9.3301     48.3531     22.2737   3.2741603253e+01   6.8925673969e+01    0.1438192   0.09996015  21.22 0.0007002148    1.640    0.390
       260  -9.6269    156.3304    235.2652   5.3068223691e+01   6.1560501350e+00    0.1211029   0.07564929  -0.22 0.0002344437    1.576    0.365
       261 -10.3550    196.4024    238.7397   4.5911679571e+01   1.3379695104e+00    0.1476481   0.08434586 -23.57 0.0007588968    1.587    0.370
       262 -10.5554    137.1396     14.8725   5.6302006042e+00   4.7975331016e+01    0.2047431    0.1587114 -68.85 0.0002905097    1.198    0.165
       263 -10.0590      3.5701    237.9940   8.8065227899e+01   2.1974415001e+01    0.1547851    0.1035689  82.69 0.0004775081    1.559    0.359
       264  -9.5075     12.3508    231.3095   8.5857365901e+01   2.2576734819e+01    0.1104694   0.08712929 -22.04 0.0007044311    1.716    0.417
       265  -9.5247    139.0378     11.2088   4.1939170786e+00   4.7868127008e+01    0.1832846   0.09651687  74.65 0.0008657681    1.716    0.417
       266 -10.1315    248.4087    229.2163   3.6155542110e+01  -2.4029269358e+00    0.1302339   0.07787614 -33.76 0.0009481403    1.686    0.407
       267  -9.6476     39.6886    229.3384   7.9249072703e+01   2.0492982791e+01    0.1355156   0.07121693  50.73 0.0004934326    1.690    0.408
       268 -10.1579    193.0407    227.1908   4.4872385224e+01   3.2155210114e+00    0.1820188    0.1198579  -4.80 0.0008147534    1.293    0.226
       269 -10.5177      3.7643    225.9237   8.7706323466e+01   2.4353196732e+01    0.1624477    0.1570838  36.24 0.0009639158    1.263    0.208
       270 -10.0581     79.0258    223.9224   6.9199111270e+01   1.7325902600e+01    0.2019535    0.1445195 -13.04  0.001127999    1.721    0.419
       271  -9.6294     15.6892    222.2980   8.4732777472e+01   2.4130127853e+01    0.1329503   0.06758271  49.53 0.0003821157    1.599    0.375
       272  -9.4265    126.3549    220.6797   5.7589974700e+01   1.2130669216e+01    0.1278551   0.08945742  49.19 0.0007046321    1.754    0.430
       273 -11.1251     49.8833    218.7142   7.6021361698e+01   2.1625709202e+01     0.359869    0.2242062   5.46  0.001859137    1.904    0.475
       274  -9.5697     55.9755    216.9868   7.4343096827e+01   2.1333700606e+01    0.1514744    0.1275999  37.32            0    1.017    0.017
       275 -10.2151     23.9066    216.0008   8.2420205134e+01   2.4738458404e+01    0.1894695    0.1495757  45.70 0.0003322362    1.037    0.036
       276  -9.7747    106.5167    211.0475   6.1019614340e+01   1.6444922511e+01    0.1784736    0.1334405 -54.92  0.001024533    1.567    0.362
       277  -9.5462     20.3149    211.6715   8.3120482800e+01   2.5989079226e+01    0.1401108   0.07154418  51.47 0.0007044588    1.675    0.403
       278 -11.1822      5.2797    210.0469   8.6865163927e+01   2.7578808173e+01    0.2117717    0.1729611  75.86 0.0005327098    1.207    0.171
       279 -11.5359      4.1915    205.6415   8.6997942369e+01   2.8628153408e+01    0.4170055    0.2465209 -46.70  0.002221205    2.235    0.553
       280 -10.6901    217.0804    209.6482   3.8050946717e+01   2.9895606577e+00    0.1850667    0.1300432 -31.73   0.00080665    1.409    0.290
       281  -9.5230    193.5373    210.4870   4.2263398263e+01   5.5002388305e+00    0.1188693   0.09229209  -3.58 0.0002037951    1.007    0.007
       282 -11.4816     11.0750    209.0141   8.5362107022e+01   2.7347004992e+01    0.2966923    0.2272543  39.86  0.001127728    1.087    0.080
       283  -9.4739    247.9562    207.0078   3.2896175088e+01   2.0972752748e-01    0.1274337   0.09076833  -7.83 0.0006760788    1.067    0.062
       284  -9.9031     18.4190    205.3853   8.3310151396e+01   2.7536681879e+01    0.2484132   0.07457232 -60.94 0.0009575795    3.614    0.723
       285  -9.4088     28.2723    205.3018   8.0716971827e+01   2.6673730903e+01     0.117532   0.09627166 -30.74 0.0001858061    1.533    0.348
       286  -9.4000     68.6782    203.3015   6.9790774485e+01   2.2799701890e+01    0.1430125   0.08825684  51.51 0.0005109258    1.629    0.386
