#   1 NUMBER                 Running object number                                     
#   2 MAG_AUTO               Kron-like elliptical aperture magnitude                    [mag]
#   3 X_IMAGE                Object position along x                                    [pixel]
#   4 Y_IMAGE                Object position along y                                    [pixel]
#   5 X_WORLD                Barycenter position along world x axis                     [deg]
#   6 Y_WORLD                Barycenter position along world y axis                     [deg]
#   7 A_WORLD                Profile RMS along major axis (world units)                 [deg]
#   8 B_WORLD                Profile RMS along minor axis (world units)                 [deg]
#   9 THETA_WORLD            Position angle (CCW/world-x)                               [deg]
#  10 FWHM_WORLD             FWHM assuming a gaussian core                              [deg]
#  11 ELONGATION             A_IMAGE/B_IMAGE                                           
#  12 ELLIPTICITY            1 - B_IMAGE/A_IMAGE                                       
         1 -13.4323    215.0838    130.8594   7.6032902902e+01   1.4535453379e+01     1.525306    0.7786064 -36.92  0.007315069    1.993    0.498
         2  -9.3392    181.0839     14.3299   4.8743573991e+01   3.7360020841e+01    0.2250182    0.1915611   2.74 0.0003815125    1.246    0.197
         3  -9.5331     10.4668      7.5213   1.0044400935e+02   7.5162109645e+01    0.1905747    0.1082802 -63.23 3.845489e-05    1.951    0.487
         4  -8.9505     50.8300      2.8189   7.3169457312e+01   7.0386727360e+01    0.1651826    0.1492932 -35.09 0.0003907548    1.282    0.220
         5 -11.6505     69.8867    218.0520   1.1827278928e+02   2.3756493516e+01    0.4521287    0.3250889  20.16  0.002350277    1.731    0.422
         6 -10.9579    129.7103    205.6338   1.0543908138e+02   1.7883374170e+01    0.4501968    0.3178301  51.41   0.00295157    1.372    0.271
         7  -8.7146     74.4779    195.0207   1.1543437831e+02   2.7101139386e+01    0.1477401   0.08773395 -41.29 0.0008102306    2.583    0.613
         8  -9.5545      5.6554    169.1761   1.2847427887e+02   3.9036420281e+01    0.1809929    0.1171167  50.88 0.0009043323    1.286    0.222
         9  -8.8766     21.4285    159.2215   1.2433819651e+02   3.9759767804e+01    0.1536397   0.09005192  81.89 0.0004051592    1.530    0.346
        10  -8.9519      1.7097    157.3200   1.2884648575e+02   4.1720883394e+01    0.1767819   0.09130988  89.49 0.0004370857    1.646    0.392
        11  -9.4974      2.3409    154.2983   1.2856392992e+02   4.2298428784e+01    0.1713735   0.09339942 -83.67 0.0006006759    1.582    0.368
        12 -11.3271    213.6217    155.2735   8.1400540974e+01   1.1578808260e+01    0.3171594    0.2167071  17.60  0.001842184    1.383    0.277
        13  -9.3870      8.0000    157.0387   1.2737016179e+02   4.1312912836e+01    0.1675079    0.1288272  72.32 0.0003819371    1.020    0.019
        14 -11.0699      9.3571    148.9111   1.2660559389e+02   4.2910392056e+01    0.3318897    0.2415301 -28.89  0.002167609    2.070    0.517
        15 -10.8822     22.1587    142.3489   1.2294690503e+02   4.3286441159e+01    0.3856557    0.2128599  77.16  0.001207292    1.712    0.416
        16  -9.4203     35.9554    142.5027   1.1938111673e+02   4.1974996903e+01     0.170555     0.112697  34.35 0.0005035164    1.549    0.355
        17 -13.1847    233.8714    132.5336   7.3409751706e+01   1.0961554258e+01     1.620894    0.8429064  -5.04  0.007263054    2.512    0.602
        18 -12.9283    230.3523    109.1251   6.8675258620e+01   1.4528237479e+01     1.150011    0.7854354  74.23  0.005718708    2.516    0.603
        19  -9.2569    102.1692    248.6859   1.1479027129e+02   1.5440038838e+01    0.1439274    0.1085572  50.89  0.001172126    1.151    0.132
        20  -9.6721     28.2716    138.1671   1.2099524352e+02   4.3662991027e+01    0.1794303    0.1625373  16.38 0.0006284045    1.393    0.282
        21  -9.9738     40.3996    121.0465   1.1574652408e+02   4.6360846952e+01    0.2076494    0.1791569  42.66 0.0004752326    1.234    0.190
        22 -11.6534     36.4373    124.0033   1.1726361396e+02   4.6081708242e+01    0.4745952    0.2413948 -80.49  0.001269498    1.908    0.476
        23 -10.6529     32.6351    129.6726   1.1897635745e+02   4.5158379908e+01    0.2774949     0.216468 -69.29  0.001194401    1.230    0.187
        24  -9.8349     33.5453    133.4910   1.1912375871e+02   4.4210241347e+01    0.1893857    0.1446995 -74.34 8.350471e-05    1.214    0.176
        25 -10.4759     36.5226    131.9095   1.1813898668e+02   4.4274495727e+01    0.2432061    0.1987397 -69.70 0.0009628633    1.202    0.168
        26 -10.0832     17.5064    133.9844   1.2351224640e+02   4.5516935629e+01    0.1700616    0.1430886  54.52 0.0004558256    1.180    0.153
        27  -9.9280     70.9938    132.7151   1.0876817531e+02   4.0040556994e+01     0.220704    0.1766923 -57.41 0.0003860077    1.279    0.218
        28 -12.0489     25.0823    125.8005   1.2070254537e+02   4.6726282254e+01    0.4318594    0.3157584  28.71  0.001111857    1.539    0.350
        29 -10.6251     12.8335    127.8045   1.2430203439e+02   4.7261576942e+01    0.2608614    0.1257064 -63.90 0.0008262998    1.910    0.477
        30  -9.6075     41.4594    127.9874   1.1631006154e+02   4.4659250071e+01    0.1959696     0.111988 -73.71 0.0007087787    1.614    0.380
        31 -10.1098     76.1171    123.4095   1.0580787449e+02   4.1394822626e+01    0.2842269     0.189856 -74.99  0.001210291    1.607    0.378
        32  -9.6904     68.3150    123.0078   1.0794781208e+02   4.2573957251e+01    0.1904628    0.1638132 -77.16 0.0006456878    1.104    0.094
        33 -10.9166     93.6693    121.3120   1.0053909245e+02   3.9164914897e+01     0.618562    0.3979308  -2.85  0.002432898    3.297    0.697
        34  -8.6807     60.7189    121.6771   1.0991184659e+02   4.3872779990e+01    0.1278423   0.09735519 -37.58 0.0002301461    1.590    0.371
        35  -9.5273     75.5157    118.5146   1.0509418411e+02   4.2580902574e+01    0.2436211    0.1287683 -73.55  0.001031248    2.340    0.573
        36 -10.3525     45.2332    118.7551   1.1401310989e+02   4.6376336968e+01    0.2494175    0.1840025 -57.97 0.0006693129    1.341    0.254
        37 -11.7926     25.9758    116.8157   1.1950718348e+02   4.8715520563e+01    0.3913604    0.2953921 -44.19  0.002430315    1.554    0.356
        38  -9.2190     57.5185    118.0627   1.1026961850e+02   4.5103655895e+01     0.196372    0.1204911 -66.40 0.0007683414    1.530    0.346
        39 -11.4850     11.5690    114.8856   1.2361026286e+02   5.0296725365e+01     0.246386    0.2025436  80.43 0.0003806536    1.048    0.046
        40 -10.2446      1.3127    113.8284   1.2655881147e+02   5.1207558530e+01    0.2944019   0.09098509 -82.58 0.0004324483    2.766    0.639
        41 -10.9998     45.4332    113.5933   1.1320697483e+02   4.7555601748e+01    0.3663966     0.167017  23.10  0.001603279    2.761    0.638
        42  -9.7968     84.0258    112.0350   1.0136277098e+02   4.2754714942e+01    0.2023368    0.1963094 -82.33 0.0003343847    1.031    0.030
        43 -11.0565     37.0527    110.1375   1.1529221897e+02   4.9245079695e+01    0.2824669    0.1576447  39.79  0.001478017    1.816    0.449
        44  -8.3081    143.2703    121.7072   8.8080077504e+01   3.0029960037e+01    0.1332829     0.113579 -88.65 0.0002079411    1.514    0.339
        45  -9.0096     65.3501    109.2982   1.0638600310e+02   4.6113269792e+01    0.1345554    0.1030438 -26.57 0.0007035871    1.687    0.407
        46 -10.8620     26.2706    107.6055   1.1834117243e+02   5.0845239577e+01    0.3454792    0.2016147  55.14  0.001540541    1.759    0.432
        47 -10.6034     21.9678    108.5202   1.1980175464e+02   5.0990719398e+01     0.249202    0.2028227  -4.09  0.001003367    1.629    0.386
        48 -10.2467      7.7215    100.0687   1.2345609818e+02   5.4007361867e+01    0.2747568    0.1757243 -44.52 0.0001810399    1.775    0.437
        49 -10.9223      6.9606    108.1010   1.2442101117e+02   5.2177951565e+01    0.4416866    0.1960851  89.86 0.0004141424    2.072    0.517
        50 -10.3173      8.5597    104.5522   1.2360860776e+02   5.2902057538e+01    0.2539018    0.1517736  54.75  0.000738128    1.654    0.395
        51  -9.8863     72.0206    107.6824   1.0403736938e+02   4.5551923896e+01    0.2521448    0.1852046 -53.20 0.0005462616    1.325    0.245
        52  -9.4775    123.0329    106.2300   8.9281228580e+01   3.7038717891e+01     0.353956     0.194239 -35.26 0.0007621287    2.053    0.513
        53  -9.7067     86.0228    105.3022   9.9324189158e+01   4.3943768873e+01    0.2030547     0.185257  51.69  0.001174353    1.112    0.101
        54 -10.4840     16.2079    104.6239   1.2118884635e+02   5.2354373217e+01    0.2335413    0.2147859 -14.97  0.001337238    1.378    0.274
        55 -10.4168     81.4179    103.7778   1.0036094427e+02   4.5023253145e+01    0.2630633    0.2326598  11.33  0.001495779    1.319    0.242
        56  -8.9918    142.6282    103.3010   8.3704599715e+01   3.3604171498e+01    0.1487748    0.1185555  89.65 0.0007030686    1.748    0.428
        57  -9.7372     27.0526    101.7633   1.1733679503e+02   5.2160277130e+01    0.1645122    0.1496765 -87.20 0.0003069841    1.077    0.071
        58 -10.5252     52.9059     99.4286   1.0845630723e+02   5.0024166209e+01    0.3940055    0.1851595 -66.53  0.001739011    2.026    0.507
        59  -9.6773     84.6719     99.1750   9.8318714386e+01   4.5538096636e+01    0.2072785    0.1199743 -46.01 0.0004327355    1.728    0.421
        60  -9.2244     13.5461     96.9804   1.2121533054e+02   5.4351957901e+01    0.1841266    0.1030175 -77.73 0.0003788636    1.504    0.335
        61  -8.5954     80.6875     95.6809   9.8713991478e+01   4.6971754175e+01    0.1418595    0.1092032 -21.96 0.0002637563    1.648    0.393
        62  -9.6198     34.2036     92.0345   1.1345296778e+02   5.3828192098e+01    0.2322309    0.1341251  75.79  0.001099136    2.145    0.534
        63  -8.9533    132.6804     94.3079   8.3693482414e+01   3.7415404376e+01    0.1477221    0.1196508 -84.48 0.0007032614    1.638    0.390
        64  -8.2268    116.6623     94.3344   8.7854138302e+01   4.0721759976e+01    0.1515337    0.1182082 -89.25 0.0004620571    1.746    0.427
        65 -10.6427      6.5003     93.4623   1.2321026815e+02   5.5641284060e+01    0.2760322    0.1382122 -66.18  0.001481348    1.652    0.395
        66  -9.3109    147.0483     95.2916   8.0529485666e+01   3.4136269435e+01     0.204657    0.1917005  41.56 0.0002821717    1.085    0.078
        67 -10.9967      5.6261     88.0161   1.2294430724e+02   5.6984432857e+01    0.3611395      0.23526 -11.58  0.002104655    2.121    0.528
        68  -8.8774     84.9893     87.2542   9.5222465413e+01   4.8152204923e+01    0.1818911    0.1237599  39.82 0.0008786402    1.537    0.349
        69  -9.7854     61.3991     89.8317   1.0362494981e+02   5.1187927251e+01    0.2032651    0.1150635 -50.37 0.0009506441    1.664    0.399
        70  -9.6861     44.8326     90.0094   1.0937349473e+02   5.3204315900e+01    0.2330721    0.1262972 -44.11 0.0006689646    1.993    0.498
        71  -8.3288     37.7205     89.6751   1.1180776814e+02   5.4044658767e+01    0.1325867   0.08919807 -43.16 0.0006994696    1.591    0.372
        72  -9.8344    119.4927     85.4284   8.4576908436e+01   4.1937127156e+01    0.2184664    0.1424179 -31.13 0.0006638404    1.662    0.398
        73 -10.6247    124.9528     85.6062   8.3184395985e+01   4.0747475968e+01    0.3098552    0.2195938 -45.21   0.00147065    1.409    0.291
        74 -12.5668    220.5941    118.7753   7.2410960628e+01   1.5119576469e+01     1.250599     0.446485 -31.22  0.005043376    2.560    0.609
        75  -9.0220     86.1530     81.8318   9.3359831797e+01   4.9149952036e+01    0.1915174    0.1665166 -17.02  0.001032819    1.289    0.224
        76 -10.9143     51.1920     81.5755   1.0530809725e+02   5.4458083736e+01     0.242303    0.2055117 -55.65  0.000221133    1.086    0.079
        77 -10.9458      6.4428     80.1945   1.2175347329e+02   5.8801869625e+01    0.3171656     0.214919  49.84  0.001217667    1.590    0.371
        78 -10.1681    104.1920     79.2434   8.7040577752e+01   4.6320529113e+01    0.2826087    0.2053111 -48.64 0.0006763483    1.357    0.263
        79  -8.8483    124.2908     79.3051   8.1469154125e+01   4.2109242434e+01    0.1501175    0.1178272   3.67 0.0006990836    1.573    0.364
        80  -8.4817     72.0049     77.7534   9.6928540374e+01   5.2415705809e+01    0.1678999    0.1217038  37.27 0.0004136268    1.479    0.324
        81 -10.1547     45.4995     80.0225   1.0704089697e+02   5.5506459629e+01    0.1932145    0.1819144  33.51 0.0004808669    1.195    0.163
        82 -10.7475    152.0154     74.2648   7.3278924704e+01   3.6709493524e+01    0.3346029    0.2741093  71.72  0.001420296    1.432    0.302
        83 -10.4286     44.0094     74.4695   1.0632154977e+02   5.6994363860e+01    0.2754596    0.1844897 -62.69 0.0006783836    1.329    0.248
        84  -9.8872     23.7699     75.4284   1.1439290718e+02   5.8748883856e+01    0.1614852    0.1228668  -8.73 0.0009479597    1.676    0.403
        85  -8.9690    114.9784     75.7732   8.2882500836e+01   4.4799088177e+01    0.1961047    0.1240958  46.06 0.0006576914    1.617    0.382
        86  -9.8328    138.1078     72.4673   7.5877158051e+01   4.0265341226e+01    0.2298655    0.1499271  51.88  0.001023972    1.573    0.364
        87 -10.4090     71.1160     67.5230   9.4225141975e+01   5.4844450447e+01    0.2853976    0.2288508  54.93 0.0006897416    1.417    0.294
        88 -10.5205      4.9839     67.5803   1.2065755177e+02   6.1898337615e+01    0.3276456     0.148835 -77.60   0.00132649    1.858    0.462
        89  -9.0394    126.5388     65.2337   7.6362646934e+01   4.4223350076e+01    0.2168859    0.1451526 -22.45 0.0009487061    1.664    0.399
        90  -9.5961    171.5172     64.5050   6.6365723194e+01   3.3593212703e+01    0.1496889    0.1410751  -2.87 0.0004556871    1.027    0.026
        91  -8.7532    133.3080     63.7203   7.4171251412e+01   4.2916645530e+01    0.1483026    0.1201813 -73.42 0.0002484987    1.558    0.358
        92 -10.6806    153.9951     66.3362   7.0370404270e+01   3.7545517856e+01    0.4409724    0.2687275  27.56  0.001786221    2.142    0.533
        93 -11.4095     33.5972     58.9382   1.0666970851e+02   6.1777985412e+01    0.6047329    0.2812902 -69.74  0.002610807    2.266    0.559
        94 -10.3617    216.1922     60.8338   5.8388004324e+01   2.3606420545e+01    0.1983251    0.1572202  12.51 0.0007561554    1.354    0.261
        95  -9.4621    227.4746     60.5038   5.6891907284e+01   2.1171173228e+01    0.1367329    0.1207079 -17.51 0.0001318402    1.015    0.015
        96 -10.0176    159.0719     59.6716   6.7196031126e+01   3.7355095184e+01    0.2701166    0.2125845 -17.64 0.0002012761    1.288    0.224
        97 -10.1725    234.6129     59.2152   5.5723868221e+01   1.9802830761e+01    0.2310107    0.1151635  67.90  0.001035782    2.489    0.598
        98  -8.6495    103.7193     58.7189   8.0400771937e+01   5.0498860055e+01    0.1453836    0.1153459   3.38            0    1.511    0.338
        99 -11.4321    201.2809     56.3487   5.9140793647e+01   2.7586948520e+01    0.3120096    0.2402902  30.92  0.001183075    1.406    0.289
       100 -10.1584     44.8113     54.3190   1.0045118701e+02   6.1577868644e+01    0.4299703    0.2318068 -67.79  0.001899997    2.165    0.538
       101  -9.7438     77.2512     55.0184   8.7775438507e+01   5.6464094677e+01    0.2925616    0.1902163  59.70  0.001317346    2.069    0.517
       102 -10.1783    174.2740     53.9852   6.2593700291e+01   3.4430114518e+01    0.3177323    0.1858021 -23.55  0.001224337    1.702    0.412
       103  -9.4404    175.4585     49.4804   6.0965714085e+01   3.4749846107e+01    0.2242193    0.1413643 -14.36 -1.869798e-06    1.722    0.419
       104  -9.4772    220.3432     52.9791   5.5725495574e+01   2.3625321569e+01    0.2309396    0.1078401   0.42 0.0007050359    4.402    0.773
       105 -10.6741     31.4528     51.9906   1.0569933216e+02   6.3609088300e+01    0.3052501    0.2259033 -30.53 0.0006213544    1.432    0.302
       106  -9.7579    153.3495     50.8804   6.5400451658e+01   4.0088777593e+01    0.3208883     0.116645 -37.19  0.001094728    2.581    0.613
       107  -9.7826    116.0713     50.9213   7.4023754449e+01   4.9151210120e+01    0.2218941    0.2111708 -21.82 0.0003456436    1.024    0.023
       108  -9.2826     18.5722     51.2525   1.1151514075e+02   6.4916262644e+01    0.1894916   0.09426407 -55.83 0.0009458671    1.613    0.380
       109  -8.7357     13.7933     48.9977   1.1326038395e+02   6.5789663857e+01    0.1717127   0.08492657 -66.72 0.0003490146    1.670    0.401
       110  -9.6954    221.4707     48.4776   5.4364424953e+01   2.3896008724e+01    0.1379035     0.122624 -29.41 3.944458e-05    1.032    0.031
       111 -11.2757     59.2886     46.4511   9.1525713575e+01   6.1264886063e+01    0.4613611    0.3043884 -37.48  0.002329318    1.436    0.304
       112  -9.7307     56.9790     41.5509   9.0569497991e+01   6.2637420958e+01    0.2231765    0.1726573  -3.97  0.000585801    1.520    0.342
       113  -8.9627    112.0362     55.7077   7.6900969393e+01   4.9232598846e+01    0.2073598    0.1867007  38.98 0.0001538675    1.132    0.116
       114 -10.6802     93.8307     44.3653   7.7981715868e+01   5.5250434859e+01    0.2584014     0.244323 -19.47 0.0002917631    1.018    0.017
       115  -9.6144    113.9804     43.5444   7.1750951566e+01   5.0867961888e+01    0.2512833    0.1981086 -46.10 0.0001393248    1.328    0.247
       116  -9.4508     68.1888     38.3908   8.4613796141e+01   6.1386262650e+01    0.1812257    0.1353588  52.79 0.0003649293    1.585    0.369
       117  -8.9113      7.4970     38.4571   1.1388350277e+02   6.8640690702e+01     0.123807    0.1019985 -62.16 7.411873e-05    1.037    0.035
       118  -9.0991     42.2554     36.0071   9.5016061932e+01   6.5900455747e+01    0.1714513    0.1028762 -48.95 0.0003347338    1.467    0.318
       119 -10.2897     71.1503     32.0559   8.0621304733e+01   6.2006709926e+01    0.3753373    0.1786739  47.81  0.001571892    2.297    0.565
       120  -9.2467    179.6836     29.0013   5.3714419934e+01   3.6201052482e+01    0.2037136    0.1834461 -15.98 0.0004932645    1.094    0.086
       121 -10.1438    164.6703     21.8326   5.3355472371e+01   4.0869775013e+01    0.2526958    0.2268678  85.06 0.0003711308    1.159    0.137
       122  -9.5486    141.7105     22.0399   5.7073909935e+01   4.6870530626e+01    0.2303505    0.2077414  59.06 0.0003724232    1.108    0.098
       123  -8.8764    154.9478     17.3169   5.3139837149e+01   4.3899443002e+01    0.1981364    0.1795251  61.46 0.0003277039    1.099    0.090
       124  -9.1009     74.8258     17.3645   7.1962539873e+01   6.3645987813e+01    0.1900433     0.122821  39.01 0.0002554205    1.569    0.363
       125 -12.1661     59.8703    212.2995   1.1977966450e+02   2.5844006236e+01    0.9177631    0.4916992  63.41  0.005736397    1.802    0.445
       126 -12.5378     77.3445    219.5905   1.1697265939e+02   2.2632740508e+01    0.7262335    0.4268067  24.86  0.002119096    1.952    0.488
