#   1 NUMBER                 Running object number                                     
#   2 MAG_AUTO               Kron-like elliptical aperture magnitude                    [mag]
#   3 X_IMAGE                Object position along x                                    [pixel]
#   4 Y_IMAGE                Object position along y                                    [pixel]
#   5 X_WORLD                Barycenter position along world x axis                     [deg]
#   6 Y_WORLD                Barycenter position along world y axis                     [deg]
#   7 A_WORLD                Profile RMS along major axis (world units)                 [deg]
#   8 B_WORLD                Profile RMS along minor axis (world units)                 [deg]
#   9 THETA_WORLD            Position angle (CCW/world-x)                               [deg]
#  10 FWHM_WORLD             FWHM assuming a gaussian core                              [deg]
#  11 ELONGATION             A_IMAGE/B_IMAGE                                           
#  12 ELLIPTICITY            1 - B_IMAGE/A_IMAGE                                       
         1 -13.3644      5.7010     11.0732   2.9182917272e+02   7.6124977271e+00    0.0956255   0.04672578 -54.00   0.00868657    1.951    0.487
         2 -12.9605    204.8691      6.3447   2.8949400823e+02   6.4714426804e+00    0.0488433   0.03244372   1.09  0.001486632    1.925    0.481
         3 -13.4568    189.1259     28.1358   2.8981109891e+02   6.3161240572e+00    0.1040785   0.06251732 -47.60   0.01033051    1.662    0.398
         4 -13.3999    200.3238     11.6820   2.8957964348e+02   6.4375809103e+00   0.06133486   0.04796644  52.32  0.004397132    1.370    0.270
         5 -10.9733     83.4403    244.1473   2.9236551488e+02   4.4647554347e+00   0.02137955   0.01312121  58.12  0.002012604    2.050    0.512
         6 -10.9428    248.9843    249.0982   2.9048698847e+02   3.4150390115e+00   0.02158783   0.01282905  29.64  0.002132176    1.668    0.401
         7 -11.2718    140.3324    250.0417   2.9174521218e+02   4.0562334191e+00   0.02421673  0.009869741  32.92  0.002012461    2.332    0.571
         8 -10.1443    111.2892    250.4558   2.9208284920e+02   4.2254395531e+00   0.01265215  0.006695988  22.05 0.0009104802    2.035    0.509
         9 -10.8700     98.7492    249.2936   2.9222042252e+02   4.3138880241e+00    0.0162053   0.01394177 -67.75  0.001283715    1.181    0.153
        10 -10.7609    102.5014    247.8643   2.9216833901e+02   4.3078919732e+00   0.01400586   0.01106804  62.95 0.0007772699    1.430    0.301
        11 -10.1486     67.2010    249.9373   2.9258850841e+02   4.4951681075e+00    0.0137029  0.008806599 -52.17  0.001103203    1.517    0.341
        12  -9.3514     63.0465    250.5671   2.9264032859e+02   4.5127430417e+00   0.01002691  0.006453931  27.35 0.0004201512    1.560    0.359
        13 -10.3448     37.2131    249.6219   2.9293276042e+02   4.6779353983e+00   0.01423256   0.01240848  29.66  0.001693869    1.149    0.130
        14 -10.9804     30.0502    249.8517   2.9301686441e+02   4.7180404890e+00   0.02375243   0.01698804  27.90  0.002111127    1.401    0.286
        15 -11.7590     35.3848    244.6610   2.9292346109e+02   4.7460004723e+00   0.03275081   0.02443657 -22.10  0.003526874    1.556    0.357
        16 -12.4408     27.2773    203.6045   2.9276526903e+02   5.2674115181e+00   0.02796793   0.01495088  39.84 0.0009965491    1.875    0.467
        17 -14.4416      5.5318    187.4316   2.9291733686e+02   5.5834722443e+00    0.2233085   0.07151248 -53.31  0.006305573    2.837    0.648
        18 -14.5099     54.5368    210.0764   2.9249004884e+02   5.0300409567e+00    0.4792977    0.1098681  42.23   0.02795658    4.918    0.797
        19  -9.9872     74.9985    243.4998   2.9245898952e+02   4.5227006627e+00  0.009918916  0.006448177  29.58 0.0004995356    1.529    0.346
        20 -10.1659     66.2087    242.8694   2.9255659370e+02   4.5825128490e+00   0.01000053  0.008952752  69.02 0.0005438199    1.200    0.167
        21  -9.5824    152.4700    248.4834   2.9159561726e+02   4.0014187133e+00  0.006568664  0.006425884 -31.12 5.725271e-05    1.015    0.015
        22  -9.7729     18.6005    241.0974   2.9309542843e+02   4.8872102399e+00   0.01460185  0.006725871  56.38  0.001039231    3.539    0.717
        23  -9.2562     52.5093    249.0739   2.9275281123e+02   4.5929034555e+00  0.009737344  0.006517774 -63.15 0.0004008256    1.500    0.333
        24  -9.0653     26.9493    239.8543   2.9299140255e+02   4.8517234065e+00   0.01066978  0.007694428  64.69  0.001104353    1.669    0.401
        25 -13.4337      9.9980    206.7807   2.9298443391e+02   5.3339056607e+00   0.05443032   0.04365038  -7.68  0.003402028    1.410    0.291
        26 -11.0496    233.2080    236.3472   2.9059008305e+02   3.6564814236e+00   0.02638265   0.01396437  87.16  0.001849043    3.990    0.749
        27  -9.0588    183.2834    238.3800   2.9117805604e+02   3.9328839220e+00  0.007180118  0.004787241 -32.28  0.000701163    1.724    0.420
        28 -13.9141     49.7767    224.4655   2.9263338608e+02   4.8927173454e+00   0.06044278   0.04917508 -85.65  0.005070401    1.369    0.269
        29  -9.4388     34.6225    229.4761   2.9283915660e+02   4.9254930815e+00   0.01169045   0.01043115 -81.65 0.0005533925    1.180    0.153
        30 -11.0116    151.8356    229.2102   2.9148432501e+02   4.2271031159e+00   0.01989706  0.008054219  24.04  0.001564501    2.683    0.627
        31  -8.6898     25.4595    227.2237   2.9293117746e+02   5.0061337312e+00  0.008909459  0.006514834 -78.72 0.0005799273    1.539    0.350
        32 -11.0471     46.3837    248.2129   2.9281824960e+02   4.6394100040e+00   0.01751627   0.01405597  74.54 0.0008460137    1.443    0.307
        33 -10.9095    173.6892    222.1144   2.9118850798e+02   4.1776796741e+00   0.02214286   0.01623104  66.12  0.002336813    1.642    0.391
        34  -9.2558     27.7800    221.8234   2.9287125365e+02   5.0545048606e+00  0.009644623  0.008875994 -22.75 0.0004669251    1.117    0.105
        35 -14.6972     20.6344    173.6034   2.9265781168e+02   5.6526966399e+00    0.3333861    0.1465576 -83.14   0.01757265    6.914    0.855
        36  -8.7652    152.4777    212.9232   2.9137661918e+02   4.4107604900e+00  0.009450465  0.006507051 -62.61 0.0003942203    1.454    0.312
        37 -11.3954     68.2001    198.6739   2.9226212181e+02   5.0797090462e+00   0.02164708   0.01236544 -39.17  0.001682424    1.957    0.489
        38  -9.7893    191.8784    193.0132   2.9079925756e+02   4.4034007227e+00   0.02299806   0.01187186  86.89  0.001503297    4.574    0.781
        39 -12.6357     43.8365    233.4174   2.9275692042e+02   4.8250702596e+00   0.02261085   0.01669147 -29.98 0.0008237789    1.511    0.338
        40 -11.5819     73.3635    190.9629   2.9215504423e+02   5.1376463332e+00   0.01524927   0.01151553 -38.63 0.0005374411    1.380    0.276
        41  -8.6085    105.0486    181.0304   2.9172782190e+02   5.0623480421e+00  0.007514548  0.007376741 -41.12 0.0002925546    1.008    0.008
        42 -10.7871     82.3364    178.3215   2.9197357226e+02   5.2295564125e+00   0.01203395   0.01097878 -36.42 0.0003503944    1.104    0.094
        43 -13.2191     69.8056    176.1010   2.9210472555e+02   5.3301164335e+00   0.02732228    0.0138508 -40.04  0.001812701    2.264    0.558
        44  -8.9038    171.7928    173.7751   2.9091232101e+02   4.7454734446e+00  0.009057448  0.007637411  68.45 0.0005028084    1.318    0.241
        45  -8.9290    131.3201    173.3249   2.9137686256e+02   4.9935870998e+00  0.007060452  0.004930781 -27.41 0.0003557479    1.678    0.404
        46 -11.8778     89.2326    168.5586   2.9183376233e+02   5.3007109465e+00   0.03014391   0.02922423 -28.38  0.003799312    1.029    0.029
        47  -9.1473    250.5313    171.5248   2.8999026429e+02   4.2978943120e+00  0.006504395  0.006484485 -65.05 -1.62519e-05    1.015    0.015
        48 -12.9038     66.1180    142.8585   2.9194267825e+02   5.7350374655e+00   0.07864822   0.04290945  77.39  0.003209493    3.727    0.732
        49  -9.0579    103.7027    148.1156   2.9154053428e+02   5.4494322782e+00   0.01102282  0.006746806 -36.60 0.0009176423    1.851    0.460
        50  -9.7804    100.7952    152.3684   2.9160036136e+02   5.4178880696e+00   0.01309618   0.01159757  -6.12 0.0007821562    1.197    0.165
        51  -8.6051    192.0133    143.9795   2.9049492206e+02   4.9668315470e+00  0.007915923  0.007483554 -57.53 0.0004022677    1.051    0.049
        52 -11.0251     32.5712    156.3391   2.9241363917e+02   5.7803103957e+00   0.01567827  0.009403124 -57.99  0.001552337    1.622    0.383
        53  -9.6885    174.3513    137.7324   2.9066021984e+02   5.1448971621e+00   0.01427598  0.009784305  63.11  0.001357988    1.803    0.445
        54  -9.5339    111.1794    137.4063   2.9138805661e+02   5.5279114026e+00   0.01647537   0.01028307 -25.10  0.001537338    2.095    0.523
        55 -10.7120     98.8192    134.9393   2.9151572715e+02   5.6304062667e+00   0.01559122   0.01056345 -37.37 0.0007809722    1.599    0.374
        56  -9.8693    167.6263    131.5973   2.9069997084e+02   5.2559126856e+00   0.01333759   0.01032317  58.06 0.0007368626    1.438    0.305
        57 -10.7523     29.7264    127.9995   2.9227214414e+02   6.1236981350e+00  0.009690729  0.008994088 -56.17  0.001181402    1.068    0.063
        58  -9.1028    108.0132    124.1029   2.9134256495e+02   5.7000413180e+00  0.009209492  0.009093456 -13.31 0.0002895744    1.010    0.009
        59  -9.8128    155.5284    120.7733   2.9077283057e+02   5.4531593979e+00   0.02153475   0.01041929  54.63  0.001685293    2.941    0.660
        60 -10.5069    192.7542    156.4622   2.9056349724e+02   4.8187502271e+00   0.02089589   0.01279635  67.74  0.001351704    2.361    0.576
        61 -11.9013     89.7675    151.8739   2.9172478500e+02   5.4896467016e+00   0.01414704   0.01161648 -29.77 0.0005971715    1.296    0.228
        62  -9.3447    203.3386    111.3474   2.9016241279e+02   5.2740674610e+00   0.01065999  0.007384781 -28.72 0.0007858706    1.683    0.406
        63 -10.6272    168.1120    113.2855   2.9058117383e+02   5.4636849976e+00   0.01670805   0.01258526  69.13 0.0009458826    1.590    0.371
        64 -10.2641     42.5324    108.4996   2.9200380981e+02   6.2717123101e+00   0.01125924  0.009319068 -72.80 0.0008835154    1.261    0.207
        65  -8.3097     28.4777     90.4941   2.9205550589e+02   6.5629674368e+00  0.006571725  0.006419098  66.83  0.000154266    1.051    0.049
        66  -9.9344     19.2816     67.2036   2.9201836309e+02   6.8859248391e+00   0.01610425  0.009273185  39.20  0.001049656    1.736    0.424
        67 -11.0894     17.9543     56.8159   2.9196964146e+02   7.0133640512e+00   0.03074555  0.009304998  37.87  0.001796814    3.107    0.678
        68 -11.6648      1.9827     50.3815   2.9211501301e+02   7.1826937318e+00   0.03140911  0.008356174 -60.55  0.002118079    3.544    0.718
        69 -10.6956    197.8154    244.6005   2.9104882971e+02   3.7740760090e+00   0.01630913  0.009368754  73.29  0.001310447    2.985    0.665
        70 -14.7888      3.5564    232.1601   2.9321441716e+02   5.0798869051e+00    0.8202639          nan -59.70   0.03491344    8.913    0.888
        71 -10.5798     81.5383    248.4420   2.9241383722e+02   4.4266665938e+00   0.01692935   0.01183931  82.86  0.001085243    1.858    0.462
