#   1 NUMBER                 Running object number                                     
#   2 MAG_AUTO               Kron-like elliptical aperture magnitude                    [mag]
#   3 X_IMAGE                Object position along x                                    [pixel]
#   4 Y_IMAGE                Object position along y                                    [pixel]
#   5 X_WORLD                Barycenter position along world x axis                     [deg]
#   6 Y_WORLD                Barycenter position along world y axis                     [deg]
#   7 A_WORLD                Profile RMS along major axis (world units)                 [deg]
#   8 B_WORLD                Profile RMS along minor axis (world units)                 [deg]
#   9 THETA_WORLD            Position angle (CCW/world-x)                               [deg]
#  10 FWHM_WORLD             FWHM assuming a gaussian core                              [deg]
#  11 ELONGATION             A_IMAGE/B_IMAGE                                           
#  12 ELLIPTICITY            1 - B_IMAGE/A_IMAGE                                       
         1 -13.4051    167.7782     56.5350   6.4940840973e+01   3.5809956212e+01     2.227193     1.394985  16.29  0.006621716    2.531    0.605
         2 -13.1073    182.1421     40.7678   5.7382418101e+01   3.4412614466e+01     1.033512    0.8103103 -37.37   0.00293455    1.279    0.218
         3 -12.6786    186.9190     34.4275   5.4682057819e+01   3.4010379715e+01    0.6440288     0.558643  -6.42  0.001530572    1.290    0.225
         4 -13.8123    203.6331      9.4542   4.5224480917e+01   3.2576627478e+01     1.126617     1.058091  50.55  0.003701344    1.170    0.145
         5 -11.5999    190.0165     14.9134   4.8388617075e+01   3.5520058211e+01    0.4188853    0.3325189  41.66   0.00126312    1.360    0.265
         6 -12.6033    229.7666      3.0317   4.1053151428e+01   2.6727332569e+01     1.967817    0.2830615  71.68  0.005361422    5.871    0.830
         7 -18.0480     44.4117    239.1014   1.2677731206e+02   2.1011642071e+01     6.371983     5.231182  67.70   0.05271432    1.276    0.216
         8 -13.6031    247.8495    244.5729   9.2571635483e+01  -1.0148843954e+01      1.72022    0.6937112 -29.66  0.009445215    2.765    0.638
         9 -11.7388    151.2999    195.8574   1.0230929710e+02   1.2631394171e+01    0.5080251    0.3456019  40.91  0.002556098    1.322    0.243
        10 -10.7983     81.8510    195.9531   1.1639247036e+02   2.4129926586e+01     0.313518    0.2856034 -44.89   0.00212993    1.530    0.346
        11 -11.7378     68.3158    194.4014   1.1892052012e+02   2.6329110471e+01     0.375894    0.3438555 -52.23  0.001804113    1.515    0.340
        12 -12.6731     12.0328    205.9300   1.3021746411e+02   3.0490490410e+01    0.4237513    0.1659654  44.42  0.002547671    2.171    0.539
        13  -9.6783    240.4525    169.4591   8.0261026299e+01   1.4236224359e-01     0.133813    0.1151296   4.08  7.62127e-05    1.012    0.012
        14  -9.5151    186.9676    165.6790   8.9523493478e+01   1.1130676815e+01    0.3335649    0.1963461 -50.47  0.001190289    2.011    0.503
        15  -9.1755    159.5404    194.7474   1.0047432713e+02   1.1316680092e+01    0.1647416    0.1302451 -68.06 0.0005491754    1.554    0.356
        16  -9.7769     60.4275    188.8881   1.1993283981e+02   2.8491211218e+01    0.2621135    0.1231457 -74.75  0.001336904    2.051    0.512
        17  -9.1332    117.7930    162.1990   1.0385881847e+02   2.5372438259e+01    0.2094113    0.1737497  81.22 0.0005209085    1.224    0.183
        18 -11.1737     95.7139    157.2010   1.0811500699e+02   3.0232385634e+01    0.2699639    0.2516354  73.19 0.0002324482    1.097    0.088
        19 -12.0623    100.6210    150.8873   1.0588547546e+02   3.0836749995e+01    0.5948614    0.4457038 -33.67  0.002106677    1.765    0.434
        20 -10.0115    113.5381    151.6051   1.0294046250e+02   2.8438909250e+01    0.3951003    0.2308774  83.96  0.001445781    3.218    0.689
        21 -10.4063    134.3969    149.1957   9.7572547224e+01   2.5044035702e+01    0.4576247    0.2653634 -62.10  0.001943768    2.033    0.508
        22 -10.7268    133.6797    144.1679   9.6704868856e+01   2.6265195544e+01    0.9224232    0.2547836 -55.60   0.00234723    5.398    0.815
        23  -8.9013    191.3266    151.6337   8.5651597265e+01   1.2748436253e+01    0.1485438    0.1185109 -82.86 0.0007037005    1.804    0.446
        24 -10.0217    174.3092    148.6636   8.8535613003e+01   1.6915823982e+01    0.3456692    0.2772925 -75.79  0.001460943    1.617    0.382
        25 -10.1954    143.7313    146.4478   9.4843339698e+01   2.3761781088e+01    0.3721851    0.2083687 -58.39  0.001530832    2.083    0.520
        26 -11.2041    110.5284    137.3308   1.0090265720e+02   3.2172087672e+01    0.4942119    0.3198904 -30.54  0.002146408    2.227    0.551
        27 -11.8070     99.5151    136.7064   1.0353537870e+02   3.4241416211e+01    0.2811687    0.2674707 -59.87  0.001213942    1.123    0.109
        28 -11.0325    105.8964    130.7799   1.0071963936e+02   3.4491127254e+01    0.3839985    0.3057694 -72.33  0.001182624    1.268    0.212
        29 -19.1282     31.0999    102.6042   1.1592824605e+02   5.1110412144e+01     16.49313    0.8393069 -65.84   0.02794475   15.146    0.934
        30 -10.1476    116.7416    128.6108   9.7495071541e+01   3.2992472134e+01     0.306238    0.2531515  11.81 0.0007652161    1.567    0.362
        31  -9.8270    160.6461    127.8021   8.6724861853e+01   2.4047993159e+01    0.3147964    0.2424085 -78.05  0.001436054    1.705    0.414
        32 -10.4886    104.7399    124.3929   9.9652126392e+01   3.6158737028e+01    0.2668737    0.2363853 -27.70 0.0007105108    1.307    0.235
        33 -10.8064    153.2392    184.1515   9.9971191743e+01   1.4397942520e+01    0.2969717    0.1861573 -59.01  0.001191015    1.915    0.478
        34  -9.4314    111.5381    118.0285   9.6427398727e+01   3.6367381543e+01    0.2155698    0.1957644  49.88 0.0003186072    1.142    0.124
        35  -9.8605    231.3020    113.6317   6.9190663413e+01   1.0698258290e+01    0.2630986    0.2359032   4.72  0.000686717    1.122    0.108
        36  -9.8835    168.1316    113.0147   8.1315949907e+01   2.5343594064e+01     0.383786    0.2648393 -64.22  0.001261355    1.885    0.469
        37  -9.8221    205.5264    110.2122   7.2910748212e+01   1.7103730784e+01    0.2855495    0.2386785  27.77 0.0006977387    1.268    0.211
        38 -11.0902    118.3505    109.7697   9.2615224297e+01   3.6910340834e+01    0.5611007    0.3319448  58.10  0.002313353    2.062    0.515
        39 -11.0773    193.1472    195.1743   9.3958778557e+01   5.0123089879e+00    0.9400322    0.4894788 -62.16  0.003057666    5.639    0.823
        40 -10.1953    134.5161    105.0080   8.7182804328e+01   3.4599357065e+01    0.4233107     0.150029 -44.54  0.001370058    2.759    0.638
        41  -9.4187    128.0114     95.2936   8.6186726735e+01   3.8068407139e+01    0.2193449    0.2049965  47.73  0.001154402    1.104    0.094
        42  -8.9254    151.6956     81.6791   7.6276385672e+01   3.5413971574e+01    0.1604035    0.1242559   9.63 0.0003938382    1.634    0.388
        43  -9.9818     87.4765    202.8174   1.1604507288e+02   2.1957985505e+01    0.3495167    0.2186014 -83.80  0.001996552    1.686    0.407
        44  -8.4973     75.0015     74.0184   9.5535573108e+01   5.2424916185e+01    0.1621387    0.1488611 -35.39 0.0003207613    1.040    0.038
        45  -9.2330    167.8207    229.4171   1.0414110409e+02   4.3241016795e+00    0.1653974    0.1564126  80.69 0.0003059673    1.281    0.219
        46 -10.1694     18.3882    219.1855   1.2986479922e+02   2.7396596712e+01   0.08180963   0.07300676  50.36 0.0006704417    1.588    0.370
        47 -10.1672    189.2892    178.4645   9.1604664457e+01   8.4559382793e+00    0.3746549    0.2976012  78.18   0.00132079    1.792    0.442
        48  -9.7154     13.5915     59.9199   1.1343449268e+02   6.1962464342e+01    0.1734217    0.1679643 -88.91 0.0004179987    1.295    0.228
        49 -10.0108    187.9209    173.7583   9.0957812030e+01   9.5269901114e+00    0.3357574    0.2589649 -75.15  0.001322976    1.941    0.485
        50 -12.2080    199.4704     23.8360   4.9786240211e+01   3.2050949588e+01    0.6398931    0.4135601 -81.85  0.002908007    1.771    0.435
        51  -9.7587    184.5859    212.7697   9.8556866454e+01   3.8792915991e+00     0.158855    0.1236293 -56.61 0.0009495882    1.696    0.410
        52 -11.9684     71.5739    210.0455   1.1983074330e+02   2.2818597984e+01    0.3581077    0.2308247  31.97 0.0005849254    1.974    0.493
