#   1 NUMBER                 Running object number                                     
#   2 MAG_AUTO               Kron-like elliptical aperture magnitude                    [mag]
#   3 X_IMAGE                Object position along x                                    [pixel]
#   4 Y_IMAGE                Object position along y                                    [pixel]
#   5 X_WORLD                Barycenter position along world x axis                     [deg]
#   6 Y_WORLD                Barycenter position along world y axis                     [deg]
#   7 A_WORLD                Profile RMS along major axis (world units)                 [deg]
#   8 B_WORLD                Profile RMS along minor axis (world units)                 [deg]
#   9 THETA_WORLD            Position angle (CCW/world-x)                               [deg]
#  10 FWHM_WORLD             FWHM assuming a gaussian core                              [deg]
#  11 ELONGATION             A_IMAGE/B_IMAGE                                           
#  12 ELLIPTICITY            1 - B_IMAGE/A_IMAGE                                       
         1 -10.8287    178.3070      5.0663   6.3444048951e+01   3.9389519360e+01     0.779682    0.5055551  65.75  0.003658878    1.495    0.331
         2  -8.2067    120.4953      8.5180   7.5425084610e+01   5.4205243513e+01    0.1510458    0.1305705  19.36 -5.258007e-06    1.026    0.025
         3  -9.1972    235.3784      4.3349   5.7009401071e+01   2.4657336915e+01    0.3669031    0.2475025 -27.63  0.001456541    1.386    0.278
         4 -11.2050    247.3190    246.2683   1.0924299559e+02  -3.8403006462e+00    0.9512448     0.507013 -25.55  0.006730541    2.296    0.564
         5 -11.7680    230.8303    245.0993   1.1160185433e+02  -1.5138599112e+00    0.9634824    0.5369082  30.82  0.006829389    1.220    0.180
         6  -9.3582    124.7981    248.2830   1.2889534548e+02   1.2866387255e+01    0.2277531    0.2128706 -48.74  0.001295713    1.519    0.342
         7 -17.5663     61.9218    244.1196   1.3851611798e+02   2.0972136770e+01     2.612824     1.837591  52.36  0.006147596    1.082    0.076
         8  -9.5128    132.1483    207.1167   1.2348293307e+02   1.7314608690e+01     0.329175    0.1680618  33.28  0.001826949    1.865    0.464
         9 -10.7036    241.5100    245.3276   1.0999458419e+02  -2.9887086263e+00    0.4722407    0.2988418  -2.28  0.003577222    1.596    0.373
        10  -8.8814    138.2700    200.1438   1.2149607291e+02   1.7417012925e+01    0.3299899    0.2147633  70.28  0.001515242    2.210    0.547
        11 -13.9850     57.6416    232.9098   1.3856379624e+02   2.3009992339e+01    0.2920599    0.2001339  33.03  0.001206669    1.652    0.395
        12 -10.0974    179.2548    199.0370   1.1374163596e+02   1.1069672355e+01     0.205949    0.1744053  33.61 0.0002135554    1.117    0.105
        13  -9.7248    113.7650    196.2281   1.2566307596e+02   2.1644315886e+01    0.3626455     0.205145  77.33  0.001775343    3.117    0.679
        14  -8.7007     14.9950    196.2351   1.4375661066e+02   3.2881524946e+01    0.3769217    0.1218102  65.03   0.00205654    2.843    0.648
        15  -9.4778     11.0598    192.0911   1.4425624598e+02   3.3906180927e+01     0.305786    0.1603537 -67.07  0.002200301    2.038    0.509
        16  -8.9508    186.1745    230.8602   1.1692307939e+02   6.2394555261e+00    0.4241757     0.150305 -46.53  0.002024987    4.614    0.783
        17  -8.5607    133.7180    249.2066   1.2754732462e+02   1.1578644813e+01    0.1570391    0.1505871   5.52 0.0006452032    1.428    0.300
        18  -9.2210    107.3839    189.3675   1.2610795303e+02   2.3666668992e+01    0.2387236    0.1629298  65.99   0.00150676    1.537    0.349
        19 -10.0958    119.2153    186.8058   1.2347549592e+02   2.2371515116e+01    0.5957213    0.1876808  42.68   0.00258962    2.614    0.617
        20  -7.9835    180.1123    184.1259   1.1124507223e+02   1.2909342166e+01    0.1873463    0.1441011  22.83 0.0003622438    1.167    0.143
        21  -8.2312     28.9225    184.2146   1.4069528312e+02   3.3731293080e+01    0.1827225    0.1259765  46.49 0.0008695893    1.332    0.249
        22  -9.1521     51.0176    170.4706   1.3546474603e+02   3.4064705413e+01    0.3980789    0.1798505  22.74  0.001901922    3.569    0.720
        23  -9.5742     36.5820    179.1200   1.3894740415e+02   3.3925684816e+01    0.6112797    0.3411871  11.71  0.003186724    3.948    0.747
        24  -9.0318     45.6953    166.2176   1.3619552491e+02   3.5417739938e+01    0.3205068     0.170495  26.83  0.001448199    2.313    0.568
        25  -8.9899     48.5932    177.0667   1.3647884591e+02   3.3099235457e+01    0.4842475    0.1507247  48.67  0.002405405    2.683    0.627
        26  -9.1102     44.5895    171.4414   1.3683529447e+02   3.4547304991e+01    0.3066225    0.1949582 -89.63  0.001866023    1.435    0.303
        27  -9.3275     34.9122    172.0425   1.3879399467e+02   3.5379293974e+01    0.3356821    0.2068733  78.76  0.001514653    1.418    0.295
        28  -8.7138     38.4230    168.3695   1.3783662084e+02   3.5730406879e+01    0.2680865    0.1592576  38.92  0.000887517    1.636    0.389
        29  -8.0342      8.3763    176.0940   1.4404839724e+02   3.6908623651e+01    0.1403352    0.1155994  59.53  0.000604605    1.233    0.189
        30  -8.0898    195.6196    170.3849   1.0592376917e+02   1.2067123082e+01    0.2789337    0.1653788  30.20  0.001466034    1.509    0.337
        31  -8.8617    112.8894    169.9761   1.2254601728e+02   2.6196073458e+01    0.2110567    0.1729866 -28.47  0.001012627    1.595    0.373
        32  -8.5932     12.5015    170.4666   1.4301688741e+02   3.7605660277e+01    0.2550699    0.1899428  33.91  0.001974147    1.574    0.365
        33  -9.3404     12.8659    167.3720   1.4279033138e+02   3.8146790003e+01    0.1821487    0.1717122  22.85 0.0005207786    1.526    0.345
        34  -7.8644    155.4715    167.2164   1.1325984805e+02   1.9693668181e+01    0.1605193    0.1264281 -63.67 0.0009346224    1.672    0.402
        35  -7.4597    142.4552    166.2260   1.1578170271e+02   2.2097243705e+01    0.1535005    0.1254946 -68.39 0.0004863771    1.517    0.341
        36  -9.0127     54.8294    163.8097   1.3409341860e+02   3.4918442299e+01    0.2062923    0.1386772  36.13  0.000856847    1.543    0.352
        37  -8.4782    116.5853    164.7415   1.2101953153e+02   2.6566905688e+01     0.285924    0.1846446  70.26  0.001496102    2.042    0.510
        38  -9.8830     73.0672    161.6758   1.2999852040e+02   3.3218595420e+01    0.3723629    0.1476882  35.17  0.001799136    2.479    0.597
        39  -9.6961    168.7059    218.3781   1.1831248359e+02   1.0299147166e+01    0.3315951    0.1070848  36.94  0.001497418    2.591    0.614
        40  -8.6612    184.4927    215.4784   1.1517250606e+02   8.2188455065e+00    0.1175608   0.08740711  30.68 -2.639632e-05    1.033    0.032
        41  -8.7741     49.1163    158.3297   1.3479869306e+02   3.6584923462e+01     0.236214    0.1158986 -71.83  0.001352704    1.901    0.474
        42  -7.4369      1.9596    158.9635   1.4448624060e+02   4.0522849731e+01    0.1196705   0.08880721  77.22 0.0004235568    1.010    0.010
        43  -8.4437    106.5910    157.6644   1.2215401896e+02   2.9397647936e+01    0.3439475    0.2123155  24.12  0.001646157    2.086    0.521
        44  -9.1426     65.4850    157.1772   1.3114830723e+02   3.5002470268e+01    0.2258349    0.1180706  51.02 0.0005296424    1.780    0.438
        45  -9.3027     38.3685    155.8343   1.3687081447e+02   3.8142153227e+01    0.1781579    0.1491539  40.11 0.0006885724    1.349    0.258
        46  -8.3451    116.5116    212.7958   1.2695311116e+02   1.8724940883e+01    0.1903863     0.150619  68.81  0.001416747    1.301    0.231
        47  -8.0425      7.4297    154.1156   1.4316679061e+02   4.1054967209e+01    0.1460652    0.1321072  46.18 0.0005162053    1.382    0.277
        48  -9.4694     95.6693    151.9398   1.2376382038e+02   3.2098853479e+01    0.2519039    0.2365692   1.32 0.0007329216    1.301    0.231
        49  -8.5727    111.4468    148.8286   1.1970913528e+02   3.0329198545e+01    0.2855964     0.238237 -73.25  0.001766355    1.287    0.223
        50  -9.9805     11.3899    207.3256   1.4479338421e+02   3.1364809933e+01    0.3661284    0.3025636  64.96  0.002903238    1.254    0.202
        51 -10.2333     70.2910    145.0155   1.2864581077e+02   3.6854512669e+01    0.4518576    0.2547521 -71.76  0.002495699    1.768    0.434
        52  -9.9690     66.5282    142.3979   1.2919423052e+02   3.7842290362e+01    0.3542506    0.2253472  79.35  0.002014468    1.739    0.425
        53  -8.3438     53.6090    146.5420   1.3265032214e+02   3.8456498165e+01    0.2732802    0.1044502 -75.20  0.001244433    2.763    0.638
        54  -8.5568      9.1695    147.7514   1.4245979796e+02   4.2162723371e+01    0.2065206    0.1050492  37.71  0.000734709    1.948    0.487
        55  -9.1691    124.9304    144.8023   1.1595504601e+02   2.8895208865e+01    0.2009936    0.1857896 -68.42 0.0002377219    1.163    0.140
        56  -8.8628     44.1245    146.0285   1.3473986084e+02   3.9537979185e+01    0.1895766    0.1562807  47.72 0.0009043448    1.256    0.204
        57  -8.4689    106.4059    137.3052   1.1896248526e+02   3.3378869166e+01    0.2123768    0.1827612  53.60  0.000274672    1.114    0.102
        58  -8.3189     75.6974    137.0331   1.2630291183e+02   3.7816736516e+01     0.327313    0.1819039 -39.48  0.001579056    2.549    0.608
        59  -8.4572    190.0502    135.7652   1.0001246215e+02   1.8151291161e+01    0.2180183    0.1879308 -11.97 0.0004145442    1.159    0.137
        60  -8.5089     70.0334    134.5113   1.2732228299e+02   3.9052380191e+01    0.2402578    0.1073095  39.91  0.001167673    2.168    0.539
        61  -9.0786     61.5067    133.5048   1.2926344712e+02   4.0275137153e+01    0.1780076    0.1434762 -38.58  0.001140882    1.544    0.353
        62  -7.3103     55.6506    134.3207   1.3078515069e+02   4.0757595474e+01    0.1275958   0.07819931  67.93 0.0007048596    1.741    0.426
        63  -8.5250    122.1955    129.8910   1.1380498253e+02   3.2240326050e+01    0.2154508    0.1794198  43.67 0.0003395001    1.154    0.134
        64 -10.0429    235.9112    127.9470   8.9735367227e+01   1.0060291907e+01    0.2711987    0.2143906  26.06 0.0004781834    1.143    0.125
        65  -7.5790     69.7687    120.3829   1.2530419271e+02   4.2090257684e+01    0.1532427    0.1216225  24.08 0.0004596178    1.494    0.331
        66  -7.1695     66.6701    117.3024   1.2563083062e+02   4.3136807633e+01    0.1294383    0.0888368  71.27 0.0006795654    1.649    0.394
        67  -7.7365     46.8136    115.3475   1.3059875496e+02   4.5745678998e+01    0.1430943    0.1152863  11.80 0.0002590074    1.627    0.385
        68  -7.4906    182.4736    113.4073   9.6319129771e+01   2.3289173487e+01    0.1493045    0.1323477  18.00 0.0001609441    1.022    0.021
        69  -8.7603    239.5103    109.0860   8.4666061953e+01   1.1734629776e+01    0.2482432    0.2265638 -58.63  0.001214369    1.555    0.357
        70  -7.3277     25.2975    110.6800   1.3571424038e+02   4.8654229809e+01    0.1181282   0.07355947  71.78 0.0002506799    1.617    0.382
        71  -7.2207    186.2433    108.0137   9.4176008695e+01   2.3342600077e+01    0.1846329     0.123203 -29.09 0.0004147167    1.507    0.336
        72  -8.0238     15.9535     96.4926   1.3671264965e+02   5.2421460744e+01    0.1418846    0.1145168  26.94  0.001016459    1.542    0.351
        73  -8.1466     66.0610     94.4645   1.2174198355e+02   4.8255669576e+01    0.3128927    0.1278753  32.90  0.001348638    2.690    0.628
        74  -7.2297    207.3953     87.4737   8.4588189787e+01   2.1693793187e+01    0.1541246    0.1316096   6.85 0.0001922599    1.079    0.073
        75  -7.6284    152.9907     68.9844   9.0421821569e+01   3.7546955278e+01    0.1833829    0.1697688  16.93            0    1.031    0.030
        76  -8.2898    190.6391     65.6875   8.1403100673e+01   2.8886186982e+01    0.2511125     0.206342  12.73 0.0009615073    1.205    0.170
        77  -8.6902    154.2123     56.1240   8.5921052716e+01   3.9378287517e+01    0.3383878    0.2256158  58.57   0.00115741    1.651    0.394
        78  -8.4668    131.0934     53.9964   9.0907874188e+01   4.5197194114e+01    0.2250925     0.210391  -3.17 0.0003029628    1.030    0.029
        79  -9.7676    245.8282     52.6166   6.9107489124e+01   1.7286876752e+01    0.2826236    0.2481794  28.23 0.0007166535    1.154    0.134
        80  -9.2677    249.7162     48.2291   6.7463894328e+01   1.6903208690e+01    0.3270278    0.2647052  13.65 0.0009975043    1.244    0.196
        81  -7.5636    239.5332     42.4959   6.7126316872e+01   1.9873324702e+01    0.1415932    0.1286159 -20.76 4.874516e-05    1.048    0.046
        82 -10.4208    165.1266     40.9589   7.8336380123e+01   3.8876028736e+01    0.7574099    0.4725631  30.69  0.003197654    1.738    0.425
        83  -7.0211    187.2868     39.2612   7.3650711684e+01   3.3332210248e+01    0.1548049    0.1092007  27.53 0.0001757122    1.488    0.328
        84  -7.8377    230.6983     35.6339   6.6277527996e+01   2.2733557024e+01    0.1540552    0.1013367  22.23 0.0007034542    1.735    0.424
        85  -8.9953    170.6150     33.1794   7.4554401199e+01   3.8463484096e+01    0.3386696    0.2622775 -13.88 0.0008112294    1.280    0.219
        86  -7.8980    159.4502     31.4313   7.6083574969e+01   4.1605645206e+01     0.333994    0.1932205  16.70  0.001094843    2.249    0.555
        87 -10.3028    141.1587     30.3608   7.9614548317e+01   4.6425929741e+01    0.2881742    0.2414349 -13.78 0.0003473716    1.155    0.134
        88  -7.1024    152.2544     25.6989   7.5414200451e+01   4.4192710801e+01    0.1463234    0.1162591 -52.22 0.0001668967    1.503    0.335
        89  -8.3724    144.4772    209.7638   1.2154882545e+02   1.5101136461e+01     0.204293    0.1342132  15.71 0.0009435015    2.103    0.524
        90  -9.2388     13.6828    242.6372   1.4561886279e+02   2.5874885854e+01    0.2986277    0.1309355 -84.95  0.001795493    2.191    0.544
