#   1 NUMBER                 Running object number                                     
#   2 MAG_AUTO               Kron-like elliptical aperture magnitude                    [mag]
#   3 X_IMAGE                Object position along x                                    [pixel]
#   4 Y_IMAGE                Object position along y                                    [pixel]
#   5 X_WORLD                Barycenter position along world x axis                     [deg]
#   6 Y_WORLD                Barycenter position along world y axis                     [deg]
#   7 A_WORLD                Profile RMS along major axis (world units)                 [deg]
#   8 B_WORLD                Profile RMS along minor axis (world units)                 [deg]
#   9 THETA_WORLD            Position angle (CCW/world-x)                               [deg]
#  10 FWHM_WORLD             FWHM assuming a gaussian core                              [deg]
#  11 ELONGATION             A_IMAGE/B_IMAGE                                           
#  12 ELLIPTICITY            1 - B_IMAGE/A_IMAGE                                       
         1 -12.9262    204.4606     46.0775   2.9715595440e+01   2.7750249953e+01     1.043283     1.012374  32.48  0.003216611    1.093    0.085
         2 -13.2522    215.5532     36.6623   2.5462050165e+01   2.6116128546e+01     1.025586    0.7934757  40.28  0.002024458    1.438    0.304
         3 -11.3126      2.0966      8.0643   7.7030472411e+01   7.1852314149e+01    0.9101916    0.1113319 -53.22  0.003223771    5.141    0.805
         4 -12.8455    242.3987     11.8126   1.5978619684e+01   2.2321829421e+01     0.929369    0.8149108 -63.41  0.004512872    1.044    0.042
         5 -11.6899      2.3389     23.9561   8.2357298168e+01   6.9056240032e+01    0.6331581    0.1483228 -59.08  0.002718929    3.329    0.700
         6 -10.8070     52.0192      4.6777   5.2316338514e+01   6.7438919464e+01    0.3602031    0.2908393 -76.29  0.002038888    2.955    0.662
         7 -10.3431    161.7291    225.5474   7.8405180553e+01   6.6881448033e+00    0.2217097     0.152316 -28.45  0.001288751    2.163    0.538
         8 -10.4226    106.2044    249.3794   9.0692022566e+01   1.2165424655e+01    0.2918517    0.1398008  52.63  0.001321538    1.557    0.358
         9  -9.8998     76.8324    240.1841   9.4722700896e+01   1.7798886312e+01    0.1980131    0.1203772  46.26 0.0002966677    1.454    0.312
        10 -11.5023     75.3502    247.2794   9.5495744068e+01   1.6869018767e+01    0.4307488    0.3139988 -57.82  0.003206227    1.991    0.498
        11 -11.9535     71.7957    245.0967   9.5900555863e+01   1.7689575470e+01    0.4852893    0.3242882 -83.28  0.002694974    1.503    0.335
        12 -13.0943     49.5564    182.0378   9.4641662799e+01   3.1939120324e+01     1.193157     0.632141  76.50  0.006660297    1.881    0.468
        13 -15.3637     35.6046    189.1662   9.7892909418e+01   3.2113543139e+01     6.639184     2.061635  66.14   0.01692073    5.466    0.817
        14 -17.0634      9.6399    238.8762   1.0498131849e+02   2.5912469305e+01      3.92869     1.830432  35.62   0.01632695    2.721    0.632
        15 -10.3754     72.8453    202.8081   9.2182128651e+01   2.4891611537e+01     0.384701     0.219502 -59.46  0.001624565    1.970    0.492
        16  -9.5078     86.0850    204.0493   8.9832606798e+01   2.2778261097e+01    0.1929224    0.1594226  54.37 0.0004066231    1.228    0.186
        17  -8.5855     89.8235    202.1254   8.8919814483e+01   2.2583934144e+01    0.1461871    0.1357987  66.76 0.0004367163    1.306    0.234
        18  -9.8585    128.7477    200.6089   8.1210500466e+01   1.6540570628e+01    0.1891218    0.1015275  52.28 0.0007198614    1.619    0.382
        19 -10.7067    192.4765    194.1599   6.7799183660e+01   5.7422863282e+00    0.7335519    0.3780707 -61.91   0.00251269    5.081    0.803
        20  -9.2172     82.5325    195.4864   8.9593445279e+01   2.4919562320e+01    0.2024536    0.1134257  32.69  0.001041856    2.311    0.567
        21  -8.1714     87.4824    188.4673   8.7822916664e+01   2.5558029626e+01      0.12783   0.09999892  71.93 0.0003262063    1.070    0.065
        22 -10.4742     99.1517    181.1728   8.4528585384e+01   2.5201764303e+01    0.2928958    0.2470466 -71.07  0.001402515    1.245    0.197
        23  -9.9580    120.4817    180.0737   7.9929617369e+01   2.1833964767e+01    0.2185206    0.1647567  68.81 0.0005575595    1.279    0.218
        24 -10.3760     59.9590    175.3408   9.1898813822e+01   3.2023398792e+01     0.334134    0.1719983 -66.00  0.001843116    1.806    0.446
        25  -9.3335     71.3307    175.8299   8.9619853019e+01   3.0422516038e+01     0.197678    0.1404433  66.36 0.0006916152    1.237    0.191
        26 -12.6838     95.4755    167.9834   8.3474598270e+01   2.8483825593e+01     1.991338    0.5851008  52.56  0.006517748    4.145    0.759
        27 -13.2691     59.7673    131.1531   8.6275599805e+01   4.1590751877e+01     1.679434    0.9253636 -84.43  0.008101556    2.102    0.524
        28 -11.8648     78.3189    156.3435   8.5605472994e+01   3.3556426902e+01    0.6884426    0.3785137  55.59  0.003492985    1.816    0.449
        29 -12.7590     66.4862    151.2933   8.7586003765e+01   3.6281422577e+01    0.4942954    0.4473205 -27.51  0.001040796    1.552    0.356
        30 -12.5558     69.7655    144.6513   8.5887002334e+01   3.7301098078e+01    0.8052762    0.4171416  60.57  0.003547808    2.225    0.551
        31 -11.0276     60.5681    164.3168   9.0537984184e+01   3.4247023591e+01    0.8641369    0.3627881  72.09  0.003016494    4.612    0.783
        32 -11.3887     64.7084    168.7074   9.0172060263e+01   3.2788900141e+01    0.3319988    0.2412463 -40.65  0.001950008    2.046    0.511
        33 -11.7345     69.4727    164.1806   8.8605954634e+01   3.3110255948e+01    0.4728699    0.3745998  60.91  0.002558351    1.175    0.149
        34  -9.8481    110.5586    167.2688   8.0078322472e+01   2.6136074305e+01    0.2566597    0.1990584  88.49 0.0008881151    1.315    0.240
        35 -15.2394      7.0083    145.6548   1.0008032064e+02   4.3606299308e+01     7.128668    0.9659176 -76.08    0.0209696    6.919    0.855
        36 -10.7529    242.3277    169.6569   5.3931178141e+01  -2.9181353338e-01    0.1936547     0.172024 -80.46   0.00113478    1.733    0.423
        37  -9.0477     89.4066    158.2390   8.3383973013e+01   3.1496367923e+01    0.2285167    0.1195947 -75.19  0.000801269    2.235    0.553
        38 -11.5868     85.6232    150.6132   8.3084601629e+01   3.3723837280e+01    0.5398362      0.46025 -49.13  0.001893458    1.371    0.271
        39 -10.3645     29.9566    156.1491   9.6175333761e+01   3.9412280405e+01    0.4072616     0.263018  20.28  0.002063868    2.394    0.582
        40 -10.8159     22.7991    155.9083   9.7648945989e+01   4.0141901486e+01    0.2751306    0.1988475  81.40  0.000796025    1.111    0.100
        41 -10.8069    133.6409    145.3140   7.0948495897e+01   2.6441682245e+01     1.105557    0.2788861 -55.03  0.002806844    5.786    0.827
        42  -9.1122    174.8895    149.1293   6.2590594890e+01   1.7036959393e+01    0.2292456    0.2038784  79.69 0.0009268961    1.264    0.209
        43 -10.5221     23.5435    147.3334   9.6704331902e+01   4.1879703040e+01    0.3842663    0.1620752  61.94  0.001909073    2.641    0.621
        44 -10.0784    229.6146    171.8106   5.6623321616e+01   1.8412202674e+00     0.183614    0.1240569 -41.47 0.0009516604    1.716    0.417
        45  -9.9761     32.9625    143.8705   9.4274986582e+01   4.1735941842e+01    0.3538843    0.2104009  57.13  0.002149851    1.671    0.401
        46 -10.5871    100.8059    136.9156   7.7122204019e+01   3.4305108045e+01    0.5056921    0.3372569 -23.18   0.00218561    2.745    0.636
        47 -11.5520     87.7761    136.0396   8.0156139540e+01   3.6608290214e+01    0.2781726    0.2329287 -67.79 0.0003982676    1.120    0.107
        48  -9.7231     54.3797    137.9069   8.8572339662e+01   4.0736795746e+01    0.2093197    0.1692536  58.72 0.0003897677    1.256    0.204
        49 -10.2545    135.9020    130.2856   6.7240603570e+01   2.9146455975e+01    0.4237794    0.1987575 -43.66  0.001642279    2.257    0.557
        50  -9.6161    105.5539    130.4137   7.4688453608e+01   3.4923238638e+01    0.3171077    0.2812256  49.25  0.001818817    1.162    0.139
        51  -9.4563    110.2442    128.3457   7.3095928344e+01   3.4542957460e+01    0.2694038    0.2269331 -10.39 0.0008354267    1.609    0.379
        52  -9.5333     43.2245    129.4292   9.0107278523e+01   4.3858650399e+01    0.2350518    0.1494327  45.25  0.001398745    1.685    0.407
        53 -13.2300     28.5888    247.5545   1.0262991986e+02   2.2539010809e+01    0.3815093    0.2209443 -88.63  0.001255471    1.484    0.326
        54 -10.1914     97.3267    124.0038   7.5470086292e+01   3.7756706792e+01    0.2860419    0.2504411   3.56 0.0008759902    1.490    0.329
        55  -9.4475    141.2269    123.2328   6.4352706687e+01   2.9515218339e+01    0.2636158    0.2228264 -89.89 0.0006046186    1.338    0.253
        56  -9.3241    116.4796    123.4659   7.0488530247e+01   3.4458688936e+01    0.1426333    0.1390293 -79.18 0.0008086967    1.057    0.054
        57  -9.4391    122.1341    121.2559   6.8574683314e+01   3.3850524835e+01    0.2943827    0.1961094 -80.53 0.0008946013    2.166    0.538
        58  -9.1416    162.6435    119.9775   5.8568622985e+01   2.5433431604e+01    0.2655195    0.2153529  84.14 0.0009450216    1.504    0.335
        59  -9.1125    106.9878    117.7081   7.1636489326e+01   3.7477848399e+01    0.1894458    0.1777636  60.38 0.0003380569    1.085    0.079
        60  -9.4231    158.9637    115.2353   5.8228226723e+01   2.7224284138e+01    0.2620911    0.2104339 -72.71 0.0005390775    1.495    0.331
        61 -10.4331     19.7470    113.4354   9.3888993640e+01   4.9521252189e+01    0.2970595    0.1427004  51.71  0.000866692    2.388    0.581
        62 -10.6584     52.5587    110.5189   8.4769571019e+01   4.7071087654e+01    0.2679276    0.2067696  80.87  0.001434738    1.364    0.267
        63  -9.0024    114.6682    109.0102   6.7609584490e+01   3.7958981995e+01     0.243334    0.1109426 -31.85 0.0007049568    4.318    0.768
        64  -9.9459     28.7495    107.5161   9.0730360857e+01   5.0090031719e+01    0.1844147     0.123335  18.19 0.0004292447    2.040    0.510
        65  -9.6600    134.2840    105.4445   6.1666742949e+01   3.4733829692e+01    0.4118198    0.1282857 -49.77  0.001210646    3.584    0.721
        66  -9.4248    205.6164    110.2608   4.7089617794e+01   1.7067705037e+01    0.2737525     0.245326  39.07   0.00059627    1.098    0.089
        67 -10.5535     19.0610     91.3086   9.0980872211e+01   5.4398054330e+01    0.2998976    0.1570205  59.53  0.001582772    2.594    0.614
        68  -9.6141     95.8254     89.5344   6.7844813342e+01   4.5611244266e+01    0.2579601    0.2101312 -86.51 0.0007408625    1.498    0.333
        69  -8.5857     77.5397     90.0369   7.3325405837e+01   4.8416865138e+01     0.199753    0.1222043 -52.90 3.072746e-05    1.470    0.320
        70  -8.4339    160.4920     84.5205   4.9540124364e+01   3.2852121443e+01    0.1563127    0.1526307  29.10 -2.878102e-05    1.018    0.018
        71 -13.8740     53.4338    229.3198   9.7738781052e+01   2.2655508942e+01    0.7852665    0.4631666  75.35 0.0009716191    1.391    0.281
        72 -10.9965     13.3901     60.0495   8.7117063578e+01   6.1408506424e+01    0.2569517    0.1727392 -65.41 0.0004902066    1.231    0.188
        73 -12.3042    193.8250     53.2256   3.3529720466e+01   2.9527880711e+01    0.7529463    0.5707445  22.92  0.001428836    1.598    0.374
        74 -15.3561      8.8003    208.0390   1.0370275264e+02   3.1279527220e+01     1.091479     0.963177 -56.39  0.009424511    1.874    0.466
        75  -9.9231    118.8452    237.7220   8.7450654457e+01   1.2001587556e+01    0.1636146    0.1492097  84.57 0.0004603113    1.304    0.233
        76  -8.7853    106.6579    236.7256   8.9441041348e+01   1.4044995762e+01    0.1021891   0.08300026  33.09 0.0002032996    1.617    0.382
        77 -11.0170    149.3122    228.7953   8.1065943707e+01   8.3527338670e+00    0.3088982    0.2113221 -25.84  0.001746984    2.514    0.602
        78 -11.4113    134.9412    208.8078   8.1125561920e+01   1.4032000738e+01    0.6122715    0.1971166  37.20  0.002128641    3.868    0.742
        79  -8.8739     60.4747     20.9893   5.6469383318e+01   6.3974840637e+01     0.184288    0.1077633 -33.74 0.0004525106    1.525    0.344
