#   1 NUMBER                 Running object number                                     
#   2 MAG_AUTO               Kron-like elliptical aperture magnitude                    [mag]
#   3 X_IMAGE                Object position along x                                    [pixel]
#   4 Y_IMAGE                Object position along y                                    [pixel]
#   5 X_WORLD                Barycenter position along world x axis                     [deg]
#   6 Y_WORLD                Barycenter position along world y axis                     [deg]
#   7 A_WORLD                Profile RMS along major axis (world units)                 [deg]
#   8 B_WORLD                Profile RMS along minor axis (world units)                 [deg]
#   9 THETA_WORLD            Position angle (CCW/world-x)                               [deg]
#  10 FWHM_WORLD             FWHM assuming a gaussian core                              [deg]
#  11 ELONGATION             A_IMAGE/B_IMAGE                                           
#  12 ELLIPTICITY            1 - B_IMAGE/A_IMAGE                                       
         1 -14.0971    218.4992     14.0209   4.2667811334e+01   2.8262778992e+01     1.389989     1.030938  30.54  0.003948562    1.722    0.419
         2 -12.7733    210.9304     22.8082   4.5864071489e+01   2.9165794189e+01    0.6532712     0.525793  14.95  0.001101866    1.536    0.349
         3 -13.8590    194.9713     37.0824   5.1997613659e+01   3.1483096640e+01     1.581381     1.178176   0.57  0.004022363    1.643    0.391
         4 -13.8012    203.1035     30.8955   4.9096777219e+01   3.0181767701e+01     1.427876    0.9741793 -31.35  0.005306045    1.394    0.283
         5 -12.4956      3.3938      5.4735   9.9328923484e+01   7.4875929040e+01    0.8399074    0.3246362 -44.43  0.004494507    1.860    0.462
         6 -11.3040     54.9122      5.2068   7.1545238661e+01   6.8608124514e+01    0.2404689    0.1825853  57.30  0.001417709    1.802    0.445
         7 -10.9422    184.0335    215.7009   9.6636827605e+01   4.6102667308e+00      0.18068    0.1371342  34.90 0.0008990825    1.093    0.085
         8 -15.6580     85.7265    245.8100   1.1771738762e+02   1.4919175754e+01     7.805215     1.714596  36.49   0.01804055    5.160    0.806
         9 -11.5116    193.6560    194.3595   9.1409969428e+01   6.0328691848e+00    0.6676143    0.4280901 -55.87  0.003439694    2.380    0.580
        10  -9.6581     96.7847    191.9202   1.1034898907e+02   2.2786904945e+01    0.2325599    0.1623976  11.53  0.001171296    2.573    0.611
        11 -12.0128     65.9455    181.8400   1.1569414049e+02   2.9205821181e+01    0.3610853    0.2699962 -39.56  0.002141337    2.002    0.500
        12 -11.8773     70.7412    176.2314   1.1403891321e+02   2.9746878638e+01    0.2661982    0.2428082 -40.99  0.000828548    1.492    0.330
        13  -9.6529    207.6691    183.0235   8.6795271102e+01   5.2485547690e+00    0.1980156    0.1002368 -55.15 0.0007045434    4.495    0.778
        14  -9.2827     99.4942    180.5043   1.0830292624e+02   2.4646693563e+01    0.1305585    0.1132746  67.83 0.0008106536    1.002    0.002
        15  -9.3881    211.3273    178.6642   8.5307343529e+01   5.2377780936e+00    0.1197666    0.1068546 -88.81 0.0007051763    1.723    0.420
        16 -10.5449     39.3719    177.1408   1.2090197581e+02   3.3413576508e+01     0.221589    0.1419892  52.68 0.0007475414    1.387    0.279
        17 -13.3480     67.4363    162.5098   1.1313689057e+02   3.3177829940e+01    0.4553551     0.303452 -48.02  0.001489074    1.841    0.457
        18 -12.9969     57.8019    130.8551   1.1113643296e+02   4.1754408715e+01     2.611512     0.766262 -74.82  0.005813944    8.509    0.882
        19 -14.1650     83.2777    159.2890   1.0899140601e+02   3.1652072260e+01     4.027747     1.084366  51.41   0.00214338    5.069    0.803
        20 -10.2648     35.8944    166.9291   1.2076874889e+02   3.5990921739e+01    0.1664828    0.1438495 -78.29 0.0002953474    1.258    0.205
        21  -9.1257    190.2983    160.6507   8.5660654043e+01   1.1957576345e+01    0.1331953    0.1126256 -81.98 0.0007035928    1.685    0.407
        22  -9.7581    174.8325    148.8219   8.6266173868e+01   1.7111727321e+01     0.194441    0.1745966  83.96 0.0005236675    1.349    0.259
        23 -10.8462    133.6340    144.1012   9.4348284233e+01   2.6303579044e+01    0.9767824    0.2204022 -53.92  0.002254948    6.739    0.852
        24  -9.9091     39.1419    146.2515   1.1795875279e+02   4.0295817917e+01    0.1773488    0.1549135 -81.88 0.0006239361    1.158    0.136
        25 -10.2392    100.0183    144.2518   1.0249043261e+02   3.2380951148e+01    0.2745281    0.2363935  77.63 0.0006908716    1.125    0.111
        26  -9.9756    102.7612    140.8303   1.0117594420e+02   3.2689992981e+01    0.3652482    0.2637226 -21.41  0.001361783    2.184    0.542
        27 -12.3808     88.0659    143.1508   1.0527961899e+02   3.4573835941e+01    0.3590781    0.2950041  20.54 0.0009596522    1.568    0.362
        28 -10.3867     27.4869    143.4857   1.2051963888e+02   4.2110031582e+01    0.1238809   0.09826877 -88.78 6.342001e-05    1.028    0.027
        29  -9.3621     79.5398    139.6899   1.0685866154e+02   3.6678880141e+01    0.1869185    0.1236299 -77.17 0.0009332756    1.525    0.344
        30 -13.3097     68.4616    144.3448   1.1040972401e+02   3.7174592187e+01    0.9123049    0.5623766  82.50  0.003425466    1.857    0.461
        31  -9.1857    156.3308    138.2707   8.7905445148e+01   2.2941146495e+01    0.1472094    0.1158884  10.14 0.0002127772    1.587    0.370
        32 -11.7558     66.9464    127.4836   1.0811691356e+02   4.1362228046e+01    0.9069488    0.2840599 -70.08  0.002660651    4.577    0.782
        33 -10.0543    110.5060    132.1902   9.7507459987e+01   3.3279913430e+01    0.2676145    0.2293516  -5.49  0.001049747    1.532    0.347
        34 -10.0622    105.9290    130.7072   9.8368325257e+01   3.4442509656e+01    0.3230253    0.2634004  81.40  0.001223346    1.320    0.243
        35 -10.6973    160.1431    128.8479   8.4875818551e+01   2.4019775453e+01    0.3875658    0.2872936   0.52  0.001745646    1.868    0.465
        36  -8.6686    166.3022    173.6408   9.2997975021e+01   1.4295230567e+01    0.1345146    0.1078834  84.08 0.0007037765    1.719    0.418
        37 -11.0218     46.0343    129.3247   1.1406900933e+02   4.3519276099e+01    0.2862906      0.17982  19.22  0.001478391    2.257    0.557
        38 -10.4817    195.3715    169.1217   8.6397447813e+01   9.5996132876e+00    0.3090983    0.2811173  44.92  0.001104192    1.207    0.171
        39 -10.0099    117.2161    126.0126   9.4462606645e+01   3.3423330709e+01    0.2165039    0.1937127 -61.53  0.001166348    1.084    0.078
        40 -10.9915     97.9341    128.6022   1.0001403615e+02   3.6324976302e+01    0.2781876    0.2540939 -12.46 0.0007509365    1.357    0.263
        41  -9.6975    107.2810    120.2467   9.5743228573e+01   3.6597960259e+01    0.2027433    0.1881577 -50.39 0.0005158567    1.097    0.089
        42 -16.1225     11.7612    241.1759   1.2957479692e+02   2.4209837640e+01     2.270573     1.669096  51.00   0.01001482    1.353    0.261
        43 -10.0074    167.8748    112.7437   7.9153187224e+01   2.5494814807e+01     0.373436     0.271783 -70.51  0.001297527    1.882    0.469
        44  -9.9263    205.2217    110.1679   7.1091004455e+01   1.7507306816e+01    0.2908806    0.2004372  36.79 0.0009928112    1.558    0.358
        45 -11.4912     79.8774    166.2277   1.1074833409e+02   3.0622396414e+01    0.2547258    0.2305079 -87.87 0.0002916795    1.117    0.105
        46  -9.3687     91.4613    102.5169   9.5929865527e+01   4.3544353024e+01    0.2363738     0.134426  52.56 0.0005944349    2.034    0.508
        47  -9.3746     24.9301     82.4921   1.1287881846e+02   5.6840606729e+01    0.1546115    0.1297664  22.92 0.0004067713    1.492    0.330
        48  -9.5306    158.2564     79.9988   7.1976477093e+01   3.4063506023e+01    0.2056392    0.1329088 -36.23 0.0004615815    1.497    0.332
        49 -14.8551      9.1142    207.1452   1.2864737486e+02   3.0466097539e+01     1.108021     0.983385  61.97  0.004791782    1.427    0.299
        50 -10.1310     13.4463     59.8968   1.1254174685e+02   6.2959139419e+01    0.1944138    0.1643919 -37.40 0.0004227155    1.240    0.194
        51 -12.5301    145.0633     49.7808   6.4908634996e+01   4.2619575928e+01    0.8366823    0.4906751 -77.50 0.0009943336    3.538    0.717
        52 -13.7208     40.2438    210.1582   1.2319292329e+02   2.6701716880e+01    0.7044935    0.5516848 -58.68  0.001640199    1.731    0.422
        53 -15.8661     48.3022    200.0639   1.2094697729e+02   2.7711458524e+01     6.590288     1.737733  54.42   0.02620861    3.667    0.727
        54 -15.6749      4.2266    180.6297   1.2829938469e+02   3.6101694527e+01     6.617048    0.7943796 -75.20   0.02307493    5.377    0.814
        55  -9.0545     96.2787    201.3082   1.1156113469e+02   2.1064030162e+01    0.1057366   0.09735389 -10.64 0.0002364033    1.557    0.358
        56 -11.5820    147.9999     44.2887   6.2334599757e+01   4.2721879593e+01    0.5063466      0.32888 -80.94  0.001312656    2.354    0.575
        57 -10.7662    143.7895     40.8457   6.1973298591e+01   4.4310585855e+01    0.2764954    0.2126337  69.07 0.0005757546    1.398    0.284
        58  -9.5334     95.1847     41.8511   7.4932996282e+01   5.5569415521e+01    0.2944056    0.1509336 -46.34  0.001199598    2.123    0.529
        59 -11.0467     71.6128    230.0309   1.1894335282e+02   1.9326750726e+01    0.2152785    0.1612683  64.13 0.0006327062    1.034    0.033
        60 -10.9772    189.8388     15.1377   4.5902767457e+01   3.5425800639e+01    0.2728487    0.2095017 -85.47 0.0009726926    1.322    0.243
