#   1 NUMBER                 Running object number                                     
#   2 MAG_AUTO               Kron-like elliptical aperture magnitude                    [mag]
#   3 X_IMAGE                Object position along x                                    [pixel]
#   4 Y_IMAGE                Object position along y                                    [pixel]
#   5 X_WORLD                Barycenter position along world x axis                     [deg]
#   6 Y_WORLD                Barycenter position along world y axis                     [deg]
#   7 A_WORLD                Profile RMS along major axis (world units)                 [deg]
#   8 B_WORLD                Profile RMS along minor axis (world units)                 [deg]
#   9 THETA_WORLD            Position angle (CCW/world-x)                               [deg]
#  10 FWHM_WORLD             FWHM assuming a gaussian core                              [deg]
#  11 ELONGATION             A_IMAGE/B_IMAGE                                           
#  12 ELLIPTICITY            1 - B_IMAGE/A_IMAGE                                       
         1 -15.5129    242.1291     13.8963   3.5350017055e+02   2.3937892417e+01     2.534332     1.102625 -43.42   0.01390219    1.676    0.403
         2 -13.1062      8.4227     26.2410   6.3269807884e+01   7.4263312287e+01    0.6504241    0.2279961 -54.90  0.002810184    2.275    0.560
         3 -12.7319     11.1785     14.8422   5.5622176711e+01   7.6508176444e+01    0.4555082    0.2482951 -26.74   0.00221567    1.912    0.477
         4 -11.9363      9.6343      2.0343   4.8948836061e+01   7.9121196107e+01    0.5665796    0.2201448  23.26  0.002536192    2.621    0.618
         5 -12.8243      4.3190     16.4003   6.2893956553e+01   7.6683572793e+01    0.6203518     0.261245 -39.69  0.002908628    2.094    0.522
         6 -11.7205      2.1721      3.9570   5.8662094277e+01   7.9398366440e+01     0.431323    0.2330252 -55.56  0.002127946    1.729    0.422
         7 -11.9270      3.6252     10.5264   6.0772577948e+01   7.7969213240e+01    0.4607534     0.259838 -33.21   0.00251595    1.594    0.373
         8 -12.2195      9.2311      7.8840   5.3438047696e+01   7.8066816881e+01    0.4240621     0.245956 -36.27  0.002227864    1.564    0.361
         9 -11.4332     31.5635      9.1263   3.4761851115e+01   7.4924562634e+01    0.2597149    0.1572315   7.59  0.001195421    2.304    0.566
        10 -12.7986     17.3381      5.5578   4.3851138543e+01   7.7608656100e+01    0.7107326     0.339908 -25.40  0.003054769    2.780    0.640
        11 -12.1471     26.7007      4.2182   3.4746945569e+01   7.6472867500e+01    0.4844962    0.2781413  -7.53  0.002177041    2.609    0.617
        12 -12.2142     19.4690     29.2405   5.5697689042e+01   7.2698369159e+01    0.5597302    0.2076529 -43.63  0.002271308    2.499    0.600
        13 -11.0558    248.2111    233.5208   3.5738167658e+01  -4.4003445373e+00    0.2297211    0.1356699 -12.71 0.0009345547    1.342    0.255
        14 -12.1362    247.3428    226.4353   3.4816987253e+01  -3.5725613355e+00    0.4650065    0.1994254 -20.78  0.002495027    2.203    0.546
        15 -11.5758    249.0523    249.3932   3.7875419174e+01  -6.0583170303e+00    0.2962664    0.1661153   0.87  0.001960523    1.392    0.281
        16 -12.3302    243.2848    245.2020   3.8166155273e+01  -5.0983424161e+00    0.5237544    0.2157017 -17.66  0.002988591    2.579    0.612
        17 -12.1860    248.9991    240.4130   3.6618179843e+01  -5.1752716617e+00    0.4298259    0.1907361 -28.57   0.00243311    2.036    0.509
        18 -11.1845    233.4888    250.5021   4.0428290005e+01  -4.6664536991e+00    0.2024987   0.07762273  27.79  0.001204513    2.144    0.534
        19 -12.5125    234.1396    244.5529   3.9500107789e+01  -4.1253238552e+00    0.4222682    0.2153685  -6.95  0.002663787    1.921    0.479
        20 -11.0784    212.9740    250.4822   4.3775841969e+01  -2.5493848828e+00    0.2710745   0.08108629  30.33  0.001357005    2.708    0.631
        21 -11.3089    201.4545    249.2081   4.5580605150e+01  -1.1506601750e+00    0.4047805    0.1727635  13.61  0.001980528    2.852    0.649
        22 -10.8331    184.2352    250.4037   4.8810936184e+01   6.7055267629e-01    0.2760192   0.08159111  32.56  0.001298821    2.645    0.622
        23 -11.3322     65.3895    249.2931   7.2773787901e+01   1.5306299576e+01    0.3504725    0.1250988  41.20  0.001769861    1.953    0.488
        24 -10.8526     51.3161    250.0125   7.5789444315e+01   1.6748865070e+01    0.2864062    0.1036778  36.58  0.001484162    1.854    0.461
        25 -10.4586     27.3201    250.5273   8.0798805702e+01   1.9135329708e+01    0.2667922   0.07365898  31.53  0.001266564    2.444    0.591
        26 -11.5739     21.1452    248.7106   8.2000679503e+01   2.0047039188e+01     0.399966    0.1503573  41.61  0.002252378    1.723    0.420
        27 -11.6996    193.1897    244.3667   4.6396468516e+01   3.5490715804e-01    0.3298416    0.1584031  11.59  0.001739453    2.335    0.572
        28 -10.9081     45.2801    244.5881   7.6780237117e+01   1.8342260852e+01    0.3128351    0.1198759  36.87  0.001477237    1.785    0.440
        29 -12.1095    177.7557    243.1609   4.9071638645e+01   2.3377518064e+00    0.3448351    0.1675588  13.59  0.001779855    2.290    0.563
        30 -11.7634    100.0798    246.5359   6.5172608533e+01   1.1613716915e+01    0.4390655    0.2241496  76.93  0.001676697    5.668    0.824
        31 -11.2578     29.5036    241.9274   8.0014514277e+01   2.0444040263e+01    0.3967656    0.1009659  36.66   0.00185867    2.346    0.574
        32 -11.1091    158.0338    244.9708   5.3087428806e+01   4.5295360779e+00    0.2836376    0.1214823  21.01  0.001364073    2.348    0.574
        33 -10.7041     62.6217    241.4742   7.2855615112e+01   1.6972672707e+01    0.2841337    0.1210568  49.47  0.001464943    1.976    0.494
        34 -11.3366     53.7867    239.9723   7.4686864843e+01   1.8238415750e+01    0.3404382     0.139405  62.48  0.001593106    2.846    0.649
        35 -10.8565     38.3308    241.4607   7.8111749016e+01   1.9632220295e+01    0.2737164    0.1100734  50.96  0.001448078    1.938    0.484
        36 -12.1455     16.9210    239.3023   8.2578414344e+01   2.2130912777e+01    0.6366999    0.1408296  39.08  0.002978922    2.446    0.591
        37 -11.1377    214.7015    240.2515   4.2075841056e+01  -1.6057519224e+00    0.2145977    0.1022843 -14.44  0.001175915    2.463    0.594
        38 -10.8816     72.4889    240.5078   7.0632664043e+01   1.5990289955e+01    0.2725336    0.1253764  63.62  0.001275089    2.921    0.658
        39 -11.9957    242.2576    237.1924   3.7181937299e+01  -4.1837534355e+00    0.4118348    0.1907453 -10.99  0.002056789    2.318    0.569
        40 -10.7841    170.4785    240.0208   5.0042957284e+01   3.6418179655e+00    0.2420771    0.1184385   4.79  0.001037489    3.474    0.712
        41 -12.1259    124.4892    239.6324   5.9300115147e+01   9.5983000129e+00    0.4093063   0.09810694  35.55  0.001602773    2.986    0.665
        42 -11.0873     82.6619    238.8347   6.8269214867e+01   1.5052836858e+01    0.4031166    0.1073505  36.09  0.001698229    2.523    0.604
        43 -12.1634    231.7429    234.9164   3.8504484872e+01  -2.8581833455e+00    0.3492783    0.2037073  -3.81  0.002391293    1.478    0.324
        44 -12.2041    236.9578    227.7970   3.6625067416e+01  -2.6352217697e+00    0.3891762    0.1593898 -23.03  0.002154377    2.421    0.587
        45 -12.4214      3.9700    242.7060   8.5344476998e+01   2.2669996706e+01    0.4814676    0.2143977  59.37  0.002517875    1.722    0.419
        46 -11.3806      6.6915    235.2785   8.4616969329e+01   2.3794267917e+01    0.2596453    0.1093598  51.93  0.001318785    1.683    0.406
        47 -10.7484     45.2888    236.9867   7.6374792859e+01   1.9711072680e+01    0.2806133    0.1299729  58.38  0.001498161    2.007    0.502
        48 -11.9101     32.8406    232.5135   7.8887834735e+01   2.1847722953e+01    0.4063402    0.1877755  64.49  0.002182042    2.078    0.519
        49 -10.3451      1.4144    234.2837   8.5698999604e+01   2.4430735667e+01    0.1823067   0.09568168 -84.42  0.001126574    2.031    0.508
        50 -10.7884    139.5227    234.4932   5.5548136434e+01   8.4184208276e+00    0.2362298    0.0985776  22.83  0.001043133    2.480    0.597
        51 -11.6224    108.9051    241.0220   6.2763683125e+01   1.1388139944e+01    0.2838271    0.1548506  61.33  0.001389434    2.856    0.650
        52 -10.6799     11.7872    232.0907   8.3452617158e+01   2.3942315593e+01    0.2535116    0.1475613  59.05  0.001270758    1.354    0.262
        53 -10.7901     63.1756    229.9962   7.1936533090e+01   1.8990718769e+01    0.2102235    0.1084907  60.39  0.001093133    2.031    0.508
        54 -11.6944     21.6585    228.6756   8.1193263850e+01   2.3680831895e+01    0.3750734     0.156629  39.69  0.002043801    1.679    0.404
        55 -11.5247      5.8240    227.3992   8.4610053330e+01   2.5361116529e+01    0.3762934    0.1833271  73.25  0.002203733    1.859    0.462
        56 -10.2561     47.9870    229.4820   7.5344840442e+01   2.0818244794e+01     0.187824   0.05526102  45.59 0.0008094176    2.465    0.594
        57 -10.3212     40.0618    229.0506   7.7107765875e+01   2.1756529790e+01    0.2135321   0.09795132  51.23  0.001136018    1.749    0.428
        58 -10.6212    229.9844    227.2561   3.7656259985e+01  -1.8220091486e+00    0.1997341    0.1097749 -15.53  0.001281623    1.655    0.396
        59 -10.6675     95.9826    228.3237   6.4343067045e+01   1.5210093333e+01    0.2236894   0.04941153  44.48 0.0007050894    4.363    0.771
        60 -10.9604     11.8640    226.3399   8.3267559863e+01   2.5036737473e+01    0.2873352    0.1168961  49.65  0.001240059    1.754    0.430
        61 -11.5589     19.5248    221.7042   8.1406271773e+01   2.5244180546e+01    0.4477726    0.1101367  44.80  0.001985811    2.518    0.603
        62 -10.1996    196.0116    236.4899   4.4808596659e+01   9.7986981870e-01    0.1691327   0.07737742  13.29 0.0008106029    2.632    0.620
        63 -10.4446     55.1698    222.1832   7.3223059335e+01   2.1414981960e+01    0.1877972    0.1146768  50.54  0.001086231    1.359    0.264
        64 -12.0415    239.7178    219.3801   3.4912980016e+01  -1.9986654455e+00    0.3218612    0.1701848 -11.97  0.002003566    1.781    0.438
        65 -10.8483     43.7786    220.8610   7.5792983458e+01   2.2951888486e+01    0.2655965   0.09871179  47.58  0.001246845    2.091    0.522
        66 -11.1030    226.9864    218.9581   3.6880746407e+01  -5.2987442200e-01    0.2564124    0.1201323 -13.72  0.001321524    2.569    0.611
        67 -11.5390      2.3626    220.4902   8.5200037245e+01   2.7001588711e+01    0.3278315    0.1692303  72.92  0.001746781    1.707    0.414
        68 -12.2594    248.4675    213.9635   3.2730879409e+01  -2.3370893641e+00    0.4371341    0.2305984 -22.77  0.002882386    1.585    0.369
        69 -11.3874     11.9115    216.3858   8.2947042560e+01   2.7004358511e+01    0.3486052    0.1510352  39.41  0.001896931    1.673    0.402
        70 -10.5268     33.1851    215.1809   7.7956429504e+01   2.5215830481e+01    0.2738444    0.1122257  60.40  0.001286085    2.315    0.568
        71 -10.7212    232.3005    213.2403   3.5126015369e+01  -4.6440113493e-01    0.2425986    0.1260668 -25.37  0.001497321    1.716    0.417
        72 -11.4026      3.3168    212.5015   8.4793535292e+01   2.8529130737e+01    0.3598767    0.1694808  49.56  0.002049313    1.553    0.356
        73 -10.2252     45.9677    212.4844   7.4745601481e+01   2.4402036923e+01    0.1993701   0.05895325  45.76 0.0008100898    2.555    0.609
        74 -11.2742     25.7278    209.9141   7.9463269686e+01   2.7049994499e+01    0.3264061    0.1566591  61.86  0.001696846    1.864    0.463
        75 -11.2199    236.6598    206.5134   3.3358160181e+01  -1.6887913809e-01    0.3293748     0.165216 -29.53  0.002005401    1.776    0.437
        76 -10.9925    247.0241    206.1185   3.1700137679e+01  -1.2957800704e+00    0.2591251    0.1302755 -25.95   0.00151958    1.684    0.406
        77 -10.7417      2.5739    206.1633   8.4802426987e+01   2.9901226408e+01    0.2548196    0.1310493  53.69  0.001470179    1.476    0.322
        78 -12.0171     13.1494    204.4533   8.2245389219e+01   2.9369499351e+01    0.5030797    0.1860032  50.27  0.002445166    2.029    0.507
        79 -10.8604    228.1005    202.1856   3.4020502132e+01   1.3748422864e+00    0.2929899    0.1201106 -20.63  0.001327751    3.051    0.672
        80 -11.1964    250.2945    200.5540   3.0308112307e+01  -1.0192205718e+00    0.3073761    0.1170932 -30.53  0.001670245    2.251    0.556
        81 -10.5782     30.1538    201.2578   7.7936848578e+01   2.8451876721e+01    0.2585521    0.1181272  62.31  0.001238785    2.067    0.516
        82 -11.1015    243.8254    199.5019   3.1104276043e+01  -1.6274181469e-01     0.316191    0.1252965 -27.30  0.001673252    2.275    0.560
        83 -10.7145     21.7565    199.8507   7.9952039616e+01   2.9574753321e+01    0.2688442   0.09847987  47.80  0.001243532    2.077    0.519
        84 -10.7567    237.1841    197.0009   3.1711362522e+01   9.1937611361e-01    0.2658356    0.1328691 -30.39  0.001574291    1.766    0.434
        85 -12.1804      5.5608    195.6273   8.3785708311e+01   3.1913999810e+01    0.5096593    0.2275276  56.01  0.002653654    1.776    0.437
        86 -11.5090      3.6806    188.0758   8.4016940628e+01   3.3734226244e+01    0.3068725    0.1870343  78.72  0.001711413    1.458    0.314
        87  -9.7871     26.3067    195.3144   7.8578501085e+01   3.0134361756e+01    0.1146104   0.09549338 -35.61 0.0004583876    1.624    0.384
        88 -11.6278     18.0263    192.8026   8.0559226416e+01   3.1470239600e+01    0.4320381    0.1839466  64.26  0.002028315    2.170    0.539
        89 -11.6431    246.2242    192.1861   2.9521576480e+01   4.3282121393e-01    0.3165529    0.1518495 -27.57   0.00186552    1.767    0.434
        90  -9.9157    231.2446    192.7478   3.1931957411e+01   2.1776998202e+00    0.1823745   0.07664095 -24.47 0.0008862311    2.426    0.588
        91 -11.5052     11.0390    188.9049   8.2174328508e+01   3.2952804806e+01    0.3482276    0.1755007  59.89  0.001832235    1.664    0.399
        92 -10.6703     50.0189    188.5038   7.1913316172e+01   2.9124571617e+01    0.2145835   0.06862222  46.43 0.0008104828    2.634    0.620
        93 -10.0941    237.6131    187.1468   2.9969463105e+01   2.0946953772e+00    0.1688221   0.08683664 -22.10 0.0009525883    1.765    0.434
        94 -11.1879    249.8543    184.3721   2.7653641562e+01   9.4921109560e-01    0.2977787    0.1464311 -26.48  0.001626272    1.697    0.411
        95  -9.8420    230.3469    186.3030   3.0965138593e+01   3.1222154214e+00    0.1225578   0.07455911   0.12 0.0005793824    1.690    0.408
        96 -10.5686     39.6679    183.3269   7.4281596912e+01   3.1480394224e+01     0.148722   0.07915434  56.03 0.0005121792    1.713    0.416
        97 -10.8117     16.1482    181.7760   8.0527125165e+01   3.4142788120e+01     0.303166    0.1456061  72.72  0.001463224    1.983    0.496
        98 -11.3128     23.3152    180.2732   7.8519512962e+01   3.3845140062e+01    0.2763613    0.1154567  69.87   0.00117028    2.499    0.600
        99 -10.5941    241.4639    180.0097   2.8136064881e+01   2.5178770965e+00    0.1761518   0.09340803 -30.30     0.001037    1.611    0.379
       100 -12.5971      7.0312    174.4586   8.2655958814e+01   3.6601484844e+01    0.7255829    0.2791176  88.74  0.003184254    2.506    0.601
       101 -11.5657     31.1755    173.5526   7.5905493407e+01   3.4675429161e+01    0.4493666    0.1674928  85.49  0.001634854    3.399    0.706
       102 -11.6377     19.6303    171.7683   7.9043541742e+01   3.6195741092e+01    0.4259193    0.2073018  68.54  0.002000651    1.971    0.493
       103 -10.8322     40.9836    172.2591   7.3013733653e+01   3.3954344697e+01     0.299286    0.1338912  69.21  0.001179866    2.689    0.628
       104 -10.8674    249.5196    176.9772   2.6413972661e+01   1.8982057657e+00    0.1732788   0.09025492 -29.73  0.001033183    1.593    0.372
       105 -10.1621    246.5943    162.2012   2.4170582481e+01   4.1488960892e+00    0.1685032   0.08965082 -23.33 0.0009524133    1.640    0.390
       106 -10.7412    250.5871    157.2366   2.2691549693e+01   4.2666448960e+00    0.2893042   0.09234837 -31.95  0.001297847    2.635    0.620
       107 -10.5679    247.3100    155.3279   2.2791203948e+01   4.9520324607e+00    0.1204505   0.07624344  -4.66 0.0003800821    1.662    0.398
       108 -11.2509    249.4679    149.0444   2.1307536900e+01   5.4857548654e+00    0.3106027   0.09411102 -33.97  0.001353792    2.703    0.630
       109 -11.5323    243.5801    149.2376   2.2159807366e+01   6.2754682623e+00    0.2937909   0.09704269 -32.36  0.001289079    2.583    0.613
       110 -11.9283      7.6324    146.8235   8.1205347543e+01   4.3317882283e+01    0.3477629    0.2007337  78.11  0.001772422    1.574    0.365
       111 -10.4907    247.5989    143.7535   2.0549236555e+01   6.4465731207e+00     0.167439   0.09156236 -37.79 0.0009486806    1.621    0.383
       112 -12.0357    243.8013    140.3270   2.0401235765e+01   7.4510347790e+00    0.3237143    0.1479245 -23.95  0.001565904    2.192    0.544
       113 -10.4425    250.4162    140.2409   1.9493534574e+01   6.5184444279e+00    0.1671093   0.09041645 -38.42 0.0009462363    1.640    0.390
       114 -11.2204     10.5663    136.9152   7.9673430881e+01   4.5652393933e+01    0.4857901    0.1651764 -74.62  0.001907402    2.593    0.614
       115 -10.9402    248.9771    134.7639   1.8615771687e+01   7.4544569739e+00    0.2218183    0.1214581 -39.61 0.0008846268    1.645    0.392
       116 -10.9615     20.7347    141.3503   7.6628449964e+01   4.3716079778e+01      0.27197    0.1514899  82.53  0.001270725    1.763    0.433
       117 -11.3467    247.2791    129.6927   1.7834532420e+01   8.3869968367e+00    0.2294386    0.1171346 -39.38 0.0009965434    1.715    0.417
       118 -11.5623      6.1764    125.5679   8.0440768723e+01   4.8899047123e+01    0.5385648    0.2487231  72.43  0.002340277    2.144    0.534
       119 -12.4547    248.2105    119.4730   1.5661953385e+01   9.6338584208e+00    0.2939916    0.1424159 -38.28  0.001549726    1.713    0.416
       120 -11.2284     10.6195    113.2181   7.7876111343e+01   5.1893670203e+01    0.5462309     0.213396  84.36  0.002038905    2.790    0.642
       121 -13.4474    248.8583    104.4178   1.2495186997e+01   1.1571610084e+01    0.5433216    0.2387701 -41.82  0.002730002    1.952    0.488
       122 -11.0162      2.6244     95.0137   7.9563429795e+01   5.7173473228e+01    0.5004514    0.1917136  76.83  0.001862508    2.960    0.662
       123 -12.4476    250.1689     86.5728   8.6142704497e+00   1.3740187608e+01    0.3812753    0.1403355 -29.16  0.001680388    2.465    0.594
       124 -12.6339    248.9900     74.7878   6.2263236926e+00   1.5480201607e+01    0.3808266    0.1414507 -37.29  0.001806688    2.031    0.508
       125 -11.4287      4.6384     76.2908   7.6718551949e+01   6.2037294412e+01    0.6046845    0.2291101 -87.48  0.002302391    2.758    0.637
       126 -11.7291      3.0287     63.4163   7.5866843484e+01   6.5450883801e+01    0.5528451    0.2025914 -75.86  0.002234438    2.411    0.585
       127 -11.8435    250.0571     64.7969   3.9882812062e+00   1.6570468280e+01      0.22755    0.1456917 -35.96  0.001345616    1.238    0.192
       128 -10.9880     16.5110     53.8639   6.6040472578e+01   6.7150744779e+01    0.6630245    0.1263198 -68.72  0.001844207    4.952    0.798
       129 -11.8800      3.0648     51.7703   7.3967628938e+01   6.8410061960e+01    0.5471469    0.1849599 -55.71  0.002274028    2.294    0.564
       130 -11.8945     12.2598     41.1644   6.5348168558e+01   7.0548100330e+01    0.6011623    0.2091212 -48.40  0.002448135    2.395    0.582
       131 -11.9822    168.2924    248.1871   5.1503164470e+01   2.8413060640e+00    0.3681926    0.1643461  21.93  0.001945468    2.003    0.501
       132 -11.3384    152.2345    249.6001   5.4781157565e+01   4.6224236117e+00    0.3002741   0.08912757  29.51  0.001300713    2.712    0.631
       133 -11.6715     23.7285     21.0385   4.8328603145e+01   7.3937797899e+01    0.3716336    0.1814882 -29.15  0.001568167    2.543    0.607
       134 -12.5735    142.9922    248.3537   5.6470970893e+01   5.9445355650e+00    0.4275066    0.1659822  25.85  0.002047319    2.239    0.553
       135 -11.3009     34.7196    248.0503   7.9171306399e+01   1.8830892094e+01    0.3389417     0.135385  41.94  0.001663123    1.684    0.406
       136 -11.2875    127.7208    248.5841   5.9594298303e+01   7.8304119268e+00    0.2401987   0.09197729  27.99  0.001144201    2.126    0.530
       137 -11.0303     89.9571    247.6167   6.7420427811e+01   1.2684390137e+01    0.2544411    0.1034514  40.65  0.001302756    1.844    0.458
       138 -10.9635     76.7051    247.7975   7.0261384763e+01   1.4244685670e+01    0.2661752    0.1152351  38.74  0.001427433    1.654    0.395
       139 -11.3130    219.0019    245.7360   4.2120093988e+01  -2.6783409957e+00    0.2553997    0.1416069 -18.14  0.001642192    1.691    0.409
       140 -12.1641     15.3452     19.5607   5.4399471171e+01   7.5156012624e+01    0.3558113    0.2213985 -22.99  0.001875167    1.659    0.397
       141 -12.0198      1.4876     38.1105   7.2258824906e+01   7.1828712302e+01    0.4884436    0.1140278 -73.20  0.001630525    3.882    0.742
       142 -11.8849     22.1247     14.0748   4.5488001249e+01   7.5473237438e+01     0.398519    0.1847191  18.08  0.001658709    2.766    0.638
       143 -10.5382     83.7958    246.7990   6.8669285141e+01   1.3565191630e+01    0.1735052    0.1081401  46.95   0.00107719    1.360    0.264
       144 -12.2482    224.1641    241.6143   4.0692817943e+01  -2.7808983077e+00    0.4860646    0.1807706 -33.72  0.002734098    2.705    0.630
       145 -11.7038    210.8009    244.6022   4.3344116731e+01  -1.6653751428e+00    0.2401211    0.1244345 -28.02  0.001544371    1.935    0.483
