#   1 NUMBER                 Running object number                                     
#   2 MAG_AUTO               Kron-like elliptical aperture magnitude                    [mag]
#   3 X_IMAGE                Object position along x                                    [pixel]
#   4 Y_IMAGE                Object position along y                                    [pixel]
#   5 X_WORLD                Barycenter position along world x axis                     [deg]
#   6 Y_WORLD                Barycenter position along world y axis                     [deg]
#   7 A_WORLD                Profile RMS along major axis (world units)                 [deg]
#   8 B_WORLD                Profile RMS along minor axis (world units)                 [deg]
#   9 THETA_WORLD            Position angle (CCW/world-x)                               [deg]
#  10 FWHM_WORLD             FWHM assuming a gaussian core                              [deg]
#  11 ELONGATION             A_IMAGE/B_IMAGE                                           
#  12 ELLIPTICITY            1 - B_IMAGE/A_IMAGE                                       
         1 -14.0854    219.2585      2.7056   4.2431228625e+01   2.8705457142e+01     2.538352      1.20151  61.09  0.007530109    2.173    0.540
         2 -13.8824    178.9669     45.9413   6.0169329854e+01   3.4165920415e+01     1.268381     1.012873 -24.08 0.0009420304    1.251    0.201
         3 -14.0386    190.4105     36.4942   5.5464537544e+01   3.2428052055e+01     1.272703     1.072098 -30.93  0.003121362    1.146    0.128
         4 -14.8537    197.7387     27.0430   5.1601860049e+01   3.1657752516e+01     2.080532     1.396011  37.21  0.001294193    1.728    0.421
         5 -10.7501    189.8174     14.8614   4.8687779143e+01   3.5050898678e+01    0.2470696    0.2391905 -46.19 0.0006968023    1.040    0.038
         6  -8.9843     32.3044    227.8692   1.2657483038e+02   2.5886862624e+01    0.1803239   0.08213372  49.57  0.000833839    1.479    0.324
         7 -16.3758     71.8381    148.1277   1.1204035239e+02   3.6334553668e+01     7.961351     3.681104  73.57   0.02900308    3.828    0.739
         8 -11.6010    106.3078    209.8139   1.1107406913e+02   1.9940010814e+01    0.4763746    0.2654778  51.60  0.002022146    1.559    0.358
         9 -12.6967    107.6198    203.3006   1.1014289142e+02   2.0798986536e+01    0.5741296    0.2158277  45.24 0.0007051499    2.113    0.527
        10 -10.9663     70.1710    209.5809   1.1830927857e+02   2.4711097077e+01    0.2051097    0.1332669  61.45 0.0003541443    1.329    0.248
        11  -9.9759     75.7130    206.9370   1.1698858602e+02   2.4472309902e+01    0.2132448    0.1816687 -62.61  0.001387939    1.521    0.343
        12 -16.4597     72.3462    246.9630   1.2032555033e+02   1.8682803333e+01     7.990561     2.373364  28.26   0.02112907    6.415    0.844
        13 -10.2824     48.5001    217.4591   1.2307038918e+02   2.5892885970e+01    0.2978494    0.1726105  21.39  0.001539851    2.314    0.568
        14 -10.9960     33.0274    206.0235   1.2552702920e+02   2.9467944704e+01    0.1799832     0.156776 -65.87  0.001452714    1.579    0.367
        15 -11.2795    133.2729    203.6384   1.0501269564e+02   1.6988524385e+01    0.2879623    0.1842434  87.70  0.001477634    3.055    0.673
        16 -12.0539    193.1123    194.3484   9.2323618521e+01   8.9783535152e+00    0.7227226    0.4264744 -57.63  0.003417502    3.913    0.744
        17 -10.5168    156.7244    200.2090   9.9974026440e+01   1.3898385411e+01     0.395537     0.243131  65.26  0.001960482    2.913    0.657
        18 -11.1401    153.1380    193.7605   9.9777057460e+01   1.5390913892e+01    0.3462226    0.2144007  63.67  0.001587757    2.540    0.606
        19 -11.0942     96.1003    200.0557   1.1218277613e+02   2.2951220228e+01    0.3549834    0.2332395  28.46  0.001670136    1.571    0.364
        20  99.0000     44.0608    211.5793   1.2362326371e+02   2.7361408909e+01    0.3117704    0.2129178 -73.00  0.002282271    1.711    0.416
        21 -12.5049    112.7448    196.1257   1.0829886252e+02   2.1235785311e+01    0.5150146    0.3187146   8.99  0.002415437    3.198    0.687
        22 -11.2350    209.1350    198.1615   9.0118249119e+01   6.0729285349e+00     0.178011     0.162609   6.04 0.0006425464    1.347    0.258
        23 -11.2880    141.2977    198.1038   1.0271751250e+02   1.6599919641e+01     0.245772    0.2011788  72.82 0.0008070079    1.548    0.354
        24  -9.2808     46.0146    199.4875   1.2256043010e+02   2.9268817532e+01    0.1543514    0.0876781  39.66  0.000377637    1.434    0.303
        25 -11.0748     44.6699    195.4436   1.2260016958e+02   3.0148273269e+01    0.2951523    0.1466525  51.42 0.0003963812    1.534    0.348
        26 -10.4379     38.9303    192.8194   1.2365409202e+02   3.1242198399e+01    0.2561225    0.1518429  47.11  0.001563704    1.293    0.227
        27 -12.5436     33.0179    198.4292   1.2517274074e+02   3.0821390450e+01    0.2590338    0.1554139  34.30    0.0011856    1.549    0.355
        28 -12.1321     50.6298    208.4932   1.2215298731e+02   2.7175049757e+01    0.3452777    0.2067544  35.17  0.001598997    1.494    0.330
        29 -13.2703     66.8621    189.9999   1.1747916933e+02   2.8577258324e+01    0.7339526    0.6616005 -79.04  0.004805462    1.330    0.248
        30 -13.7174     57.3345    204.0146   1.2052080248e+02   2.7193991105e+01    0.7121854     0.418055  40.81  0.002011927    1.357    0.263
        31 -10.1033     81.7077    195.0322   1.1472873338e+02   2.5766478757e+01    0.3049096     0.177063  37.20  0.001808817    1.462    0.316
        32 -19.4166      9.5948    136.7412   1.2752890445e+02   4.5378138723e+01     17.09449     1.840616 -82.49   0.04040447    9.969    0.900
        33 -12.7458    129.0362    210.8316   1.0669126378e+02   1.6541449298e+01    0.4101762    0.2401391  59.55  0.001599821    2.059    0.514
        34 -10.1380     43.6285    220.2987   1.2414481820e+02   2.5947897666e+01    0.1221176    0.0888929 -71.46 0.0009282181    1.702    0.413
        35 -11.4484     99.5231    180.7621   1.0935732801e+02   2.5860695852e+01    0.2300052    0.2001998  49.01 0.0005269185    1.074    0.069
        36  -9.9500    136.5484    185.4992   1.0198036357e+02   1.9317982102e+01    0.1260958    0.1042767  37.93   1.0011e-05    1.021    0.021
        37 -11.1973    149.7566    180.9712   9.8587298783e+01   1.7887632839e+01     0.303097    0.2124837  88.82  0.001409718    2.673    0.626
        38 -11.9382    141.6802    175.6368   9.9459814058e+01   2.0094597761e+01    0.4913578    0.2961184  68.30  0.002194461    2.927    0.658
        39  -9.2310     39.2207    177.3913   1.2266925522e+02   3.4159842324e+01    0.1666868   0.08085243  44.28 0.0008692666    1.623    0.384
        40  -9.4403     65.4780    175.4812   1.1652756265e+02   3.1517257400e+01    0.1222887   0.09852484  58.54 6.006433e-05    1.002    0.002
        41 -10.0370     50.5826    172.6698   1.1973423233e+02   3.3856753151e+01    0.1979498    0.1308842  29.52 0.0008168694    1.606    0.377
        42 -11.2915     43.8901    171.9273   1.2123105390e+02   3.4749778308e+01    0.5987668    0.1742501  38.26  0.002727502    2.560    0.609
        43 -10.4116    164.8849    171.3378   9.3959914713e+01   1.6826160887e+01    0.1927342    0.1791091 -79.36 0.0005419441    1.419    0.295
        44 -10.3977    201.4312    168.6459   8.6494190715e+01   1.0917683076e+01    0.3472936    0.2100146 -46.94  0.001826586    2.313    0.568
        45 -10.6744    204.0833    164.7352   8.5301514830e+01   1.0982159641e+01      0.46979    0.2445339 -38.22  0.001640412    2.165    0.538
        46  -9.4687    177.2962    169.6463   9.1204604780e+01   1.4928006815e+01    0.1189429    0.1013231  74.44 0.0005384851    1.690    0.408
        47 -11.2097    193.8772    166.7669   8.7534446345e+01   1.2463059473e+01     0.282039    0.2479206  19.48 0.0007350555    1.093    0.085
        48 -10.1335    191.3763    161.9062   8.7107690026e+01   1.3577933098e+01    0.2509273    0.2069813  45.46 0.0007915095    1.309    0.236
        49 -11.0210    230.2334    166.1182   8.1100710428e+01   6.4805231714e+00    0.2070393    0.1624013 -36.14  0.001344849    1.628    0.386
        50  -8.8822     98.4779    213.5142   1.1298388453e+02   2.0426539168e+01    0.1163569   0.08728519  47.46 0.0008100331    1.019    0.018
        51 -10.0739    159.0379    163.2983   9.3779209782e+01   1.9125110163e+01    0.1890275    0.1538829  38.51 0.0004755141    1.080    0.074
        52 -12.8981     95.6556    154.3923   1.0684370473e+02   3.1550588857e+01    0.7010713    0.5771927  -7.15  0.004041712    1.725    0.420
        53 -11.1305    189.3172    155.0286   8.6194565725e+01   1.4935436947e+01    0.4402704    0.3150158  33.69  0.002516441    1.235    0.190
        54 -11.8293    133.8862    145.3325   9.6103914358e+01   2.6849508691e+01     1.103588    0.3193124 -55.80  0.003080509    5.877    0.830
        55 -11.0398    174.4086    148.8688   8.7925132679e+01   1.8634064003e+01    0.3060286    0.2668522  34.33   0.00158618    1.070    0.065
        56  -9.6750    159.7169    147.3289   9.0688346324e+01   2.1661834340e+01    0.1295957     0.108202  80.28 0.0005726138    1.607    0.378
        57 -11.0026    144.2659    146.5105   9.3935390518e+01   2.4710611987e+01    0.3268488    0.2470083 -89.19  0.001654965    1.960    0.490
        58 -11.8794    106.9083    140.1058   1.0177011609e+02   3.2675009863e+01    0.4733207    0.3303959 -26.25  0.002028874    2.150    0.535
        59 -12.5198     94.7371    140.1874   1.0492797117e+02   3.4663222214e+01    0.2917546    0.2803428  25.09 0.0004275263    1.196    0.164
        60  -9.8606    113.3757    151.0938   1.0200051575e+02   2.9348257008e+01    0.2650929    0.1600926  67.80  0.001188415    2.286    0.563
        61 -11.1521    106.0392    130.8796   1.0034553460e+02   3.4768355054e+01    0.3624719    0.3027234 -81.48  0.001198627    1.287    0.223
        62 -11.0333    101.9628    126.6391   1.0064129790e+02   3.6387318572e+01     0.267344    0.2401647   5.35 0.0006856353    1.352    0.260
        63 -11.2686    114.3205    130.3934   9.8089431929e+01   3.3401524004e+01     0.316005    0.2715441 -21.27 0.0007512851    1.431    0.301
        64 -10.8730    135.9561    127.6532   9.2107037023e+01   2.9865467416e+01    0.4484042     0.192428 -51.92   0.00170668    2.688    0.628
        65 -10.2223    160.4676    127.6566   8.6445897508e+01   2.4943882018e+01    0.3293976    0.2440691 -54.22  0.001672392    1.601    0.376
        66 -11.1918    119.9462    123.6883   9.5283865903e+01   3.3758469897e+01    0.4904882    0.3060924 -17.47  0.001834208    3.296    0.697
        67  -9.8562    135.0000    119.9367   9.0658707696e+01   3.1578108253e+01    0.2323017   0.08403818 -46.25 0.0008001105    2.926    0.658
        68 -10.2973    109.9166    119.2204   9.7008165064e+01   3.6577518731e+01    0.2203735    0.2037138 -68.74 0.0003590946    1.115    0.103
        69 -12.5181    113.9947    207.9988   1.0935205041e+02   1.9142937450e+01    0.3766605    0.2098275 -67.19  0.002171171    2.447    0.591
        70 -10.0224    168.0575    112.9969   8.1404862172e+01   2.5936305446e+01    0.3371776    0.2416188 -81.18   0.00145347    2.405    0.584
        71 -11.7289    118.7841    109.9408   9.2555893186e+01   3.6873179475e+01    0.5870597    0.4638458  79.11  0.002931667    1.519    0.342
        72 -10.2646    205.4900    110.1413   7.3474639485e+01   1.8412470335e+01    0.2984729    0.1890681  38.61 0.0009298736    1.565    0.361
        73  -9.6050    134.6821    105.5317   8.7331918494e+01   3.4525574269e+01    0.2680304    0.1383456 -44.94  0.001082669    2.008    0.502
        74  -9.2700    167.4852     94.9568   7.6925906876e+01   2.9214622171e+01     0.204949      0.12528 -58.86 0.0005547444    2.331    0.571
        75 -11.7626     41.8926     90.9437   1.1292648740e+02   5.3360743581e+01    0.4562698    0.2589498 -79.46  0.001193042    1.725    0.420
        76  -9.8410    189.8787     89.2863   7.0987381993e+01   2.4992259684e+01    0.2288616    0.1922181  83.05   0.00118037    1.487    0.327
        77  -9.5920     38.0054    222.0128   1.2528295110e+02   2.6254562012e+01    0.2491477    0.2019526  44.28  0.001493682    1.279    0.218
        78 -11.7205    162.5459     63.5169   6.8789384782e+01   3.5751790101e+01    0.4252543    0.3184633 -80.15 0.0007392131    1.753    0.430
        79 -11.5922    163.1982     55.8522   6.6202525214e+01   3.6806700453e+01    0.3022534    0.2675238  -4.90  0.000456654    1.201    0.167
        80 -11.0079     38.9432    211.0192   1.2459719496e+02   2.7996873576e+01    0.2580959    0.1403475  71.39  0.001341614    1.654    0.395
        81  -9.7076     42.9669    236.6987   1.2501238106e+02   2.3422569065e+01    0.1078293   0.06715817  43.71 0.0004387548    1.186    0.157
        82 -10.3801     60.6646    230.6837   1.2150188842e+02   2.2420838904e+01    0.1419748   0.09388227  65.75 0.0003892995    1.333    0.250
        83  -9.8676     72.1475    230.0692   1.1933375971e+02   2.1182676842e+01    0.1498837   0.09450903  52.85 0.0004427222    1.194    0.163
        84  -9.9390    198.9266    222.8537   9.5455677776e+01   4.8437648919e+00    0.1650512    0.1195472  27.17 0.0004405242    1.043    0.041
        85  99.0000     59.3926    216.0928   1.2088182320e+02   2.4899637454e+01     0.472833    0.3823876 -66.79  0.001653299    1.607    0.378
        86  -8.8712    115.6282     31.2624   6.7984349331e+01   5.2954807334e+01    0.1540333    0.1188719 -77.89 0.0004816064    1.658    0.397
