#   1 NUMBER                 Running object number                                     
#   2 MAG_AUTO               Kron-like elliptical aperture magnitude                    [mag]
#   3 X_IMAGE                Object position along x                                    [pixel]
#   4 Y_IMAGE                Object position along y                                    [pixel]
#   5 X_WORLD                Barycenter position along world x axis                     [deg]
#   6 Y_WORLD                Barycenter position along world y axis                     [deg]
#   7 A_WORLD                Profile RMS along major axis (world units)                 [deg]
#   8 B_WORLD                Profile RMS along minor axis (world units)                 [deg]
#   9 THETA_WORLD            Position angle (CCW/world-x)                               [deg]
#  10 FWHM_WORLD             FWHM assuming a gaussian core                              [deg]
#  11 ELONGATION             A_IMAGE/B_IMAGE                                           
#  12 ELLIPTICITY            1 - B_IMAGE/A_IMAGE                                       
         1 -14.6805     69.4456    146.1266   1.0938838357e+02   3.6791076312e+01     4.812291     2.402843  74.79  0.009676356    3.805    0.737
         2 -14.0993    218.7378     16.6855   4.2062707066e+01   2.8299062843e+01     1.475762     1.107009  39.31  0.002702108    1.690    0.408
         3 -12.8456    211.7661     24.5961   4.4826678858e+01   2.9080576699e+01    0.6083184    0.5541241  21.95   0.00107291    1.356    0.262
         4 -14.0260    195.1864     39.0006   5.0857827053e+01   3.1420051119e+01     1.650969     1.312454   0.49  0.003071795    1.600    0.375
         5 -13.8663    203.7959     32.6802   4.7940227935e+01   3.0066564961e+01     1.587971     1.006701 -21.63  0.005972401    1.815    0.449
         6 -11.3734      2.7336      3.8818   9.6686188514e+01   7.3832794415e+01    0.3730551    0.1833813 -39.98  0.002342069    1.522    0.343
         7  -9.6042     55.0244      5.5052   7.1411290115e+01   6.7515622822e+01    0.1757324    0.1100254  39.90 0.0008154771    1.572    0.364
         8 -11.5470    193.3559    193.6956   8.9442754562e+01   4.7180464027e+00    0.8046663    0.4629464 -57.33  0.003509834    2.760    0.638
         9 -10.0399    174.2263    249.3588   1.0191081171e+02  -4.2024677129e-01    0.2203716    0.1525835  56.71 0.0009247267    1.662    0.398
        10 -15.4094     84.9193    245.8818   1.1774979428e+02   1.3785338037e+01     8.950438      2.65714  33.38   0.02000582    5.847    0.829
        11 -15.9292     11.5133    241.1067   1.2984373633e+02   2.3504278808e+01     2.016534     1.279819  59.51  0.004553689    1.177    0.151
        12 -13.4349     26.7125    221.1147   1.2627028630e+02   2.5600214161e+01     1.065164     0.400089 -69.74  0.005792569    2.461    0.594
        13 -14.8945      9.3475    207.8495   1.2859753994e+02   2.9939738614e+01     1.144184    0.9833953  87.80  0.004046035    1.337    0.252
        14 -15.9869     46.1771    197.5978   1.2088035357e+02   2.8121101278e+01     7.971055     3.052176  70.80   0.03005509    3.978    0.749
        15 -12.0413     70.3781    174.8910   1.1325877296e+02   2.9966287237e+01    0.3197776     0.262738 -48.08 0.0008089941    1.490    0.329
        16 -10.0769     99.3843    180.6575   1.0743318700e+02   2.4306705298e+01    0.2330636    0.2252015 -87.29 0.0006460902    1.170    0.145
        17 -13.5738     67.1356    161.0625   1.1218511906e+02   3.3582360948e+01    0.5001378    0.3488096 -48.44  0.001814796    1.641    0.391
        18  -9.9642     76.2661    233.5777   1.1824474812e+02   1.7150085962e+01    0.2143917    0.1420198 -83.57 0.0005776251    1.531    0.347
        19 -10.2558    193.8059    166.7262   8.4031880320e+01   9.3082891158e+00    0.2759981    0.2704219  49.11 0.0008029367    1.151    0.131
        20 -13.3568     39.6260    208.4540   1.2304578706e+02   2.6653553373e+01     0.425621    0.3542774 -72.55   0.00146761    1.399    0.285
        21 -14.9816      3.6086    176.7777   1.2788489865e+02   3.6845975360e+01     6.205392          nan -70.04   0.01731563    7.671    0.870
        22 -11.6076     54.4024    148.4861   1.1358361685e+02   3.8181669554e+01    0.3955013    0.2277406 -61.61  0.002037006    1.553    0.356
        23 -10.0288    174.5159    148.1876   8.4060075260e+01   1.6827795352e+01    0.3744072    0.2620921 -62.50  0.001220435    1.826    0.452
        24 -10.8902    133.6964    143.8706   9.2567428071e+01   2.6285001415e+01     1.106436    0.2694682 -54.94  0.002435725    6.727    0.851
        25 -11.7425     79.5994    165.0177   1.0974925893e+02   3.0899192399e+01    0.3010811    0.2615623 -81.22  0.000422777    1.071    0.066
        26 -10.6578     74.9445    189.4656   1.1402701931e+02   2.6108994961e+01    0.3240209    0.1827519  62.58   0.00116725    1.785    0.440
        27 -11.5929     28.7218    144.2731   1.1948903695e+02   4.1944199307e+01    0.2889317    0.2027874  59.57  0.001771456    1.428    0.300
        28 -10.5989     99.9932    143.5020   1.0100571251e+02   3.2681127480e+01    0.3246839    0.2928257  40.73 0.0008939976    1.189    0.159
        29  -9.9188    102.4631    140.0741   9.9688425683e+01   3.3060216743e+01    0.3366352    0.2387616 -27.05  0.001443354    1.977    0.494
        30 -12.3364     88.2024    142.2847   1.0384496929e+02   3.4920617816e+01    0.2981678    0.2518366 -52.29 0.0005629011    1.211    0.174
        31 -10.3315     83.1129    142.8840   1.0528624931e+02   3.5573559352e+01    0.3388458     0.221014  67.84 0.0009012836    1.814    0.449
        32 -10.3304     33.9088    139.0805   1.1756138432e+02   4.2667137279e+01    0.2939628    0.1464349  46.49  0.001486635    2.109    0.526
        33 -11.5240     26.0629    137.6885   1.1940121524e+02   4.3733006666e+01    0.3837422     0.168335  41.06  0.001544393    2.381    0.580
        34  -9.2574    155.6901    134.3312   8.5109045321e+01   2.3757658144e+01    0.1580259    0.1242051 -87.40  0.000704198    1.669    0.401
        35 -10.2094    110.4459    131.7271   9.5834624356e+01   3.3580146064e+01    0.3209661    0.2587337   4.80  0.001005823    1.675    0.403
        36 -10.1374    105.9977    131.0249   9.6863268000e+01   3.4561292772e+01    0.3448915    0.2952357 -78.24  0.001297814    1.192    0.161
        37 -11.0916     97.8726    128.0171   9.8405498977e+01   3.6712211293e+01    0.3079378    0.2697532 -22.58 0.0009945735    1.355    0.262
        38 -11.4208     45.4765    129.1574   1.1311023587e+02   4.3835818617e+01     0.352685    0.1972453  30.72  0.001743253    2.083    0.520
        39 -11.3216     29.1658    128.5045   1.1745032591e+02   4.5622043308e+01    0.2460994    0.2098061  41.52  0.001112544    1.379    0.275
        40 -10.0172    160.4129    127.1997   8.2280902475e+01   2.4227675687e+01    0.2295284    0.1462578 -53.94 0.0008347072    1.720    0.419
        41 -10.2047    116.6855    126.1686   9.2923997295e+01   3.3688121767e+01    0.3339399    0.2619699 -81.64   0.00146566    1.498    0.332
        42 -10.8433    135.2456    121.9382   8.7083046010e+01   3.0871872678e+01    0.5293228    0.1283579 -50.36  0.001307294    4.771    0.790
        43  -9.9221    107.2857    120.0468   9.4023299376e+01   3.6899594461e+01    0.2214214    0.2107835  48.74 0.0003420401    1.096    0.088
        44 -10.7855     32.5369    118.5082   1.1511123542e+02   4.7691862822e+01    0.2258317    0.1457506 -43.95 0.0009252349    1.665    0.399
        45 -12.7460     86.2367    158.4400   1.0712669635e+02   3.1419910669e+01    0.9159721    0.5087322 -50.43    0.0016357    1.888    0.470
        46 -10.1141    168.2988    113.0910   7.6882681829e+01   2.5349291395e+01    0.3953751    0.2834042 -70.26  0.001214367    1.884    0.469
        47  -8.9357    141.3766    198.1808   1.0090978958e+02   1.3458451844e+01    0.1719373    0.1287413 -70.22  0.000363186    1.600    0.375
        48 -10.2454    205.2605    110.3350   6.8588688121e+01   1.7268862876e+01    0.3549638     0.265409  33.62  0.001082501    1.483    0.326
        49 -10.8474    124.7237    173.5679   1.0049379068e+02   2.1469727821e+01    0.2773372    0.1353201  37.27 0.0009364158    2.095    0.523
        50 -10.2514     72.3037    186.6579   1.1427023159e+02   2.7089312866e+01    0.2447704    0.1794571  81.86 0.0006378856    1.260    0.206
        51 -10.4427    134.3483    104.0496   8.2638077745e+01   3.4999445422e+01    0.5720215    0.1771256 -43.76  0.001708304    3.171    0.685
        52 -10.5752    137.6327    170.8397   9.7044891053e+01   1.9641856552e+01    0.2562684    0.1951186  34.33 0.0008448953    1.348    0.258
        53 -11.7528    242.5140    101.8555   6.0264112290e+01   1.0510757276e+01    0.3795833    0.2363435  68.61  0.001755886    2.120    0.528
        54 -11.5733    239.2537     97.9627   5.9815907500e+01   1.1833746224e+01    0.3325469     0.231929   4.61  0.001390378    2.063    0.515
        55 -10.7081     36.0948    101.3258   1.1118047635e+02   5.1444955955e+01    0.2622124    0.1674783 -72.13  0.001124543    1.415    0.293
        56  -9.1111    121.5361     98.5472   8.4523976516e+01   3.8952328859e+01    0.1534446    0.1492432 -46.03 0.0001220836    1.007    0.007
        57 -11.3260      1.8532     89.3228   1.2006392320e+02   5.6701993146e+01    0.3487384    0.1456825 -76.23  0.001593838    2.035    0.509
        58 -11.4565    249.1171     87.8149   5.5987744876e+01   1.1362502355e+01    0.3040579     0.242249 -84.89  0.001108739    1.511    0.338
        59  -8.6657     75.0141     85.0280   9.4720086481e+01   5.0470831955e+01    0.1674331     0.151227 -42.59 0.0003227997    1.002    0.002
        60  -8.6088     70.2784     81.7151   9.5363575417e+01   5.1915035801e+01     0.130328    0.1088083 -88.89 0.0002318761    1.513    0.339
        61  -9.3576    158.5249     80.5478   6.9944925297e+01   3.4093580633e+01     0.154334    0.1537835 -48.80 0.0001626458    1.004    0.004
        62  -8.9527    184.3471     77.3117   6.3643768195e+01   2.8249392695e+01    0.1605241    0.1206783  20.75 0.0007045982    1.712    0.416
        63  -9.2669     82.0262    194.7018   1.1312501965e+02   2.3969342754e+01    0.1863466    0.1493171  56.37  0.001147077    1.128    0.113
        64 -10.0589     13.5865     59.9267   1.1043839279e+02   6.2576614771e+01    0.1760375    0.1705124 -28.27 0.0003947177    1.256    0.204
        65 -13.6869     44.4630    222.1997   1.2315839767e+02   2.3379274785e+01     1.258878     1.127051  64.91  0.008090657    1.342    0.255
        66 -13.1656      8.8840    189.0894   1.2761060176e+02   3.3793659378e+01    0.7331104    0.3997624 -57.67  0.001214888    2.141    0.533
        67  -8.8319     95.4487    188.4922   1.0942044317e+02   2.3245704734e+01    0.1347128    0.1158958  71.83 0.0002473003    1.019    0.019
        68  -8.9850    148.6329    187.3236   9.7557577685e+01   1.4222257778e+01    0.1471281     0.105667  72.20 0.0001486431    1.798    0.444
        69 -12.1355     65.6317    180.2781   1.1498935791e+02   2.9407749812e+01    0.4023975    0.2706499 -42.27  0.001524745    2.086    0.521
        70 -10.9435    142.8108     47.9717   6.3101176136e+01   4.3542827491e+01    0.4485886    0.3015118 -80.99  0.001658369    2.314    0.568
        71 -10.3864    145.1893     42.0282   6.0565902135e+01   4.3824759306e+01    0.4216695    0.2629922 -74.44  0.001507302    2.666    0.625
        72  -9.2898      2.3327     37.6899   1.0947289259e+02   6.7791049372e+01    0.1003721   0.08443251  81.35  0.000451857    1.673    0.402
        73 -10.6430    189.5771     15.0988   4.4820591571e+01   3.5749287484e+01    0.2678517    0.1874923  64.36 0.0007016855    1.331    0.249
        74  -8.3258     96.6459    201.2903   1.1083114728e+02   2.0387986727e+01    0.1388865   0.08601683  66.16 0.0007027438    1.678    0.404
