#   1 NUMBER                 Running object number                                     
#   2 MAG_AUTO               Kron-like elliptical aperture magnitude                    [mag]
#   3 X_IMAGE                Object position along x                                    [pixel]
#   4 Y_IMAGE                Object position along y                                    [pixel]
#   5 X_WORLD                Barycenter position along world x axis                     [deg]
#   6 Y_WORLD                Barycenter position along world y axis                     [deg]
#   7 A_WORLD                Profile RMS along major axis (world units)                 [deg]
#   8 B_WORLD                Profile RMS along minor axis (world units)                 [deg]
#   9 THETA_WORLD            Position angle (CCW/world-x)                               [deg]
#  10 FWHM_WORLD             FWHM assuming a gaussian core                              [deg]
#  11 ELONGATION             A_IMAGE/B_IMAGE                                           
#  12 ELLIPTICITY            1 - B_IMAGE/A_IMAGE                                       
         1 -14.9545      5.5503     17.7144   1.0740298464e+02   6.9909446366e+01     3.068565    0.6397926 -40.69   0.01325825    3.815    0.738
         2 -14.3705    180.4751     40.4222   6.5092312944e+01   3.5257883078e+01     2.073177     1.005711  89.23   0.00776563    3.413    0.707
         3 -15.5246    198.0888     28.7177   6.0112563930e+01   3.2733135960e+01     1.812542     1.118418 -48.34   0.01035654    1.593    0.372
         4 -12.4598    204.8922     19.9719   5.7487249874e+01   3.2262553720e+01    0.3796451    0.3707469  71.52  0.001080687    1.387    0.279
         5 -15.3529    211.0953     12.4880   5.5341241412e+01   3.1759181113e+01     2.118518     1.097781  79.60  0.008492547    1.685    0.406
         6 -13.6037     12.5911     40.5028   1.1246943006e+02   6.5943578887e+01    0.4287125    0.3183568 -13.03  0.003075812    1.106    0.096
         7 -12.6003     74.8695    237.4003   1.3121628500e+02   1.4352347580e+01    0.7271166     0.430416  34.83  0.003673518    1.768    0.434
         8 -14.5401      4.9817    168.2258   1.3936168856e+02   3.8760465450e+01     2.595111    0.4320734 -68.25  0.008755013    3.835    0.739
         9 -13.5428     25.4284    142.4690   1.3092718506e+02   4.3302045665e+01     1.401214     1.028928  -0.85  0.006858425    1.816    0.449
        10 -16.4578      7.1443    195.9523   1.4142724926e+02   3.2007968165e+01      1.34758    0.9873319  66.05  0.008405223    1.267    0.211
        11 -14.1777     62.7356    186.9104   1.2764326174e+02   2.7909448234e+01     3.303574     2.282865 -84.76   0.01687647    1.442    0.307
        12 -13.2893     72.4366    166.3394   1.2196002794e+02   3.1702014904e+01     1.064342    0.6126103 -83.59  0.001549309    2.309    0.567
        13 -13.5088    109.8694    204.1034   1.1887197834e+02   1.6347695107e+01     1.429831    0.9813187  30.71  0.006870536    1.594    0.373
        14 -14.3946    120.6230    179.9471   1.1200435370e+02   2.0213243756e+01      2.97899     1.060129 -61.38  0.008621821    3.847    0.740
        15 -14.0198    104.7859    194.0911   1.1844475232e+02   1.9602516030e+01     1.669349     1.135446  15.37  0.006675825    2.134    0.531
        16 -15.1303    102.8504    176.7494   1.1588588791e+02   2.4188633639e+01     2.403156     1.769293  46.18   0.01167606    1.372    0.271
        17 -15.9355    132.7214    206.7201   1.1395248082e+02   1.1721153748e+01     3.067212     2.001615  49.94   0.01437989    1.542    0.351
        18 -15.8588    129.0604    231.6987   1.1879703618e+02   6.9483808287e+00     2.410052     1.350736  30.92   0.01099016    1.887    0.470
        19 -15.1083    112.4652    224.1493   1.2135446079e+02   1.1353871261e+01     2.033964    0.9562437 -58.08  0.008671874    2.235    0.553
        20 -12.4871    193.2293    236.8580   1.0599670512e+02  -4.7388298790e+00    0.3082232    0.2173363 -65.88   0.00156213    2.254    0.556
        21 -15.4904     17.0000    206.8779   1.4029005234e+02   2.8524093896e+01    0.9515178    0.5182146  28.72  0.004873737    2.264    0.558
        22 -17.5242      7.4970    230.1673   1.4392715817e+02   2.4276696878e+01     2.406758     1.186987 -74.86   0.01030109    1.705    0.413
        23 -12.2698     46.7443    213.8948   1.3464446377e+02   2.3502318739e+01    0.3248398    0.2339383 -54.39 0.0007625592    1.562    0.360
        24 -10.1578     95.9250    213.4708   1.2355637685e+02   1.6486050645e+01    0.2156387    0.1326626  40.39 0.0009246268    1.573    0.364
        25 -10.3885     40.9303    205.3123   1.3500403555e+02   2.6238902971e+01    0.2435012    0.1518158  77.97 0.0008207232    1.591    0.372
        26 -10.9758     89.6115    203.2736   1.2353939129e+02   1.9900186202e+01    0.4180872    0.3315671 -57.01  0.002247214    1.290    0.225
        27 -11.4573    198.5599    198.9788   9.7965599986e+01   1.4269858684e+00    0.2837338    0.1986284  18.10  0.001392924    1.642    0.391
        28 -10.5511     37.5737    194.3533   1.3456007920e+02   2.9262243779e+01    0.3599868    0.1676288  75.79  0.001312989    3.088    0.676
        29 -11.4115     49.8944    185.0605   1.3052421444e+02   3.0056275227e+01    0.4537679    0.2130134 -72.51  0.001505543    2.042    0.510
        30 -13.3315    142.9218    177.4685   1.0605416007e+02   1.6565762984e+01     1.180176     1.087727   7.89  0.005683484    1.194    0.162
        31 -11.1657     19.2967    179.3461   1.3714924656e+02   3.4832017513e+01    0.3171051    0.2065694 -54.21  0.001183749    1.543    0.352
        32 -12.8836    143.1954    171.0032   1.0466057381e+02   1.8033553906e+01     0.632356    0.4688875  66.35  0.002864281    1.627    0.385
        33 -10.3398     25.9646    171.0383   1.3460986045e+02   3.6213232099e+01    0.2101022    0.1724849 -74.12  0.001298904    1.052    0.049
        34 -11.9169     20.4225    168.4529   1.3566555909e+02   3.7380062851e+01    0.3967131    0.2920378 -62.34  0.001319365    1.218    0.179
        35 -11.9758    155.2347    168.3602   1.0123024800e+02   1.6250626364e+01    0.3416863    0.2858832  58.79  0.001687575    1.282    0.220
        36 -10.7870     39.2489    164.6393   1.3042296008e+02   3.6406550203e+01    0.4861104    0.1812675 -74.48  0.001739074    3.007    0.667
        37 -11.3890    176.4498    160.7838   9.4762076303e+01   1.3663047874e+01    0.3888712    0.3541706  23.76  0.001950967    1.175    0.149
        38 -13.5027    157.1807    160.0551   9.8975922284e+01   1.7770967008e+01    0.8343613    0.4419152  35.45  0.003202123    2.129    0.530
        39 -10.8021     17.7448    182.9831   1.3788807126e+02   3.4100930271e+01    0.1997332    0.1887659  88.28 0.0006648104    1.233    0.189
        40 -11.2102     88.9348    161.3644   1.1664987484e+02   3.0398113678e+01    0.2829471    0.2050893 -50.79 0.0004511568    1.333    0.250
        41 -13.3336     52.2391    124.0813   1.1978434456e+02   4.4955385089e+01     1.265951    0.7862102 -71.88  0.005985536    1.781    0.438
        42 -12.3748     90.9571    144.0021   1.1259062632e+02   3.4413665416e+01    0.3857974    0.3183714 -58.84 0.0003906971    1.146    0.128
        43 -13.4151     46.0253    140.2530   1.2472539496e+02   4.1732534668e+01     1.579028    0.6590334 -64.24  0.006405892    2.172    0.540
        44 -14.9878     62.5721    144.3098   1.2071557639e+02   3.8653076337e+01     2.082574     1.378825  -6.15  0.009179777    2.396    0.583
        45 -14.2380     79.8153    145.9776   1.1613948759e+02   3.5726579957e+01     1.357163    0.8979943 -43.24   0.00631788    1.535    0.349
        46 -16.3289     51.6765    239.0233   1.3611750962e+02   1.7218886710e+01     2.697916      1.49844  58.05   0.01449665    1.625    0.385
        47 -11.4498    136.4825    156.5217   1.0321315858e+02   2.2815386492e+01    0.2977656    0.2800702 -56.25  0.001393315    1.036    0.035
        48 -14.0864     97.6910    228.3794   1.2522304814e+02   1.2836777853e+01     1.536175    0.7698071  40.81  0.007003195    1.841    0.457
        49 -13.6049    171.8573    149.5073   9.3263642759e+01   1.7112241776e+01    0.7526776    0.4404183 -25.87  0.002776682    2.525    0.604
        50 -11.5425    180.0264    147.9863   9.1137409801e+01   1.5736273304e+01    0.2426371    0.2308562 -47.09 0.0007472938    1.011    0.011
        51 -13.0659    106.3662    142.8940   1.0807289142e+02   3.1966868949e+01    0.9781623    0.6956692   6.08  0.004140499    2.101    0.524
        52 -13.9286    146.9458    139.6211   9.6769240568e+01   2.4626183368e+01     1.213957    0.5812995 -58.10  0.004156066    2.578    0.612
        53 -10.6485      4.0033    145.8020   1.3715332347e+02   4.4212916650e+01    0.2199058    0.1644415 -23.96  0.001150865    1.706    0.414
        54 -12.2336    161.2730    140.8800   9.3671212858e+01   2.1286183567e+01    0.4774739    0.2801588 -55.65  0.001923343    1.816    0.449
        55 -10.9994    120.9580    141.8404   1.0390186716e+02   2.9437509799e+01    0.4780174      0.26186  26.87  0.001731579    2.532    0.605
        56 -12.3453     19.0561    103.9678   1.2629526220e+02   5.2953723443e+01     1.023294    0.5359793  -0.91  0.004901316    2.696    0.629
        57 -12.7925     16.2090    123.4985   1.3064783516e+02   4.8647744609e+01     1.124949    0.6618501 -79.12  0.005055346    1.742    0.426
        58 -13.8930      4.7365    129.1562   1.3482645282e+02   4.8123249229e+01     1.245765    0.3377578 -60.47  0.005174152    2.484    0.597
        59 -14.4969      3.3214    112.6854   1.3282626438e+02   5.2043369883e+01     1.498335    0.5055394 -65.01  0.006658594    2.254    0.556
        60 -12.5715    138.3376    134.4983   9.7679157033e+01   2.7624437073e+01    0.6425375    0.4215106 -72.16  0.002542607    2.130    0.531
        61 -10.8499    123.9070    151.8572   1.0538836915e+02   2.6437780210e+01    0.3531925    0.2896388  84.21  0.001678822    1.429    0.300
        62 -11.4886    112.2685    132.5444   1.0406559380e+02   3.3354627542e+01    0.3333357    0.2484021  -7.03  0.001034981    1.906    0.475
        63 -10.6568     99.7465    129.0618   1.0673568215e+02   3.6523197204e+01    0.3092869    0.2151141 -24.64  0.001345049    1.842    0.457
        64 -12.6081    100.1325    119.9051   1.0439973541e+02   3.8606892267e+01     1.465508    0.7599611 -71.74  0.004159178    4.691    0.787
        65 -12.3983    102.6603    110.6296   1.0130454396e+02   4.0243771361e+01    0.8648288     0.422376 -51.42  0.003381304    2.067    0.516
        66 -12.5546     95.8099    103.3444   1.0138052351e+02   4.3110150256e+01    0.8798757    0.6999062  -1.16  0.004415337    1.497    0.332
        67 -13.0496     61.0852    113.0268   1.1459103489e+02   4.6439927875e+01     0.841293    0.6808777  29.36  0.004178068    1.350    0.259
        68 -12.6526     68.9148    105.0924   1.1016637878e+02   4.7151634841e+01    0.7062199    0.5981513 -26.66  0.002768539    1.153    0.133
        69 -12.8517    166.0356    112.6259   8.5774874290e+01   2.6357635368e+01    0.5763099    0.5025296  74.56  0.001733416    1.199    0.166
        70 -13.9117    154.7170    103.4196   8.5950405044e+01   3.0790068990e+01     1.010215     0.833856 -19.87  0.005012339    1.443    0.307
        71 -13.4047     46.6249     82.5139   1.1174044352e+02   5.4924004422e+01     1.319819    0.5372235 -53.10   0.00562954    2.353    0.575
        72 -12.7698     42.2308     75.5759   1.1139249425e+02   5.6817222397e+01    0.6535168    0.4791516 -23.47  0.002927849    1.263    0.209
        73 -13.7008     26.9780     80.6721   1.1835281034e+02   5.7336562748e+01     1.120865    0.6950005 -46.95  0.005397324    1.335    0.251
        74 -14.1225     10.3438     84.1513   1.2520953620e+02   5.7899619297e+01     1.148243     0.839339  26.68  0.007142957    1.649    0.394
        75 -12.2927     54.8630    100.5670   1.1361390512e+02   5.0079153640e+01    0.8579476    0.5027243 -32.98   0.00406719    1.803    0.445
        76 -13.0416     58.6921     77.9449   1.0619356272e+02   5.4290676930e+01    0.8597394    0.6432335 -43.76  0.004248383    1.278    0.217
        77 -12.9909     21.8333     66.7859   1.1662830313e+02   6.0535604803e+01    0.6440223    0.3694398   1.14  0.003128035    2.002    0.500
        78 -14.0099    178.6348    242.5424   1.0993263061e+02  -3.4107435108e+00    0.8159425    0.4040011 -42.17  0.003831024    2.161    0.537
        79 -12.4459     49.1852     46.9836   9.9729079649e+01   6.0987298640e+01    0.8282103    0.4451417 -19.95  0.004111817    2.176    0.541
        80 -13.5861     21.2733     49.8471   1.1181756552e+02   6.3651385438e+01    0.8000273    0.3332505 -32.29  0.003906579    2.299    0.565
        81 -12.5492    162.4116    249.0216   1.1431320546e+02  -1.9468399403e+00    0.3266625    0.2354817  29.43  0.001846642    1.273    0.215
        82 -13.1299    188.5520     35.6578   6.2857311556e+01   3.4021742968e+01    0.4168808    0.3340732 -76.09  0.001482972    1.147    0.128
        83 -13.3928    164.0084    244.5893   1.1329463531e+02  -1.4083881674e+00    0.4662749    0.2322495  31.63  0.002120591    1.955    0.489
        84 -12.9068    143.7882    248.8097   1.1816348635e+02   1.1217926069e+00    0.9235725    0.2348632  32.35  0.002413863    6.026    0.834
        85 -14.2603     86.7120    238.4569   1.2885378773e+02   1.2361745788e+01    0.8376307    0.7811952  61.89  0.003772792    1.149    0.129
