#   1 NUMBER                 Running object number                                     
#   2 MAG_AUTO               Kron-like elliptical aperture magnitude                    [mag]
#   3 X_IMAGE                Object position along x                                    [pixel]
#   4 Y_IMAGE                Object position along y                                    [pixel]
#   5 X_WORLD                Barycenter position along world x axis                     [deg]
#   6 Y_WORLD                Barycenter position along world y axis                     [deg]
#   7 A_WORLD                Profile RMS along major axis (world units)                 [deg]
#   8 B_WORLD                Profile RMS along minor axis (world units)                 [deg]
#   9 THETA_WORLD            Position angle (CCW/world-x)                               [deg]
#  10 FWHM_WORLD             FWHM assuming a gaussian core                              [deg]
#  11 ELONGATION             A_IMAGE/B_IMAGE                                           
#  12 ELLIPTICITY            1 - B_IMAGE/A_IMAGE                                       
         1 -12.4291     45.1998     44.9322   5.2989106060e+01   6.5769390457e+01    0.9884812    0.4282415 -59.29  0.001442788    2.813    0.645
         2 -13.4314     12.5564     47.9740   7.4000415744e+01   6.8740160673e+01    0.4898377    0.3825157 -57.94 0.0006503176    1.138    0.121
         3 -11.7596     99.2413     27.0201   2.2722043248e+01   5.7231130402e+01    0.7265284    0.4432455 -30.08  0.000441318    1.717    0.417
         4 -11.4474      7.2602     26.9789   7.1492764117e+01   7.4173697036e+01    0.9527662    0.5028777 -89.87  0.004012011    2.880    0.653
         5 -12.3479     14.9318     18.1257   6.0940725720e+01   7.5522847601e+01    0.9954865    0.6187813 -82.67  0.003990558    2.816    0.645
         6 -11.9818      7.7924     14.9911   6.5832849322e+01   7.6830146952e+01    0.4464428    0.2544165 -50.85  0.001211781    1.531    0.347
         7 -12.6505      3.0143     13.8536   6.9985252656e+01   7.7409609764e+01    0.8998736    0.2725617 -53.86  0.001185264    2.489    0.598
         8 -12.2180    248.9468     20.2875   2.3885601200e+00   2.2265893901e+01      0.60462    0.1669307 -40.58 0.0004199286    2.318    0.569
         9 -13.0537    240.8720     13.3414   1.2628595725e+00   2.4493960344e+01    0.5463609    0.3792341 -25.90  0.002456675    1.412    0.292
        10 -12.2869    249.1811      8.0239   3.5971374034e+02   2.3459195937e+01    0.7813445    0.2847306 -27.36  0.003865235    2.332    0.571
        11 -12.5717    234.7209      9.7080   7.4096700980e-01   2.6053448418e+01     0.346958    0.2894573 -49.34  0.001927693    1.102    0.093
        12 -12.5405    241.5372      3.8066   3.5910796556e+02   2.5303612489e+01    0.6859778    0.3008196  66.97  0.002813139    2.641    0.621
        13 -11.0437    193.4648     20.4575   6.0911102856e+00   3.3810692271e+01     0.313965    0.2325479 -10.51 -5.148484e-05    1.648    0.393
        14 -10.7908     60.0649     12.0359   2.7820457882e+01   6.8798922641e+01    0.5305879    0.2305962 -32.39  0.001975884    2.347    0.574
        15 -12.3992     65.2769     11.8433   2.5593596008e+01   6.7623443834e+01    0.2776033    0.2579465  17.88 0.0004069832    1.063    0.059
        16 -12.2337     28.7053     19.8025   5.0835262480e+01   7.3491390628e+01    0.2922762    0.2399119   0.52 0.0002768548    1.215    0.177
        17 -11.8791    132.0284     16.8066   1.1796514082e+01   4.9784123189e+01    0.4599138    0.3079315 -58.65  0.002232747    1.528    0.345
        18 -10.6363    100.6863     17.2462   1.7873400986e+01   5.8097866614e+01    0.4444053    0.2423582 -52.48  0.001822263    2.151    0.535
        19 -11.1448    137.6157     15.3675   1.0445771213e+01   4.8447247433e+01    0.4068295    0.2499901 -68.43 0.0005752124    1.746    0.427
        20 -11.3416     82.2106      6.9359   1.7279974092e+01   6.4013161332e+01    0.2346557    0.1918594  56.06  0.000285985    1.122    0.109
        21 -12.4074     76.0596     10.9708   2.1317723259e+01   6.5127634075e+01    0.6789138    0.4885403  29.46  0.002282271    1.507    0.336
        22 -11.4751    159.8719     14.8110   7.5514697801e+00   4.2669222872e+01    0.2376463    0.2089573 -74.04 0.0002655547    1.017    0.017
        23 -10.9163     54.3084     13.4195   3.1286496781e+01   6.9883024513e+01    0.4358095    0.2541059 -20.69  0.002009538    1.978    0.494
        24 -10.3253    124.4214     14.0258   1.1890634215e+01   5.2120741630e+01    0.3467498    0.2320196 -88.43  0.001419054    1.541    0.351
        25 -10.0810    177.7206     12.0441   5.0001184430e+00   3.8467082154e+01    0.1862081    0.1572381 -46.90 0.0003680954    1.106    0.096
        26 -10.0957     27.2280     10.8760   4.6130129561e+01   7.5353699125e+01    0.2567906    0.2235542 -30.26  0.001596426    1.143    0.125
        27 -10.4691    139.6859     10.9119   8.5313433486e+00   4.8353522735e+01    0.2571561    0.1877667  88.47 0.0001374961    1.297    0.229
        28 -10.0917    119.7078     10.8872   1.1366309404e+01   5.3709158057e+01    0.2464372    0.1734722 -15.46  0.001224379    1.622    0.383
        29 -10.0963    100.1669     10.0889   1.4621678164e+01   5.9016183386e+01    0.2517855    0.1906669  23.06 0.0008158502    1.539    0.350
        30 -11.0267     98.4518      3.6196   1.1855580504e+01   6.0085215189e+01    0.5952061    0.2931044 -58.58  0.002355613    2.610    0.617
        31 -11.1224    160.5605      8.8065   5.5264335696e+00   4.3097814178e+01    0.2908242     0.223826 -87.50 0.0003395035    1.202    0.168
        32 -10.3735    154.9075      8.2247   5.8845066842e+00   4.4612375293e+01    0.3043224    0.1742298  87.46  0.001126948    1.706    0.414
        33 -10.5455    145.2083      8.0122   6.8334008212e+00   4.7171795743e+01     0.234776     0.184799  83.09 0.0003187904    1.176    0.150
        34  -9.3336    114.2997      8.7146   1.1336961454e+01   5.5376396305e+01    0.2248281    0.1262123  86.07 0.0003273735    1.892    0.472
        35  -9.8662    110.8312      5.7693   1.0629156816e+01   5.6584404615e+01    0.2932163    0.1607507 -44.72  0.001313956    1.886    0.470
        36 -10.8779     32.4516      1.9822   3.5439368503e+01   7.5853297201e+01     0.305733    0.1802718  47.25 0.0008161179    1.682    0.406
        37 -11.3157     21.4988      3.1064   4.4882201374e+01   7.7534054359e+01    0.5102685    0.3350203  16.65  0.002773833    1.646    0.393
        38 -10.6586     27.5757      2.5948   3.9484381588e+01   7.6634256958e+01    0.2555215    0.2185152  51.11 0.0007161399    1.396    0.284
        39  -9.4483     90.5487      7.5299   1.5500930881e+01   6.1801509408e+01    0.1427212    0.1289201  53.08 0.0001287588    1.055    0.053
        40 -10.1450     36.5656      6.1298   3.5997323512e+01   7.4503129012e+01    0.2998472    0.1710688  23.76  0.001365274    2.199    0.545
        41 -10.5188    223.1520      5.2105   2.5065041494e-01   2.8834615863e+01    0.2021223    0.1702058 -32.15  0.001385384    1.244    0.196
        42 -10.6239     68.5352      5.3234   2.0436650659e+01   6.7591914460e+01    0.2528487    0.2172962  44.85 0.0007292122    1.072    0.067
        43 -11.1818    179.5712      3.6586   2.3841015003e+00   3.8828978912e+01    0.4118752    0.2018348  59.45 0.0004715777    2.179    0.541
        44 -10.0133    126.0939      2.7816   7.1389668224e+00   5.2742587087e+01    0.2137436    0.1733571 -70.56  0.000510763    1.179    0.152
        45 -10.2590     91.0022      2.0673   1.2584473504e+01   6.2188056356e+01    0.2040469    0.1856712  59.94 0.0002833717    1.030    0.029
        46  -9.7735     14.2182      2.0045   5.0807816113e+01   7.8735075550e+01    0.1710314    0.1410624 -26.05  0.001087693    1.110    0.099
        47 -10.6738    230.3406      1.4052   3.5902945164e+02   2.7728633252e+01    0.1915281    0.1039926  77.37 0.0008847076    1.980    0.495
        48 -10.7798    164.4367      4.7802   3.8871814590e+00   4.2490014629e+01    0.2419047    0.1981889 -67.76 0.0002845553    1.071    0.066
        49  -9.4314    120.9229      1.5308   7.3034637323e+00   5.4238476297e+01    0.2152067    0.1259216  72.60  0.001010961    1.544    0.352
        50 -10.4587     73.7992      1.4153   1.6441365647e+01   6.6671133700e+01    0.2905305     0.120316  63.34 0.0005657586    2.145    0.534
        51  -9.4016    238.3619    200.7934   4.0148345492e+01   1.2871052642e+00    0.1467935   0.08082955 -20.51   0.00042446    1.554    0.356
        52 -12.1799    248.4251    247.4701   4.5579812904e+01  -4.6071375133e+00    0.4876696    0.2501406 -15.88  0.003557354    1.638    0.390
        53 -11.9983    225.6749    246.4785   4.8894144079e+01  -2.3238528683e+00    0.5474423    0.2319996 -18.78  0.003149867    2.624    0.619
        54  -9.5728    110.2744    250.0196   7.0368992713e+01   1.0379213319e+01     0.155834    0.1238413  29.51 0.0006432268    1.063    0.060
        55  -9.7345     91.5255    250.0591   7.4189029106e+01   1.2576395017e+01    0.1367099    0.1147666 -74.88   0.00102632    1.577    0.366
        56 -11.6871     22.0312    248.6696   8.8370070615e+01   2.0148658844e+01    0.4739798    0.1399175  39.03   0.00239275    2.037    0.509
        57  -9.7870     13.3374    249.7064   9.0136712437e+01   2.0757877231e+01    0.1518454    0.1106468  56.81 0.0006434917    1.138    0.121
        58 -10.2736      6.9560    249.3019   9.1387776852e+01   2.1381281954e+01    0.1962744    0.1410692  57.40 0.0006466031    1.138    0.121
        59 -10.0993     10.4948    248.0239   9.0659829557e+01   2.1294093201e+01    0.2075506   0.09709937  42.88 0.0005793908    1.425    0.298
        60  -9.4894    120.4725    200.0394   6.2561939160e+01   1.7308051909e+01     0.173436     0.129142 -49.14  0.001015548    1.553    0.356
        61 -10.3327     40.6148    197.2369   8.1759194345e+01   2.8179882924e+01    0.3032738     0.119088 -79.59  0.001335966    2.835    0.647
        62 -10.1675    134.8510    196.4729   5.8807237326e+01   1.5855797590e+01    0.2018174    0.1754006 -36.92 0.0005292877    1.293    0.227
        63  -9.5239     57.0452    197.0762   7.7622652164e+01   2.6371310340e+01    0.2604027    0.1637691  -7.73  0.001210902    2.739    0.635
        64 -12.0339     15.6415    192.0284   8.7737242737e+01   3.1735303491e+01    0.3648681    0.3472219  38.16  0.001618516    1.263    0.208
        65  -9.4677    186.4965    193.4963   4.7711466816e+01   8.8398793697e+00    0.1238236    0.1006562   5.30 0.0008106572    1.010    0.010
        66 -11.1578    244.7558    188.7804   3.7214673893e+01   1.9520222520e+00    0.2394495    0.1721056 -32.10  0.001291881    1.519    0.342
        67 -10.3420    224.9857    189.0566   4.0282701858e+01   4.3138491223e+00    0.2912232    0.1424904   0.32   0.00126007    3.503    0.715
        68  -9.8005    145.3521    189.9952   5.5500467436e+01   1.5428206190e+01    0.1768384     0.156393 -10.12 0.0005396218    1.144    0.126
        69  -9.8057     60.5956    191.7608   7.6253381837e+01   2.7082993287e+01    0.2527258    0.1500389  19.77    0.0012615    1.834    0.455
        70  -9.9272    212.1397    187.1306   4.2062933165e+01   6.2291668395e+00    0.1796469    0.1294871  -0.39 0.0003672258    1.206    0.171
        71  -9.3466      2.3212    187.3013   9.0904233944e+01   3.3865357337e+01    0.1085907   0.08976167 -43.61 0.0003127684    1.628    0.386
        72  -9.7892     61.9763    184.5571   7.5206607936e+01   2.8489599212e+01    0.1981604     0.172963  86.68  0.001222742    1.192    0.161
        73 -11.9323     15.7043    182.3964   8.7297663075e+01   3.3873788379e+01    0.4806397    0.2236301  52.55   0.00242648    1.760    0.432
        74 -10.9523    249.6168    180.7685   3.5153469067e+01   2.3266824625e+00     0.191267    0.1173918 -30.94 0.0009974672    1.472    0.320
        75 -10.5671     22.9108    179.9315   8.5268166784e+01   3.3791585632e+01    0.3838159    0.1230796  54.36  0.001531342    2.773    0.639
        76 -10.2640      1.4939    180.4727   9.0916251408e+01   3.5450149466e+01    0.1912332    0.1073283 -88.04  0.001060324    1.679    0.404
        77 -10.2262      4.3490    179.3208   9.0140579733e+01   3.5496099284e+01    0.1636443     0.127853  -1.30 0.0009829737    1.684    0.406
        78  -9.8130     54.1106    175.0448   7.6390808760e+01   3.1609467191e+01    0.1921254    0.1812871 -25.13 0.0006601678    1.295    0.228
        79 -10.5083     17.8213    172.8245   8.6258187224e+01   3.5898018074e+01    0.2979461    0.1110322  55.31  0.001275342    2.356    0.576
        80 -11.5794      8.0508    172.4797   8.8906741223e+01   3.6785165776e+01    0.2542885    0.1750394  87.11  0.001221961    1.341    0.254
        81 -10.0428     67.5730    165.7218   7.1582220785e+01   3.2081980878e+01    0.1831015    0.1308988  89.95 0.0005123158    1.532    0.347
        82 -10.3759      1.3797    165.0638   9.0460769662e+01   3.9023850953e+01    0.2822662    0.1072857 -85.11  0.001247483    2.436    0.590
        83 -10.1424      8.2677    163.0182   8.8446945012e+01   3.9009156596e+01    0.2568511    0.1474962 -23.84  0.001198835    2.810    0.644
        84  -8.9753    200.3371    161.6954   3.9483538964e+01   1.1568818861e+01    0.1124576     0.103567 -78.79 0.0007039619    1.671    0.402
        85  -9.0741    117.2843    161.7022   5.7432147614e+01   2.5393495421e+01    0.1389113    0.1082329  66.45 0.0002515837    1.547    0.354
        86  -9.6356     67.3306    157.8809   7.0647632390e+01   3.3987734038e+01    0.1878674    0.1736023  82.06 0.0003967529    1.081    0.075
        87 -10.2274    250.5822    155.6959   3.0548152479e+01   5.2562519636e+00     0.229783   0.08950043 -28.48  0.001147484    2.176    0.540
        88 -10.4453    216.3723    154.4385   3.5366551206e+01   1.0201292783e+01     0.252728    0.1684847 -27.23  0.001132764    1.309    0.236
        89 -10.0501    158.5262    153.9176   4.6167047115e+01   1.9805573111e+01    0.2703446    0.1845059  21.30  0.001114161    1.586    0.370
        90  -9.5906     40.5271    151.9576   7.8046935681e+01   3.8765979396e+01    0.1975582    0.1302776 -77.84 0.0003892844    1.495    0.331
        91 -10.3043     10.2902    152.5800   8.7351246902e+01   4.1405443916e+01    0.3543057    0.1257055  19.44  0.001428721    2.958    0.662
        92 -12.1034     13.8409    147.9356   8.6002792270e+01   4.2293040756e+01    0.2981304    0.2110207  80.33 0.0003090182    1.262    0.208
        93  -9.4744    222.3226    151.3237   3.3815346287e+01   9.7571466317e+00    0.2115796    0.1567045  67.89  0.001170947    2.564    0.610
        94  -9.1339    145.3070    151.6600   4.8685845607e+01   2.2578936323e+01    0.1386747    0.1142566  80.81 0.0004171595    1.683    0.406
        95  -9.2242    143.7446    148.6339   4.8440245241e+01   2.3457427693e+01    0.2033615    0.1137885 -45.09  0.000609324    1.838    0.456
        96  -9.6492     81.7907    150.3974   6.5291515791e+01   3.3702385787e+01    0.2078665    0.1380778  20.39 0.0009491891    1.717    0.418
        97 -11.1675     25.9635    147.8922   8.2213290684e+01   4.1267508095e+01    0.3273142    0.2208156  80.49 0.0007350223    1.394    0.283
        98  -9.2951    233.8031    146.9334   3.1233137665e+01   8.6855999179e+00     0.162889   0.07914199 -31.21 0.0005740519    1.734    0.423
        99 -11.0219     39.7733    145.9376   7.7656856331e+01   4.0374051285e+01    0.4480967    0.1596361  33.02 0.0009848586    2.429    0.588
       100 -10.7286    217.0011    145.1260   3.3423070800e+01   1.1455877111e+01     0.315269    0.1431869  31.02  0.001422836    2.718    0.632
       101  -9.6104     30.0000    145.0203   8.0685821160e+01   4.1616758873e+01    0.2257473   0.07386465 -76.04 0.0008040091    2.953    0.661
       102 -10.5694     17.4771    143.4966   8.4566280609e+01   4.3127697494e+01    0.4240432    0.1423789  58.76  0.001524256    3.126    0.680
       103 -10.3347     14.0122    139.9743   8.5438600835e+01   4.4304697582e+01    0.2635076    0.1755193 -43.87  0.001313485    1.811    0.448
       104 -10.7151      6.7549    145.2147   8.8052513512e+01   4.3503704603e+01    0.3488089    0.1583969  22.02  0.001547369    2.238    0.553
       105  -9.5750    155.5358    144.5197   4.4898339390e+01   2.2107037789e+01    0.1398532    0.1328844   4.15  0.000284832    1.032    0.031
       106 -13.1902     37.6878    135.0477   7.7128981102e+01   4.3415704069e+01    0.5055304    0.3403018 -85.96  0.001555183    1.452    0.311
       107 -10.3680    239.9443    140.0726   2.9022369104e+01   8.7252573275e+00    0.1856067    0.1446987 -16.02 0.0005932359    1.042    0.041
       108 -10.0732    189.0095    139.9244   3.7133693944e+01   1.6896074801e+01    0.2013149    0.1824405 -15.15 0.0004605568    1.048    0.046
       109  -9.5730     77.4909    139.9578   6.4868426689e+01   3.6914536470e+01    0.2089935    0.1250482  83.04 0.0008085482    2.457    0.593
       110 -10.5703     10.0365    140.0365   8.6727775509e+01   4.4584965669e+01    0.2254048    0.1237055  55.74 0.0005178346    1.640    0.390
       111 -10.3570    235.7041    138.0022   2.9202296383e+01   9.6225732611e+00    0.1847286      0.16111   0.42 0.0004409268    1.156    0.135
       112  -9.4844    144.1970    136.6076   4.5795741243e+01   2.5782135713e+01    0.2034197    0.1338303  28.64 0.0002804836    1.650    0.394
       113 -10.6398     43.9611    137.8695   7.5368465471e+01   4.1983643591e+01     0.312284    0.1963583 -80.35  0.001489885    1.587    0.370
       114 -11.0708    241.5271    134.4023   2.7686046153e+01   9.2533287052e+00    0.2432589     0.164953 -25.07 0.0005857241    1.192    0.161
       115  -9.9267     20.5309    135.0230   8.2914360787e+01   4.5061200846e+01    0.2128396    0.1244712 -81.42 0.0008886385    1.592    0.372
       116 -11.1876     16.6690    130.8445   8.3884152246e+01   4.6467064688e+01    0.4618326    0.2011839  39.73    0.0020278    2.068    0.516
       117 -11.1383     57.5186    132.6072   7.0114744645e+01   4.1666004667e+01    0.3798895    0.2766743 -12.83 0.0008124515    1.916    0.478
       118 -10.6734     53.0616    132.9655   7.1665182931e+01   4.2155486466e+01    0.2998385    0.2212617 -59.68 0.0003062767    1.372    0.271
       119 -12.0256     74.2717    128.8735   6.3924416599e+01   4.0198030658e+01    0.4134507    0.3815325 -19.75  0.001272377    1.244    0.196
       120 -10.8818     64.6329    131.0161   6.7483870034e+01   4.1092109126e+01    0.2103543     0.189488 -75.86 0.0007746645    1.103    0.093
       121 -11.6173      4.8034    129.7085   8.7857756705e+01   4.7598216980e+01    0.3646324    0.1997795 -83.93 0.0002818942    1.632    0.387
       122 -10.2056    217.1208    129.1800   3.0112417027e+01   1.3785243849e+01    0.1915002    0.1537076  -7.42 0.0004224702    1.189    0.159
       123 -10.4450     24.6960    127.7340   8.0816661404e+01   4.6615910662e+01    0.3453833    0.2116823 -84.68  0.001684966    1.541    0.351
       124 -12.5293     81.4329    124.4809   6.0737381956e+01   4.0153378464e+01    0.9029818    0.5581512 -56.18  0.002727184    1.625    0.385
       125  -9.9341     29.6609    127.3030   7.9022133277e+01   4.6271503685e+01    0.1543966   0.09144837  58.22 0.0002523756    1.672    0.402
       126 -10.3955    229.5768    124.7540   2.7357278048e+01   1.2401857947e+01      0.17806   0.09925446 -39.16 0.0009505681    1.604    0.376
       127  -9.4583     14.5421    124.9233   8.4150268693e+01   4.8186937736e+01    0.1979593    0.1223557 -81.22  -2.2803e-05    1.472    0.320
       128 -11.9110     46.9957    124.3098   7.2483421922e+01   4.5185723012e+01    0.3077118    0.2591826  23.83 0.0003498856    1.281    0.219
       129 -11.1040     61.0496    121.6507   6.7083222729e+01   4.4035560385e+01    0.2922194    0.2337576 -42.79 0.0005660954    1.384    0.277
       130 -10.9359     57.0122    121.1745   6.8421788549e+01   4.4723155525e+01    0.3097424    0.2369686  81.61  0.000328678    1.375    0.273
       131 -10.7441      2.0285    118.6465   8.8196605420e+01   5.0649653921e+01    0.3345209    0.1840967  48.95   0.00114769    1.702    0.412
       132 -11.3502     10.0466    122.2781   8.5548839246e+01   4.9203218663e+01    0.3613372    0.2766574 -65.34 0.0008239704    1.292    0.226
       133 -10.9163      7.5124    119.0230   8.6230270828e+01   5.0227832857e+01    0.2501218    0.2120864 -87.39  0.000663903    1.066    0.062
       134 -11.2526     68.3838    121.2977   6.4472472911e+01   4.3047710772e+01    0.4360575    0.2441916  35.96  0.001791114    1.733    0.423
       135 -10.2396     24.8466    119.2890   7.9876571128e+01   4.8851055259e+01    0.3129817    0.1736199 -39.89  0.001366098    2.226    0.551
       136 -10.8011    248.9770    117.5516   2.3342341189e+01   1.0383981563e+01    0.2695771     0.164277  -0.73  0.001449079    2.227    0.551
       137 -10.7443     20.4198    108.2922   8.0329734079e+01   5.2181766326e+01    0.2496594    0.2333377   4.45 0.0008631584    1.227    0.185
       138 -11.0977     15.8973    115.2287   8.2806089786e+01   5.0665096114e+01    0.2764825    0.2345458  83.37 0.0004224586    1.052    0.049
       139 -12.0767     13.5321    110.3537   8.3251576611e+01   5.2141454680e+01    0.4825627    0.3792661  38.08  0.001377623    1.299    0.230
       140 -10.6806    182.1158    114.6575   3.2724098826e+01   2.2467188417e+01    0.2523778    0.2134813 -49.84 0.0005617382    1.239    0.193
       141 -10.7152     70.3594    114.8678   6.2504749702e+01   4.4403262436e+01     0.288183    0.1977129  46.47  0.001326067    1.443    0.307
       142 -10.0905    106.9183    113.8852   5.0391592672e+01   3.8071214768e+01    0.2360031    0.2155544   6.10   0.00062356    1.221    0.181
       143 -10.2508    244.4943    113.5218   2.3060709197e+01   1.1598218747e+01    0.1219986   0.09676236 -23.99 4.194338e-06    1.023    0.022
       144 -10.5132    249.6244    111.8535   2.2101004579e+01   1.1032317026e+01    0.1742876   0.08640415 -38.48 0.0005033911    1.672    0.402
       145 -11.7523     31.6657    108.2733   7.5868405070e+01   5.1179988871e+01    0.6073369    0.3791215  84.87  0.002566149    1.690    0.408
       146  -9.2892    101.4956    111.0090   5.1321618434e+01   3.9814673103e+01    0.2147747    0.1531134 -52.32 -0.0001576304    1.414    0.293
       147 -11.5162     55.0866    109.7753   6.7041550585e+01   4.8000422644e+01    0.2980402     0.265676 -53.69 0.0005622186    1.152    0.132
       148 -11.1506     62.9203    106.9739   6.3532891061e+01   4.7607397102e+01    0.3608453    0.2011644 -53.80  0.001320687    1.755    0.430
       149 -10.5057      3.3356    105.6267   8.6858017069e+01   5.4026211027e+01    0.3543987    0.2544356  84.01  0.001360158    1.240    0.194
       150 -10.4299     36.4616    102.4869   7.3037438648e+01   5.2247820311e+01    0.1979475    0.1845774  84.16 0.0006553674    1.020    0.019
       151 -11.4638     70.8889    101.8470   5.9413696069e+01   4.7672235601e+01    0.4289414    0.2785046  -0.25  0.001631073    2.653    0.623
       152 -11.4380     75.0056    103.6486   5.8345144759e+01   4.6518231118e+01    0.4694739    0.2282005 -55.54 0.0004231633    2.012    0.503
       153 -10.8109     50.6716    103.7604   6.7565821707e+01   5.0196136726e+01    0.2746796    0.2497083  33.30 0.0005830464    1.151    0.131
       154  -9.0634     42.5912    103.8299   7.0790479225e+01   5.1191841119e+01    0.1968597    0.1350897 -85.95 0.0004541214    1.517    0.341
       155 -10.1063     23.8428     99.1799   7.7767640414e+01   5.4363742036e+01    0.2897597    0.1717315 -78.61 0.0008804708    1.582    0.368
       156 -10.9359     61.9268     99.0488   6.2146667450e+01   4.9829420207e+01    0.4522884    0.2773455 -43.61  0.001940204    1.776    0.437
       157  -9.5356    108.8158    100.5914   4.6388667454e+01   4.0756360426e+01    0.2121804    0.1459844  55.41 0.0002652559    1.553    0.356
       158 -10.2980     52.0636     97.1106   6.5627389177e+01   5.1775280984e+01    0.2478562    0.2030577 -48.85 0.0003081026    1.240    0.193
       159  -9.5015     33.6917     98.6531   7.3538014945e+01   5.3576315437e+01    0.1541298    0.1012609 -40.10 0.0006922815    1.703    0.413
       160 -11.2228     16.2875     96.3985   8.0617305383e+01   5.5710117972e+01    0.3983186    0.2472816 -14.83  0.001873445    2.080    0.519
       161 -10.2606     57.1058     96.0257   6.3348345454e+01   5.1344189372e+01    0.2263557    0.2154905 -88.08 0.0003409884    1.012    0.012
       162  -9.6351    101.3467     94.7311   4.7052161352e+01   4.3664998682e+01    0.1597186    0.1224676  76.35  0.000361321    1.616    0.381
       163  -9.8236    226.4294     93.3157   2.0919309256e+01   1.7389535963e+01    0.1921145     0.149039 -74.53 0.0004939681    1.699    0.411
       164  -9.8883     80.9687    104.0264   5.6323674797e+01   4.5379707409e+01    0.2550856     0.188597  76.87 0.0007973452    1.673    0.402
       165  -9.7592     31.6487     92.9030   7.3418094863e+01   5.5337473871e+01    0.1994075    0.1703098 -80.09   0.00041579    1.097    0.088
       166 -11.7945     57.3744     90.6222   6.1947361970e+01   5.2715354707e+01    0.3974061    0.3387743 -24.10 0.0007398908    1.342    0.255
       167  -9.8852     12.7060     91.8147   8.1623647661e+01   5.7191821515e+01    0.2735278    0.1365409  47.93 0.0009523922    2.078    0.519
       168  -9.7850    104.8550     91.0468   4.4895291943e+01   4.3764844402e+01    0.2457371    0.2124563 -87.34  0.001202266    1.289    0.224
       169 -10.1405     35.3372     90.4392   7.1339774112e+01   5.5616167146e+01    0.2770481    0.2188579  76.14 0.0009292073    1.323    0.244
       170  -9.2059     38.3683     88.7890   6.9667194296e+01   5.5720865442e+01    0.2480513    0.1877229 -40.76 0.0003298224    1.402    0.287
       171  -9.2872      1.6628     91.3251   8.6444935509e+01   5.7925390023e+01    0.1466485   0.08576206  57.63 0.0007051356    1.721    0.419
       172 -11.1981     96.7206     89.0499   4.6896008714e+01   4.5943701871e+01    0.4426388    0.2584779  39.11 0.0005824731    1.768    0.435
       173 -10.2738     23.3305     89.6236   7.6561455958e+01   5.6992979436e+01    0.3128106    0.1969122  60.47   0.00100703    1.725    0.420
       174  -9.5424     73.8980     89.1361   5.5005291778e+01   5.0369055172e+01    0.2017367     0.180059 -24.21 0.0002663178    1.251    0.201
       175  -9.0492     83.2682     88.4125   5.1332355953e+01   4.8801723151e+01     0.162827    0.1202464 -23.32 0.0006133877    1.768    0.434
       176 -10.3294    109.7345     86.0206   4.1913567504e+01   4.3814636121e+01      0.26464    0.2262582  50.05  0.001305686    1.169    0.144
       177  -9.8192     30.3192     85.5854   7.2664676362e+01   5.7439256725e+01    0.2420763     0.228779  63.65  0.001126772    1.086    0.079
       178 -10.2953     30.0512     81.9341   7.2070187102e+01   5.8443154126e+01    0.2868125    0.1893366 -64.28 0.0004412649    1.385    0.278
       179 -10.1408    184.8321     85.1576   2.4870962203e+01   2.6862872180e+01    0.2036073    0.1740568 -53.85 0.0002967678    1.156    0.135
       180 -10.6343     64.7674     83.4418   5.7007477073e+01   5.3377714541e+01    0.4712147     0.240882 -70.11  0.001672523    2.637    0.621
       181  -9.8733      8.4160     85.0005   8.2765696191e+01   5.9282694381e+01    0.2046691    0.1576252 -86.21  0.001136869    1.177    0.150
       182 -10.4797    117.3520     82.7774   3.8717864841e+01   4.2784520068e+01    0.3516143    0.2385976  12.80  0.001336746    2.525    0.604
       183 -11.7055     77.2550     82.2104   5.1718271673e+01   5.1448900134e+01    0.3752869    0.2583417  42.97 0.0006258631    1.459    0.315
       184  -9.6566     41.9873     83.4956   6.6878209144e+01   5.6696233983e+01    0.2181206    0.1458994  28.45  0.001024537    1.566    0.361
       185  -9.1230     68.6939     82.2718   5.5080062330e+01   5.2995859830e+01    0.1527889     0.118067  71.63 0.0002116566    1.540    0.351
       186 -10.1949     21.5241     81.8293   7.6108841558e+01   5.9241698822e+01    0.2278616    0.1898223 -11.66 0.0003966286    1.364    0.267
       187  -9.7186      7.9481     80.4702   8.2442874469e+01   6.0522146649e+01    0.2075441    0.1653405 -77.37 0.0003766993    1.115    0.103
       188 -12.7560     88.2542     77.1168   4.6078845139e+01   5.0452982051e+01    0.4500705    0.3819129  58.59 0.0004880576    1.216    0.178
       189  -9.6837      2.3550     79.7936   8.5062172379e+01   6.0972146433e+01    0.3294637   0.08944902 -55.33  0.001172087    3.055    0.673
       190  -9.7630     41.2937     79.6007   6.6266073076e+01   5.7806589867e+01     0.275456    0.1343246  32.40 0.0008730204    2.066    0.516
       191 -11.4990     49.1471     77.5085   6.2103369430e+01   5.7307543965e+01    0.4425681    0.2999206  18.49  0.002039696    1.708    0.415
       192 -11.2515    168.0919     73.9570   2.4652247177e+01   3.2459892201e+01    0.4519042    0.2423783 -44.32 0.0009827306    1.768    0.434
       193 -10.2384    167.1002     68.9325   2.3380792729e+01   3.3515731006e+01     0.415554    0.2405725 -87.45  0.001527292    3.034    0.670
       194  -9.3313    113.3052     77.3330   3.8144442947e+01   4.4852761720e+01    0.1580176    0.1268259   3.60 0.0002938755    1.663    0.399
       195 -10.4252    107.1820     72.1727   3.8242669835e+01   4.7341573051e+01    0.2405424    0.2261133  83.96 0.0003127086    1.080    0.074
       196 -10.8136     99.7948     76.3098   4.1919805132e+01   4.8142717365e+01    0.3513374    0.2648609 -57.88  0.001034335    1.399    0.285
       197 -11.3564    102.9011     70.3619   3.8937372086e+01   4.8705647994e+01     0.543274    0.2631109 -42.91  0.001171326    2.072    0.517
       198 -11.6911     23.1243     75.9585   7.4247723653e+01   6.0677150797e+01    0.4912822    0.4422983  78.55  0.002493902    1.126    0.112
       199 -13.9944     16.5122     67.4448   7.6014815506e+01   6.3451775272e+01     0.493355    0.4531762 -86.93 0.0009917406    1.080    0.074
       200 -10.8264      6.3264     68.0123   8.1600100265e+01   6.3916742898e+01    0.2628931    0.2131451  83.76 0.0003508755    1.211    0.174
       201 -11.6579      3.2428     62.5995   8.2512578705e+01   6.5477607555e+01    0.7602843    0.4145232 -33.52  0.003661143    1.941    0.485
       202  -9.9441     75.3127     75.2731   5.0296005023e+01   5.3475992739e+01      0.42345    0.2940079  26.42  0.001877779    1.673    0.402
       203 -10.0898     36.6634     76.2519   6.7646015187e+01   5.9238727284e+01     0.235765    0.1854539  41.13 0.0005991627    1.327    0.246
       204  -9.8460     61.6409     72.9194   5.5179839119e+01   5.6515786891e+01    0.3385351    0.1391898 -54.03  0.001209505    2.353    0.575
       205 -11.9614     50.3718     68.1950   5.8810196674e+01   5.9482308832e+01    0.3672647    0.2981349 -30.73  0.000510364    1.326    0.246
       206 -10.8542     45.0158     70.8804   6.2182704819e+01   5.9575124394e+01    0.2669319    0.2429371 -77.54 0.0003729303    1.109    0.098
       207 -10.4770      6.9541     73.3539   8.2017935614e+01   6.2471456039e+01    0.2976871    0.1975535 -23.14 0.0008910905    1.711    0.416
       208  -9.5231      1.2899     72.5539   8.4818484308e+01   6.2937139810e+01    0.2411989    0.1068203 -78.60  0.001005733    1.973    0.493
       209  -9.4425    123.7203     72.6995   3.3795089499e+01   4.3321864604e+01    0.1508327    0.1245599   9.00 0.0002107136    1.544    0.352
       210 -10.0359    140.0778     71.2932   2.9409802355e+01   3.9621861434e+01    0.2196479    0.1952847  61.33  0.001136155    1.138    0.121
       211  -9.1280    175.5691     70.4504   2.2394986956e+01   3.1294272578e+01    0.1434769    0.1323949 -46.86 0.0001563056    1.012    0.012
       212  -9.1967    199.5160     69.0331   1.8505765210e+01   2.6178136011e+01    0.2003228    0.1209476 -34.78 -0.0001124752    1.461    0.315
       213 -11.0671     92.6372     67.6838   4.1351538091e+01   5.1590173368e+01    0.3324137    0.2841966 -13.66 0.0007119517    1.379    0.275
       214 -10.2450    147.2020     65.9960   2.6227625850e+01   3.8811797347e+01    0.3685031    0.1805404 -46.00 0.0007684271    2.033    0.508
       215  -9.5707    131.6675     68.7386   3.0528048435e+01   4.2142637537e+01    0.1523249     0.120457  24.24 0.0006961572    1.573    0.364
       216 -10.8827    122.9765     63.5840   3.0938391911e+01   4.5230092150e+01    0.2769789    0.2205433 -40.43  0.000222976    1.255    0.203
       217 -12.9097     30.2958     63.4106   6.7604721967e+01   6.3274014542e+01    0.4863842    0.4655809 -77.67  0.001077937    1.061    0.058
       218 -10.8346    110.4583     65.2218   3.4887537637e+01   4.7967467369e+01    0.4368533    0.3094187 -80.73  0.001386167    1.977    0.494
       219  -9.1528    235.7105     65.6844   1.3580176011e+01   1.9426139794e+01    0.1163752   0.09136795   0.15 0.0002981294    1.592    0.372
       220 -10.9630     81.1715     64.6567   4.4386887869e+01   5.4719958295e+01    0.5285777     0.441352  72.81  0.001770441    1.365    0.267
       221  -9.8567    159.9221     64.2859   2.3269942179e+01   3.5988331409e+01     0.213795    0.1957816  16.35 0.0003577583    1.265    0.210
       222  -9.8102    161.6548     61.3058   2.2064023357e+01   3.6044963174e+01    0.1510756    0.1457497 -49.82 0.0007538959    1.059    0.055
       223 -10.3958    155.1131     63.6705   2.3962222754e+01   3.7260467272e+01    0.2511984    0.1946297 -51.32  0.000552848    1.255    0.203
       224  -9.8397     98.5089     64.2959   3.8193673940e+01   5.0966887577e+01     0.335685    0.1834363  37.15  0.001276279    2.143    0.533
       225 -12.1604     46.9829     59.3412   5.7562417217e+01   6.2154415089e+01    0.7581495    0.4319736 -30.33   0.00304333    2.348    0.574
       226 -11.7406     55.2253     48.9369   4.9456510267e+01   6.3207630771e+01    0.5276006    0.4153997 -44.10 0.0003701876    1.246    0.197
       227 -10.0939     83.7789    248.4457   7.5657491342e+01   1.3723354774e+01    0.2209514   0.07852618  34.27 0.0005636299    1.972    0.493
       228 -11.0699     50.1062     43.1620   4.9582791497e+01   6.5347889813e+01    0.6824483    0.2930363  35.33  0.002622308    2.435    0.589
       229 -11.4469     55.2042     37.6317   4.4395793017e+01   6.5569642253e+01    0.6555809    0.3165304 -52.01  0.002567984    2.352    0.575
       230 -10.8580     57.7904     34.3834   4.1519079237e+01   6.5697371913e+01    0.3309295    0.2405409  28.50  0.001062617    1.471    0.320
       231 -10.0442    209.9418     63.0433   1.5686995199e+01   2.4825859618e+01    0.1988696     0.170071 -41.78 0.0003360682    1.015    0.015
       232  -9.8153     44.4560     74.3975   6.3435764661e+01   5.8751584679e+01    0.2538723    0.1757111  65.83 0.0001024631    1.786    0.440
       233 -10.6306    119.0312     61.1823   3.1118412644e+01   4.6646217765e+01    0.3355896    0.2221686 -39.14 0.0003722858    1.514    0.339
       234 -12.4855    115.7188     55.3059   2.9877254014e+01   4.8532624264e+01    0.3726065     0.287978  77.08 0.0005665274    1.431    0.301
       235 -10.3305     90.1305     61.0231   3.9791745515e+01   5.3546020918e+01    0.2626824     0.221248  52.25 0.0003728136    1.184    0.155
       236 -10.7294     93.1158     57.8921   3.7587160965e+01   5.3500709414e+01    0.3304209      0.24836  78.71  0.001090285    1.680    0.405
       237 -11.0669     89.0546     53.6164   3.7304945843e+01   5.5277586435e+01    0.5139464    0.2779352 -37.61  0.001839786    1.929    0.482
       238 -10.3277    136.5634     59.0600   2.6214140728e+01   4.2641527986e+01    0.4642465    0.2515581  76.48  0.001675309    2.665    0.625
       239  -9.8539    114.1774     60.5380   3.2185096559e+01   4.7960413604e+01    0.3522355    0.1300141  45.18  0.001118834    2.941    0.660
       240 -10.4935    193.5545     58.1741   1.6415168089e+01   2.9039102105e+01    0.2251517     0.212715  42.56 0.0006295242    1.227    0.185
       241 -11.2151      6.4181     41.7933   7.6578103041e+01   7.0650083399e+01    0.9949953    0.2670569 -45.89  0.003576797    3.175    0.685
       242 -11.5218      3.3534     52.8467   8.0902345701e+01   6.7999658481e+01    0.4881482    0.3111023 -71.58  0.002597067    1.380    0.275
       243 -11.4425      7.9288     51.2193   7.7723718413e+01   6.8197988914e+01    0.5315192    0.3058146  62.45  0.002220568    2.164    0.538
       244  -9.2758     19.6858     45.9524   6.8791309512e+01   6.8688926076e+01    0.4842292    0.3765439  73.49  0.001059106    1.560    0.359
       245 -11.7867     13.0942     53.1391   7.4926978734e+01   6.7397225253e+01    0.7030836    0.3187698 -52.73  0.002464346    1.895    0.472
       246  -9.3994    168.7844    250.4398   5.9100043212e+01   3.4005946402e+00    0.1576154   0.08069219  20.55 0.0005180559    1.626    0.385
       247 -10.2405     80.4124     56.1797   4.1467899696e+01   5.6687266338e+01    0.4296556    0.2863615   1.36  0.001608629    2.786    0.641
       248  -9.6350     68.7660     56.8179   4.6422412196e+01   5.8954524655e+01     0.202348    0.1772449  84.92 0.0005449282    1.323    0.244
       249  -9.8627    176.9978     56.1424   1.8102273691e+01   3.3143917173e+01    0.2037589    0.1857901  37.31 0.0004651572    1.267    0.211
       250 -10.5250    145.4027     54.2972   2.2822547723e+01   4.1194994221e+01    0.2848341    0.2444249  37.95 0.0007220419    1.311    0.237
       251 -11.5714    149.3259     51.5203   2.1177262922e+01   4.0637223054e+01    0.3476042    0.3149078 -76.62   0.00106255    1.071    0.066
       252 -11.9013    105.3168     52.5152   3.1702228192e+01   5.1611514503e+01    0.3810242    0.2939182  52.64  0.000152753    1.275    0.215
       253 -11.0508     39.0540     50.3534   5.8568020838e+01   6.5433401368e+01     0.536289    0.3402881 -44.52  0.002566239    1.518    0.341
       254 -11.1132     62.5564     50.2247   4.6511178686e+01   6.1580935523e+01    0.5395911    0.1434442 -47.22  0.001587793    3.730    0.732
       255 -10.6325    133.3157     50.4036   2.3946791667e+01   4.4896466549e+01    0.3875133    0.2286601 -75.54  0.001431144    2.643    0.622
       256 -10.1344    127.1076     50.7050   2.5417980595e+01   4.6437442505e+01    0.2818006    0.2261293 -31.23 0.0007778854    1.301    0.231
       257 -10.2884     78.0925     48.1846   3.9089368317e+01   5.8801822135e+01    0.3716401    0.2456793 -18.69  0.001522804    2.105    0.525
       258 -10.8551     82.6271     48.4754   3.7499185099e+01   5.7736173684e+01    0.4121284     0.281436 -54.79 0.0009413658    1.635    0.388
       259  -9.0189     85.3385     46.6713   3.5755340911e+01   5.7458781336e+01    0.2060958    0.1484362 -30.57  0.000952037    1.497    0.332
       260 -10.2562    180.4420     47.3989   1.5106109609e+01   3.3566491359e+01     0.335534    0.1886639 -54.23 2.077739e-05    1.796    0.443
       261  -9.8669     72.9671     48.8987   4.1436591518e+01   5.9763079669e+01    0.2371102    0.1833768 -78.68 0.0008103214    1.723    0.420
       262  -9.6428    156.8022     48.0109   1.8751951451e+01   3.9276663731e+01    0.2043052    0.1753484 -44.22 0.0003435426    1.115    0.103
       263 -11.6884    245.6460     40.2817   7.0045988234e+00   2.0685816020e+01     0.422004    0.1338005 -38.37  0.001951816    2.188    0.543
       264 -11.3036    248.1279     36.2632   5.9448202481e+00   2.0688337384e+01    0.2266208     0.174564 -55.16 0.0002886435    1.142    0.125
       265  -9.8547    104.6596     46.9220   2.9698799421e+01   5.2761691608e+01    0.2737556     0.162882 -81.61 0.0009000385    3.369    0.703
       266  -9.3420    135.4804     46.4094   2.2095669069e+01   4.4966835327e+01    0.1509074    0.1401263 -81.55 0.0001172652    1.035    0.034
       267  -9.7841    112.1781     45.3547   2.7036413825e+01   5.1131548147e+01    0.2403508    0.2051107 -21.96 0.0003965062    1.287    0.223
       268  -9.8888    237.0658     44.5795   8.6174622723e+00   2.1783835860e+01    0.1881463    0.1371728 -39.41 0.0006078779    1.094    0.086
       269  -9.8600    163.8580     44.6779   1.6598771391e+01   3.7985993631e+01    0.2009725    0.1733194 -75.17 0.0005860062    1.122    0.109
       270 -10.0270     90.2028     41.6780   3.1943119879e+01   5.7210135828e+01    0.3577009     0.245355  87.44  0.001498558    2.141    0.533
       271 -10.5588    131.4976     41.8155   2.1258334621e+01   4.6695075304e+01    0.3082636    0.2508491  -9.04  0.001522584    1.477    0.323
       272 -10.6298    121.7446     42.8638   2.3748523253e+01   4.9071253744e+01     0.472937    0.2985894 -86.21   0.00166748    2.202    0.546
       273 -10.1279    116.7354     40.2270   2.3898498800e+01   5.0776017623e+01    0.3816451    0.2129343  48.18 0.0009653291    1.830    0.454
       274 -11.0225     72.8799     42.7891   3.8800906998e+01   6.0978277488e+01    0.3515849    0.2915141 -86.64  0.001168839    1.517    0.341
       275 -10.9583     67.8350     41.0305   4.0116074842e+01   6.2388595085e+01    0.2919275    0.1979513 -66.15  0.001266594    2.073    0.518
       276 -11.0156     65.0202     36.6500   3.9276540242e+01   6.3803355308e+01    0.2609587    0.2239026 -45.20 0.0001829287    1.203    0.168
       277 -11.2627     61.9871     41.8343   4.3102890343e+01   6.3424040504e+01    0.3804513    0.3162756 -74.20  0.001957906    1.487    0.328
       278 -11.2517     98.7742     41.4316   2.9158597488e+01   5.5155545144e+01    0.7611951     0.268788  56.23  0.002533544    2.767    0.639
       279 -10.1379    187.0063     41.0400   1.2486542782e+01   3.2863737570e+01    0.2041866    0.1785484 -56.41            0    1.010    0.010
       280  -9.5634    162.9795     40.9635   1.5565391855e+01   3.8719041185e+01     0.224893    0.1532166 -62.71 0.0003355193    1.514    0.340
       281 -11.0132    149.3430     40.5237   1.7532581109e+01   4.2250333643e+01    0.3547714    0.2383329 -53.68  0.001679809    1.487    0.327
       282 -10.3787    108.4508     40.4864   2.6068524810e+01   5.2868459212e+01    0.4385411    0.2206373  60.66  0.001729906    1.971    0.493
       283  -9.6637     23.5758     40.2256   6.4260758830e+01   6.9695416313e+01    0.2742733    0.1889149 -47.10  0.001168563    1.325    0.245
       284 -12.3144     27.7019     37.6673   6.0497526817e+01   6.9831567690e+01    0.2731079    0.2492492  17.52 0.0002610902    1.138    0.122
       285 -10.8446     24.4606     34.5653   6.1394764542e+01   7.0910606513e+01    0.2512152    0.2062074 -35.14 0.0005358621    1.133    0.117
       286 -11.0500    233.8217     39.6354   7.7255936973e+00   2.2988514509e+01    0.3042403    0.1629193 -77.47  0.001091301    2.347    0.574
       287 -11.8504    227.1319     38.1165   7.8878156822e+00   2.4484785720e+01    0.3204958    0.2349152  30.31  0.001470497    1.978    0.494
       288 -10.9695    222.8269     37.1541   8.0005156654e+00   2.5469105533e+01     0.239944    0.1581555 -72.25 0.0006825443    1.587    0.370
       289 -11.1054     75.4340     36.2922   3.4775141450e+01   6.1597876767e+01    0.4172047    0.2940833  66.79  0.001161071    1.670    0.401
       290 -10.3743     76.9739     33.4790   3.2837707961e+01   6.1726341930e+01    0.3322352    0.2184747  76.69 0.0009793766    2.193    0.544
       291 -11.6192     83.7321     36.7880   3.1951410469e+01   5.9589601230e+01    0.5277776    0.4310102  37.55  0.001321961    1.249    0.199
       292 -10.2198     87.9968     33.0177   2.8774286760e+01   5.9176551935e+01    0.3506747    0.2302967   0.75  0.001365704    2.384    0.580
       293 -10.3302    164.9904     37.2182   1.4107384131e+01   3.8715270531e+01    0.3945753    0.2138159 -78.78  0.001576982    2.462    0.594
       294 -12.1820    139.6766     36.4035   1.7763176479e+01   4.5333167738e+01     0.417197     0.352017  78.64 0.0006405964    1.152    0.132
       295  -9.6520    119.9621     35.8186   2.1432228675e+01   5.0591066441e+01    0.2510934    0.1543207  37.16 0.0007754097    1.999    0.500
       296  -8.9143     61.3095     36.3262   4.0806996853e+01   6.4627423448e+01    0.1487734      0.11327   2.58 0.0007038968    1.657    0.396
       297 -10.9269    241.9606     35.0126   6.0785081077e+00   2.1967529209e+01    0.2102941    0.1627348  86.68 0.0008418855    1.463    0.317
       298  -9.1757    129.4813     35.5751   1.9359246989e+01   4.8124643047e+01    0.1477361    0.1401809  66.70 4.172889e-05    1.073    0.068
       299 -10.5298    111.0481     34.3458   2.2898307391e+01   5.3133125109e+01    0.3389437    0.2225436  64.68  0.001385825    1.489    0.328
       300 -10.1332     92.6974     34.3368   2.7898887065e+01   5.7811322870e+01    0.2741744    0.1715686 -45.85   0.00121561    1.691    0.408
       301 -10.9570     73.0184    244.5068   7.7611465043e+01   1.5587894333e+01    0.2696659    0.1905748  19.86 0.0009998641    1.402    0.287
       302 -10.0513     34.1639     33.6065   5.4452077076e+01   6.9893094782e+01    0.2094133    0.1734664 -40.69 0.0007439574    1.145    0.127
       303 -10.3129     15.8225     32.1502   6.6670236191e+01   7.2325604247e+01    0.2076903    0.1734202 -35.89 0.0003292339    1.087    0.080
       304 -10.2594     19.2750     30.9805   6.3603193443e+01   7.2272104655e+01    0.2302288    0.2166831  22.57 0.0008494119    1.163    0.140
       305 -10.5720     66.9011     31.3413   3.5814290602e+01   6.4350504994e+01    0.4079492    0.1596242  43.64  0.001476548    2.567    0.610
       306  -9.6961     49.8221     28.7848   4.2683037612e+01   6.8275782967e+01    0.3521567    0.3325742  52.79  0.002076288    1.168    0.144
       307 -10.9776     11.8695     29.3120   6.8624419083e+01   7.3308264637e+01    0.2406173    0.2093322 -29.65 0.0003962123    1.060    0.057
       308 -12.3784     74.7492    239.6331   7.6892153809e+01   1.6204105681e+01    0.4549512    0.4387813 -82.31   0.00321671    1.327    0.246
       309 -10.1560     10.8891     24.5050   6.7482960190e+01   7.4485793255e+01    0.3151341    0.1772299 -39.51 0.0007991711    1.640    0.390
       310 -10.0705     45.4206    244.3059   8.3389958101e+01   1.8610176569e+01    0.2040447   0.08645029  44.01  0.000580059    1.685    0.406
       311  -9.8225      4.6489    244.0203   9.1737278821e+01   2.2486567080e+01    0.1464138    0.1043277  58.00 0.0004960725    1.133    0.117
       312  -9.2959    102.3135    243.6657   7.1416819279e+01   1.2295073416e+01    0.1184384   0.07155032  50.70 0.0007045849    1.685    0.407
       313 -10.1071     79.7822     27.6496   2.8950005110e+01   6.1995197652e+01    0.3482963    0.2057816 -13.50  0.001351059    2.410    0.585
       314 -12.4110    231.5591     26.3958   4.7912622332e+00   2.4934744671e+01    0.3211915    0.2543241 -78.54 0.0002213357    1.285    0.222
       315 -10.8097    202.9111     27.6678   7.2456291229e+00   3.0843335838e+01    0.2320549    0.1782411 -12.32 0.0004877847    1.549    0.354
       316 -10.8412    197.9901     28.1922   7.8139688105e+00   3.1895091018e+01    0.3207777    0.1701866  88.65 0.0009627273    2.128    0.530
       317  -9.1499    163.2761     28.3229   1.1519549535e+01   4.0271833051e+01    0.1354313    0.1085213  29.22 0.0003881371    1.581    0.367
       318 -10.7717    112.4847     26.2447   1.9187969415e+01   5.3874957675e+01    0.3947507    0.2706361  -2.68  0.001532817    1.951    0.487
       319 -12.2088    240.2443     26.0769   4.1684849413e+00   2.3280194037e+01    0.3441361    0.1551027 -39.60  0.001842408    1.639    0.390
       320 -11.9966    214.1554     26.0607   5.9322504615e+00   2.8562231720e+01    0.3715302    0.2488853  88.25  0.002152483    1.574    0.364
       321 -11.4485    219.0353     25.2663   5.3764518527e+00   2.7616050194e+01    0.2622777    0.1724955  82.94   0.00043599    1.631    0.387
       322 -10.7668    176.5829     26.4509   9.4058062046e+00   3.7171115142e+01    0.3136307    0.1954192 -49.85 0.0005467251    1.455    0.313
       323 -10.7806    119.3375     27.2006   1.8132860935e+01   5.1936230690e+01    0.3037502    0.2058024  66.24 0.0005723523    1.406    0.289
       324 -10.5185     61.3230     26.4975   3.5725258834e+01   6.6371209966e+01    0.2558585    0.2259437  17.74 0.0005511799    1.144    0.126
       325  -9.6080     16.4886     26.8339   6.3931083936e+01   7.3477065378e+01    0.1864614    0.1202964 -55.72 0.0003192113    1.441    0.306
       326 -10.1377     91.2488     24.9192   2.3957543466e+01   5.9561763180e+01     0.353383     0.185727  53.73  0.001196386    1.768    0.434
       327 -10.9299     88.8556    241.4287   7.4038117280e+01   1.4258525632e+01    0.2002858    0.1421167 -35.87  0.001052912    1.925    0.481
       328 -10.3983     59.8704    240.7057   8.0138893679e+01   1.7692742529e+01     0.181079    0.1260701  22.06   0.00106646    1.406    0.289
       329 -10.3052    195.7957    238.2852   5.2727983575e+01   1.7651598263e+00    0.1975318    0.1444131  -1.45 0.0009371475    1.144    0.126
       330  -9.6750     13.3233    238.8223   8.9853642438e+01   2.2654847185e+01    0.1327274   0.09147036 -78.21 0.0009354626    1.724    0.420
       331 -10.1637      3.7151    238.4048   9.1813137019e+01   2.3555955942e+01    0.1843423    0.1239854  77.64 0.0009100678    1.439    0.305
       332  -9.8190    156.0572     21.6619   1.0246686375e+01   4.2905483834e+01    0.1963044    0.1714654 -89.20 0.0004751703    1.078    0.073
       333 -10.0105    129.0808     24.2025   1.5114704009e+01   4.9719295053e+01    0.2139436    0.1886886  50.52  0.000377599    1.191    0.160
       334 -10.2111    224.1966     18.8568   3.4697712255e+00   2.7237136080e+01    0.2482667   0.08451887 -39.92  0.001010288    2.118    0.528
       335  -9.2414     54.2176     22.9939   3.7155049529e+01   6.8433674569e+01    0.1813741    0.1128121 -36.42 0.0005099304    1.632    0.387
       336 -11.8809     34.1772     22.6854   4.8689592693e+01   7.2115469667e+01    0.2426496    0.2086712  -2.22 0.0002181997    1.136    0.120
       337 -10.3866     82.1384     21.5488   2.5069233642e+01   6.2300115467e+01     0.312194    0.2245711 -48.51 0.0007090694    1.529    0.346
       338 -11.3811     39.7972    236.8303   8.4208783139e+01   2.0494372074e+01     0.364637    0.1576752  56.33  0.001286776    2.043    0.511
       339 -10.3593    122.2834     19.9976   1.4658762528e+01   5.2034492727e+01     0.400965    0.2229271  37.08  0.001024013    2.296    0.564
       340 -10.4660     68.8792     21.2267   2.9619337885e+01   6.5515456555e+01    0.3958229    0.2093408  61.33  0.001551417    2.068    0.517
       341 -11.0650     63.9868     17.7243   2.9609887393e+01   6.7137350968e+01    0.2680854    0.2402012 -56.37 0.0005627726    1.269    0.212
       342 -10.9817     35.0747    237.8783   8.5263696982e+01   2.0781442615e+01    0.2598529    0.1280594  44.43  0.001144042    1.461    0.316
       343 -10.8185     30.4839    234.1309   8.6080735578e+01   2.1907731778e+01    0.3435247    0.1852737  66.78  0.001347616    1.754    0.430
       344 -10.2639     58.9690     21.2878   3.3883116016e+01   6.7714659904e+01    0.2500261    0.1666809  50.98 0.0007030943    1.478    0.323
       345  -9.5224     32.8482     15.3921   4.5092392787e+01   7.3671546283e+01    0.2614626    0.1892911  -7.81 0.0003716315    1.575    0.365
       346 -11.0643    183.0694    233.4851   5.4338944898e+01   3.8304669495e+00    0.3073836    0.2142555 -29.02  0.001661744    1.548    0.354
       347 -10.0519     24.5904     20.1600   5.4141231965e+01   7.3985690477e+01    0.2295527    0.1489135 -44.43 0.0006030581    1.453    0.312
       348 -10.4107    230.4940     20.0358   3.3657323384e+00   2.5833529250e+01    0.1785558    0.1473836 -69.04 0.0004625959    1.165    0.141
       349 -10.6409     54.8020    231.6214   8.0665098183e+01   1.9848708167e+01    0.2004111     0.197132 -25.63  0.001209336    1.348    0.258
       350  -9.4977     41.3785     19.5409   4.2181396155e+01   7.1483290069e+01    0.1341545    0.1238104  -7.13 4.829827e-05    1.029    0.028
       351 -10.5084    169.7923     17.7611   7.4648069525e+00   3.9835746469e+01    0.2231789    0.1845222 -19.63 0.0005920976    1.352    0.261
       352  -9.9368     66.9603    236.3065   7.8325931596e+01   1.7663348016e+01    0.1760663    0.1233222  34.48  0.001162143    1.124    0.110
       353 -10.8564    165.3661     13.0423   6.4239188912e+00   4.1449196275e+01    0.2705085     0.192894 -85.47   0.00144605    1.334    0.250
       354 -10.5961    236.9874    230.2345   4.4868321698e+01  -1.8024437263e+00    0.1686916    0.1281513 -45.26  0.001197733    2.592    0.614
       355 -10.1098    118.6567     16.8765   1.4033485142e+01   5.3359796052e+01    0.2779366    0.1971899  85.27 0.0008994507    1.418    0.295
       356 -10.5840    109.0740     16.6825   1.5789585694e+01   5.5942520025e+01    0.2926808    0.2080502  71.97 0.0008825946    1.338    0.252
       357 -10.4987    217.0298     16.0575   3.2334607874e+00   2.9031351757e+01    0.4073327    0.1327546  65.28  0.001745378    3.177    0.685
       358 -10.9763    248.5755    228.8200   4.2930563864e+01  -2.8197337217e+00    0.1805371   0.07737616 -26.44  0.001138196    2.035    0.509
       359 -10.6167     76.8866     15.9655   2.3825135301e+01   6.4323503316e+01    0.2505462    0.1884016  50.95 0.0002975698    1.241    0.194
       360 -11.0988    160.9627    235.0215   5.8667697089e+01   6.3192467732e+00    0.2931229    0.1555276  17.85  0.001651994    1.790    0.441
       361 -10.3514      4.5085    225.7835   9.1378097946e+01   2.5809921293e+01    0.2735451    0.1421279  19.07  0.001582141    2.066    0.516
       362 -10.4037     79.4823    223.1391   7.4524032236e+01   1.8533508748e+01    0.2530171    0.1750857   3.11  0.001442273    1.905    0.475
       363 -10.0714     16.2597    222.0199   8.8717990860e+01   2.5512122464e+01    0.1583344    0.1214616  57.40 0.0004335347    1.079    0.073
       364 -11.8706     48.9121    218.4811   8.1157618679e+01   2.2952068447e+01    0.5402028    0.2458175  29.71   0.00205002    1.823    0.451
       365  -9.3756    126.3369    220.6689   6.3904992775e+01   1.2928054657e+01    0.1236868   0.08374342  52.78 0.0007052071    1.735    0.424
       366  -8.6358     30.6533     11.7318   4.4167832580e+01   7.4663269353e+01    0.1348093   0.09600615   4.34  0.000447067    1.615    0.381
       367  -9.5528    171.4640     11.4655   5.3658556537e+00   4.0074284804e+01    0.1365203    0.1191732 -66.90 0.0001382847    1.010    0.010
       368 -10.5896     39.4442    229.0570   8.3897936659e+01   2.1945833295e+01    0.2426507    0.1110704  42.67 0.0009158237    1.588    0.370
       369  -9.7162    211.8046    218.7994   4.7211921849e+01   2.2337979244e+00    0.1383295    0.1172364   9.93  0.000702961    1.328    0.247
       370 -10.2874     69.5323    217.5092   7.6319438045e+01   2.0781409088e+01    0.1259599   0.09915964  43.43 0.0002258347    1.027    0.026
       371 -10.4317     38.3368    217.0795   8.3512130372e+01   2.4346343774e+01    0.1970916     0.139709  29.26 0.0004643896    1.301    0.231
       372  -9.2067    107.8299     10.3962   1.3232189598e+01   5.6945418594e+01    0.1923448    0.1216207  58.77 0.0003809935    1.457    0.313
       373 -11.8766     11.3717    209.5710   8.9411596301e+01   2.8407351447e+01     0.344711    0.2369529  59.88  0.001484265    1.164    0.141
       374  -8.7203    127.2918     19.2667   1.3502036121e+01   5.0777906590e+01    0.1419332     0.105435  40.84 0.0006911044    1.506    0.336
       375 -11.4562      4.0293    205.3484   9.0986650674e+01   2.9883872828e+01    0.3085817    0.2560382 -43.64  0.002153249    1.687    0.407
       376 -11.6325      7.2011    215.6322   9.0537911214e+01   2.7547252128e+01    0.3080106    0.2030076  51.50  0.002063138    1.130    0.115
       377 -11.3926      5.1371    210.8032   9.0874938957e+01   2.8682527332e+01    0.3145067    0.1850189 -80.14   0.00138764    1.809    0.447
       378  -9.2746    135.6901    216.6807   6.1411337973e+01   1.2318453117e+01    0.1232574     0.086058  -0.17 0.0007034416    1.642    0.391
       379  -9.6126     23.8398    215.8537   8.6781744616e+01   2.6019739238e+01    0.1706356    0.1033515  53.96 0.0003960691    1.306    0.234
       380 -10.3136     29.4821    214.5341   8.5425349626e+01   2.5739745283e+01    0.2039979    0.1091929  13.46  0.001034244    2.368    0.578
       381  -9.5866    110.4246    211.3080   6.6283774065e+01   1.6674658035e+01    0.2117356    0.1187275 -49.73   0.00112281    2.099    0.524
       382  -9.0136     63.2614    212.3595   7.7365973288e+01   2.2520171983e+01    0.1126361   0.09287982 -24.93 0.0003644034    1.629    0.386
       383  -9.9931     20.3475    211.9621   8.7424641450e+01   2.7123282925e+01    0.2395219    0.1120116  49.29  0.001133057    1.624    0.384
       384 -10.4901    217.2797    209.0356   4.4801685025e+01   2.7688839041e+00    0.2870862    0.1293933 -30.11  0.001390999    2.101    0.524
       385  -9.0582    132.3036    209.3190   6.1169365675e+01   1.3999787793e+01    0.1252657   0.08944875  -1.53 0.0005161794    1.628    0.386
       386 -10.6045     72.6506    208.4179   7.4796215586e+01   2.2161657724e+01    0.2951004    0.1885871  13.77  0.001571453    1.851    0.460
       387 -10.7300    159.8995     22.9888   1.0215258035e+01   4.1763858024e+01    0.4164512    0.2781616  18.12  0.001910993    2.241    0.554
       388  -9.3168    201.6825    207.3324   4.7188473426e+01   4.9018959280e+00   0.09811065   0.09199636  41.51 0.0004912445    1.690    0.408
       389 -11.6885     18.8302    204.8232   8.7490965366e+01   2.8723195211e+01    0.4802597     0.212895 -52.14  0.002248209    3.242    0.692
       390 -11.2606     20.0127    200.2458   8.7012823867e+01   2.9575618098e+01    0.4533293      0.26196 -29.28  0.002181919    3.192    0.687
       391 -10.5764    133.5001     27.4321   1.5574727957e+01   4.8144342421e+01    0.2754585     0.233761  32.41 7.150717e-05    1.365    0.268
       392 -10.2680     28.2080    205.4128   8.5278330894e+01   2.7718584416e+01    0.1756287   0.08443327  40.12 0.0004498851    1.587    0.370
       393 -10.1951    175.1319    202.0357   5.1257520541e+01   9.1607471821e+00    0.2047528    0.1484454  22.07 0.0004235936    1.175    0.149
       394  -9.3681     67.9721    203.0000   7.5433434391e+01   2.3824457303e+01    0.2192663    0.0628444  29.45   0.00080686    2.973    0.664
