#   1 NUMBER                 Running object number                                     
#   2 MAG_AUTO               Kron-like elliptical aperture magnitude                    [mag]
#   3 X_IMAGE                Object position along x                                    [pixel]
#   4 Y_IMAGE                Object position along y                                    [pixel]
#   5 X_WORLD                Barycenter position along world x axis                     [deg]
#   6 Y_WORLD                Barycenter position along world y axis                     [deg]
#   7 A_WORLD                Profile RMS along major axis (world units)                 [deg]
#   8 B_WORLD                Profile RMS along minor axis (world units)                 [deg]
#   9 THETA_WORLD            Position angle (CCW/world-x)                               [deg]
#  10 FWHM_WORLD             FWHM assuming a gaussian core                              [deg]
#  11 ELONGATION             A_IMAGE/B_IMAGE                                           
#  12 ELLIPTICITY            1 - B_IMAGE/A_IMAGE                                       
         1 -11.0535    246.4214     58.4487   3.8986384944e+01   1.8545520662e+01     1.406808    0.4177068 -41.00  0.005837176    2.679    0.627
         2  -9.7903    128.9402     39.7300   5.1783926138e+01   4.7796639162e+01    0.4391112     0.334802 -60.43  0.002334152    1.563    0.360
         3 -11.8865    223.5150      3.3836   2.9659261564e+01   3.0026405294e+01     1.573379    0.6183751  72.09  0.008000287    2.272    0.560
         4 -11.4971    241.0883     29.2628   3.3546210148e+01   2.3488075846e+01     1.008122    0.7365692 -74.35   0.00668821    1.164    0.141
         5 -12.5523    245.4801     12.2253   2.9876284293e+01   2.4624573205e+01     1.274434     1.066191  87.02   0.00952915    1.256    0.204
         6 -11.5033    218.2550     28.1623   3.5355070056e+01   2.8368788710e+01    0.7294899    0.5104395 -64.68  0.002726844    1.260    0.206
         7 -11.1534    152.6714     20.0911   4.1296882583e+01   4.4451890482e+01    0.6303866    0.4210227 -85.24  0.003323345    1.661    0.398
         8 -11.5025    147.0892     15.1706   4.0711839086e+01   4.6290599141e+01    0.9093043    0.4106494  71.24  0.004056192    2.094    0.522
         9 -11.2373    211.4023     15.5250   3.3213293939e+01   3.1325196894e+01    0.6370648    0.2876839 -49.21  0.003235788    1.999    0.500
        10  -9.7236     72.4457     16.4704   5.8481614855e+01   6.2809208976e+01    0.4566697    0.2745903  73.94  0.001884164    3.789    0.736
        11 -10.8216     81.0704     11.5520   5.3660721706e+01   6.1605315290e+01    0.5138022    0.3434215 -44.69  0.002877207    1.988    0.497
        12 -10.2860    112.9358     13.1736   4.6259225854e+01   5.4516370170e+01    0.3777129     0.285529  86.11  0.002171973    1.541    0.351
        13  -9.8400     16.5971     11.9077   8.1441208047e+01   7.1778432447e+01    0.4845371    0.2544036  46.28  0.002203382    4.272    0.766
        14 -10.7833    132.0270      9.4577   4.1386392130e+01   5.0408153172e+01    0.6434137    0.2953072 -65.98  0.002176333    4.817    0.792
        15  -9.5176     74.2522     10.6306   5.5365318293e+01   6.3061189090e+01    0.2122712    0.1463408 -34.65  0.001145845    1.718    0.418
        16  -8.8671    162.1901      9.1126   3.6876182905e+01   4.3278702703e+01    0.2597866    0.1556247  84.38  0.001049301    1.611    0.379
        17 -10.1920    101.3604      6.4785   4.6359296337e+01   5.7723864921e+01    0.4288519     0.256184 -56.96  0.002112414    2.547    0.607
        18  -9.8620    184.7253      4.0479   3.3062025224e+01   3.8494104615e+01    0.4451216    0.2638078 -45.68  0.002550874    1.668    0.400
        19 -10.5914    148.6332      2.4448   3.6762604554e+01   4.7084298413e+01    0.7213857    0.2730406  74.26  0.003042061    2.493    0.599
        20 -10.0323     94.5781      3.3972   4.6752850271e+01   5.9469467506e+01    0.2690448    0.2162762 -16.04  0.001736329    1.414    0.293
        21 -10.6245     49.9259      3.0225   6.0562728903e+01   6.8262022661e+01    0.6843443    0.2631223  52.13  0.003051104    2.953    0.661
        22 -10.4141     93.2560     14.8356   5.1566342756e+01   5.8732449612e+01    0.5348144     0.353729  28.19  0.002967142    1.523    0.343
        23  -8.6467    160.5596      3.4954   3.5546957359e+01   4.4176175343e+01    0.2322496    0.1071748  84.98  0.001028115    2.345    0.574
        24  -8.7689     34.9957      1.9988   6.6622499944e+01   7.0726938500e+01    0.1847458     0.140911  13.66  0.001021995    1.027    0.026
        25  -8.9620    116.1782      1.6211   4.1580370980e+01   5.4758556569e+01    0.1951383   0.09076093  55.60 0.0009547879    1.715    0.417
        26 -11.1110    211.6884    171.2859   6.8401884885e+01   5.7322012151e+00    0.8672472    0.4928594 -59.02  0.003498969    2.897    0.655
        27  -9.8869    238.2140    249.4242   7.7663868576e+01  -1.0409339057e+01    0.3413144    0.2000375  -5.84  0.002048843    1.654    0.396
        28 -11.0998    224.5969    240.5894   7.8694020163e+01  -7.5441493490e+00     1.109102    0.6525777 -34.42  0.006580474    1.687    0.407
        29 -11.1850    236.3617    243.7475   7.7075492019e+01  -9.4413609285e+00     1.303223    0.5982067  -6.88  0.005036884    4.281    0.766
        30 -11.0005    243.8219    237.0686   7.4654800213e+01  -9.4421230726e+00    0.5250533    0.2975917 -19.89  0.003115299    1.604    0.377
        31  -9.4672    243.3140    222.5355   7.2266405105e+01  -7.3583172888e+00    0.7951071    0.3608423 -46.77  0.003676438    3.045    0.672
        32 -10.8994    248.7739    221.3097   7.1106390570e+01  -7.8640948508e+00    0.8891658    0.3142468 -35.20   0.00413081    2.518    0.603
        33 -12.5110    247.9182    206.7501   6.8665375700e+01  -5.6327969051e+00      1.83395    0.5590027 -36.80  0.007625506    2.889    0.654
        34 -10.8907    244.0143    199.8198   6.8067754020e+01  -4.0573107961e+00    0.6555392    0.4219753   2.79  0.003689001    1.681    0.405
        35 -11.0204    187.4574    231.8627   8.4466600371e+01  -1.0800427837e+00     1.415015    0.9296297 -63.80  0.006895418    2.810    0.644
        36 -11.1043    132.9319    247.4911   9.8145966903e+01   4.4251522001e+00    0.5927348    0.4185567  87.32  0.003186473    2.251    0.556
        37  -9.7296    248.3322    168.8669   6.1440324764e+01   2.9404816795e-01    0.1925302    0.1841015  26.87 0.0008287115    1.329    0.247
        38 -10.2573    238.4551    164.3362   6.2172890113e+01   2.5660906622e+00    0.3359528    0.2220742  40.19  0.001844724    1.726    0.421
        39  -9.2544    249.5504    163.7691   6.0242016594e+01   9.5365188563e-01    0.3128128    0.1923672 -55.40  0.001556402    2.218    0.549
        40  -9.6398    194.0139    162.1600   7.0006851360e+01   1.0616639969e+01    0.4696059    0.3045236 -79.73  0.001600016    4.147    0.759
        41 -11.0457    238.2243    157.5688   6.0844428167e+01   3.7658254562e+00    0.4831599     0.422536 -78.09  0.002803815    1.609    0.378
        42 -11.8472    231.8143    145.6329   5.9448128592e+01   6.9250208524e+00     1.365343    0.8404978 -64.98   0.00585726    2.819    0.645
        43  -8.7169    152.3622    157.7746   7.8375026407e+01   1.9537548286e+01    0.2911891    0.1928574  52.84  0.001267625    1.711    0.416
        44  -9.5188    141.5644    157.2010   8.0912261866e+01   2.1768310883e+01     0.280035     0.212971  37.92 0.0005359255    1.317    0.240
        45  -8.3626     23.7942    157.6039   1.1336135037e+02   3.9128462558e+01    0.1787161    0.1125707  42.29  0.000640004    1.658    0.397
        46  -8.1043     72.9899    156.3279   9.9393838588e+01   3.3809387792e+01    0.1953083    0.1822168  46.06 0.0003661364    1.114    0.102
        47  -8.7293    152.8856    150.6951   7.6694182825e+01   2.1015036786e+01    0.2558338    0.2025356  16.56 0.0008631115    1.440    0.306
        48  -8.9134    128.4532    151.2608   8.3002958963e+01   2.5679646694e+01    0.2108735    0.1510944 -63.74 0.0009327098    1.570    0.363
        49  -8.5483     58.9707    147.0240   1.0190796947e+02   3.8068341751e+01    0.2270373    0.2106887 -74.27 0.0009158512    1.011    0.011
        50  -9.3325    128.3776    145.8000   8.1823571755e+01   2.6986220374e+01    0.7995102    0.3063138 -34.53  0.001961075    5.332    0.812
        51  -9.6531    189.4344    138.3893   6.5702336873e+01   1.6248899956e+01    0.5528613    0.2544505  55.62  0.001967977    2.963    0.663
        52  -9.7980    166.3339    137.1891   7.0422951681e+01   2.1233008700e+01    0.7482122    0.3496579 -54.19  0.002622072    2.592    0.614
        53 -11.3895    247.1561    129.1242   5.3600207284e+01   7.1666435059e+00    0.9067146    0.4748006 -49.04  0.004372149    1.844    0.458
        54  -7.9516    113.0450    139.4791   8.4596158090e+01   3.1424984605e+01    0.2322126    0.1546628  36.58  0.000656097    1.535    0.349
        55 -10.1681    216.9843    137.4209   6.0237789902e+01   1.1077905736e+01    0.7020657    0.3183875 -50.57  0.002748106    2.455    0.593
        56  -7.7596    149.5439    141.5406   7.5429383776e+01   2.3741470886e+01    0.1538351    0.1513691 -37.52 0.0003842521    1.026    0.026
        57  -9.0775     24.9600    117.8071   1.0779498295e+02   4.9039019216e+01    0.4295181    0.1591925  41.29  0.001704303    3.136    0.681
        58  -8.7929    171.9314    116.5997   6.4189863653e+01   2.4353292289e+01    0.2726897    0.2095878 -30.92  0.001009993    1.347    0.257
        59  -8.1530      8.6939    117.3231   1.1302219121e+02   5.0303685523e+01    0.1283349   0.08836617  70.78 0.0007033458    1.642    0.391
        60 -10.9985    224.5688    113.9114   5.3776861751e+01   1.3903496976e+01    0.6971256    0.4156563  66.14  0.003223421    2.277    0.561
        61 -10.5421    196.9206    107.8952   5.7079789661e+01   2.0638208384e+01    0.9846609    0.3868814 -52.69  0.003203488    3.318    0.699
        62 -10.0182    121.8723    109.2244   7.4658678956e+01   3.6780676521e+01    0.6435865    0.3822531 -52.72  0.002454857    1.774    0.436
        63  -9.4534    161.0872    109.2174   6.4721577521e+01   2.8253290832e+01    0.3832331    0.3329925  77.14  0.001866841    1.293    0.226
        64  -7.9788     97.6540    110.6689   8.2200936301e+01   4.1190715490e+01    0.1625688    0.1195302 -12.88 0.0007049911    1.760    0.432
        65  -8.9932    140.7022    104.2903   6.8306028087e+01   3.3808998078e+01    0.5585256    0.2074642 -54.27  0.001534528    4.142    0.759
        66 -10.1987    123.8790     98.4583   7.1150900077e+01   3.8703177469e+01    0.6911026    0.5597287 -83.53    0.0032687    1.599    0.375
        67  -9.8756    235.3684     88.7594   4.6683674261e+01   1.6074688103e+01     0.624374     0.366715 -36.85  0.003193286    1.562    0.360
        68 -11.1412    240.6525     99.1202   4.8208611278e+01   1.3367631516e+01    0.6298203    0.4778639 -73.76  0.002548627    1.501    0.334
        69 -10.0439    237.0000     95.5207   4.7928384781e+01   1.4653119364e+01    0.7302784    0.2404415 -35.61  0.002686172    2.975    0.664
        70  -8.0681     67.4230    102.2663   8.9999811660e+01   4.8143253055e+01    0.2059158     0.137815 -66.15 0.0009453027    1.677    0.404
        71  -9.2950     57.4893    100.3331   9.3019422277e+01   4.9961185314e+01    0.3871701    0.2551464 -68.47  0.001832462    1.708    0.414
        72 -10.7145    215.2452     96.3510   5.1266981393e+01   1.8854075729e+01    0.6874501      0.33066 -48.59  0.002940925    1.987    0.497
        73  -9.0618    106.3776     98.2400   7.6159855393e+01   4.2357556103e+01    0.4153505    0.2577542 -29.40  0.001716643    1.918    0.478
        74  -8.7424      4.4917     99.5209   1.1196322946e+02   5.4864238626e+01    0.1276346    0.1035894 -61.59 0.0001085034    1.011    0.010
        75  -9.3488    196.7655     94.1192   5.3773541938e+01   2.3193197613e+01    0.3925009    0.2471893 -61.28  0.001759966    1.864    0.464
        76  -8.2309     14.5156     92.4051   1.0715569435e+02   5.5987138780e+01    0.1270784    0.1086689 -55.53 0.0001214571    1.043    0.041
        77  -9.4603    247.2496     85.7356   4.4545362376e+01   1.4290105907e+01    0.6064335    0.2220307 -42.92  0.002614802    2.230    0.552
        78  -9.1248    250.0000     83.0419   4.3661444736e+01   1.4199343412e+01    0.3984121    0.1538963 -40.27   0.00177186    2.141    0.533
        79  -8.8403    212.2904     83.6634   4.8771112796e+01   2.1632664451e+01    0.2519284    0.2003478 -67.90 0.0008454885    1.263    0.208
        80  -8.4568     84.0000     83.0006   7.8911185996e+01   4.9839258091e+01    0.2414851   0.08116319 -47.04 0.0007975454    2.909    0.656
        81  -9.7944    182.3208     80.4699   5.2903893239e+01   2.8845773095e+01    0.6658239     0.365917  76.20  0.002527107    2.773    0.639
        82  -9.7498    148.0429     71.3157   5.7252238337e+01   3.8460098662e+01    0.5404055    0.4024473 -54.04  0.002658221    1.443    0.307
        83  -9.7712    152.7136     77.6999   5.8053725786e+01   3.6244510885e+01    0.5125459    0.2588403 -45.25  0.002062436    2.025    0.506
        84  -7.8057     64.3085     80.3052   8.5147766523e+01   5.3595236930e+01    0.1467221    0.1028632 -17.70 0.0004265062    1.609    0.378
        85 -10.2986    217.0845     74.6855   4.6001461121e+01   2.2071400175e+01    0.7194801     0.373206 -57.87  0.003172473    2.152    0.535
        86  -9.0469    241.8660     76.8137   4.3313453556e+01   1.6702216879e+01    0.9517256     0.209388  58.16  0.003228981    4.813    0.792
        87  -9.4110    243.9970     72.3103   4.2119688825e+01   1.6978102243e+01    0.4543887    0.3404064  76.60  0.002786848    1.457    0.314
        88 -11.0414    234.5100     58.7676   4.0311840097e+01   2.0860607078e+01     1.042147    0.6539026 -89.13  0.005613547    1.819    0.450
        89 -10.2640    243.4807    247.9646   7.6502392202e+01  -1.0835910932e+01    0.2939119     0.241383  -5.70   0.00208133    1.244    0.196
        90  -9.8025    106.5218     72.1528   6.8272668027e+01   4.7653455605e+01    0.5449428    0.4070475 -84.47  0.002121952    2.148    0.534
        91  -8.9919      4.8418     70.8266   1.0680164595e+02   6.1495378690e+01    0.1558925    0.1413987 -84.85  0.001074159    1.312    0.238
        92  -9.1550     29.0861     67.8153   9.5713163971e+01   6.0472817811e+01    0.3248299    0.1869999 -10.04  0.001594498    2.085    0.520
        93  -8.0766     81.9592     66.4880   7.4363088567e+01   5.3516590560e+01    0.1922123    0.1246595  62.29 0.0008089061    2.469    0.595
        94  -8.7880    214.9628     64.5027   4.3938871968e+01   2.4108821793e+01    0.2180468    0.1656287 -44.54 0.0007402013    1.224    0.183
        95 -10.0418    201.5306     62.3317   4.5259477109e+01   2.7402456888e+01     0.742138    0.3259758 -51.94  0.003019462    2.408    0.585
        96  -8.1681    108.1623     54.7151   6.2039926221e+01   5.0332885985e+01    0.2240204    0.1820682  68.14 0.0006768568    1.442    0.306
        97 -10.6655    248.8902     64.7408   4.0021165542e+01   1.7164062062e+01     1.098429    0.2607313 -37.90   0.00397235    3.534    0.717
        98  -8.5741    167.6605     52.3022   4.7974794867e+01   3.6796860809e+01    0.1470732    0.1033277 -74.84 0.0003074074    1.671    0.402
        99  -8.1141    124.3486     52.6665   5.7067966589e+01   4.7026491041e+01    0.1472512    0.1122824 -79.05 0.0007048234    1.773    0.436
       100  -9.4003    159.6176     47.7857   4.8123457056e+01   3.9371109307e+01    0.3971257     0.243088 -52.28  0.001879301    1.781    0.439
       101  -8.4962     97.2798     48.8234   6.3189647259e+01   5.3572920120e+01    0.2774668    0.2170807 -79.66  0.001389636    1.978    0.494
       102  -9.9405    221.5337     46.5175   3.9069509626e+01   2.5289952480e+01    0.2898345    0.1480363 -35.61  0.001194915    1.924    0.480
       103  -9.2914    225.7943     42.5626   3.7745930782e+01   2.4920563637e+01    0.3811729    0.3010123  37.49  0.002036142    1.811    0.448
       104  -8.5965    208.0349     47.7184   4.0911633790e+01   2.8068255963e+01     0.232253    0.1908335 -19.28  0.001140703    1.548    0.354
       105  -9.7584    201.6440     44.2964   4.0892579367e+01   2.9971148106e+01    0.5989911    0.2972876 -66.73  0.002489053    2.681    0.627
       106  -9.1756    250.0044     44.8837   3.5903180473e+01   1.9727151463e+01    0.4334588    0.1401891 -39.82  0.001933691    2.514    0.602
       107  -8.6184    250.5387     39.0435   3.4700313254e+01   2.0393981539e+01     0.223954   0.09338836 -41.16 0.0008278849    1.989    0.497
       108  -9.9553    175.5139     44.0027   4.4441918938e+01   3.6088556938e+01    0.4529583    0.3761004  76.87  0.002630907    1.124    0.110
       109  -9.5743    234.4992     44.4076   3.7260999514e+01   2.2866866041e+01    0.4853797    0.2806009  62.97  0.002700579    1.825    0.452
       110  -8.7094     56.3623     45.4478   7.6563330663e+01   6.1538609480e+01    0.4266328    0.1211385  36.97  0.001524743    3.480    0.713
       111  -8.4614     85.5087     42.9000   6.4753563693e+01   5.6853980600e+01    0.2207481    0.1715398  37.47  0.001062331    1.194    0.163
       112 -10.2180    148.4152    246.7617   9.4799543540e+01   2.2507295043e+00    0.4735416    0.2674594  62.08  0.001971283    3.473    0.712
       113  -8.8806    219.4935     19.9254   3.3451484181e+01   2.9078206877e+01    0.2411155    0.1448531 -81.88  0.001361171    1.595    0.373
       114 -10.0303    203.5120    165.5140   6.8800816686e+01   8.2404722845e+00    0.2507052    0.2165803  11.07  0.001048444    1.166    0.142
       115  -7.9026    163.3832    247.2853   9.1767123759e+01  -4.9071688114e-02     0.132244   0.08813334   6.02 0.0006802538    1.737    0.424
       116  -9.4140     93.6208     33.6598   5.8722801423e+01   5.6498338397e+01    0.5550776    0.3284947  78.72  0.001990266    4.215    0.763
       117  -8.4705    250.4965    243.9245   7.4631570082e+01  -1.1121558245e+01    0.1691395   0.09370984 -29.15  0.001036439    1.604    0.376
       118  -9.7898    155.5572    241.5513   9.2570470072e+01   2.0729575002e+00    0.2645767    0.1986035  -6.52  0.001099313    1.525    0.344
       119  -8.5442     41.6867     32.1691   7.7674229499e+01   6.5793247118e+01    0.2106289    0.1624956  30.94  0.001318554    1.391    0.281
       120 -10.0773    147.1761     26.1733   4.3980357025e+01   4.5106149163e+01    0.5240966    0.4080172 -72.87  0.002983019    1.403    0.287
       121  -9.0270     63.8283     29.8242   6.7298252355e+01   6.2736815661e+01    0.2810682    0.1679393  65.45   0.00107845    4.223    0.763
       122  -8.7933    184.6503     25.5610   3.8394613157e+01   3.6248645851e+01    0.2928624     0.176482 -43.93  0.001561126    1.637    0.389
       123  -7.7234     94.3068     27.3338   5.6118094240e+01   5.7144054196e+01    0.1400298   0.09211518  23.32 0.0007040418    1.668    0.401
       124  -8.7646     33.3244     25.7616   7.8928580115e+01   6.7856130284e+01    0.2641964    0.1342499  32.56  0.001409495    1.954    0.488
       125  -8.5028      6.3868     25.1960   9.3053249067e+01   7.0536482110e+01    0.1528088    0.1004385 -54.69 0.0009554384    1.695    0.410
       126  -9.0955    205.2350    169.0034   6.9186188177e+01   7.2740462396e+00    0.2627156      0.15724 -37.94 0.0008035313    1.554    0.357
       127  -8.9424     53.4850     22.5120   6.8287943065e+01   6.5446989408e+01    0.2120288    0.1100472 -42.88  0.001037398    2.422    0.587
       128  -9.8179    149.4907    234.9412   9.2899594927e+01   4.1563124677e+00    0.2330371    0.1724314   9.39 0.0008511574    1.468    0.319
       129  -8.9443    142.5041    234.9974   9.4411896327e+01   5.2219469695e+00    0.1785564    0.1059264 -25.18 0.0008099217    2.483    0.597
       130  -7.6513      9.3285    240.7141   1.2272565553e+02   2.1561318031e+01    0.1205354   0.06027435  60.60 0.0003532281    1.612    0.379
       131  -9.9234    223.4838    207.5104   7.3169911052e+01  -2.3976544084e+00    0.3777033    0.2615303 -24.80  0.001579242    1.297    0.229
       132 -11.9494    225.1373    218.9920   7.4922050116e+01  -4.4380573906e+00     1.226869    0.8939589 -55.12  0.006944777    2.166    0.538
       133  -9.3251    156.4544    225.5897   8.9981291825e+01   4.7703858697e+00    0.2479074    0.2096551  -1.97 0.0006337771    1.206    0.171
       134 -11.0836    186.2111    247.6348   8.7193631917e+01  -3.3930116861e+00    0.8464575    0.5276141  -1.79  0.004539085    1.925    0.480
       135  -8.6034     94.8140    222.6009   1.0335376224e+02   1.4938163665e+01    0.1915208    0.1075714  45.16 0.0005438291    1.596    0.373
       136  -9.2658    202.2570     19.7577   3.5038228095e+01   3.2878311389e+01    0.2612206    0.1964006  88.38  0.001626822    1.168    0.144
       137  -9.0422    130.5226    220.5038   9.4956834945e+01   9.8763210745e+00    0.1367668    0.1234247  33.38 2.738054e-05    1.004    0.004
       138  -8.0675     17.5471    215.5265   1.1970039794e+02   2.6024653620e+01    0.1200422   0.09618177  75.94 9.210652e-05    1.020    0.020
       139 -10.0179    186.0080    242.0050   8.6371015426e+01  -2.4935285533e+00    0.4189225    0.2931027  22.86   0.00190233    1.226    0.184
       140  -7.8184     76.5410    199.4742   1.0476872247e+02   2.2716475750e+01    0.1369719    0.1245849  69.66 0.0002787901    1.005    0.005
       141 -10.4713    197.8590    246.0834   8.4658091252e+01  -4.7812661357e+00    0.5753199     0.409728  -7.68  0.003563278    1.365    0.267
       142 -10.1778    230.9673    188.3343   6.8200419445e+01  -3.4741898846e-01    0.5307248     0.244292 -45.98  0.002367305    2.339    0.572
       143  -9.6623    227.2256    180.0836   6.7271046217e+01   1.6241607033e+00    0.5621817    0.3273628 -60.19  0.002276892    3.391    0.705
       144 -11.0049    246.4035    180.3167   6.3981958681e+01  -1.2957302249e+00    0.4988144    0.2752333 -37.92   0.00263584    1.573    0.364
       145  -9.6179    220.8975    177.6626   6.7951394051e+01   3.0524698819e+00    0.2798699    0.1874672 -42.43  0.001478386    1.455    0.313
