#   1 NUMBER                 Running object number                                     
#   2 MAG_AUTO               Kron-like elliptical aperture magnitude                    [mag]
#   3 X_IMAGE                Object position along x                                    [pixel]
#   4 Y_IMAGE                Object position along y                                    [pixel]
#   5 X_WORLD                Barycenter position along world x axis                     [deg]
#   6 Y_WORLD                Barycenter position along world y axis                     [deg]
#   7 A_WORLD                Profile RMS along major axis (world units)                 [deg]
#   8 B_WORLD                Profile RMS along minor axis (world units)                 [deg]
#   9 THETA_WORLD            Position angle (CCW/world-x)                               [deg]
#  10 FWHM_WORLD             FWHM assuming a gaussian core                              [deg]
#  11 ELONGATION             A_IMAGE/B_IMAGE                                           
#  12 ELLIPTICITY            1 - B_IMAGE/A_IMAGE                                       
         1 -13.1772    178.4206     38.8057   6.1816062319e+01   3.5106872342e+01     1.094321     1.021272  25.72  0.006716641    1.326    0.246
         2 -12.3156    188.7682     14.0730   5.4104476905e+01   3.5448782556e+01     1.012588    0.3515067 -59.69  0.003820954    3.224    0.690
         3 -13.2704    198.3419      6.8607   5.1580009621e+01   3.3954323638e+01     1.026412    0.8661099 -89.02  0.005431052    1.159    0.137
         4  -9.8652    168.2218    233.8340   1.0611948468e+02   4.9093439067e+00    0.2059021    0.1859275 -16.21 0.0005763763    1.340    0.254
         5 -10.2763    188.0399    248.2074   1.0429483087e+02   5.4400037394e-01     0.315439    0.1612181 -39.78  0.001275492    2.298    0.565
         6  -9.1627    140.9363    249.0678   1.1357974080e+02   6.2309583441e+00    0.2015222    0.1579112 -42.41  0.001398993    1.622    0.383
         7 -14.6498     13.7944    206.4164   1.3916078604e+02   2.9381188059e+01     4.543627     1.834357   9.65    0.0120924    4.245    0.764
         8 -18.4099     39.3968    243.4948   1.3503992982e+02   1.9488292801e+01     5.049962     3.843738  23.15   0.01845342    1.352    0.260
         9  -9.2817    130.8188    214.6547   1.1139480895e+02   1.3124545004e+01    0.2016353     0.186599 -73.55 0.0005588311    1.413    0.292
        10 -10.0370     91.5555    195.9474   1.1839070495e+02   2.2493731143e+01    0.3158402    0.1565735  45.30  0.001015056    1.860    0.462
        11  -9.9908     99.6559    193.6721   1.1601369748e+02   2.1780710553e+01    0.2767261    0.2196819 -27.82 0.0007311566    1.522    0.343
        12  -7.8686     16.5395    195.4666   1.3797313606e+02   3.1530133147e+01    0.1230522    0.1063172  56.92  8.20366e-05    1.073    0.068
        13  -8.5086      1.7197    194.3010   1.4167702311e+02   3.3022951833e+01    0.1434547    0.1044788  15.33 0.0003933858    1.568    0.362
        14  -9.0609      8.9752    192.7858   1.3978518930e+02   3.2780608883e+01    0.1648453    0.1505799  33.78 0.0005664814    1.228    0.186
        15 -10.2995    243.4299    186.5040   8.5257786722e+01   1.6825346185e+00    0.2432229    0.2104682 -46.23 0.0009008751    1.794    0.443
        16  -9.6895    222.9908    188.0021   8.8733479425e+01   4.0888042124e+00    0.1688043    0.1350261  -5.28  0.001164915    1.023    0.023
        17  -8.9199    100.9568    215.0094   1.1839945234e+02   1.7328177554e+01    0.1901576    0.1534958  36.94 -0.002661949    1.046    0.044
        18 -14.7580     32.1779    233.9718   1.3614909433e+02   2.2018652762e+01    0.5576082    0.2914642  15.96  0.002596527    2.288    0.563
        19  -9.0965    231.6011    181.3300   8.6170152402e+01   3.8563259145e+00    0.1793602    0.1566591 -13.41  0.001233977    1.247    0.198
        20 -10.0033      1.3462    178.0421   1.4119118541e+02   3.6741747076e+01     0.168208    0.1050898 -88.63 0.0009493934    1.494    0.331
        21  -9.0421    232.2245    176.8272   8.5269460489e+01   4.3815390560e+00    0.1641413    0.1346983 -17.12 0.0003909586    1.131    0.116
        22  -9.4392    126.5544    173.7776   1.0606560930e+02   2.1623712826e+01    0.4488316    0.1866809  50.90  0.001213079    3.356    0.702
        23 -10.5632    103.7229    172.8135   1.1184665743e+02   2.5636791765e+01    0.3686493    0.3325521   4.50  0.002079624    1.185    0.156
        24 -10.1905    106.3479    206.7341   1.1607799974e+02   1.8157434210e+01    0.3368154     0.284919 -77.11   0.00169179    1.461    0.316
        25  -9.1648    232.7086    171.9572   8.4314041186e+01   4.9794824566e+00    0.1663585    0.1287905 -16.19 0.0004091653    1.053    0.050
        26  -8.4475    153.1019    171.5261   9.9311742847e+01   1.7515108582e+01    0.2071275    0.1284662  35.57 0.0005399765    1.501    0.334
        27 -10.1153    245.6311    204.4612   8.7935101725e+01  -7.8635697622e-01    0.1846067    0.1372469 -15.52 0.0007069171    1.145    0.127
        28 -10.7251    200.7045    169.0477   8.9135659847e+01   1.0072479837e+01    0.2788921    0.2437366   7.67 0.0005213278    1.085    0.078
        29  -9.6102    204.4429    165.8790   8.7860627779e+01   9.9835341321e+00    0.3856521    0.2124074 -49.33  0.001417431    2.350    0.575
        30 -10.1192    193.7901    167.4790   9.0110799428e+01   1.1414929435e+01    0.3145075    0.2429878 -27.74 0.0007120316    1.219    0.179
        31  -9.4285    190.0616    161.7316   8.9697809369e+01   1.2963695663e+01    0.2699139    0.2413689 -67.90  0.001067789    1.556    0.357
        32  -9.5781    189.4772    155.8465   8.8636498205e+01   1.4043078132e+01    0.3537389    0.2740865 -35.33  0.001263172    1.261    0.207
        33  -8.5307     11.0431    170.4496   1.3815971017e+02   3.7800212270e+01    0.1794618    0.1211488  23.04 0.0007177766    1.528    0.346
        34  -9.8369     45.9443    168.7403   1.2783702068e+02   3.4805918690e+01    0.2473556    0.1946235 -81.68 0.0008581495    1.291    0.226
        35  -8.2778    163.0287    203.3578   1.0264645909e+02   1.0303971887e+01    0.2139322   0.08758073  49.53 0.0007043646    4.549    0.780
        36  -9.5408     37.0439    162.8708   1.2992090240e+02   3.7244243368e+01    0.3355585     0.230263   3.94  0.001675644    1.852    0.460
        37 -10.1396     97.8618    159.6014   1.1125696780e+02   2.9596350056e+01    0.2478462    0.2457718  55.39 0.0003312614    1.073    0.068
        38 -11.4846     27.8404    157.6451   1.3226571086e+02   3.9481848750e+01    0.6502406    0.3439776 -80.58  0.002284835    1.875    0.467
        39 -11.1180     22.4918    156.7864   1.3385149887e+02   4.0192511455e+01    0.3924375    0.3132929  37.33 0.0009600592    1.205    0.170
        40 -11.9781     87.3363    153.9211   1.1334341113e+02   3.2668354090e+01    0.4092598    0.3069728 -31.96  0.000777198    1.618    0.382
        41 -10.9898    102.3549    152.9575   1.0878015307e+02   3.0372906438e+01    0.6074698     0.438577 -21.10  0.002778059    1.846    0.458
        42  -9.9579    191.9570    194.1398   9.5308884858e+01   7.5123704301e+00    0.5362192    0.3147753 -61.73  0.002052653    4.966    0.799
        43 -10.3574    103.3854    199.9759   1.1592100967e+02   1.9932572355e+01     0.461848    0.2797825  13.62  0.002138297    2.036    0.509
        44  -8.3227    220.3499    152.0617   8.2494680891e+01   9.6114174142e+00    0.1645918    0.1331837 -24.07 0.0003117153    1.082    0.076
        45  -9.8496    133.7507    146.3979   9.8967617764e+01   2.6067289784e+01     1.105575     0.261084 -54.13  0.002223246    8.863    0.887
        46  -9.9203     36.1658    149.1654   1.2879011246e+02   4.0796760465e+01    0.2050031    0.1476888  59.27 0.0004594226    1.329    0.247
        47 -10.9846     27.8594    145.7795   1.3115785118e+02   4.2496907343e+01    0.3813511    0.3038709  35.88  0.002117747    1.226    0.184
        48  -8.8577     84.5150    142.9178   1.1224249918e+02   3.5803747533e+01    0.2186996    0.1508949 -60.77 0.0004014372    1.522    0.343
        49  -9.8422    111.7338    138.6664   1.0324646638e+02   3.1973385971e+01    0.4600616    0.2662494 -37.91   0.00187546    2.033    0.508
        50 -11.2205    100.6523    138.4409   1.0643047119e+02   3.4083285299e+01    0.3162103    0.2891096   9.78 0.0004134017    1.170    0.145
        51  -9.7131    139.4350    198.9789   1.0713741031e+02   1.4642151985e+01    0.2776014     0.166377  31.33            0    1.452    0.311
        52 -11.5216     32.1733    134.5119   1.2846739736e+02   4.5003584980e+01    0.4936276    0.3689807 -80.43  0.002619568    1.293    0.226
        53 -11.7428     36.1898    134.1696   1.2701540974e+02   4.4681150913e+01    0.5169117    0.3659534  72.99  0.002061293    1.458    0.314
        54 -10.8866     49.9944    133.2886   1.2204733938e+02   4.3316778051e+01    0.2980981    0.2704177 -85.66  0.001157871    1.082    0.075
        55 -10.9272     44.1356    130.1333   1.2364322476e+02   4.4854033187e+01    0.2980126    0.2488835  14.62  0.001069953    1.311    0.237
        56  -8.9883    117.3364    129.9758   9.9740383840e+01   3.2865234113e+01    0.2646493    0.2146499   7.56 0.0006431076    1.474    0.321
        57  -7.9105    222.9842    125.9985   7.6803238234e+01   1.3081007181e+01    0.1422399    0.1221076 -24.60 0.0009136565    1.002    0.002
        58  -9.3884    105.6626    125.7566   1.0215770297e+02   3.6130271403e+01    0.2470667     0.221361   1.40 0.0006426923    1.246    0.197
        59  -9.7300    133.0072    199.0149   1.0862740855e+02   1.5626937738e+01    0.1947491    0.1663881  22.10            0    1.018    0.017
        60 -11.7253     34.4001    119.1398   1.2561913568e+02   4.8827705652e+01    0.6440223    0.3669459  56.47  0.002836512    1.924    0.480
        61 -10.8939     40.1707    120.3956   1.2361863839e+02   4.7873469501e+01    0.3048353    0.2083126  47.56  0.000976375    1.461    0.315
        62  -8.8074     79.5345    120.9194   1.0944446629e+02   4.2109005506e+01    0.2313035    0.1509411 -55.71  0.001016608    1.560    0.359
        63  -8.3425    112.0277    119.2176   9.8716830012e+01   3.6373606478e+01     0.211803    0.1940908  43.41 0.0003252417    1.055    0.052
        64  -8.9122    167.2719    112.8012   8.3446611238e+01   2.5938136070e+01    0.2719674    0.1987038  79.71  0.001255273    1.943    0.485
        65 -10.5895      5.1137    112.7873   1.3620791567e+02   5.2822186625e+01    0.3066171    0.2251269  48.69  0.001164963    1.364    0.267
        66 -10.4614      2.7221    105.5042   1.3652461513e+02   5.4848246143e+01     0.342488    0.2236997 -52.96  0.001824211    1.484    0.326
        67  -8.2072     81.2796    106.6570   1.0549844707e+02   4.5336573086e+01    0.1582202    0.1210232  77.50 0.0003757662    1.630    0.386
        68  -9.9802     67.0178    104.9717   1.1031688552e+02   4.8211334261e+01    0.2512687    0.1880897 -19.68  0.001142586    1.702    0.412
        69  -8.2394    163.7718    103.1934   8.1753525158e+01   2.8457451322e+01    0.1842063    0.1649505  16.87 0.0003296516    1.229    0.186
        70  -9.4590    219.9585     97.1303   7.0990769580e+01   1.7914586612e+01    0.1844746    0.1658615 -37.48 0.0003524081    1.034    0.033
        71  -8.6163    127.9916     91.0126   8.6685613519e+01   3.8963170337e+01    0.2129688     0.206773  49.00  0.001132081    1.029    0.028
        72  -8.4609      9.9589     86.0182   1.3117019744e+02   5.9540424637e+01    0.1579149    0.1415978 -69.30  0.000949004    1.020    0.020
        73  -8.5769    120.9539    198.3085   1.1137933704e+02   1.7615133450e+01    0.1901287    0.1516738  29.21  0.000319916    1.081    0.075
        74 -10.2757    121.3581     61.0540   7.8981226786e+01   4.6185227668e+01    0.2640344    0.2196467  55.00 0.0002897076    1.150    0.130
        75 -11.8297    165.0546     53.8505   6.7939157787e+01   3.6339233544e+01    0.6976081    0.4963492 -69.26  0.001252103    1.509    0.337
        76 -10.2027    172.0165     49.9739   6.5786663995e+01   3.5183894790e+01    0.2454423    0.2271562 -64.50            0    1.045    0.043
        77 -10.2195    242.2696    246.7882   9.4901051200e+01  -5.1527776716e+00    0.1593509    0.1196592   1.21 0.0002693871    1.224    0.183
        78 -12.1888    183.1305     31.9358   5.9396996058e+01   3.4816766942e+01    0.5367423    0.5181327 -11.53  0.001448575    1.266    0.210
        79  -8.7220    217.4142     48.7397   6.0173688700e+01   2.5092516069e+01    0.2291141    0.1050109 -35.18  0.001019781    1.875    0.467
        80  -8.2451    221.9773     21.9803   5.3620876303e+01   2.7276271674e+01    0.1414612    0.1130951 -58.35            0    1.002    0.002
        81  -8.1190     18.0235     21.0110   1.0750649814e+02   7.4182499685e+01    0.1509517    0.1297165 -17.19 0.0009545886    1.031    0.030
        82 -10.8641      2.8267    242.3130   1.4279014816e+02   2.3193819038e+01    0.1700337    0.1406047  63.44  0.000293095    1.190    0.160
        83  -9.0103     14.9943     17.9977   1.0833180353e+02   7.5088645287e+01    0.1816368    0.1525626 -12.99  0.001161221    1.026    0.025
