#   1 NUMBER                 Running object number                                     
#   2 MAG_AUTO               Kron-like elliptical aperture magnitude                    [mag]
#   3 X_IMAGE                Object position along x                                    [pixel]
#   4 Y_IMAGE                Object position along y                                    [pixel]
#   5 X_WORLD                Barycenter position along world x axis                     [deg]
#   6 Y_WORLD                Barycenter position along world y axis                     [deg]
#   7 A_WORLD                Profile RMS along major axis (world units)                 [deg]
#   8 B_WORLD                Profile RMS along minor axis (world units)                 [deg]
#   9 THETA_WORLD            Position angle (CCW/world-x)                               [deg]
#  10 FWHM_WORLD             FWHM assuming a gaussian core                              [deg]
#  11 ELONGATION             A_IMAGE/B_IMAGE                                           
#  12 ELLIPTICITY            1 - B_IMAGE/A_IMAGE                                       
         1 -15.2606    161.4211     65.5786   8.8992876913e+01   3.6472180531e+01     3.374162     1.982062 -46.26  0.009874153    1.788    0.441
         2  99.0000    191.9060     55.6565   8.0193698626e+01   3.0142473731e+01     2.009825     1.067389 -44.92  0.008188065    1.912    0.477
         3 -14.6135    179.8082     69.4869   8.6452442895e+01   3.1093106003e+01     12.08414     1.298164 -39.50   0.01518118    6.742    0.852
         4 -14.0154    151.9027     14.6892   7.3892090287e+01   4.6003908728e+01     1.519653     0.176591 -29.90   0.00404442    5.481    0.818
         5 -17.2225    214.8252     13.2593   6.5113362740e+01   2.9647020973e+01     12.73329          nan  61.89   0.02683901    8.635    0.884
         6 -13.7217    204.9841     44.8390   7.5046679474e+01   2.8293090286e+01    0.6862145    0.5631641  -4.33   0.00313362    1.465    0.318
         7 -17.9621    248.5202     74.0012   7.6798074181e+01   1.3463507308e+01     12.11204     3.692375 -30.59   0.04089055    3.159    0.683
         8 -11.4644    211.7307     27.1725   6.9228740383e+01   2.8839778891e+01     0.484956    0.1924952 -38.63  0.001605861    2.312    0.567
         9 -12.2798    101.2810     22.6159   8.8244651411e+01   5.7290159478e+01    0.3096158    0.2328057  -2.56  0.001359177    1.382    0.277
        10 -12.1228     93.6060     18.3602   8.8647900796e+01   5.9434826570e+01      0.43353    0.2672677 -19.47  0.002206049    1.649    0.393
        11 -12.6462    141.8688     12.2891   7.4813590254e+01   4.8831543536e+01    0.6056967    0.3824643  41.84 0.0005069154    1.552    0.356
        12 -12.7728    138.9673      7.6414   7.3635462056e+01   5.0020409283e+01    0.4473844     0.337418  54.50 0.0006972202    1.190    0.160
        13 -10.7125     84.2836     13.6834   8.9412727757e+01   6.1870841823e+01    0.2327289    0.1429185 -34.76 0.0006967369    1.699    0.411
        14 -12.3814    195.8542      7.2241   6.5452086620e+01   3.5183801420e+01      0.26104    0.2369764 -33.86 0.0007529446    1.202    0.168
        15 -12.3729    125.4422      6.9011   7.5943351171e+01   5.3450518846e+01    0.2809434    0.2461639  15.64 0.0009120858    1.149    0.129
        16 -12.1792    114.0317      6.4665   7.8216379166e+01   5.6214695303e+01    0.3016126    0.2359211 -30.66  0.001717676    1.388    0.280
        17 -11.1729    106.9806      7.2668   8.0212008652e+01   5.7759049538e+01    0.1944415    0.1669399  33.67  0.001167339    1.035    0.034
        18 -10.6084    207.4624      2.2647   6.2880808193e+01   3.2662711627e+01    0.5325345    0.1700452  50.97  0.001855769    3.484    0.713
        19  -9.9239    195.7236      1.1896   6.3745226713e+01   3.5800366937e+01    0.1286356   0.09035955 -77.86            0    1.400    0.285
        20 -10.3711    111.5438    103.5141   1.1258366419e+02   4.0365837831e+01    0.1473788    0.1418442 -59.42 0.0002212749    1.027    0.026
        21 -11.6802    144.0525     98.7859   1.0285573826e+02   3.4442425025e+01     0.354485     0.301391  -5.55 0.0007615854    1.417    0.294
        22 -10.6022    123.6844    100.7113   1.0857544121e+02   3.8520303930e+01    0.1488222    0.1219525   1.08 0.0002107079    1.590    0.371
        23 -10.9778    131.3112     95.6128   1.0518286965e+02   3.7960369781e+01    0.2732574    0.2553267 -28.20  0.000451008    1.115    0.103
        24  -9.6638    113.3538     95.2420   1.0989162528e+02   4.1811440340e+01    0.1449967     0.117662   8.81 0.0002810892    1.584    0.369
        25 -12.7975     68.0051    144.5065   1.3244601360e+02   3.8131552706e+01     3.358438     1.483289  71.94   0.00979329    5.842    0.829
        26 -10.6522    202.6046     88.7116   8.7638927084e+01   2.2061701492e+01     0.353999    0.2525319 -52.00  0.001336676    1.484    0.326
        27 -10.3266    198.8081     85.7809   8.7529719025e+01   2.3503333363e+01    0.3576083    0.2447836 -66.74  0.001187957    1.887    0.470
        28 -11.8274    136.9316     88.1664   1.0161786718e+02   3.8224059904e+01    0.3465731    0.3095355 -75.28 0.0008413769    1.216    0.178
        29 -12.8823    149.1320     81.1941   9.6558352753e+01   3.6717256423e+01    0.4193399    0.3194061 -28.10 0.0008114645    1.407    0.289
        30 -10.4518    208.0611     77.6576   8.3701362618e+01   2.2544552307e+01    0.4185892    0.2211795 -14.39  0.001418227    3.139    0.681
        31 -10.7812    119.5007     66.5317   9.9515084234e+01   4.6342047240e+01    0.2586546    0.2572677  35.57 0.0007035935    1.043    0.041
        32 -11.5472    131.0364     65.3205   9.6045867308e+01   4.3959737484e+01    0.3727598    0.2299113 -32.77  0.001167873    1.671    0.402
        33  -9.9350    205.1761     65.1074   8.0719179908e+01   2.5266019850e+01    0.2122387     0.170417 -67.08  0.001046756    1.333    0.250
        34  -9.8048    101.4153    137.5324   1.2286237856e+02   3.4567382030e+01    0.1407995    0.1295923 -86.32  0.000115083    1.025    0.024
        35 -11.0122    224.5115     54.4144   7.4967958082e+01   2.1984986866e+01    0.2062688    0.1530477 -79.22  0.001017866    1.489    0.329
        36 -10.3651    203.1319     29.8148   7.1034492187e+01   3.0746719681e+01    0.1951294    0.1739274 -66.74  0.000294924    1.073    0.068
        37 -11.4780    203.0178     50.2936   7.6882235961e+01   2.8035212334e+01    0.2338157    0.2178475 -80.70 0.0003810478    1.035    0.034
        38 -14.4076     68.8641    164.7763   1.3502170874e+02   3.3478860626e+01    0.9727572    0.6766152  57.25  0.001922476    1.324    0.245
        39 -13.4019    203.6205     36.3891   7.2839361516e+01   2.9783138679e+01    0.6942419     0.492667 -46.70  0.002427484    1.383    0.277
        40 -14.4237     64.5306    170.9509   1.3674041597e+02   3.2719903594e+01     1.000616    0.7210196 -73.18  0.002599424    1.292    0.226
        41 -11.0779    136.0000    130.0457   1.1268842119e+02   2.9607990167e+01    0.5456322   0.08544116 -47.59  0.001210965    6.493    0.846
        42 -10.7317    207.9983     49.8560   7.6024168389e+01   2.6810287805e+01     0.213799     0.200305 -87.19  0.001184895    1.031    0.030
        43 -11.5837    212.5717     47.1450   7.4624966180e+01   2.6017684146e+01    0.2606801    0.2249256  77.56 0.0005291342    1.144    0.126
        44 -11.3393    135.0000    112.5026   1.0873112186e+02   3.3586634205e+01     0.521663    0.1925997 -44.60  0.001748921    2.727    0.633
        45 -11.5624    192.7378     46.5740   7.7387766832e+01   3.1251941554e+01     0.258308    0.2449986  71.83 0.0007457581    1.042    0.040
        46 -11.5799    127.9614     50.3905   9.1751579307e+01   4.7244800072e+01    0.2828997    0.1985448 -49.89 0.0006257978    1.587    0.370
        47 -10.1472    164.6956     44.6883   8.1672573084e+01   3.8911110403e+01    0.2049739    0.1682004 -65.41  0.001016769    1.339    0.253
        48 -12.2707    160.5825    128.3673   1.0653636667e+02   2.4633394694e+01    0.4127469    0.3437124 -54.91  0.001428088    1.255    0.203
        49 -10.6199    217.5428     42.9984   7.2827116567e+01   2.5319666800e+01    0.2309097    0.1805633 -82.64 0.0003833122    1.318    0.241
        50 -10.2609    170.1619     31.6390   7.6467499202e+01   3.9240618718e+01    0.2634163    0.2368896 -88.89   0.00143213    1.117    0.104
        51 -11.8436    174.9014     40.1109   7.8357985144e+01   3.6866723016e+01    0.3907401    0.2354739 -32.50 0.0009294554    1.688    0.408
        52 -10.7767    172.5448     35.7451   7.7379109232e+01   3.8077897507e+01    0.3003003    0.2056581 -60.08 0.0006187939    1.671    0.402
        53  -9.7008    166.2441     40.3200   7.9966253314e+01   3.9122650241e+01    0.1464235    0.1138647  21.71 0.0002297691    1.522    0.343
        54 -11.5640    135.0000    120.0970   1.1060643565e+02   3.1957774005e+01    0.6344017    0.1877002 -45.22  0.001918417    3.436    0.709
        55  -9.9550    189.7256     36.2500   7.4785065691e+01   3.3455583083e+01    0.1438053    0.1074239 -69.64  0.000396724    1.451    0.311
        56 -10.4518    134.0000    147.1161   1.1682181808e+02   2.6364960345e+01    0.4008905   0.08333844 -49.75   0.00105743    4.990    0.800
        57 -14.3462     57.6436    176.8755   1.3888833117e+02   3.2345562408e+01     0.984441    0.6191316  44.87  0.001412331    1.539    0.350
        58 -15.1507     11.3702    205.8468   1.5003542940e+02   3.1610912907e+01     1.570091    0.8963313  64.04   0.01113957    1.312    0.238
        59 -15.2313     32.7063    197.9701   1.4570846172e+02   3.0955122513e+01    0.9026832    0.6775003  85.10  0.003601007    1.110    0.099
        60 -12.5266    175.4212    138.6777   1.0567895307e+02   1.9294295937e+01    0.4008782    0.2664505  66.33  0.001738349    1.895    0.472
        61 -14.4758    166.5502     78.9412   9.1953628232e+01   3.2834116646e+01     2.717534     1.590161  16.13  0.008364934    3.913    0.744
        62 -11.1070    191.1858    191.9583   1.1321873430e+02   6.6693715147e+00    0.4653923    0.2613699 -67.23  0.001551232    5.358    0.813
        63 -12.1467    134.6518    106.3805   1.0724195577e+02   3.4965375121e+01     0.644962    0.2746828 -48.25  0.002172667    2.384    0.581
        64 -13.5101    167.3967    114.0119   1.0146355391e+02   2.5945366973e+01    0.5393361     0.522342  26.56  0.001528543    1.058    0.055
        65 -14.2865     44.3049    189.4176   1.4281405494e+02   3.1360330452e+01     1.240599    0.5002904  72.77   0.00538666    3.154    0.683
        66 -12.9851    165.6615    102.7153   9.8879748540e+01   2.8574504712e+01    0.5477651    0.4126044 -46.43  0.001917453    1.346    0.257
        67 -10.9843    139.0234    103.4834   1.0537611424e+02   3.4610617230e+01    0.2338574    0.1514863  47.72 0.0005493173    1.544    0.352
        68 -11.4163    120.4863    103.0348   1.1004182510e+02   3.8682839226e+01    0.2362737    0.1460302 -46.77  0.001007191    1.588    0.370
