#   1 NUMBER                 Running object number                                     
#   2 MAG_AUTO               Kron-like elliptical aperture magnitude                    [mag]
#   3 X_IMAGE                Object position along x                                    [pixel]
#   4 Y_IMAGE                Object position along y                                    [pixel]
#   5 X_WORLD                Barycenter position along world x axis                     [deg]
#   6 Y_WORLD                Barycenter position along world y axis                     [deg]
#   7 A_WORLD                Profile RMS along major axis (world units)                 [deg]
#   8 B_WORLD                Profile RMS along minor axis (world units)                 [deg]
#   9 THETA_WORLD            Position angle (CCW/world-x)                               [deg]
#  10 FWHM_WORLD             FWHM assuming a gaussian core                              [deg]
#  11 ELONGATION             A_IMAGE/B_IMAGE                                           
#  12 ELLIPTICITY            1 - B_IMAGE/A_IMAGE                                       
         1 -10.2348     80.3490     31.7209   5.5225140160e+01   5.8969658778e+01    0.6358888     0.452895 -66.12   0.00314324    2.457    0.593
         2 -12.2129    107.9238     29.1550   4.5824274933e+01   5.4172205932e+01     0.501838    0.3674104  -0.06  0.002357417    1.486    0.327
         3 -10.8317     18.5743     27.3283   7.7086153551e+01   6.7115328326e+01    0.4987039    0.2357893 -51.33  0.002890238    1.630    0.387
         4 -10.4147     40.8621     21.0837   6.5503343236e+01   6.6168227528e+01    0.4192762     0.331626  59.96  0.001997142    2.230    0.551
         5 -11.4322     42.2960     15.4299   6.2545759565e+01   6.6908803885e+01    0.4571662    0.2167522  23.61 0.0003094989    2.563    0.610
         6 -10.9533     50.4666     22.1356   6.2100689170e+01   6.4868329422e+01     0.351316    0.2089738 -29.53 0.0007257552    1.456    0.313
         7 -12.3438    105.1744     21.2134   4.3435336111e+01   5.5832803407e+01    0.3950628    0.3009263 -25.00 0.0005097006    1.278    0.218
         8 -10.9709    106.8453      5.3878   3.6445176752e+01   5.7330917357e+01    0.6056681    0.4614539   0.72  0.002794658    1.281    0.220
         9 -10.3954    101.1421     11.1686   4.0388196024e+01   5.7902870378e+01    0.3092006    0.2667953 -56.76 0.0003848041    1.532    0.347
        10 -10.0290     96.9302     12.9477   4.2319459821e+01   5.8548947449e+01    0.2451045     0.186318  24.28 0.0004328436    1.234    0.190
        11 -10.1050    143.0276     16.0172   3.2464177505e+01   4.7769545939e+01    0.7156695    0.3170666 -44.16  0.002741591    2.718    0.632
        12 -11.1462    151.9309     18.2411   3.1520056549e+01   4.5277775332e+01    0.6272141    0.4342201  -4.92 0.0002120389    1.674    0.403
        13 -10.3344    131.3961     21.9936   3.7156412473e+01   4.9886702362e+01    0.5073068    0.2866497 -23.39   0.00229405    1.836    0.455
        14 -10.9434     86.2091     22.2178   4.9467710533e+01   5.9380731235e+01    0.4148159     0.265586  55.48 0.0004323354    1.973    0.493
        15 -10.2800     69.6571     11.7092   5.0411822944e+01   6.3643487789e+01    0.3071942    0.2136535  31.40  0.001035664    1.422    0.297
        16 -10.8263     68.8390     17.0949   5.3095466354e+01   6.3037997425e+01    0.4645631      0.30403  44.39  0.001916718    1.748    0.428
        17 -11.4618     61.8593     21.8921   5.7676014413e+01   6.3378093169e+01      0.46672    0.3956273 -78.46  0.001548212    2.053    0.513
        18 -10.6777     62.1837     16.8325   5.5384358128e+01   6.4086676009e+01    0.2816219    0.1907992  -1.26 0.0009582349    1.549    0.354
        19  -9.9681     13.6276     19.1559   7.6397574446e+01   6.8925590589e+01    0.3595175    0.1755732 -24.61  0.001769656    2.219    0.549
        20 -10.4186    217.2991     17.2492   2.1438493482e+01   2.8228286738e+01    0.3349053    0.2724599  22.27  0.000518501    1.523    0.343
        21 -10.7555    165.6565     19.0051   2.9301501331e+01   4.1648585933e+01     0.541362    0.2946991  30.73  0.001345145    2.384    0.581
        22 -10.2503    237.9267     17.8213   1.9341971204e+01   2.2922796293e+01    0.4155404    0.2689896  13.78  0.001609915    2.517    0.603
        23 -10.0218    243.6772     13.8450   1.7779318144e+01   2.1975698280e+01    0.3822087    0.2323887  37.29   0.00130213    2.304    0.566
        24 -11.3768    182.3636     18.3839   2.6409306966e+01   3.7314651007e+01    0.5118496    0.3461513   8.70 0.0004810434    1.957    0.489
        25 -11.1580    174.0502     12.9936   2.5966295376e+01   4.0117907635e+01    0.7611342    0.5145817  38.45  0.003682833    1.572    0.364
        26  -9.3476    179.7868     13.5834   2.5288445212e+01   3.8537569651e+01    0.4315552    0.2176085  74.99  0.001442198    2.105    0.525
        27 -10.2015    145.0325     12.6832   3.0863648142e+01   4.7638226329e+01    0.5817527     0.174579  56.77  0.001470931    2.772    0.639
        28 -10.2289    116.8673     14.9455   3.7866284718e+01   5.4084869531e+01    0.2972597    0.2453109  18.46 0.0008064026    1.152    0.132
        29  -9.9980     13.5454     11.4524   7.3532969609e+01   7.0247378569e+01    0.4288336    0.1342892 -36.81  0.002028461    2.736    0.635
        30 -11.0633      6.4824     16.6695   7.8719144982e+01   6.9818468416e+01    0.3561792    0.3170272  69.42   0.00283399    1.780    0.438
        31  -9.9306      9.6270     14.7248   7.6591513598e+01   6.9961748236e+01    0.2114729    0.1555812 -14.60  0.000750088    1.335    0.251
        32  -9.0934    127.1508     16.5318   3.6053597055e+01   5.1545151570e+01    0.3342699    0.1848057   0.90 0.0008484864    2.547    0.607
        33 -10.7058    210.4130     13.6880   2.1261469602e+01   3.0429892443e+01     0.663663    0.3183769 -12.74  0.002520758    2.971    0.663
        34 -11.0951    207.8940      3.5931   1.8729837855e+01   3.2171871311e+01    0.5858446    0.3590099 -62.54  0.002786433    1.748    0.428
        35 -11.2078    133.0984     12.6342   3.3260186568e+01   5.0572540844e+01    0.2689426    0.2351777  18.59 0.0002470666    1.109    0.098
        36  -8.9585     87.5547     13.8909   4.5503002348e+01   6.0245663898e+01    0.5639693    0.1819959  46.51  0.001892548    2.967    0.663
        37  -9.6770     90.8007      8.9906   4.2383671000e+01   6.0219949033e+01    0.4284164    0.2075526  39.49  0.001422578    1.984    0.496
        38  -9.3119     87.5408      6.4687   4.2232712526e+01   6.1132354482e+01    0.2933897    0.2231495  82.65  0.001581767    2.256    0.557
        39 -11.4864     74.3925      3.6884   4.5094427095e+01   6.3836258084e+01    0.4899988    0.2920864  -7.69  0.001257597    1.722    0.419
        40 -11.4824     79.3956      4.3338   4.3773589000e+01   6.2879763491e+01    0.2703026    0.2149155  13.61 0.0004186005    1.095    0.086
        41  -9.9042     31.3575     12.4640   6.5908219815e+01   6.8551457647e+01    0.2427068    0.2353306 -40.95  0.001683437    1.533    0.348
        42  -8.7076    191.6124     11.8102   2.3080680825e+01   3.5595299243e+01    0.2686135    0.1846427 -52.71 0.0009023685    1.534    0.348
        43  -9.7144    191.1238      6.7174   2.1618210236e+01   3.6261845076e+01    0.5042232    0.2614758 -38.47  0.002235411    1.946    0.486
        44 -10.6472    196.2458      3.4523   2.0021128384e+01   3.5240230045e+01    0.6385404    0.2899885  63.30  0.002706478    1.942    0.485
        45  -9.4853     51.2880     12.2477   5.7501925272e+01   6.6269386122e+01    0.2586366    0.1499889  30.07   0.00105547    1.826    0.452
        46 -10.2295     54.7641      8.3628   5.4353097436e+01   6.6337536354e+01    0.3404871    0.3284541  59.30  0.002117083    1.619    0.382
        47  -9.3166     24.1161     11.4473   6.8688764978e+01   6.9396708492e+01    0.2680289    0.1456401   0.36  0.001504919    2.411    0.585
        48 -10.5448     24.7320      7.0142   6.6476791801e+01   7.0035960967e+01     0.183292    0.1624374 -19.30 0.0004048494    1.309    0.236
        49  -9.9338     21.5210      5.4881   6.7278199778e+01   7.0561043624e+01     0.213173    0.1374791 -16.61  0.001119177    1.390    0.281
        50  -9.7654    219.2645     10.9566   1.9507231776e+01   2.8436960990e+01     0.457771    0.2469726  88.03  0.001977702    2.062    0.515
        51  -9.9998    200.0654      8.8876   2.1139642635e+01   3.3673695662e+01     0.409088    0.2568291  49.61  0.001569063    1.619    0.382
        52 -10.1903    165.1876      1.6155   2.3593564372e+01   4.3583689629e+01    0.3612496    0.2010185  52.28 0.0003058258    1.623    0.384
        53 -11.8337    156.0586      3.5809   2.5684926019e+01   4.5760109400e+01     0.569015    0.2369013  47.03 0.0004055469    2.249    0.555
        54 -11.9481    160.1176      1.7394   2.4407651978e+01   4.4886689367e+01    0.6650446    0.4895723 -52.65  0.001411021    1.535    0.349
        55  -9.0941    120.0266      9.9882   3.5136996709e+01   5.3924831871e+01    0.2022718    0.1869464  25.40 0.0003460265    1.045    0.043
        56  -9.9306      7.6392      9.3178   7.5467271403e+01   7.1005880980e+01     0.164046    0.1444231  -9.38  0.001106378    1.334    0.251
        57 -10.1733      1.6789      8.6429   7.8062184594e+01   7.1476195152e+01    0.2114912    0.1282528 -41.54  0.000547763    1.160    0.138
        58  -9.4626    229.5896      9.2263   1.7977101377e+01   2.5995913480e+01    0.1850721     0.134645  -8.65 0.0009509471    1.736    0.424
        59  -9.0015    120.2410      2.4187   3.2061676246e+01   5.4638532673e+01    0.2511669      0.20303  38.15  0.001458847    1.105    0.095
        60  -9.1938    126.8219      7.6672   3.2700605360e+01   5.2590841152e+01    0.3044739    0.1956287  65.44  0.000983126    1.632    0.387
        61  -9.6209    123.1693      6.0214   3.2852118209e+01   5.3611467740e+01    0.3455413    0.2423758  32.89  0.001354613    1.360    0.265
        62  -9.9754    171.1475      6.1263   2.4185452108e+01   4.1593833231e+01    0.4577321    0.2592286  51.37  0.001710013    1.634    0.388
        63  -9.3616     98.3549      6.2945   3.9062552762e+01   5.9016913678e+01    0.2961654    0.1720975  37.53  0.001083106    1.614    0.380
        64  -8.8742     61.9336      6.1575   5.0609031122e+01   6.5573461703e+01    0.1997555    0.1731943  38.97  0.001360026    1.444    0.308
        65 -11.5199     37.6523      4.6248   5.9594547663e+01   6.9041976504e+01    0.2477324    0.1800258  -9.44 0.0005182213    1.164    0.141
        66  -9.6220     43.4650      1.3771   5.5535110668e+01   6.8776114268e+01    0.3033707    0.1078264  38.86  0.001444163    3.064    0.674
        67 -10.2504    238.5155      3.3481   1.5651866289e+01   2.4413198759e+01    0.3609428    0.2413187  71.50  0.001009044    1.429    0.300
        68 -10.1840    233.7585      2.6036   1.5891198567e+01   2.5669421099e+01    0.3174865    0.2019177 -86.88  0.001431887    1.555    0.357
        69 -10.3939    218.1214      2.6255   1.7390703224e+01   2.9623345481e+01    0.4063061    0.2932929  81.88  0.002182974    1.292    0.226
        70  -9.0848    185.5077      2.1677   2.0963369834e+01   3.8197715022e+01    0.3435638    0.1869034  -4.65  0.001439873    2.533    0.605
        71 -11.0844    177.9796      2.8591   2.2170519746e+01   4.0115787953e+01    0.4892983    0.2206399  55.19 0.0008269501    1.966    0.491
        72 -10.3332     30.7439      2.8780   6.1813834313e+01   7.0052516206e+01    0.2592753    0.1461652 -42.53  0.001117328    1.738    0.425
        73  -9.8382     13.4140      2.8130   6.9951232979e+01   7.1645191403e+01    0.2558703    0.1614141 -51.67  0.001707601    1.746    0.427
        74  -8.6495     17.8465      2.1521   6.7499943312e+01   7.1386862556e+01    0.2489344    0.1101835 -24.13 0.0008692689    2.450    0.592
        75  -9.8059    135.3497      1.7666   2.8701710331e+01   5.1117212670e+01    0.3284581    0.2138681  74.34  0.001600215    1.696    0.410
        76 -10.5899     92.0032      2.5515   3.9178609423e+01   6.0688209856e+01    0.3607908    0.2485915  70.79   0.00166755    2.098    0.523
        77 -10.9726    249.8378      1.5756   1.4268214819e+01   2.1862936649e+01     0.216926    0.1592627  82.19 0.0003257877    1.289    0.224
        78  -8.7594     51.4515      2.3270   5.2754612835e+01   6.7589344647e+01    0.2859841   0.09179343  35.72  0.001221381    3.374    0.704
        79  -9.6786      5.2921      1.5206   7.3410803115e+01   7.2425410017e+01    0.1984524    0.1060217   5.48 0.0008526886    2.181    0.541
        80 -10.5559    115.7144      2.0550   3.2929001964e+01   5.5704473200e+01    0.2331173    0.2068429  35.82 0.0003542231    1.049    0.047
        81  -8.9188     48.9188      7.9747   5.6478336825e+01   6.7184757696e+01    0.1780299    0.1432642 -16.70 0.0005999075    1.082    0.076
        82  -8.4066     22.7028      1.2817   6.4770331319e+01   7.1082848790e+01    0.0918685   0.08150417 -39.55 0.0006959339    1.541    0.351
        83  -8.8035    104.3258    115.0564   7.2982568363e+01   3.8133434503e+01    0.1984389    0.1721824 -63.47 0.0003534839    1.076    0.071
        84 -10.2716    201.4779    249.4156   7.6071910081e+01  -3.3520092033e+00    0.2554061    0.1712961  28.96  0.001349016    1.347    0.258
        85 -10.4251    115.9365    248.4200   8.9948683216e+01   1.0498456397e+01    0.2548197    0.1850463  72.80   0.00146249    1.259    0.206
        86  -9.7320     46.6844    114.1296   8.7740694600e+01   4.6462911403e+01    0.1960939    0.1899276  36.42 0.0006188029    1.319    0.242
        87 -10.8607     20.9187    110.0424   9.3733564179e+01   4.9758760726e+01    0.3430664    0.2404742 -74.41   0.00129851    1.093    0.085
        88  -9.5217     16.4625    108.0169   9.4601259163e+01   5.0543377624e+01    0.1606032    0.1303727 -82.32 0.0003549249    1.088    0.081
        89  -9.2293    104.0185    109.1022   7.1718746019e+01   3.9511246465e+01    0.2090085    0.1941598 -76.12 0.0003249643    1.021    0.021
        90 -10.0651     37.0025    107.2001   8.9170367211e+01   4.8989423382e+01    0.3827237    0.1315034 -55.76  0.001732085    2.341    0.573
        91 -10.5715     31.5874    106.5516   9.0495944977e+01   4.9632039920e+01    0.2765309    0.2460687  16.43  0.001982339    1.512    0.339
        92  -9.4551     91.5689    106.9541   7.4508236667e+01   4.2094437852e+01    0.3302967    0.2025527 -36.04  0.001327352    2.022    0.505
        93 -10.5297     46.3338    104.8297   8.6290282522e+01   4.8585304796e+01    0.4669679    0.2899908 -34.18  0.002485356    2.182    0.542
        94 -10.2600     44.2214     99.5997   8.5946225308e+01   4.9973606428e+01    0.3807623    0.1685764  40.09  0.001875648    2.558    0.609
        95  -9.4211     42.4033     96.1814   8.5835004300e+01   5.0918402409e+01    0.3276151    0.1045902 -63.65   0.00134284    2.597    0.615
        96  -9.4037    132.0566    103.9897   6.3316936373e+01   3.5194759885e+01    0.2213833    0.2129383 -87.66 0.0003395895    1.031    0.030
        97  -8.9759    100.4948     98.4992   7.0122731797e+01   4.2472454691e+01    0.2781608    0.1694021 -47.77 0.0006953597    1.540    0.351
        98  -9.6132    100.7114    103.0039   7.1158717512e+01   4.1441719890e+01    0.3384659    0.2618909  29.25 0.0007798955    1.536    0.349
        99 -10.2181    104.5942    100.4537   6.9504221764e+01   4.1318342583e+01    0.3941433    0.2195516  29.50  0.001620653    2.464    0.594
       100 -10.4213     70.6909    101.8693   7.9064203997e+01   4.6331720480e+01    0.3811999    0.2237019 -55.71  0.001056263    1.481    0.325
       101  -9.2218     85.2378    101.9094   7.5080504474e+01   4.4221154539e+01    0.2760973    0.1832223  37.86 0.0004035903    1.691    0.409
       102 -10.4083     78.5858    100.9420   7.6688378327e+01   4.5433016883e+01    0.4191753    0.3279655   0.24  0.002269877    1.841    0.457
       103 -10.3244     56.7185    100.9010   8.2729631270e+01   4.8311759023e+01    0.3303097    0.1854833 -52.04  0.001446254    1.573    0.364
       104  -8.8230     36.7916    100.0456   8.8068794454e+01   5.0601222378e+01    0.2065797    0.1034409 -48.18   0.00106888    1.938    0.484
       105  -8.8347     23.0285    100.0212   9.1798000220e+01   5.1791340844e+01    0.1758885    0.1177542  81.56 0.0003772208    1.567    0.362
       106 -11.5999    117.6528     98.0318   6.5442887202e+01   3.9393624592e+01    0.2625981    0.2615962 -13.65 0.0003150108    1.072    0.067
       107  -8.7446     16.5286     98.9524   9.3383589040e+01   5.2514960880e+01    0.1710865   0.05942966 -52.59 0.0008087644    2.469    0.595
       108  -9.3805      6.2274     98.0568   9.5987707660e+01   5.3398372977e+01    0.3602669    0.1976724  30.48   0.00229574    2.298    0.565
       109 -10.0030      3.2371     79.3556   9.4286811051e+01   5.7569499371e+01    0.3756486    0.1409667 -55.47  0.001428932    1.965    0.491
       110  -9.7192      2.6420     85.7806   9.5363811678e+01   5.6236823431e+01     0.362615    0.1241908 -58.86  0.001906734    2.048    0.512
       111 -10.1220    124.3167     96.7368   6.3377576811e+01   3.8336597655e+01    0.4158811    0.2681145  58.06  0.001664217    1.764    0.433
       112  -9.8481     84.8363     94.5345   7.3471166978e+01   4.5922698555e+01    0.3398799    0.2564806  89.47 0.0008106776    1.642    0.391
       113  -8.9878     80.3605     94.7107   7.4772292657e+01   4.6561262762e+01    0.2466955    0.1512525  62.56   0.00091681    2.249    0.555
       114 -10.0605     86.0331     89.2086   7.1819703008e+01   4.6906856143e+01    0.4234574    0.2997613 -32.02  0.002169553    1.611    0.379
       115  -9.2397     13.0044     95.3639   9.3831747113e+01   5.3540913866e+01    0.2605994    0.1862637 -83.51  0.001800178    1.201    0.167
       116  -9.6027     17.7929     90.9765   9.1875832958e+01   5.4160860431e+01    0.2480624    0.1718901   0.84 0.0005448939    2.139    0.533
       117  -9.4923     20.1938     81.7058   8.9671855612e+01   5.5998245344e+01     0.409957    0.2312884  63.10  0.002242333    2.483    0.597
       118 -11.1213     32.1042     92.7098   8.8125188366e+01   5.2648399771e+01    0.4619983    0.3760803 -26.15  0.001194664    1.539    0.350
       119  -9.5645     22.3357     92.8287   9.0893511829e+01   5.3421197758e+01    0.3415356     0.149046 -56.56  0.001825519    1.786    0.440
       120 -10.9580     26.3856     87.2639   8.8820107430e+01   5.4320662101e+01    0.3997875    0.2664974 -42.90 0.0009240039    1.538    0.350
       121 -10.8358     47.5575     92.5080   8.3671681568e+01   5.1206215461e+01    0.3539701    0.2378863 -82.96   0.00200032    1.608    0.378
       122  -8.9228    131.2955     93.3199   6.0676753158e+01   3.7597869203e+01    0.2273377    0.1896935 -48.41 0.0003971284    1.169    0.144
       123  -9.6617    134.8146     91.6583   5.9333248037e+01   3.7183819781e+01    0.2921394    0.2347785  17.05 0.0005830296    1.541    0.351
       124  -9.6818    108.5165     91.3263   6.6106687463e+01   4.2581756077e+01    0.5504715    0.3544208  14.37  0.002208678    2.760    0.638
       125  -8.7521    104.4110     90.4811   6.7000919099e+01   4.3519005958e+01    0.1758096    0.1396609  58.21 4.178517e-06    1.396    0.284
       126 -10.8110     58.8145     89.1713   7.9706230555e+01   5.0678342365e+01    0.5998338    0.3327656 -77.43  0.002712413    2.415    0.586
       127  -9.0672     71.1606     91.2219   7.6580781526e+01   4.8643614710e+01    0.1833906    0.1480135 -83.05 0.0006114159    1.340    0.254
       128  -8.9050     52.5228     90.7119   8.1871997650e+01   5.1065509626e+01    0.1795581    0.1090787 -71.35 0.0009405273    1.616    0.381
       129 -11.0518    132.8389     81.7355   5.6998539952e+01   3.9626874105e+01    0.8313958    0.5088729   6.35   0.00259336    4.171    0.760
       130 -11.2581    123.9841     86.1717   6.0562855025e+01   4.0616002369e+01    0.5016114    0.4882506  52.64 0.0009772094    1.065    0.061
       131 -10.6781    120.8072     83.2284   6.0557709889e+01   4.1876057300e+01    0.5530929    0.2998134  39.46  0.001811552    2.024    0.506
       132  -9.5863     39.7229     88.5031   8.5161415308e+01   5.2879676191e+01    0.3293495    0.1199055 -55.05  0.001507787    2.126    0.530
       133 -10.2533     97.6345     88.6789   6.8401095983e+01   4.5108265966e+01    0.2850045    0.2532625  60.63 8.805519e-05    1.228    0.186
       134 -10.0686    140.6853     96.4558   5.9199297454e+01   3.4909225039e+01    0.2553308    0.2485227 -73.64 0.0006261205    1.020    0.019
       135  -8.5254     14.0000     88.0054   9.2490246466e+01   5.5066923514e+01    0.1848902    0.0878373 -56.52  0.001050542    1.638    0.389
       136  -8.8629     16.7575     85.7487   9.1351481828e+01   5.5367230410e+01     0.197673    0.1181923 -87.57   0.00091549    1.733    0.423
       137 -10.0266    155.1476     85.0540   5.2551167587e+01   3.3860277820e+01      0.28063    0.2678626  -5.57 0.0002875254    1.094    0.086
       138 -11.0533    154.8669     79.5714   5.1013576391e+01   3.4975564978e+01    0.5931892    0.3681731  39.60  0.001897226    1.746    0.427
       139  -9.7197    110.7322     85.3698   6.3877418599e+01   4.3427029241e+01    0.2595469     0.246646  64.50 0.0007121481    1.117    0.105
       140  -8.8025     68.8068     78.1535   7.4080661064e+01   5.1814785511e+01    0.1871277     0.168965 -74.69 0.0003874934    1.170    0.145
       141  -8.6659     77.7569     75.0085   7.0509981001e+01   5.1221245915e+01    0.2027508    0.1266665 -49.04 0.0002116898    1.413    0.292
       142 -11.1897     79.9571     83.4750   7.2114926907e+01   4.9084180709e+01    0.5137491    0.3212519  26.01 0.0007882192    2.054    0.513
       143 -11.0583     73.1158     80.3092   7.3331779364e+01   5.0758923963e+01    0.6205916    0.2995064 -38.76  0.001576025    2.289    0.563
       144 -10.5579    141.4174     84.0490   5.5532797808e+01   3.7252741518e+01    0.6042789    0.2775208  52.46  0.001353214    2.291    0.563
       145  -8.2251    105.3200     85.2905   6.5343686811e+01   4.4459939197e+01    0.1422949    0.1134117  -9.09 0.0007009382    1.603    0.376
       146 -10.5304     45.2726     68.9164   7.9158220247e+01   5.6573315067e+01    0.3097204    0.2422812 -77.07 0.0003355055    1.404    0.288
       147 -10.0503     47.8209     63.8240   7.7016301429e+01   5.7375239729e+01    0.2295623    0.1858103 -82.52 0.0004703116    1.491    0.329
       148 -12.9344     53.0915     75.2295   7.8212120393e+01   5.4385501607e+01      0.38838    0.2554695 -45.03  0.000519187    1.348    0.258
       149 -11.1365     51.5645     69.2101   7.7193377271e+01   5.5838796469e+01    0.4373246    0.3551115 -46.77  0.001880057    1.053    0.051
       150 -10.8281     39.0024     81.4834   8.3973800451e+01   5.4486324156e+01    0.2930229    0.2600215  61.12 0.0005687021    1.335    0.251
       151  -8.7880     45.1974     79.3848   8.1631486045e+01   5.4335151084e+01    0.1691002    0.1583451 -74.32   0.00107678    1.158    0.136
       152  -9.2333     86.8677     83.7897   7.0176887795e+01   4.7950003234e+01    0.3129133    0.2125407 -73.48 0.0004328896    1.886    0.470
       153 -10.1327     65.2237     85.9885   7.7092594497e+01   5.0583620991e+01    0.3822401    0.2826587  -0.99  0.002089147    1.936    0.484
       154  -9.4359    177.4036     78.7509   4.5841363825e+01   2.9560957455e+01     0.225325    0.1526479 -21.76 0.0009486809    1.710    0.415
       155 -11.6298    167.3431     77.5457   4.7620063639e+01   3.2300065036e+01    0.5523639    0.3790325 -12.05 0.0001212208    1.951    0.488
       156 -10.3590    165.5764     71.5463   4.6213408550e+01   3.3823646213e+01    0.4384191    0.2664479 -45.29  0.001074823    1.692    0.409
       157  -8.7925     93.7239     78.6706   6.6783323956e+01   4.7910574149e+01    0.1409348    0.1058534 -21.21 0.0003034208    1.594    0.373
       158  -8.6909     84.4686     78.4113   6.9429590692e+01   4.9478260545e+01    0.1966676    0.1509198 -21.90 7.261171e-05    1.528    0.346
       159  -9.4809     74.9028     66.0550   6.8836946025e+01   5.3500991033e+01    0.2287869    0.1914124  29.79 0.0006652123    1.345    0.256
       160  -9.9727     77.5518     61.7233   6.6687028333e+01   5.3982828805e+01    0.3362927    0.2604351 -23.55 0.0008219565    1.340    0.254
       161 -10.1263     94.5960     71.8684   6.4554414113e+01   4.9170143349e+01    0.5525185    0.4464081 -81.33  0.002471341    1.596    0.373
       162 -10.6674     88.3451     74.2585   6.7107516035e+01   4.9729772190e+01    0.8801063    0.3505854 -37.45  0.003161428    2.970    0.663
       163 -10.1193     87.1081     67.8838   6.5599835438e+01   5.1241256640e+01    0.4343526    0.3236675  18.14  0.001505844    1.638    0.389
       164  -9.7962     83.5281     65.4220   6.5950235607e+01   5.2315550189e+01    0.2410939    0.2134473 -35.11  7.50196e-05    1.026    0.025
       165  -9.7645     82.2458     62.0221   6.5298824458e+01   5.3198322664e+01    0.2626137    0.2053641 -26.78 0.0005859018    1.273    0.215
       166  -8.8196     12.8291     78.1007   9.1254868170e+01   5.7272450931e+01    0.1559693   0.09902593 -53.93 0.0003263124    1.294    0.227
       167 -10.7486    141.8336     75.6443   5.2935773095e+01   3.8793639750e+01    0.3904115    0.2784588  66.89   0.00164137    1.669    0.401
       168  -9.5920    110.3208     75.0918   6.1015234777e+01   4.5625704049e+01    0.4759341    0.1841196 -48.14  0.001702726    2.576    0.612
       169  -9.4331    100.0436     75.2464   6.3969087332e+01   4.7516423072e+01    0.2411081    0.1835853 -42.74 0.0007232484    1.220    0.180
       170  -9.9660     63.3904     74.4870   7.4801538368e+01   5.3308547822e+01    0.4236944    0.2586973  57.86   0.00207475    2.369    0.578
       171 -10.7031     29.1247     74.9254   8.5670151970e+01   5.6773544323e+01    0.8615761    0.1077343 -53.95  0.002941561    4.079    0.755
       172 -11.4165      8.9832     51.3655   8.7368629061e+01   6.3078542825e+01    0.5591675    0.4981158 -28.92  0.003317798    1.287    0.223
       173 -10.7164     35.7213     53.4188   7.8363611235e+01   6.0702117545e+01    0.6681054    0.3547955 -43.16  0.003730248    1.574    0.365
       174 -10.3741     22.8581     63.6205   8.5301911568e+01   5.9656191182e+01    0.3322599    0.1581184 -51.48 0.0005649197    1.604    0.377
       175 -12.1402     25.1774     55.5373   8.2631724171e+01   6.1154586398e+01    0.4884174    0.2693161 -49.37  0.002028226    1.399    0.285
       176 -10.4605     19.5648     55.4569   8.4575455047e+01   6.1580549620e+01    0.3053803    0.2017258 -73.73 0.0009484699    1.545    0.353
       177 -11.7024      2.4626     66.1037   9.2425427977e+01   6.0396027815e+01    0.3360569    0.2481564 -75.24  0.001152969    1.176    0.150
       178 -11.0996      4.4315     60.6350   9.0813149186e+01   6.1429048536e+01     0.431571    0.3369079  37.68  0.002294524    1.689    0.408
       179  -9.6604    174.8462     74.9527   4.5261789597e+01   3.0884838402e+01    0.2357299     0.211908  15.43   0.00025079    1.212    0.175
       180  -8.4103     37.6716     75.7030   8.3159132687e+01   5.5863036677e+01    0.1241543   0.07880159 -37.76  0.000388777    1.634    0.388
       181 -10.3069      2.5355     92.5875   9.6281863636e+01   5.4790675204e+01    0.3614377    0.2031648  65.91  0.001144233    2.113    0.527
       182  -9.5514     18.7924     72.8767   8.8499402095e+01   5.7991229490e+01     0.282263    0.1758298 -49.70  0.001803731    1.355    0.262
       183  -9.0527    161.2177     73.2049   4.7670474895e+01   3.4608573135e+01    0.2575642    0.1107469 -45.84 0.0008599866    2.491    0.599
       184  -9.5038      2.8526     72.8835   9.3415646990e+01   5.8956817356e+01     0.170479    0.1119264 -54.91 0.0004152497    1.241    0.194
       185 -10.7457    173.9708     69.3723   4.3784666231e+01   3.2086537335e+01    0.4827292    0.3452508 -79.36  0.001578069    1.932    0.482
       186 -10.3898    157.1085     69.7445   4.7537392554e+01   3.6245789533e+01    0.4844882    0.2272952 -34.58 0.0009072208    2.166    0.538
       187  -9.1560    102.1546     70.0637   6.1804383948e+01   4.8183101950e+01    0.2628234    0.1860026 -47.86  0.001064774    1.350    0.259
       188  -9.9524    218.8450     69.8852   3.5737632910e+01   2.0501622666e+01    0.2340706    0.2298811  65.32 0.0003278799    1.045    0.043
       189  -9.3869    145.7368     70.1097   5.0293405864e+01   3.8921601269e+01    0.2871993    0.2283244  47.27  0.000867968    1.265    0.209
       190 -11.1827    141.0379     68.0922   5.0799592912e+01   4.0395782706e+01    0.6578218    0.3408745 -35.21  0.002275305    1.945    0.486
       191 -10.6705    128.5805     57.7509   5.0583307937e+01   4.5108020788e+01    0.7156414    0.2799256  56.52  0.002215212    3.114    0.679
       192 -10.7143    134.9433     63.9556   5.0994124822e+01   4.2557745595e+01    0.5058763    0.3548299  41.73 0.0009695998    1.463    0.317
       193  -9.7658    132.5352     60.5174   5.0485775254e+01   4.3725846400e+01    0.2964052    0.2620257  -9.33  0.001056975    1.176    0.149
       194  -9.2179    120.1759     67.8219   5.6073410470e+01   4.5068958701e+01    0.3990509    0.2276048 -42.08  0.001317064    1.688    0.408
       195  -8.6359     64.5345     68.9740   7.2963692873e+01   5.4325850809e+01    0.1973101    0.1129502 -51.23 0.0004353086    1.499    0.333
       196  -8.7174     36.7339     68.0023   8.1719919880e+01   5.7593309765e+01    0.2513119    0.1365539 -79.23   0.00116791    2.676    0.626
       197 -10.5172     15.6257     64.5995   8.7897659119e+01   5.9951416748e+01    0.3835909    0.2079259 -29.47  0.001363094    2.264    0.558
       198  -9.1954    215.0462     65.9955   3.5284207907e+01   2.2077166129e+01    0.2206943    0.2113577 -53.50 -0.002661949    1.018    0.017
       199 -10.0424     97.7750     64.1315   6.1233126211e+01   5.0155666321e+01    0.2477072    0.2090915 -35.89 0.0002708168    1.095    0.087
       200  -9.5715    147.8221     63.8825   4.7843611058e+01   3.9551076718e+01     0.234576    0.2112612   5.37 0.0006035643    1.185    0.156
       201  -8.4394     15.5563     59.5283   8.6866980660e+01   6.1011071393e+01     0.114488   0.08872096 -62.65 0.0001251559    1.084    0.078
       202  -9.1383    175.8438     61.6587   4.1071224094e+01   3.2914602413e+01    0.2678626    0.2158831 -13.67  0.001277107    1.387    0.279
       203 -10.1838    167.5128     61.9119   4.2852435879e+01   3.5007182368e+01    0.3740122    0.2590713 -53.71  0.001649105    1.620    0.383
       204  -9.9204    167.9625     56.6563   4.1119485410e+01   3.5763615864e+01    0.2598355    0.2181988 -15.47 0.0008680364    1.282    0.220
       205 -10.2635    161.2584     60.4932   4.3740517330e+01   3.6829154361e+01    0.4097781    0.3174796  -5.72  0.001908235    1.544    0.352
       206 -11.1047    159.4614     54.4487   4.2204437045e+01   3.8285522445e+01    0.5657433    0.2775865  59.75  0.002063812    2.136    0.532
       207  -8.9013    124.0161     62.5185   5.3345676401e+01   4.5249041226e+01    0.2180555     0.147429  50.22 0.0003592033    1.539    0.350
       208  -8.7725    102.3115     62.6712   5.9433390770e+01   4.9605393290e+01    0.1501982    0.1359886 -18.66  0.000452718    1.077    0.071
       209  -9.9819    102.9416     58.9437   5.8031359683e+01   5.0195543866e+01    0.3648348    0.2661543  14.14 0.0008123745    1.718    0.418
       210  -9.7676     64.8415     62.0172   7.0880048831e+01   5.5720359816e+01    0.4169536    0.1929236  29.19  0.001863395    2.717    0.632
       211  -9.3356     71.3951     60.6484   6.8332486947e+01   5.5099499042e+01    0.2362954    0.2182446  34.35 0.0007975068    1.242    0.195
       212  -9.8058     61.3792     52.1162   6.8999916677e+01   5.8141549054e+01    0.3173013    0.1945584 -41.27  0.001417952    1.397    0.284
       213 -10.2145     54.0109     60.7295   7.4098254735e+01   5.7324565516e+01    0.2746997    0.2474199 -71.27  0.001050598    1.254    0.202
       214 -12.0252     56.3434     56.7762   7.2159492730e+01   5.7849418781e+01     0.387551    0.3099078  75.55  0.000255064    1.822    0.451
       215 -10.1173    154.8605     60.2422   4.5069825965e+01   3.8467755864e+01    0.3591078    0.2964493 -44.59  0.001110606    1.236    0.191
       216 -10.6407     51.6641     82.4458   8.0340245366e+01   5.2980853105e+01    0.3636438    0.2416457 -55.86  0.001168944    1.243    0.196
       217  -8.5779     40.6476     60.2941   7.8498744405e+01   5.8836409475e+01    0.1148482   0.09137021  83.72 0.0006550263    1.683    0.406
       218  -9.6423    193.8655     60.0149   3.7177191032e+01   2.8496814761e+01    0.2441377    0.1990559 -63.66 0.0006563545    1.333    0.250
       219 -10.1243    142.3686     59.2756   4.7655642852e+01   4.1663188063e+01    0.6732374    0.2220346  39.44  0.001787566    4.627    0.784
       220  -8.8152     94.5126     59.4523   6.0700343854e+01   5.1644198131e+01     0.139331    0.1282564 -31.26 8.247169e-05    1.025    0.025
       221  -9.3513    136.7004     56.0896   4.7984647103e+01   4.3546515008e+01    0.3413337    0.1838601 -19.70  0.001252335    2.572    0.611
       222  -8.1860     74.6358     57.0426   6.6152192482e+01   5.5343305728e+01    0.2347023   0.08972633 -31.98 0.0007040182    4.552    0.780
       223 -10.8574    225.8917     55.4246   3.0739857379e+01   2.0936001061e+01    0.2754289     0.247497 -67.44 0.0003083068    1.105    0.095
       224  -9.0216     92.6882     54.6566   5.9661639398e+01   5.2872907957e+01     0.245452    0.2111687  16.90  0.001031461    1.228    0.185
       225  -9.3979     95.4893     52.5294   5.8083956357e+01   5.2765409817e+01     0.403826    0.3135652  76.38  0.002060533    1.932    0.482
       226 -11.3801     69.0329     48.8568   6.5321108661e+01   5.7726908478e+01    0.7056824    0.4797545 -46.47  0.002951492    1.345    0.256
       227  -8.9277     46.2976     42.1218   7.1110451689e+01   6.1853766471e+01    0.2835347    0.1529564 -35.67  0.001512731    1.681    0.405
       228  -9.9156     44.0961     54.3404   7.5672567914e+01   5.9704710057e+01    0.2760644     0.235102  58.43  0.001675002    1.556    0.357
       229 -10.1105     46.4094     47.3127   7.2742149221e+01   6.0849173519e+01    0.4637961    0.2577083 -13.50  0.001276393    2.982    0.665
       230  -8.5018    212.0312     53.9921   3.2417173916e+01   2.4694201491e+01    0.1804657    0.1722563  83.07 0.0005278774    1.040    0.038
       231  -8.8269    106.0274     53.6701   5.5358994729e+01   5.0572067049e+01    0.1996109    0.1860842   4.47  0.001081719    1.062    0.058
       232 -10.7542    193.7582     51.5018   3.4682526218e+01   2.9845616805e+01    0.5283628    0.3704695   8.67  0.001411207    1.982    0.496
       233  -9.6648    145.8197     52.5440   4.4626376943e+01   4.1975814752e+01    0.3115036    0.1886301 -49.35 0.0009585858    1.869    0.465
       234  -9.6150    142.1306     48.5845   4.4158163389e+01   4.3511254627e+01    0.4012234    0.2555901 -43.83  0.001124326    1.643    0.391
       235  -9.5282    145.8755     46.2271   4.2494115027e+01   4.2977284067e+01     0.258078    0.2374993  -8.96 0.0004731907    1.098    0.089
       236 -10.5884    153.6775     47.9254   4.1326159868e+01   4.0781332263e+01    0.4822933      0.36928  -1.14  0.000901215    1.552    0.356
       237 -10.2256    122.8602     51.0761   4.9813823536e+01   4.7533054711e+01     1.002728    0.4147284 -43.17  0.003710451    2.489    0.598
       238 -10.6055    127.8764     48.1046   4.7482330812e+01   4.6915856691e+01    0.3870474    0.2810645 -40.39  0.000371541    1.388    0.280
       239  -9.5408    125.5152     44.5476   4.6839223564e+01   4.8025929286e+01    0.3538118    0.2658101  46.43 0.0008693793    1.329    0.247
       240  -9.8365    175.6587     48.8343   3.7141060014e+01   3.5004114786e+01    0.4409152    0.2659581 -11.21  0.001446513    2.272    0.560
       241  -9.8672     86.7345     49.3959   5.9709213574e+01   5.4870598034e+01    0.4488343    0.2320328  33.29  0.001917282    2.242    0.554
       242  -8.9779     18.9779     34.1906   7.9105625012e+01   6.5814019189e+01    0.2234438    0.1385371 -14.05 0.0009413381    1.886    0.470
       243 -10.1385     21.1265     44.8860   8.1347405184e+01   6.3595446168e+01     0.421871    0.2947919 -89.03  0.002016953    2.122    0.529
       244 -10.1117     16.9481     46.5397   8.3334854431e+01   6.3557961981e+01    0.3784676    0.2228942 -62.79  0.001669049    1.451    0.311
       245 -10.4795     13.7591     38.5546   8.2428777218e+01   6.5331735599e+01    0.6036388    0.3269498 -59.38  0.003707717    1.502    0.334
       246 -10.9724      9.7251     31.7425   8.2112026792e+01   6.6880245124e+01    0.2230054     0.203523 -31.89 0.0002836273    1.259    0.206
       247 -11.3241      7.3144     35.9754   8.4254453567e+01   6.6211840760e+01     0.470362    0.2920287 -57.32  0.002251869    1.240    0.194
       248 -10.4575      4.8821     31.9184   8.4128761590e+01   6.7118303852e+01    0.2710997    0.1738501 -48.47  0.000755066    1.122    0.109
       249  -8.8510    228.0492     48.8263   2.8659617032e+01   2.1348661453e+01    0.3298876    0.1453564 -50.93  0.001190862    2.593    0.614
       250  -9.7505     32.3595     47.5685   7.7935338802e+01   6.2169797277e+01    0.1944877    0.1724843 -53.71  0.001224893    1.180    0.153
       251  -8.6834    235.2004     47.1930   2.7273949652e+01   1.9789475877e+01    0.2014164    0.1553627 -62.40 0.0004289564    1.319    0.242
       252  -9.2653    164.9495     46.3937   3.8461091997e+01   3.8154544409e+01    0.4283895    0.1806247  42.37  0.001453797    2.712    0.631
       253 -10.3710    114.9701     45.6233   5.0021351751e+01   5.0146241177e+01    0.3472336    0.2588451  39.73 0.0007821411    1.356    0.263
       254 -11.1756     79.6710     43.7172   5.9972896631e+01   5.7056625996e+01    0.6341771    0.4390261 -33.73  0.002536725    1.299    0.230
       255  -9.6662     67.8193     26.7621   5.7534041824e+01   6.1744778512e+01    0.2385741    0.1575948 -10.85  0.001295872    1.649    0.394
       256 -10.2948     74.1542     34.8216   5.8511858484e+01   5.9463828908e+01    0.4039916    0.3028259 -39.29  0.001874315    1.270    0.213
       257  -8.5979     57.0263    249.0138   9.9133456766e+01   1.8593751036e+01    0.1188829   0.08022214  67.79 0.0009306179    1.006    0.006
       258  -9.7800     77.8974     34.1982   5.7007488416e+01   5.8971730482e+01     0.325166    0.2565475 -57.83  0.001030722    1.670    0.401
       259 -10.0368     71.7110     28.0614   5.6693637949e+01   6.0944610836e+01     0.438042    0.2560154 -24.09  0.001082426    1.699    0.411
       260 -10.0121     75.2978     25.4424   5.4392962825e+01   6.0780528241e+01    0.4438933    0.1915116 -40.51  0.001988342    2.238    0.553
       261 -11.2639     25.1845     67.6616   8.5410725500e+01   5.8632285313e+01    0.3766392     0.314327 -11.69 0.0004151411    1.464    0.317
       262  -9.2023      3.5627     46.0849   8.8146469687e+01   6.4427583694e+01    0.2588157    0.1099231 -39.42 0.0004820042    2.145    0.534
       263  -9.5159    244.1400     45.1835   2.5633920331e+01   1.7875811387e+01    0.3842101    0.1990216  43.02  0.001578208    2.446    0.591
       264  -9.4175    185.3636     43.7581   3.3798144839e+01   3.3207114490e+01    0.2960539    0.2303998  38.43 0.0007048057    1.369    0.270
       265 -10.8492    136.4143     49.4068   4.5803439323e+01   4.4735838456e+01    0.3698779    0.2771222  61.17   0.00179913    1.443    0.307
       266 -10.2991    108.2499     41.5331   5.0413816927e+01   5.2210645970e+01    0.5030627    0.2746592 -30.16   0.00119613    1.819    0.450
       267  -9.9358     86.7057     34.9903   5.4433963928e+01   5.7356205542e+01    0.8570912    0.5127016   0.55  0.003664342    2.670    0.625
       268 -10.0320    103.1718     40.5869   5.1524910824e+01   5.3381503293e+01    0.6768038    0.2286156 -42.02  0.002397249    3.002    0.667
       269 -10.1150     91.2999     41.5168   5.5447761030e+01   5.5461043587e+01    0.4631889    0.3049758  54.52  0.001314398    1.897    0.473
       270  -9.1788     86.8899     43.1819   5.7445835219e+01   5.5949921070e+01    0.1997893    0.1797519 -13.46 0.0003254319    1.025    0.024
       271  -9.2507     93.6535     38.1115   5.3448617152e+01   5.5599924517e+01    0.2522192    0.1728682 -19.96  0.000138114    1.489    0.328
       272 -11.4149     97.3736     34.9602   5.1119684834e+01   5.5406602617e+01    0.3375736     0.291792 -56.89 0.0005504331    1.438    0.304
       273 -10.8548    181.8610     51.6104   3.6837491441e+01   3.2955558176e+01    0.5142515    0.3405286  66.53  0.000120974    1.571    0.364
       274  -8.2409    191.2537     43.3637   3.2672048527e+01   3.1706593325e+01    0.1528251    0.1164652  18.38 0.0006961874    1.623    0.384
       275 -10.1369     27.9630     42.6755   7.8151953037e+01   6.3500495756e+01    0.1991192    0.1449312 -48.54 0.0002214469    1.085    0.078
       276  -9.4780     25.8331     37.9842   7.7560430299e+01   6.4575338446e+01    0.3689115    0.1496538 -33.93  0.001690231    2.688    0.628
       277 -10.5260    228.3331     39.6733   2.6165024491e+01   2.2551593313e+01    0.4516705    0.3566073   4.78  0.002290237    1.611    0.379
       278 -10.1624    143.7104     41.1525   4.1249728517e+01   4.4284619244e+01     0.319001    0.2436741  64.45 0.0006471027    1.398    0.284
       279 -12.7707     61.8141     44.3611   6.6275528988e+01   5.9558337383e+01    0.3921618    0.3151411  27.43 0.0004117037    1.396    0.284
       280  -9.1036     34.6711     41.7650   7.5340767886e+01   6.3092034720e+01    0.2274064    0.1397525 -10.19  0.001279337    2.123    0.529
       281  -8.8814      1.9524     41.9997   8.7815162344e+01   6.5315905903e+01    0.1472718     0.116202  86.69 0.0004985363    1.595    0.373
       282  -9.5334    222.7648     40.7600   2.7191105159e+01   2.3822713841e+01    0.2526235    0.2263294 -88.31 0.0003965798    1.097    0.088
       283  -9.6369    203.8716     39.6885   2.9578608385e+01   2.8889702589e+01    0.2614233    0.2058704 -42.37 0.0003689947    1.259    0.206
       284  -8.8009    165.5173     40.0811   3.6295184650e+01   3.8941885907e+01    0.2288502    0.1516898 -25.27  0.001024867    1.590    0.371
       285  -9.4862    126.6556     39.8179   4.4860123603e+01   4.8510938973e+01     0.408614    0.2107201  61.83  0.001533132    2.375    0.579
       286  -8.9825     30.6622    248.3139   1.0292112756e+02   2.1813495114e+01    0.1070915   0.04687329  66.36 0.0007046866    1.694    0.410
       287  -9.4597    118.6808     31.8755   4.3977539759e+01   5.1476656078e+01    0.3122252    0.2074248  -0.26 0.0008523774    1.872    0.466
       288  -8.9913     56.9259     35.7541   6.4964262113e+01   6.1754357658e+01    0.2039059    0.1529404 -34.99 0.0004376796    1.121    0.108
       289 -11.8423     51.8023     36.8186   6.7241679065e+01   6.2200714912e+01    0.4825779    0.3778045 -72.08  0.001303176    1.909    0.476
       290  -9.0168     54.6405     32.1777   6.4474800382e+01   6.2670206168e+01    0.2449674    0.1838262 -19.04  0.001349744    1.228    0.186
       291  -9.0028    238.0313     38.4724   2.4642730121e+01   2.0284039907e+01    0.2965731    0.1873986   8.69   0.00121499    2.683    0.627
       292  -8.1317    236.6948     35.3090   2.3980082030e+01   2.1036227855e+01    0.1436045    0.1372049 -67.62  0.000251901    1.054    0.051
       293  -9.8552    158.8527     39.1014   3.7299192539e+01   4.0798212231e+01    0.3595209    0.2171268  64.97 0.0009595603    1.741    0.426
       294  -9.2485    120.8772     39.1267   4.6093196555e+01   4.9911332604e+01    0.2110317    0.1942764 -64.95  0.000500155    1.281    0.219
       295  -9.7557     40.1143     39.3535   7.2507028276e+01   6.3024252960e+01    0.1625872    0.1331366 -21.09 0.0004471675    1.167    0.143
       296  -9.3437    177.7161     37.6155   3.3230861912e+01   3.6099024517e+01    0.3062519    0.1842113  64.51  0.001245094    1.652    0.395
       297  -9.1303    137.7056     37.2718   4.1271233152e+01   4.6311852844e+01    0.4007714    0.1974776  40.75 0.0008774872    2.158    0.537
       298  -8.8672    163.9781     36.5004   3.5418553012e+01   3.9848180444e+01    0.2300326    0.1453078  60.58 0.0005153005    1.545    0.353
       299  -8.8300    131.8023     36.2151   4.2291993657e+01   4.7864021838e+01    0.2080625    0.1970498 -52.16 0.0003176081    1.168    0.144
       300  -9.4521    129.5775     33.2456   4.1751626195e+01   4.8811690188e+01    0.2690712    0.2219591 -16.29 0.0006950414    1.218    0.179
       301  -9.4637    133.2126     31.3835   4.0205433353e+01   4.8220789487e+01    0.4635484    0.2526101 -14.85  0.001876946    2.298    0.565
       302  -9.0132    134.2979     27.6690   3.8596576659e+01   4.8466741855e+01    0.3169529    0.2036147 -20.54  0.001380295    1.639    0.390
       303  -9.6612     60.8655     34.3275   6.2997408341e+01   6.1484019497e+01    0.2823136    0.1797799 -46.84  0.001430483    1.537    0.350
       304  -8.2958     61.3205     30.3306   6.1297593644e+01   6.2100790134e+01    0.1308973    0.1086735 -21.70 0.0003326918    1.003    0.003
       305  -8.8855    242.1490     34.7704   2.3208143451e+01   1.9761202869e+01    0.2116907    0.1760333 -65.96 0.0006503877    1.147    0.128
       306  -9.8109    225.8905     33.3550   2.4776946993e+01   2.4016480639e+01    0.4700182    0.1893225  57.10 0.0007781131    2.384    0.581
       307  -9.0946    146.1133     34.0825   3.8259563189e+01   4.4718511523e+01    0.3672612    0.1835885  47.77  0.001317922    1.916    0.478
       308 -11.0986    145.5426     29.0342   3.6608299963e+01   4.5546580466e+01    0.6689547    0.3161721  42.76 0.0008023875    2.174    0.540
       309 -11.0631    153.9127     32.2188   3.5976871067e+01   4.3018493896e+01    0.6452281    0.2849688  65.73   0.00233156    2.571    0.611
       310  -8.6252    190.0845     32.5665   2.9590681491e+01   3.3505373029e+01    0.2233963    0.1424861  65.87  0.001000859    1.525    0.344
       311  -8.5803     42.1368     31.1327   6.8867112688e+01   6.4313616786e+01     0.345053    0.2301496 -64.19  0.001669649    2.156    0.536
       312 -10.2517    248.0595     30.1734   2.1398912199e+01   1.8920671580e+01    0.3533396    0.2047787 -40.50  0.001403508    1.561    0.360
       313 -10.3449    234.0777     30.5592   2.3048085797e+01   2.2308088251e+01    0.4433675    0.2200709  54.43  0.001123033    2.068    0.516
       314  -9.7415    125.4301     30.4237   4.1723950940e+01   5.0165749385e+01    0.2917311    0.2382068  -3.81  0.000598936    1.255    0.203
       315 -10.5140     37.1396     26.3499   6.9078588546e+01   6.5673043015e+01    0.2849994     0.195914 -20.50 0.0005379543    1.370    0.270
       316 -10.0744     32.4555     27.5368   7.1421316404e+01   6.5922525185e+01    0.3345606    0.2170615 -52.50  0.001429951    1.494    0.331
       317  -9.1234     24.4987     31.0880   7.5894065838e+01   6.5973400329e+01    0.1974361    0.1654098 -44.02  0.001459297    1.156    0.135
       318  -9.3617    179.7060     29.3574   3.0279915960e+01   3.6679179722e+01    0.4419675    0.2047753  43.32  0.001648116    2.391    0.582
       319  -8.6277      1.3803    244.1996   1.0679853893e+02   2.5496768189e+01    0.1275679   0.05805495  81.78 0.0005063142    1.615    0.381
       320 -10.7902     26.2298     22.9374   7.2318860269e+01   6.7289572581e+01    0.2161894    0.1559753 -31.62 0.0003055771    1.091    0.084
       321  -9.4223    211.7002     27.0459   2.4854916952e+01   2.8500136924e+01     0.311665    0.2421074   4.12  0.001157933    1.627    0.385
       322  -9.3157    189.0258     28.3580   2.8473040528e+01   3.4332540580e+01    0.4042747    0.1763534  68.59  0.001489835    2.365    0.577
       323  -9.2329    205.4445     26.3950   2.5505146448e+01   3.0226075970e+01    0.3490522    0.2161962  83.21   0.00154772    1.780    0.438
       324  -9.3130    160.5220     26.7076   3.2808783952e+01   4.2047933263e+01    0.2956617    0.1947362  60.14  0.001379867    1.447    0.309
       325  -8.1826     43.9826    244.0000   1.0076583941e+02   2.0973698794e+01    0.1507418    0.0447114  42.95 0.0007560514    2.849    0.649
       326  -9.2244     35.5788     18.1885   6.6509112445e+01   6.7205848494e+01    0.2306917    0.1676254  -5.61  0.001282993    1.358    0.264
       327  -8.9721    244.7907    242.1307   6.8025885284e+01  -9.4256167584e+00    0.1830276    0.1249631  27.91 0.0006548973    1.092    0.084
       328  -9.5502     48.0019     26.8504   6.4956053577e+01   6.4392455901e+01    0.2850492    0.2199253  34.47 0.0008794265    1.567    0.362
       329  -9.2144    247.1749    239.3861   6.7226800080e+01  -9.5232506054e+00    0.1775663    0.1401543  40.80  0.001300307    1.381    0.276
       330  -9.0589    222.4975     26.5074   2.3343796496e+01   2.5764271742e+01    0.2611567    0.1128135  55.60 -0.0001381681    2.258    0.557
       331  -9.0021    101.0379     26.0081   4.6531356995e+01   5.6023635924e+01    0.2447672      0.16968  24.78 0.0006839375    1.511    0.338
       332  -9.7711    145.9875    242.2588   8.4383483444e+01   6.6460035724e+00    0.1693354    0.1208544  49.60 0.0006817187    1.072    0.067
       333  -9.0534    171.6788    238.6804   7.9629314070e+01   2.8745905915e+00    0.1142912   0.08075765  24.50 0.0004704773    1.669    0.401
       334  -9.6195    221.9923    233.7826   7.0473705423e+01  -4.9530682454e+00    0.1991347    0.1629387 -82.59  0.001277155    2.292    0.564
       335  -9.7194    188.2353    235.4075   7.6387560363e+01   5.0171895391e-01    0.1718984   0.09089608  49.87 0.0007663002    1.613    0.380
       336 -10.5721      2.5453     24.6285   8.3016431806e+01   6.8602617966e+01    0.3056836    0.1254151 -50.52 0.0008940873    1.652    0.395
       337  -9.0371    230.9408     22.7567   2.1361225398e+01   2.4076317658e+01    0.1980859    0.1295242  86.19 0.0004928157    1.596    0.373
       338 -10.4568    172.3440     23.2953   2.9573323647e+01   3.9384115640e+01    0.5560399    0.3016041  61.35  0.001524695    1.718    0.418
       339  -8.9452     32.0955    232.3003   1.0188052871e+02   2.4260431808e+01    0.1421064   0.09165926  66.24 0.0004191621    1.093    0.085
       340 -10.2384    153.5567     22.8243   3.2806889783e+01   4.4319230588e+01    0.3195305    0.2186829  55.78 0.0003147823    1.367    0.269
       341  -8.4138    228.3772    234.2785   6.9492723640e+01  -6.0469005843e+00    0.1227418   0.07106812  23.40 0.0007007434    1.705    0.414
       342  -8.9734    177.9733    231.0000   7.7542340717e+01   2.8271240636e+00    0.2100496   0.05495967  44.89 0.0008094421    2.991    0.666
       343  -9.0840    125.0912     23.7709   3.9302116998e+01   5.1135660110e+01    0.1944532    0.1886722  70.50 0.0003851159    1.168    0.144
       344  -8.6762    207.0552    226.5175   7.1894752371e+01  -1.5985061112e+00    0.1859344   0.09623617  42.53 0.0005524881    1.535    0.349
       345  -8.6977    163.4385    226.5578   7.9473400074e+01   5.9513582981e+00    0.1222974   0.09617113  51.38 0.0001679388    1.047    0.045
       346  -8.7552    224.0720    225.1023   6.8787441307e+01  -4.3132740008e+00    0.1834088    0.1282663  25.49 0.0005600483    1.240    0.194
       347  -9.3953     71.9719     14.9871   5.1073533368e+01   6.2829185116e+01    0.1816685    0.1781962 -43.52 0.0003890315    1.416    0.294
       348  -8.8827    132.1580    225.1780   8.4790194975e+01   1.1466446370e+01    0.1617529     0.115962  67.09  0.000335673    1.290    0.225
       349  -8.4524    125.4917    225.4807   8.5990778892e+01   1.2511488129e+01    0.1208115   0.09325143  59.49 1.728299e-05    1.012    0.012
       350 -10.0087    205.3985     20.1796   2.3723574496e+01   3.0995954541e+01    0.4376438    0.2525059 -49.57  0.001952116    1.798    0.444
       351  -9.0501    188.2675     21.5667   2.6510764299e+01   3.5372254298e+01    0.2635085    0.2027524 -26.55  0.000804405    1.374    0.272
       352 -10.6696    113.9297     34.8830   4.6369096728e+01   5.2065841135e+01    0.6923935    0.4239178 -38.89   0.00231969    1.653    0.395
       353  -9.4307     89.3679    220.7955   9.1773659589e+01   1.8883825400e+01     0.201022    0.1695226  48.98 0.0009632393    1.400    0.285
       354  -8.3057    175.0000    218.4955   7.6312954976e+01   5.0884110170e+00     0.226453   0.07254473 -45.17 0.0009255352    3.861    0.741
       355  -8.5074    117.8396    211.8553   8.5779500758e+01   1.6028601607e+01    0.1724235    0.1181013  66.36 0.0004781528    1.313    0.238
       356  -9.0371    160.2052     18.3883   3.0048292071e+01   4.3137553459e+01    0.4199362    0.2042192 -49.58  0.001121533    2.595    0.615
       357  -8.9112    242.8937    209.9512   6.3114473953e+01  -5.7161448583e+00    0.1619933    0.1497904  71.79 0.0008602816    1.662    0.398
       358  -8.5502    230.6127    210.1535   6.5223601422e+01  -3.6532759374e+00    0.1586104    0.1087562 -11.80  0.000941698    1.639    0.390
       359  -9.1429    199.9593     19.3534   2.4200883051e+01   3.2530491084e+01     0.319484    0.2085641 -11.92  0.001470786    1.872    0.466
       360  -8.9799    123.9670    205.9999   8.3935012379e+01   1.6031416477e+01    0.1764768    0.1453508  61.67  0.001157242    1.026    0.025
       361  -8.9455     20.9790    204.0159   1.0200645315e+02   3.0427250783e+01    0.1288766   0.08874471  76.72 0.0005634374    1.010    0.010
       362  -8.2968    221.3291    198.7242   6.4844804262e+01  -5.5438757508e-01    0.1171031   0.09778354  65.52 0.0002703483    1.593    0.372
       363  -8.6089     96.0476    195.7377   8.7934815757e+01   2.2426822762e+01    0.1718897    0.1338832  63.18 0.0004207727    1.076    0.070
       364  -9.1473      6.9585    194.3006   1.0375269829e+02   3.3580784013e+01    0.2065749    0.1108447 -67.94  0.001426163    1.846    0.458
       365  -9.2503    248.4748    191.4862   5.8843687229e+01  -4.4599268886e+00    0.2094478     0.109416 -41.62 0.0009872505    2.424    0.587
       366  -9.9062      6.3832    175.0626   1.0273478991e+02   3.7312722136e+01    0.1982867    0.1159297  58.99     0.000927    1.480    0.324
       367  -9.1711     18.1415    174.4414   1.0056894147e+02   3.6376243830e+01    0.1708561    0.1054123  32.62  0.001141059    2.135    0.532
       368  -9.2097    225.4966     15.9019   2.0152324374e+01   2.6276503564e+01    0.2779262    0.1731087 -29.20   0.00132264    1.641    0.391
       369 -10.7385    230.6312     15.2528   1.9434238999e+01   2.5049170317e+01    0.5994979    0.2585993  81.87  0.002218019    2.741    0.635
       370 -10.8222     13.0419    166.2012   1.0092317047e+02   3.8494093960e+01    0.2674619    0.2027376  12.68   0.00190849    2.336    0.572
       371 -10.1952    219.7963     20.6244   2.2067735813e+01   2.7182519604e+01    0.5021477    0.2408465  66.35  0.001784752    1.976    0.494
       372 -10.1472      7.2882    166.2558   1.0200073072e+02   3.8979871695e+01    0.1840275     0.131366  76.43 0.0004676046    1.113    0.102
       373 -12.9841     36.5386    158.8156   9.5685854300e+01   3.7749402269e+01     1.308886     0.399302  58.21  0.002933509    4.356    0.770
       374  -8.9678    195.1595     15.1461   2.3602850727e+01   3.4286366127e+01    0.2109069    0.1841155  48.97 0.0003552939    1.172    0.147
       375  -9.3969     20.4347    160.2647   9.9044680502e+01   3.9037047768e+01    0.1618335   0.08203696 -88.70 0.0009502013    1.645    0.392
       376 -10.1307      2.1964    156.8011   1.0231731505e+02   4.1296552936e+01    0.2253044    0.1798597 -61.40 0.0005668273    1.551    0.355
       377 -10.1494      2.4805    153.4838   1.0203274300e+02   4.1948304654e+01    0.2437004    0.1708619  33.20  0.001825055    1.883    0.469
       378  -9.3594    249.0048    153.9769   5.1208435342e+01   4.4644680372e-01    0.2124427    0.1830537   3.91 0.0005685856    1.038    0.036
       379 -10.7390     10.8957    151.8764   1.0025620317e+02   4.1606317312e+01    0.2496579    0.1633778 -65.28  0.001077089    1.474    0.322
       380 -10.5159     14.9201    150.4814   9.9332316785e+01   4.1557736144e+01    0.1978344     0.130119  73.40 0.0006426263    1.300    0.231
       381  -9.6558     24.7620    163.0603   9.8428972521e+01   3.8051878565e+01    0.1708005    0.1345953  72.74 0.0004295156    1.167    0.143
       382  -8.7406     18.3886     12.6302   7.1776158600e+01   6.9685576456e+01    0.1410975    0.1237339 -57.53  0.001064984    1.548    0.354
       383  -8.2539    205.4866     12.5233   2.1523382703e+01   3.1851690251e+01    0.1440932    0.1298708 -81.28 0.0008096185    1.047    0.045
       384  -8.6570     53.9474    150.6729   9.1110789820e+01   3.7537255168e+01    0.1644678    0.1339653  77.64 0.0004079239    1.097    0.088
       385  -9.1533     62.6619    147.2798   8.8748498961e+01   3.7200117041e+01     0.287878    0.1405509 -81.90  0.001219392    2.327    0.570
       386 -10.0034     10.4181    147.2584   9.9980721194e+01   4.2604550561e+01    0.2024826    0.1651184 -21.77  0.001292394    2.071    0.517
       387  -9.7728     12.4923    143.0087   9.9193585348e+01   4.3326255486e+01    0.2088893    0.1119779 -84.28 0.0009796203    1.455    0.313
       388  -9.6643      5.3273    144.1948   1.0077307272e+02   4.3642185501e+01    0.2362653    0.1512552 -41.83 0.0009457148    2.348    0.574
       389  -9.3334    241.1466    143.8903   5.0340953447e+01   3.4826443976e+00    0.1963108    0.1529139   1.77 0.0006631588    1.325    0.245
       390  -9.4756     42.0011    143.0063   9.2820671026e+01   4.0558274069e+01    0.1771596    0.1269167 -49.49  0.000549289    1.682    0.406
       391  -9.7433      1.9836    139.5131   1.0109123505e+02   4.4863796254e+01     0.215785    0.1106707  87.10  0.001028352    1.598    0.374
       392 -10.0244     40.4431    137.7684   9.2543833427e+01   4.1867664650e+01    0.2069707    0.1613938  51.99  0.001400588    1.388    0.280
       393  -8.0200    124.6791     11.7172   3.4752185190e+01   5.2665233620e+01     0.146065   0.09468326  29.57 0.0002624866    1.589    0.371
       394  -9.2047    235.9879    136.5414   4.9577307113e+01   5.6786638752e+00    0.2108512    0.1365052  47.57 0.0004117844    1.555    0.357
       395  -8.2922     83.0133    135.9804   8.2327432727e+01   3.6896398427e+01    0.1591721    0.1386837 -86.91 0.0003757692    1.010    0.010
       396  -8.1467     62.6904    133.7019   8.6808616078e+01   4.0202623391e+01    0.2097866    0.1169244 -80.99 0.0006127457    1.880    0.468
       397  -9.4982     58.2971    135.8824   8.8167759589e+01   4.0262937675e+01     0.206386    0.1805361 -82.87 0.0003294054    1.101    0.092
       398  -9.6256     59.5904    132.1813   8.7320101719e+01   4.0929552594e+01    0.3038561    0.2196129 -45.46  0.001295432    1.639    0.390
       399  -8.7625     43.5122     10.4376   5.9826062813e+01   6.7516576171e+01    0.1188989   0.09244031 -15.87 0.0008071797    1.015    0.014
       400 -11.0261      7.6068    133.3203   9.9378576168e+01   4.5751890512e+01    0.3163858    0.2098324  28.42  0.002058039    2.025    0.506
       401  -7.9688     22.6749    133.6843   9.6090655886e+01   4.4458486302e+01    0.1112084   0.07440443 -52.31 0.0007043455    1.668    0.401
       402  -8.4114     86.9748    130.0226   8.0329847320e+01   3.7631430464e+01    0.1629608    0.1409158 -78.06 0.0004294529    1.027    0.026
       403  -9.2912     41.9476    129.9628   9.1206099159e+01   4.3430376718e+01    0.1936894    0.1528226 -89.64  0.001292474    1.080    0.074
       404 -10.3034     33.9498    127.2252   9.2745297241e+01   4.4836921916e+01    0.3455404    0.1447735 -71.56   0.00171899    1.966    0.491
       405  -9.5253     17.8821    128.2707   9.6601199510e+01   4.6031985411e+01    0.2606656    0.1391153 -50.78  0.001152774    2.063    0.515
       406  -8.8376     12.4487    127.2592   9.7731313516e+01   4.6678497676e+01    0.2260446   0.07822196 -68.88  0.001140103    2.112    0.526
       407 -10.0411     50.7031    126.3903   8.8606915459e+01   4.3273882245e+01    0.2145386    0.1745057 -70.83 0.0002418089    1.095    0.087
       408  -9.1882    241.6694    124.0105   4.5706634950e+01   6.4339112248e+00    0.2118251    0.1751003 -27.92  0.001151202    1.155    0.135
       409 -10.5953     61.6144    121.6212   8.5159686382e+01   4.3050476234e+01    0.4365984    0.2312877 -42.43 0.0006061571    2.411    0.585
       410  -9.7272     38.9455    123.6723   9.1082271215e+01   4.5132724009e+01    0.2434013    0.2038386 -27.04  0.001633631    1.682    0.405
       411  -9.4886      7.9801    122.0747   9.8232113505e+01   4.8119099193e+01    0.2060498    0.1788728 -32.30  0.001114674    1.628    0.386
       412 -10.6305     44.6580    119.5538   8.9088465517e+01   4.5463140533e+01    0.2930084    0.2188637  64.01 0.0007138607    1.400    0.286
       413  -9.7078     30.3284    121.0682   9.2829704788e+01   4.6533036515e+01    0.2231006    0.1409398  57.67  0.001076911    1.695    0.410
       414 -10.0112     27.9510    116.6162   9.2833882495e+01   4.7727140600e+01    0.2823249    0.1546331 -87.51 0.0005689065    1.786    0.440
       415 -11.2331     21.3943    118.7359   9.4702415702e+01   4.7817421856e+01     0.491043    0.3010271  58.00  0.003084581    1.754    0.430
       416 -10.3181      4.6461    116.6150   9.8458944509e+01   4.9516298811e+01    0.3510948    0.2628061 -35.12  0.001700274    1.837    0.456
       417 -10.4103      7.2016    111.1971   9.7277053594e+01   5.0507762761e+01    0.5188029    0.1857734  55.58  0.002102803    3.702    0.730
       418  -9.3824     11.3297    116.4730   9.6860495223e+01   4.9083729761e+01    0.3690664    0.1643194  82.78   0.00145291    2.667    0.625
       419  -9.6606     13.3057    113.3913   9.6036171193e+01   4.9607137123e+01     0.200221    0.1556427  51.46 0.0005889526    1.483    0.326
       420  -9.9212    221.4119    119.4210   4.8128164932e+01   1.1656050109e+01     0.351138    0.2585351  36.53 0.0007294734    1.394    0.283
       421  -8.8124     94.1577    119.1201   7.6437355906e+01   3.8945057149e+01    0.2069547    0.1822625 -39.13 0.0006405713    1.290    0.225
       422  -8.2929    104.9844    119.0000   7.3673903765e+01   3.7139689513e+01    0.2359917   0.08074527  41.81 0.0003266505    3.063    0.673
       423  -8.5910     53.8449    116.8823   8.6347802765e+01   4.5049380192e+01    0.1674623    0.1299951  81.91 0.0003570146    1.279    0.218
       424  -8.7718     32.9422    117.7487   9.1749141846e+01   4.7026368669e+01    0.1253302    0.1037832  37.49 0.0003218162    1.501    0.334
       425 -10.1807     33.8366    114.1902   9.1030326652e+01   4.7732355874e+01    0.2022447    0.1411686 -70.63 0.0005541887    1.138    0.121
