#   1 NUMBER                 Running object number                                     
#   2 MAG_AUTO               Kron-like elliptical aperture magnitude                    [mag]
#   3 X_IMAGE                Object position along x                                    [pixel]
#   4 Y_IMAGE                Object position along y                                    [pixel]
#   5 X_WORLD                Barycenter position along world x axis                     [deg]
#   6 Y_WORLD                Barycenter position along world y axis                     [deg]
#   7 A_WORLD                Profile RMS along major axis (world units)                 [deg]
#   8 B_WORLD                Profile RMS along minor axis (world units)                 [deg]
#   9 THETA_WORLD            Position angle (CCW/world-x)                               [deg]
#  10 FWHM_WORLD             FWHM assuming a gaussian core                              [deg]
#  11 ELONGATION             A_IMAGE/B_IMAGE                                           
#  12 ELLIPTICITY            1 - B_IMAGE/A_IMAGE                                       
         1 -13.3437    226.6743      6.3441   3.3891732926e+01   2.8051977027e+01     1.799321      1.11885  48.38  0.008942191    2.032    0.508
         2 -13.6057    203.0717     32.6529   4.2495888850e+01   3.0511421854e+01      1.19823    0.9443513 -16.96  0.001353898    1.524    0.344
         3 -13.3105    194.7724     41.2843   4.5828898959e+01   3.1403534581e+01     1.166664     1.012907 -51.21  0.003682745    1.127    0.113
         4 -11.5672     31.4674     26.5048   8.6053831032e+01   6.7568964231e+01    0.3289814     0.295866  -8.80  0.002326949    1.303    0.233
         5 -11.4210     60.7283      3.2092   6.2154986957e+01   6.6340891924e+01    0.3979425    0.2470465  45.09  0.002321515    1.522    0.343
         6  -9.4349    166.3626    221.3001   9.3603151591e+01   4.5821436468e+00     0.137729   0.09558538   7.51 0.0007035134    1.722    0.419
         7 -10.9068    140.1737    249.5104   1.0293500133e+02   4.0831421330e+00    0.3545797     0.259768  50.97  0.002019976    1.317    0.241
         8 -11.4951    139.1503    243.3511   1.0235764589e+02   5.2376520135e+00    0.4044842    0.2915754  39.40  0.002494184    1.146    0.127
         9 -18.5442     16.1412    194.5255   1.2286598952e+02   3.1234954652e+01     15.50137     4.743845 -79.62    0.0659065    3.036    0.671
        10  -9.1876     82.0522    194.9671   1.0838501773e+02   2.3397745977e+01     0.294767    0.2613542 -49.54  0.001808452    1.299    0.230
        11  -8.5820     79.4871    191.9944   1.0859722081e+02   2.4425327097e+01    0.1844258    0.1578421  84.45 0.0004164781    1.100    0.091
        12 -10.2395    120.0205    194.0595   9.9435198075e+01   1.7644964664e+01    0.2697675     0.202515 -70.27 0.0004238889    1.518    0.341
        13 -15.1062     71.4603    148.2746   1.0416660492e+02   3.5888786795e+01     6.813552     3.434087  77.82   0.01033379    5.462    0.817
        14 -10.1905    149.3022    187.5892   9.1556244517e+01   1.3848074583e+01    0.3454386    0.2451465  49.73 0.0009923325    1.455    0.313
        15  -8.6186    238.3202    185.6597   7.2847063272e+01  -1.4736464743e+00    0.1184199    0.1062377 -61.14 0.0007049998    1.716    0.417
        16 -12.3131    193.9448    206.2151   8.5329455224e+01   2.5125618609e+00     0.879942    0.4711477  16.53  0.003661463    2.593    0.614
        17  -9.2619     92.4661    184.3107   1.0446148966e+02   2.4241513723e+01    0.2513686    0.1770562  39.49 0.0007297948    1.380    0.275
        18 -10.4643     98.9825    180.8296   1.0235190763e+02   2.4014357988e+01    0.3805021    0.2490294  26.95  0.001479387    1.730    0.422
        19  -9.6639    189.9992    178.2559   8.0751918889e+01   8.1332083022e+00    0.4558198    0.2632374  47.31  0.002041495    1.892    0.471
        20  -9.1349    188.6876    175.3238   8.0426553779e+01   8.9235172961e+00    0.2631519    0.1958674  35.18 0.0002520465    1.304    0.233
        21  -9.6784    143.2383    179.0135   9.1368363951e+01   1.6736464485e+01    0.2021999    0.1943891 -33.07 0.0005304695    1.083    0.077
        22 -10.1237    191.3436    192.0141   8.3202593921e+01   5.3986693413e+00    0.5182027    0.2869408 -60.89  0.001880213    3.856    0.741
        23 -11.4649     47.7555    172.2358   1.1372386091e+02   3.3067809082e+01    0.6075177    0.4799475 -23.13   0.00296588    1.779    0.438
        24  -9.6425     51.6793    166.3055   1.1203685324e+02   3.4022175193e+01    0.2290048    0.1694315  59.99 0.0005924511    1.340    0.254
        25 -10.1328     53.4747    163.5091   1.1122359990e+02   3.4480684309e+01    0.2322174    0.1784213 -64.69 0.0005490844    1.212    0.175
        26  -8.6187    149.0820    176.6787   8.9549868262e+01   1.6141101641e+01    0.2020961    0.1782645  35.36 0.0004331929    1.084    0.077
        27  -9.8440     84.0163    173.9637   1.0498865102e+02   2.7903751741e+01    0.2542152    0.2113313  11.46 0.0004410001    1.502    0.334
        28  -9.0723    185.5110    170.0254   7.9997793721e+01   1.0528752086e+01     0.218265    0.1416198 -41.85  0.001017801    1.564    0.361
        29  -9.8921    137.7950    169.3156   9.0798594414e+01   1.9836896067e+01    0.3566242    0.2706513  45.62   0.00126973    1.302    0.232
        30  -9.6688    240.4734    169.5119   6.9185631936e+01   7.1946613441e-01    0.1352821    0.1142671 -12.99 0.0002277349    1.028    0.027
        31  -8.9000     93.2784    205.5900   1.0719902431e+02   1.9452182121e+01    0.2443431    0.1846017  16.18 0.0007185877    1.708    0.415
        32  -9.0249     96.4687    201.9741   1.0600803940e+02   1.9738425339e+01    0.1935922    0.1302436 -65.76  0.001021535    1.568    0.362
        33  -9.0617    187.7934    162.7895   7.7961242150e+01   1.1478840090e+01    0.1942886    0.1813582 -73.18 0.0005899375    1.334    0.250
        34 -10.9134     54.5086    157.8771   1.1019841882e+02   3.5717886076e+01    0.4650598    0.2174609  44.05  0.002084549    2.181    0.541
        35 -11.6212     92.3423    152.0674   9.9143463650e+01   3.1849718725e+01    0.7220178    0.5456755 -20.17   0.00349547    1.755    0.430
        36  -9.5929    187.1932    151.8114   7.5654573408e+01   1.3734449711e+01    0.2171591    0.1747347  -3.20  0.001078878    1.346    0.257
        37 -10.7977    133.8058    145.2497   8.6736732832e+01   2.5995188621e+01     1.209349    0.3322916 -54.22  0.002966583    5.197    0.808
        38  -9.0318    112.6397    150.9481   9.3489118313e+01   2.8667997390e+01    0.2618713    0.2021998  66.70 0.0006366709    1.519    0.342
        39  -9.2609    174.6286    148.9322   7.7749327837e+01   1.6875391383e+01    0.2745422    0.2431048 -69.89  0.000816607    1.365    0.268
        40  -9.5686    143.5137    144.9641   8.4214968209e+01   2.4117697051e+01    0.2428159    0.1524875 -47.35  0.001034838    1.601    0.375
        41 -10.4817    104.9300    138.1315   9.2883225481e+01   3.3092575392e+01    0.5604475    0.3493091 -27.27  0.002251639    2.252    0.556
        42 -10.2372    105.8927    130.8293   9.0987887733e+01   3.4667163906e+01    0.3781848    0.3300391 -61.86  0.001135397    1.156    0.135
        43 -11.6628     92.5586    137.9654   9.6318337119e+01   3.5238041464e+01    0.2916332    0.2717571 -29.81 0.0004714981    1.129    0.115
        44 -11.1563    112.4752    205.9105   1.0294217307e+02   1.6407397891e+01    0.3266791    0.3016885 -88.27  0.001648758    1.134    0.118
        45 -12.7369    108.5124    202.7368   1.0338379292e+02   1.7699682672e+01    0.9708286    0.6632505 -21.74 0.0008132116    2.373    0.579
        46 -10.1081    135.9915    129.7010   8.2525416038e+01   2.9079061212e+01      0.42519    0.1761541 -49.17  0.001399006    2.470    0.595
        47 -10.3043    113.2129    129.0694   8.8522855528e+01   3.3735265244e+01    0.3984482     0.313367  -9.05 0.0009837132    1.593    0.372
        48 -11.2407    119.3688    123.2395   8.5398660171e+01   3.3910698446e+01    0.6705406     0.423803 -23.25  0.002623825    2.226    0.551
        49  -9.2655    160.8298    127.7121   7.5851601679e+01   2.4225688192e+01    0.3307472    0.2199454 -52.43  0.001419397    1.635    0.388
        50 -10.3440    100.5060    125.1309   9.1213580311e+01   3.6988139901e+01    0.3226103    0.2514215 -26.90 0.0008965307    1.440    0.306
        51  -9.8862    135.1299    119.9522   8.0302093424e+01   3.1441653274e+01    0.3871901    0.1035443 -45.47  0.001058586    3.688    0.729
        52  -9.3393    108.9535    118.2566   8.7102423761e+01   3.7073401081e+01    0.2467254     0.213281 -43.92 0.0003800745    1.118    0.105
        53 -10.0741    231.1772    113.7192   5.8436627636e+01   1.1794552533e+01      0.28064    0.2645272 -34.90 0.0007488778    1.069    0.065
        54  -8.7583    168.1978    112.6808   7.0283956085e+01   2.5697361007e+01    0.3759673    0.2350651 -80.22  0.001158317    3.976    0.749
        55 -11.6283    117.5360    108.3900   8.2069805831e+01   3.7660709997e+01    0.7399672    0.5932956 -45.34  0.003607783    1.221    0.181
        56  -9.2716    205.6190    110.1020   6.1966429684e+01   1.7795790634e+01     0.266081      0.21772  41.04 0.0006220326    1.299    0.230
        57  -8.0077    143.3289    110.2756   7.5619752296e+01   3.1781529597e+01    0.1594392    0.1242769   6.80 0.0003222261    1.592    0.372
        58 -10.5294    179.1650    210.3408   8.9105581005e+01   4.3115840331e+00    0.2828393    0.1125371  31.58  0.001087163    2.601    0.616
        59  -9.4317    134.6246    105.0623   7.6456092723e+01   3.4803044133e+01     0.379068    0.1488783 -43.37  0.001263786    2.509    0.602
        60 -10.5295     51.9513     89.6408   9.8208698045e+01   5.2618224314e+01    0.3480175    0.2363807  53.85 0.0005964807    1.982    0.495
        61 -10.8097    194.4859    197.4730   8.3597515920e+01   3.8983209440e+00    0.6181837    0.3591357 -60.93  0.002420355    3.517    0.716
        62  -8.3779    156.7046     82.3055   6.4455806330e+01   3.4273151301e+01    0.1537151     0.122314 -74.43 0.0003164688    1.583    0.368
        63  -8.6441    184.5204     77.0111   5.7224117163e+01   2.8512259021e+01    0.2226256    0.1455066 -34.26 0.0004539843    1.519    0.342
        64  -8.7183     62.7285     69.2384   8.8472089830e+01   5.5728989602e+01    0.1883556    0.1423592 -20.80 0.0003216231    1.292    0.226
        65  -8.1193    168.2256    248.0067   9.7227402824e+01   3.2861079261e-02     0.127991    0.1021589 -36.48 0.0008282677    1.491    0.329
        66 -12.9842    183.1129     50.7461   5.0170304148e+01   3.2953762013e+01    0.9092972    0.8710698   8.26 0.0007988007    1.159    0.137
        67 -11.4598    106.7138    210.4004   1.0484496096e+02   1.6398711816e+01    0.6209612    0.4147281  66.71  0.003220409    1.722    0.419
        68  -8.6091    158.3103    235.6571   9.7442838784e+01   3.4968270822e+00    0.1242732   0.09453999  62.53 0.0002726029    1.698    0.411
        69 -10.9017     59.9332    220.2133   1.1593422060e+02   2.0998134895e+01    0.3476132    0.2629549  32.59  0.001382489    1.469    0.319
        70  -9.0877    189.6947     14.9446   3.9493394189e+01   3.5742170982e+01    0.1795592     0.161986 -70.36 0.0005844854    1.079    0.073
