#   1 NUMBER                 Running object number                                     
#   2 MAG_AUTO               Kron-like elliptical aperture magnitude                    [mag]
#   3 X_IMAGE                Object position along x                                    [pixel]
#   4 Y_IMAGE                Object position along y                                    [pixel]
#   5 X_WORLD                Barycenter position along world x axis                     [deg]
#   6 Y_WORLD                Barycenter position along world y axis                     [deg]
#   7 A_WORLD                Profile RMS along major axis (world units)                 [deg]
#   8 B_WORLD                Profile RMS along minor axis (world units)                 [deg]
#   9 THETA_WORLD            Position angle (CCW/world-x)                               [deg]
#  10 FWHM_WORLD             FWHM assuming a gaussian core                              [deg]
#  11 ELONGATION             A_IMAGE/B_IMAGE                                           
#  12 ELLIPTICITY            1 - B_IMAGE/A_IMAGE                                       
         1 -14.7001    106.2090    104.7461   4.8212110252e+01   4.0377477886e+01     1.354206     1.131117  42.73  0.005633048    1.248    0.199
         2 -14.8776      6.5328     70.8408   7.8446392921e+01   6.2744381477e+01     1.158232    0.7270955 -60.94  0.004109601    1.280    0.219
         3 -15.8327     11.3000     23.2714   6.1370144134e+01   7.3442304001e+01     2.018097    0.9881319 -32.93   0.01009423    1.941    0.485
         4 -14.3429     26.5893     12.4426   4.4839294008e+01   7.3692255302e+01    0.8500279    0.5536104  -8.89  0.004482786    1.651    0.394
         5 -13.0063    229.8485      2.4980   3.5768346296e+02   2.7737677700e+01    0.7571938    0.2246965  73.81  0.003229462    3.287    0.696
         6 -14.2708    189.8177     24.3306   6.2229058016e+00   3.4466476400e+01     1.368763    0.8382007 -52.28  0.005754962    1.470    0.320
         7 -13.1537    187.7234     11.4653   2.7971819134e+00   3.6420330179e+01    0.6413009    0.4857231 -19.46  0.003290863    1.524    0.344
         8 -13.9228    122.2804     36.8352   2.0700145846e+01   5.0108500346e+01     1.090196    0.5625862  36.81  0.003512175    2.551    0.608
         9 -13.2847    242.2482     35.7790   4.5452609904e+00   2.1340280924e+01     0.609688    0.3979604  89.87  0.002253873    1.664    0.399
        10 -14.2307    166.6132     29.4898   1.0447804256e+01   3.9633678063e+01     1.061339    0.8112563  71.12   0.00378416    1.284    0.221
        11 -14.2805    147.6833     29.5436   1.3220393996e+01   4.4513675161e+01     1.324146     0.749904  71.43  0.005223877    1.756    0.430
        12 -13.5232     57.9799     26.7922   3.6431317921e+01   6.6274954631e+01     1.102168    0.3739291  41.53  0.003331752    2.990    0.666
        13 -12.5839    120.6267     25.9787   1.6802811963e+01   5.1974580591e+01     0.592609    0.4427679  37.91  0.003008085    1.440    0.305
        14 -15.2881     99.2176     11.8385   1.5402735351e+01   5.8960421964e+01     1.565282    0.9094617  58.44  0.004223014    1.558    0.358
        15 -12.3326     85.5026     13.6491   1.9734695353e+01   6.2092113233e+01    0.4198627     0.346293  24.87   0.00179586    1.205    0.170
        16 -11.8036     71.0256     16.2659   2.5637445512e+01   6.5081460650e+01    0.3645345    0.2369982 -12.52  0.001835024    1.682    0.405
        17 -11.9587     74.7966     10.0697   2.1054311180e+01   6.4944608205e+01    0.3161733    0.2292269  15.88  0.001113582    1.463    0.317
        18 -12.3150     60.0162     15.4382   2.9349005471e+01   6.7498000353e+01    0.5324346    0.3060634  30.72  0.002555662    1.864    0.463
        19 -11.8452     46.5564     12.9928   3.3915230708e+01   7.0402729125e+01    0.2942671    0.2646353  41.98  0.001710178    1.275    0.215
        20 -11.9524    122.9090     10.7899   1.0335942265e+01   5.3048176328e+01    0.3935331    0.2267817 -51.22  0.001462809    1.910    0.476
        21 -13.9515     41.7757      4.6504   3.0911642582e+01   7.2322574683e+01    0.7604132    0.5421032   9.15  0.003516985    1.377    0.274
        22 -11.7961    152.7722      8.5955   5.3918735397e+00   4.5511057353e+01    0.2945414    0.2044184  40.58  0.001515883    1.690    0.408
        23 -15.0662    217.6309     16.5549   1.7931042109e+00   2.8879199925e+01     1.879462    0.9339681 -36.87  0.009542718    1.690    0.408
        24 -13.0853      8.9711      2.8451   5.1247193762e+01   7.7376052891e+01    0.6953687    0.3729035  42.50   0.00363743    2.699    0.629
        25 -10.9267     80.5049      7.1273   1.7804972059e+01   6.3925674714e+01    0.1912144    0.1303795 -20.66 0.0006540416    1.535    0.348
        26 -12.1746    119.5830      2.8800   7.7021175753e+00   5.4608388947e+01    0.6882542     0.282174 -87.48  0.002253418    3.939    0.746
        27 -11.8772     74.9907      2.5293   1.6895846309e+01   6.5620075940e+01     0.296716    0.1981502  47.68 0.0008507048    1.330    0.248
        28 -11.7293     81.3345      1.4030   1.4584058039e+01   6.4235876247e+01    0.5471091    0.1270991  58.76  0.001911183    3.198    0.687
        29 -11.2074     67.6341      2.7410   1.9240122689e+01   6.7263114727e+01     0.302837    0.1771442  31.35  0.001518325    1.730    0.422
        30 -11.4785     61.5670      1.4868   2.0527378255e+01   6.8702491199e+01    0.3924993    0.1192302  59.27  0.001465248    3.147    0.682
        31 -12.3446    155.4923    185.1671   5.3356438607e+01   1.2818684856e+01    0.2812215    0.2145413   1.99  0.001489244    1.504    0.335
        32 -13.0829    107.6197    247.3152   7.2057394607e+01   8.8915643866e+00    0.7275584    0.4365269  69.76  0.003971301    2.388    0.581
        33 -13.4357     97.7788    238.9286   7.3223091985e+01   1.1637581622e+01     0.839381    0.4367492  35.61  0.004600018    1.575    0.365
        34 -14.1900     92.3280    230.5590   7.3531675482e+01   1.3883595600e+01     0.640887    0.5467338  43.91  0.004361386    1.061    0.058
        35 -12.8018     57.5299    246.4579   8.1958121888e+01   1.5424173627e+01    0.5127057    0.1919412  32.49  0.002513546    2.324    0.570
        36 -11.5917     41.0271    248.3238   8.5278755905e+01   1.6990430160e+01    0.4039779     0.138459 -84.57  0.001853248    3.645    0.726
        37 -13.4090     28.6177    246.0029   8.7536279222e+01   1.8759520862e+01    0.4736738    0.2758412  72.58  0.002606252    1.505    0.336
        38 -12.1510      2.9140    249.5668   9.2418898329e+01   2.0668266443e+01     0.369619    0.2015775  46.12  0.001839331    1.334    0.251
        39 -13.8464      9.8771    245.7502   9.1037904962e+01   2.0700394363e+01    0.8646622     0.328552  51.58  0.004049592    1.797    0.443
        40 -12.5650     84.9832    172.5203   6.8266401657e+01   2.7300196947e+01    0.2851428    0.1955637 -47.70  0.001402772    1.638    0.389
        41 -13.4963    124.2996    166.5045   5.7210935359e+01   2.2151946949e+01    0.6908152    0.4416402 -69.76  0.003036326    2.004    0.501
        42 -12.0677     85.6346    152.8594   6.4975984827e+01   3.2030187227e+01    0.5996159    0.5489457 -26.30  0.003277301    1.291    0.225
        43 -12.3266     77.3120    156.8967   6.7973726075e+01   3.2309013359e+01    0.5996902    0.4036429  33.66  0.002227045    1.538    0.350
        44 -13.5736     73.7315    153.4229   6.8436004311e+01   3.3726610521e+01    0.8067479    0.5486745  36.18  0.002814373    1.495    0.331
        45 -12.4928    111.7617    155.8676   5.8411061831e+01   2.6845873419e+01    0.5547526    0.3616966  83.70  0.002227307    2.396    0.583
        46 -12.9498    211.4349    153.8505   3.5977961243e+01   8.8361477708e+00    0.4375077    0.3568642 -21.97  0.002579981    1.071    0.066
        47 -11.7174     55.4402    156.0144   7.4023588794e+01   3.5601363446e+01     0.350059    0.2391077  -8.73  0.001573434    2.436    0.589
        48 -11.8212     12.8839    150.1479   8.5525796691e+01   4.1599292847e+01    0.4660865    0.2263513  81.90  0.002153624    1.939    0.484
        49 -12.6875      8.3710    150.0914   8.6786234962e+01   4.1972088045e+01    0.6606202    0.3365697  78.86  0.003216848    1.784    0.439
        50 -11.8621    103.5553    149.6790   5.9421842025e+01   2.9796931061e+01    0.3910085    0.2990755 -23.27  0.001623177    1.718    0.418
        51 -12.7637     61.2413    147.1824   7.1093641635e+01   3.7119188248e+01    0.4327625    0.3141705 -11.15  0.002017772    2.102    0.524
        52 -12.3303     24.0546    159.4899   8.3187238830e+01   3.8231055578e+01    0.2561692    0.1920232 -56.54  0.001113001    1.471    0.320
        53 -10.8360     38.2614    145.5798   7.7707378518e+01   4.0366581897e+01    0.1714052    0.1397886   8.04 0.0006807121    1.589    0.371
        54 -12.6463    246.4010    134.0472   2.6226935984e+01   6.2302925289e+00    0.3537337    0.2936924 -60.73  0.002216593    1.592    0.372
        55 -12.8157    223.4360    127.8245   2.8283485847e+01   1.1106155873e+01    0.5547827    0.4095463 -85.30   0.00275922    2.357    0.576
        56 -14.1823    233.5575    128.1022   2.6800267252e+01   9.2827808731e+00    0.9527986    0.5033548 -40.29  0.004680094    1.631    0.387
        57 -12.7715     43.8725    132.8621   7.4289348961e+01   4.3105364928e+01    0.2759354    0.2473865  -8.39 0.0009792219    1.400    0.286
        58 -10.5129     10.5852    133.8284   8.4863419039e+01   4.5998905698e+01    0.1824217    0.1059458  85.08 0.0003293009    1.532    0.347
        59 -12.7236    136.7079    132.0049   4.6816017264e+01   2.7622583303e+01    0.6070531    0.3306679  38.27  0.002407393    1.949    0.487
        60 -11.1578      5.4398    128.8182   8.6029205882e+01   4.7669688085e+01    0.2535536    0.1346807 -44.64  0.001209933    2.210    0.547
        61 -14.7582    105.7533    120.8095   5.2513886232e+01   3.6536294414e+01     1.725918     1.281402  37.28  0.007972611    1.420    0.296
        62 -13.9695    171.1732    242.2639   5.9025779665e+01   1.0158282578e+00     0.818267    0.4957168  24.87  0.004997968    1.392    0.281
        63 -12.7915    180.0133    120.6191   3.4258802113e+01   2.0914488002e+01    0.5946534     0.260373  41.49  0.002200534    2.588    0.614
        64 -12.2649      4.7540    119.3224   8.5426051187e+01   5.0201091234e+01    0.5236288    0.2779463  12.55  0.002567801    2.419    0.587
        65 -11.8780      8.3392    114.4491   8.3744710305e+01   5.1257047775e+01    0.2419652    0.1797104  -2.56  0.001027305    1.766    0.434
        66 -13.4192     83.2530    114.1982   5.7851537053e+01   4.2373392270e+01     1.019414    0.7828506  40.01  0.004903048    1.365    0.267
        67 -11.7176     88.2065    108.9581   5.4955508887e+01   4.2832253624e+01    0.5359141    0.2445149 -61.00  0.001857905    2.416    0.586
        68 -12.9987     20.7113     86.1528   7.5008524582e+01   5.7860975461e+01    0.6539378    0.4996515  13.37 0.0003660337    1.557    0.358
        69 -12.6078     36.8069     92.8879   6.9758532824e+01   5.4593373130e+01    0.5066761    0.3445598   9.73  0.001552932    1.851    0.460
        70 -13.5241      2.3318     97.0543   8.4021561267e+01   5.6189052684e+01    0.9294388    0.3565558 -77.91  0.003397054    2.154    0.536
        71 -14.4145     18.4123    110.7319   7.9779958813e+01   5.1524323097e+01     1.013194    0.7106445 -66.12  0.004418073    1.223    0.182
        72 -13.8963     10.7025    102.9571   8.1582984624e+01   5.4145504274e+01    0.7177504    0.6699163  54.77  0.004238943    1.221    0.181
        73 -14.3936     22.8822     95.0251   7.5722018942e+01   5.5349481980e+01     1.449316    0.6837198  17.12  0.006274685    2.601    0.615
        74 -12.7270     29.6226     89.4617   7.1953392811e+01   5.6219334944e+01    0.5361289    0.3460939  88.90  0.002001365    1.756    0.430
        75 -12.4851    121.5360    112.1609   4.5815130665e+01   3.5403466247e+01     0.345617    0.2993583  71.54   0.00115689    1.263    0.208
        76 -12.3562     32.4940    110.8973   7.4753571703e+01   5.0232784029e+01    0.4082777     0.273853 -81.35  0.002041869    1.388    0.279
        77 -11.7119     62.6569    110.5718   6.3951259863e+01   4.6622717583e+01     0.456255    0.2687105  61.51  0.001840995    2.212    0.548
        78 -11.1458     45.9293    110.2152   6.9801517125e+01   4.8943931518e+01    0.3034231    0.1552859 -44.54  0.001236829    2.113    0.527
        79 -11.1629    222.9519    109.0000   2.4032471089e+01   1.4326681687e+01    0.2027114   0.08115782  53.04 0.0008033683    2.949    0.661
        80 -12.6292    136.1166    103.0334   3.9453667199e+01   3.4277253443e+01    0.6524041    0.3410648  49.89  0.002031056    2.009    0.502
        81 -11.1859     64.5118    101.5307   6.1199893422e+01   4.8724117398e+01    0.6314922    0.3278898 -25.22  0.001846361    4.541    0.780
        82 -12.0540     61.6800     97.7155   6.1292112811e+01   5.0142274285e+01    0.5136412    0.3620974 -89.80  0.001688962    1.770    0.435
        83 -13.5600    120.2098    102.2373   4.3455548290e+01   3.7998772130e+01    0.6649622    0.3702538  42.57  0.002611048    1.886    0.470
        84 -11.8795     49.0531     93.3132   6.5014024266e+01   5.3039963653e+01    0.5764859    0.3875738  76.23  0.002276041    1.962    0.490
        85 -11.8131     46.4907     98.5050   6.7193225624e+01   5.1997035137e+01     0.346309    0.2743745 -36.22  0.001361959    1.360    0.265
        86 -11.0832     48.6806    100.6671   6.6837624688e+01   5.1152305680e+01    0.3423977    0.2028622 -38.66  0.001482664    1.925    0.480
        87 -11.8242     52.7148     97.7100   6.4646206968e+01   5.1408728497e+01    0.4820987     0.264422 -30.18  0.001798665    2.709    0.631
        88 -12.2804    249.2229     98.7276   1.8181935753e+01   1.1136826663e+01    0.3451589    0.1250389 -44.59  0.001425581    2.433    0.589
        89 -12.0486    163.3831     97.8975   3.1702690798e+01   2.9085084397e+01    0.3631269    0.3179226  79.42 0.0005556941    1.267    0.211
        90 -13.0846    137.3000     95.0697   3.6869117266e+01   3.5734407182e+01    0.5176729    0.4132743  68.83   0.00134263    1.410    0.291
        91 -11.8789     42.5912     90.2957   6.6860609776e+01   5.4623522618e+01    0.3492631    0.2439007 -62.57 0.0005166371    1.272    0.214
        92 -11.0980     35.0211     86.4740   6.9077313544e+01   5.6462301037e+01     0.283516    0.1683313 -49.54 0.0009948231    1.526    0.345
        93 -13.4669    188.6135     83.9436   2.3107341855e+01   2.5859191704e+01    0.7097694    0.4166913  42.46  0.002446288    2.060    0.515
        94 -13.8316    164.3206     71.6724   2.3914799454e+01   3.3805074613e+01     1.344028     1.034133  74.75  0.006524077    1.422    0.297
        95 -13.6100    160.7911     80.7984   2.7331432940e+01   3.3004708264e+01     1.006686     0.636896  26.85  0.003911782    2.460    0.593
        96 -14.3806    169.2656     76.7356   2.4488468893e+01   3.1698687097e+01     1.455413     0.606158  54.53  0.004348902    2.493    0.599
        97 -12.8660    242.3120     83.5837   1.5571490426e+01   1.4668705891e+01    0.4497921    0.2307146  64.20  0.002189481    2.485    0.598
        98 -13.2203    237.5053     79.7610   1.5238462054e+01   1.6158654206e+01    0.4278977    0.2996007  83.93  0.002360149    1.851    0.460
        99 -12.9272     28.4524    121.8104   7.7781561776e+01   4.7691166247e+01    0.5158505    0.3201842 -59.19  0.002573661    1.465    0.317
       100 -13.3149     66.1774     49.1340   4.3436721682e+01   6.0768198369e+01    0.8599718    0.6382365 -55.85   0.00415243    1.522    0.343
       101 -13.5915     54.4493     67.0701   5.5284351566e+01   5.8838936336e+01     1.047075    0.9300498  18.64  0.005864436    1.211    0.175
       102 -13.7667     74.0394     73.7987   4.9625432713e+01   5.4020508626e+01      1.49614    0.8126863  16.02  0.004761493    3.892    0.743
       103 -13.6297     87.4509     65.2362   4.1711126049e+01   5.3300752194e+01     1.677056    0.7995352 -27.37  0.005215866    3.576    0.720
       104 -12.9921     55.1235     81.3290   5.9446207854e+01   5.5282713962e+01    0.7021408    0.4883984 -45.33  0.002580282    1.349    0.259
       105 -13.7788     61.1458     75.6772   5.5297018331e+01   5.5763695898e+01    0.8053588    0.5110803 -41.35  0.002162528    1.540    0.351
       106 -13.9273    213.5895     78.4798   1.7915455313e+01   2.1230404252e+01    0.9839696    0.6890711  80.81  0.005033773    1.766    0.434
       107 -12.5057    214.4887     71.5131   1.6030967066e+01   2.2137020800e+01    0.4616209    0.3535655 -84.29  0.002515355    1.489    0.329
       108 -11.9197    114.1287     79.7717   3.8328608355e+01   4.4367889313e+01    0.5038989    0.3379282 -44.71  0.002199242    1.444    0.308
       109 -11.7816     42.6189     79.7778   6.4223541059e+01   5.7327802341e+01    0.4339565    0.2497765 -71.89  0.001887949    1.897    0.473
       110 -12.6295    135.4833     79.2128   3.2480162976e+01   3.9450949900e+01    0.7581028    0.3829034  55.37  0.002625688    2.100    0.524
       111 -12.6579    147.5862    238.8357   6.3133322044e+01   4.7510608883e+00    0.2382483    0.2027212  67.68  0.001179167    1.568    0.362
       112 -14.1566      4.1265     63.3940   7.8194476782e+01   6.4735142986e+01    0.7694126    0.5805584 -16.62  0.001712999    1.487    0.328
       113 -11.3018     27.5013     76.3293   6.9970813845e+01   5.9818337773e+01    0.3001669    0.2014863  74.62  0.001223791    1.932    0.482
       114 -13.7968    199.1650     69.7979   1.7655114811e+01   2.5815601182e+01    0.9048294    0.5248542  43.70  0.003378819    2.174    0.540
       115 -10.4592    117.9572     72.0576   3.4675897997e+01   4.5078974342e+01    0.1920067    0.1830001 -50.67 0.0008362831    1.021    0.020
       116 -11.9598    241.2448     70.3766   1.2639062903e+01   1.6823905973e+01    0.2196752    0.1694987 -83.34  0.001313569    1.499    0.333
       117 -12.4800    134.9994     66.0447   2.8299161004e+01   4.2099363248e+01    0.5770661     0.465389  18.90  0.001961526    1.558    0.358
       118 -12.2018     38.8969     67.9162   6.2511630006e+01   6.0721436279e+01    0.5291761    0.2438428  30.74  0.002242975    2.352    0.575
       119 -11.8223    100.0388     65.1062   3.7498222054e+01   5.0609915687e+01     0.311719    0.2582346 -78.55  0.001507957    1.458    0.314
       120 -11.5845    199.7041     61.9817   1.5477429959e+01   2.6921548384e+01    0.3391322    0.2168529 -36.09  0.001138904    1.410    0.291
       121 -11.1782     85.8169     49.1604   3.5988447723e+01   5.6816352378e+01    0.3371455    0.2501025  16.33 0.0009715152    1.661    0.398
       122 -12.9585     78.8450     59.9232   4.2808918127e+01   5.6156927474e+01    0.7095077    0.5015104 -45.66  0.003394968    1.374    0.272
       123 -13.5913    178.0214     57.1627   1.7238535311e+01   3.2846381386e+01    0.8877509    0.5516317 -46.64  0.002535122    1.490    0.329
       124 -12.2072     36.3190     53.7223   5.9082516373e+01   6.4373521989e+01    0.4904887    0.1996564 -43.23  0.001966107    2.280    0.561
       125 -12.0697     38.9522     59.8677   5.9922547552e+01   6.2636917085e+01    0.3189944    0.2399257  64.68  0.001633081    1.816    0.449
       126 -11.8222     24.9057     59.3495   6.6707740629e+01   6.4268327907e+01    0.4021139    0.2283673 -51.95  0.001789375    1.472    0.321
       127 -14.5194    119.2833     54.3381   2.8035962100e+01   4.8089626714e+01     1.096201      0.67427  47.45  0.002201195    1.655    0.396
       128 -12.8854    248.2978     51.9034   7.7266593803e+00   1.8044536694e+01    0.6978687    0.2901121 -31.88  0.003218762    2.060    0.515
       129 -12.7981     61.9322     58.4532   4.8970438096e+01   5.9588769469e+01    0.9732643    0.4883995 -27.67  0.003402024    3.118    0.679
       130 -11.2284     17.7711     55.2784   6.9215498894e+01   6.5853936222e+01    0.3405161    0.1722994 -67.62  0.001579017    1.885    0.469
       131 -11.6525    231.2438     55.1126   1.0059236017e+01   2.1013273712e+01    0.2746583    0.1905506  83.65  0.001538287    1.646    0.392
       132 -12.4554    135.9029     51.1139   2.2967884016e+01   4.4456150204e+01    0.5846533    0.4568478 -28.84  0.002120796    1.331    0.248
       133 -13.4977    103.4181     50.5420   3.0936195631e+01   5.2583989536e+01    0.9538692    0.4832538 -44.50  0.001737482    2.026    0.506
       134 -13.4514     97.9635     49.9820   3.2353635685e+01   5.3954329803e+01    0.7694092    0.3953145 -39.41  0.002299817    1.917    0.478
       135 -10.6119     23.5504     49.9860   6.4461233826e+01   6.6597670769e+01    0.1984788    0.1151691 -55.97 0.0004395287    1.490    0.329
       136 -13.1222    157.1821     43.9176   1.6483837241e+01   4.0100640432e+01     0.929629    0.5249321  40.56  0.003808385    2.261    0.558
       137 -11.3160     34.5700     60.5440   6.2268864855e+01   6.2992292299e+01    0.3351133    0.1893445 -47.51  0.001590948    1.542    0.352
       138 -13.1756      6.3080     42.9576   7.2062479689e+01   6.9527803524e+01     0.874106    0.3813604  16.04  0.004156171    2.595    0.615
       139 -13.9238     26.2688    226.4396   8.7061596195e+01   2.2749430678e+01     0.703168    0.4045072 -57.59  0.004123604    2.246    0.555
       140 -13.8654     20.7302    224.0600   8.8075863103e+01   2.3798180416e+01    0.5438641    0.4728771  65.77  0.002568349    1.213    0.176
       141 -12.7839     23.9354    216.3841   8.7029042972e+01   2.5045308400e+01    0.7611583    0.3040844  49.31  0.003919812    1.911    0.477
       142 -14.4975    212.9716     40.8400   8.3378625292e+00   2.6929904663e+01     2.039083    0.7121725  76.40  0.007308773    3.726    0.732
       143 -13.0555    237.6945    229.8453   4.5435485293e+01  -5.7985215496e+00    0.2944154    0.2186203  37.34  0.002079128    1.829    0.453
       144 -13.7558     65.6837    223.2256   7.8549170437e+01   1.8815780796e+01    0.8291769    0.5278684  37.00  0.004879231    1.385    0.278
       145 -11.6165    135.0958     39.5101   1.8999287224e+01   4.6437180250e+01    0.5277791     0.300154  77.38  0.001526821    2.106    0.525
       146 -12.2730    109.8474     42.0046   2.5750270242e+01   5.2451283874e+01    0.4828605    0.2103007  55.11   0.00112203    2.224    0.550
       147 -12.9821    113.7285     37.9717   2.3148679499e+01   5.2102298389e+01    0.4564996    0.3845175  45.53  0.001486779    1.185    0.156
       148 -14.6158     62.8450    214.1130   7.8390591471e+01   2.1033390223e+01    0.9466038    0.4882062  40.89  0.004954162    1.612    0.380
       149 -12.7145    131.3115     33.4308   1.7518899867e+01   4.8260400779e+01     0.528079    0.4193533  11.71  0.001498635    1.556    0.357
       150 -12.0886     40.3951     40.3155   5.1614618979e+01   6.6732422942e+01    0.5360546    0.2784374  31.35  0.002490557    2.056    0.514
       151 -12.5877     32.9795     40.1247   5.5508474146e+01   6.7746201035e+01    0.3332284    0.2699477 -13.78 0.0004892205    1.207    0.172
       152 -12.5946     75.8443     37.0651   3.4265801966e+01   6.1052604273e+01    0.4883495    0.3140102  32.65  0.001523393    1.682    0.406
       153 -11.8028     70.9571     36.2240   3.5732018815e+01   6.2201481512e+01     0.319606    0.2374424  51.70  0.000963335    1.444    0.307
       154 -11.5548     85.7180    215.6866   7.3441683872e+01   1.7662204886e+01     0.275382     0.109483  49.63  0.001170708    2.388    0.581
       155 -11.1383    104.4989     36.9902   2.5127500212e+01   5.4524894529e+01    0.2275713    0.1441589 -32.18  0.001035619    1.599    0.375
       156 -12.8753     45.2245     33.1768   4.5773671860e+01   6.7395705369e+01    0.7501038    0.5550274  40.24  0.004166988    1.480    0.324
       157 -11.0581     35.2293     34.6088   5.1787928610e+01   6.8576067865e+01    0.2309992    0.1662184  11.74   0.00089787    1.494    0.331
       158 -12.6168      4.7323    212.0853   9.0862096099e+01   2.7799952728e+01    0.4465415     0.193401 -69.57  0.002383648    2.349    0.574
       159 -11.0758    136.5211    210.9705   6.1643905394e+01   1.1053011945e+01    0.1813083    0.1310004 -52.05 0.0008417306    1.581    0.367
       160 -12.7362    140.2532     21.3844   1.1527022792e+01   4.7428237944e+01    0.7512002    0.3081533  68.46  0.001254055    2.321    0.569
       161 -11.0920     46.3158    209.6598   8.1722354162e+01   2.4002413197e+01    0.1383452   0.07391706  61.37 0.0005073724    1.705    0.414
       162 -12.8721     57.5534    201.9322   7.8510491456e+01   2.4315450150e+01    0.7916449    0.3241773 -78.91  0.003343787    2.812    0.644
       163 -11.9024     30.5565     25.4619   4.9924367251e+01   7.0931764267e+01    0.3044948    0.2005229  10.55  0.001637359    1.691    0.409
       164 -12.2659     35.5359     23.3871   4.5894202860e+01   7.0609435975e+01    0.3531199    0.2441556  -7.00  0.001172465    1.582    0.368
       165 -12.8988     94.3351    218.1264   7.1796419341e+01   1.5970712352e+01    0.3398953    0.2012067  40.70  0.001365423    1.422    0.297
       166 -13.6648     17.1477    195.7199   8.7409065130e+01   3.0208503712e+01     1.300762    0.3316133 -57.98  0.004594259    4.828    0.793
       167 -11.6567     51.3933     20.3877   3.5948747288e+01   6.8476220947e+01    0.4117752    0.2026028  52.69  0.001802662    2.462    0.594
       168 -12.3683     45.8333     20.3986   3.8665540437e+01   6.9459904443e+01    0.3758101    0.2680123  18.36  0.002083516    1.443    0.307
       169 -10.9181    150.9991    206.6757   5.7906783647e+01   9.5777076268e+00    0.2173643    0.1008521  18.15 0.0007048495    4.284    0.767
       170 -14.0543     40.3372    196.0753   8.2051586734e+01   2.7693692650e+01    0.8443407    0.3872274  55.15  0.004037739    1.952    0.488
       171 -13.3163     22.4683    166.0296   8.4148689956e+01   3.6742904337e+01    0.4237767    0.3102614  10.30  0.002102038    1.852    0.460
       172 -12.0091    245.5065     30.0107   2.9983742700e+00   2.1404617488e+01    0.4260892    0.1545554 -36.98   0.00198033    2.053    0.513
       173 -10.9093    175.9528     13.7442   4.5414839453e+00   3.9086460084e+01     0.187222    0.1564077 -75.17 0.0002037255    1.063    0.060
       174 -14.8121     29.9889    169.2475   8.2431880322e+01   3.5197842106e+01     2.198471    0.9965337 -44.60  0.008764834    3.366    0.703
       175 -14.1126     22.3647    180.9052   8.5263617471e+01   3.3134006693e+01    0.9231087    0.4002897 -61.59  0.004314349    2.341    0.573
       176 -15.3465      8.6189    183.1811   8.8720921210e+01   3.3867177700e+01     1.245854     1.038127  78.76  0.008476689    1.107    0.097
       177 -15.4478     15.4437    175.0013   8.6588285236e+01   3.5200787866e+01     2.328337    0.8850186  58.58   0.01012998    2.437    0.590
       178 -13.3852    164.5219    194.8125   5.3116458060e+01   9.5393389633e+00    0.6266866    0.4034597 -68.92  0.002805163    2.868    0.651
       179 -12.0866    201.0670    191.2868   4.5253134726e+01   4.3610033662e+00    0.3046616     0.226701   4.18  0.001426686    1.288    0.224
       180 -12.9918     97.9967    187.5076   6.7128539164e+01   2.1832889153e+01    0.2959005    0.2421092  32.31  0.001661253    1.224    0.183
       181 -11.7015    109.4931    183.4948   6.3732295659e+01   2.0893699224e+01    0.2575048    0.1357375  24.63  0.001040344    2.365    0.577
       182 -12.3106     48.7223    181.4075   7.8718320250e+01   3.0128999306e+01    0.4171269    0.2791308 -52.26  0.002215644    1.747    0.428
       183 -13.3523    197.8087    180.0535   4.3765909360e+01   6.6921151954e+00    0.5847836    0.4108343 -67.45  0.002758824    2.774    0.640
       184 -11.4322    122.2498    181.0469   6.0257967322e+01   1.9312630110e+01    0.4218834    0.2507503  78.04  0.001504647    3.612    0.723
