#   1 NUMBER                 Running object number                                     
#   2 MAG_AUTO               Kron-like elliptical aperture magnitude                    [mag]
#   3 X_IMAGE                Object position along x                                    [pixel]
#   4 Y_IMAGE                Object position along y                                    [pixel]
#   5 X_WORLD                Barycenter position along world x axis                     [deg]
#   6 Y_WORLD                Barycenter position along world y axis                     [deg]
#   7 A_WORLD                Profile RMS along major axis (world units)                 [deg]
#   8 B_WORLD                Profile RMS along minor axis (world units)                 [deg]
#   9 THETA_WORLD            Position angle (CCW/world-x)                               [deg]
#  10 FWHM_WORLD             FWHM assuming a gaussian core                              [deg]
#  11 ELONGATION             A_IMAGE/B_IMAGE                                           
#  12 ELLIPTICITY            1 - B_IMAGE/A_IMAGE                                       
         1 -10.4287    211.7133     15.7956   4.8870206594e+01   2.9473772363e+01     0.687012    0.3927742 -48.71  0.003166847    1.752    0.429
         2 -10.5673    216.4882     35.3981   5.3896761833e+01   2.6035780624e+01     1.180859    0.3045702 -25.59  0.003582082    3.815    0.738
         3 -10.6194    220.4350     12.0994   4.6949695539e+01   2.7643405510e+01    0.7309768    0.5216845 -76.58  0.003838776    1.456    0.313
         4 -12.0088    219.3847      3.7917   4.4761796322e+01   2.8725473005e+01     3.078105    0.4833927  64.51  0.009272056    4.408    0.773
         5 -11.3675    236.2257     28.6665   4.9852498506e+01   2.1973184679e+01     1.504739    0.5506471 -46.68  0.005638924    2.762    0.638
         6 -12.6693    246.6428     15.0788   4.5402961245e+01   2.0997084856e+01     2.118532     1.211186 -17.01   0.01035788    1.901    0.474
         7  -9.9281    202.8873     19.7842   5.1024626417e+01   3.1327927299e+01    0.4369794     0.371563  45.83  0.002359224    1.232    0.188
         8  -9.1824    161.7287      9.3844   5.3150750463e+01   4.3340450465e+01    0.3005261    0.2198257 -10.01  0.001445694    1.493    0.330
         9 -10.0309    172.3105      7.6726   5.1063777365e+01   4.0680319967e+01     0.475862    0.2643331 -35.55  0.002131815    1.809    0.447
        10  -9.3479     94.7642      6.3358   6.5663969044e+01   6.0265282204e+01    0.3800989    0.1888904 -20.87  0.001709042    2.016    0.504
        11  -8.7022    101.7082      6.9440   6.4077765415e+01   5.8655655214e+01     0.269786    0.2022212 -56.26  0.001407947    1.762    0.432
        12  -9.7044    151.9160      4.2256   5.2794627648e+01   4.6433511722e+01      0.37238    0.2815082 -71.26  0.001894027    1.525    0.344
        13  -8.2566    184.6684      4.6487   4.8531428814e+01   3.7666399652e+01    0.2309729    0.1960034  39.97 0.0008980251    1.234    0.189
        14  -8.4077    183.3390      1.6668   4.7738412765e+01   3.8291163991e+01    0.2586059     0.164347 -78.22 0.0007945691    1.764    0.433
        15  -9.0996    145.3872      2.3906   5.3143418160e+01   4.8315691625e+01     0.327377    0.2158985 -32.63  0.001606493    1.584    0.369
        16  -7.9982    131.3021      3.6728   5.6097005578e+01   5.1836108847e+01    0.1429718    0.1054886 -58.47 0.0004035201    1.643    0.391
        17  -8.8072    122.2052      3.6275   5.7863525956e+01   5.4121643131e+01     0.209897    0.1143659  52.25 0.0005291728    1.647    0.393
        18  -8.0862    130.7013      9.3511   5.8504488254e+01   5.1436352158e+01    0.1467043     0.106264 -57.28 0.0007036351    1.690    0.408
        19  -9.4089    193.2623      1.5775   4.6626769603e+01   3.5670732472e+01    0.4094274    0.1353449  74.76  0.001407678    3.043    0.671
        20  -8.7422     47.2190      1.5948   8.0115647758e+01   6.9683221981e+01    0.1656552    0.1046886  25.81 0.0006647754    1.620    0.383
        21  -9.5017    193.6065    208.6972   9.7810391385e+01   5.6381609426e+00     0.255967    0.1528334 -29.15    0.0014805    2.050    0.512
        22  -7.9633    217.4945    250.5288   9.9757471547e+01  -2.6382852795e+00     0.108786   0.07584117  29.00 -1.824419e-05    1.020    0.019
        23 -10.7056    240.8084    205.3602   8.9320223155e+01  -1.6354616969e+00    0.3785001    0.3594073  72.24  0.002522278    1.784    0.439
        24  -7.9570    164.8252    208.2231   1.0290404953e+02   1.0525556751e+01    0.1569459     0.125452  22.42 0.0004047113    1.299    0.230
        25  -8.7469    124.0241    205.9839   1.1021552027e+02   1.7537009707e+01    0.1706982    0.1373347  52.26  0.001157158    1.005    0.005
        26  -7.9352    198.4913    205.0693   9.6389480407e+01   5.2802576733e+00    0.1559585    0.1188666 -29.17  0.001014255    1.535    0.349
        27  -8.1324    179.4575    204.0012   9.9619837170e+01   8.6446935232e+00    0.1574497     0.122212 -35.60   0.00054842    1.552    0.356
        28 -10.0991    238.5162    192.8975   8.7551484369e+01   8.2168857111e-02     0.309798    0.2624364 -62.21  0.001985865    2.137    0.532
        29  -9.7504    232.6835    193.5941   8.8631625257e+01   9.5644315771e-01    0.2203471     0.170183   4.31  0.001130861    1.177    0.150
        30  -7.6935    250.3141    193.6462   8.5791009212e+01  -1.8822960337e+00   0.09875178   0.09638187 -66.28 0.0002742499    1.735    0.424
        31  -8.1249    247.6483    181.6906   8.4050953111e+01  -1.4638809779e-01    0.1307121   0.07759178  15.38 0.0006834849    1.718    0.418
        32  -9.0956    243.4017    180.2876   8.4473123192e+01   7.1500835789e-01    0.1555335    0.1086165 -31.65 0.0009446809    1.602    0.376
        33  -9.9162    241.2294    175.2147   8.3872590952e+01   1.6756336816e+00    0.4747276    0.2578795   8.02  0.002221042    2.509    0.601
        34  -8.1579    192.0985    173.0000   9.2075439015e+01   1.0822197965e+01    0.2197325   0.06714021  44.94 0.0007963558    2.900    0.655
        35 -10.2087    249.6472    167.8443   8.1098098861e+01   1.1177134604e+00    0.3963452    0.2339929 -24.38  0.002226586    1.646    0.392
        36  -8.9542    227.0383    161.8015   8.3628825830e+01   5.8761747160e+00    0.2265582     0.129362  22.46  0.001083624    1.972    0.493
        37  -8.9351    236.5215    157.5308   8.1169747434e+01   4.6979193997e+00    0.2261838    0.1100826 -40.45  0.001036837    2.407    0.585
        38  -8.5886     24.9994    158.4990   1.2549023560e+02   3.9530552302e+01    0.1699676   0.05872406  53.67  0.000810612    2.666    0.625
        39  -7.8398    184.4807    156.4897   9.0364974154e+01   1.4842628620e+01    0.1369178    0.1248067  35.17 0.0002808818    1.051    0.049
        40  -7.9622    117.8531    152.1275   1.0369672564e+02   2.8348846968e+01    0.1729834    0.1603909  11.84 0.0003944441    1.303    0.233
        41  -8.0551     86.6806    149.6509   1.1049799273e+02   3.3932317617e+01    0.1239903    0.1017539 -27.12 0.0007048451    1.737    0.424
        42  -8.7783    156.4998    148.4975   9.4485007159e+01   2.1780936238e+01     0.140195    0.1294073  51.76 0.0008101911    1.050    0.047
        43 -10.7315    232.3748    145.6462   7.9384257780e+01   7.0442277248e+00    0.5695766    0.3220094  40.67  0.002849869    1.673    0.402
        44  -9.6910    192.0242    139.5168   8.5337492296e+01   1.6063008630e+01    0.2835852    0.2378527  75.36  0.001344791    1.540    0.351
        45 -10.7162    246.7702    132.6169   7.4226495273e+01   6.0393679992e+00    0.8301793    0.5460699 -56.20  0.003976495    2.507    0.601
        46  -8.7716    138.4541    132.4114   9.5171067632e+01   2.8432169175e+01    0.2807862    0.1629822  46.78 0.0007979152    1.650    0.394
        47  -7.7622     51.9734    131.9588   1.1643579661e+02   4.2391315888e+01     0.147452    0.1256199  88.14 0.0004041476    1.014    0.014
        48  -7.6346    212.3808    128.2646   7.8997368933e+01   1.3566840963e+01    0.1493683    0.1008013  20.97  0.000303601    1.683    0.406
        49 -10.5917    230.3876    118.7902   7.3701105624e+01   1.1196415366e+01    0.3672948     0.308001 -41.39  0.002083726    1.316    0.240
        50  -9.5292    230.6809    115.3195   7.2835545880e+01   1.1632479715e+01    0.2885071    0.2282456  45.33  0.001402248    1.300    0.231
        51  -7.7233    176.5152    109.5523   8.1385486827e+01   2.4568107149e+01    0.1470021    0.1446895  52.05 7.514944e-05    1.066    0.062
        52  -8.3140    160.5116    109.4701   8.4793295683e+01   2.8202333113e+01    0.4698309    0.1992927  62.15  0.001316205    4.474    0.777
        53  -7.8332    104.9911    108.2559   9.8111349064e+01   3.9857459615e+01    0.1767218    0.1215795  43.82 0.0005790288    1.482    0.325
        54  -9.3526    122.3542    109.5835   9.3903917840e+01   3.6290149621e+01    0.4564641    0.2805547 -55.41  0.002059692    1.716    0.417
        55  -9.2868    241.8118    100.1675   6.7470663926e+01   1.1424143745e+01    0.4018213    0.2331685 -49.75  0.001803856    2.154    0.536
        56  -8.8576     58.1375    100.1550   1.0962266017e+02   4.8814470933e+01    0.2532132    0.1370407 -55.24  0.001260899    1.645    0.392
        57  -8.4025    247.4326     98.8492   6.6333912571e+01   1.0429829359e+01    0.3193527    0.1296091 -19.31  0.001128979    3.114    0.679
        58 -10.2450    124.6926     98.0811   9.0414041801e+01   3.8204768367e+01    0.4088623    0.3401798 -35.33   0.00212927    1.245    0.197
        59  -8.2938    106.1902     99.4047   9.5664942633e+01   4.1547318415e+01    0.2091847    0.1332484  54.17 0.0009584388    1.718    0.418
        60 -10.3191    215.3004     95.8697   7.0583295719e+01   1.7882827308e+01    0.4727937    0.2710747 -36.00   0.00210873    1.685    0.406
        61  -8.9832     35.1800     98.1600   1.1610888015e+02   5.1762893260e+01    0.2711817     0.120012  42.70  0.001324926    2.450    0.592
        62  -8.3395    247.6080     92.7951   6.4847082866e+01   1.1209618316e+01    0.3241645    0.1275587 -40.66  0.001177981    2.540    0.606
        63  -9.6745    247.9773     85.0102   6.2893686745e+01   1.2175873108e+01    0.5440232    0.3774843 -15.93  0.002539702    1.419    0.295
        64  -8.7425     73.3077     93.6582   1.0372538593e+02   4.8251748174e+01    0.1390082    0.1017524  83.82 0.0007043327    1.689    0.408
        65  -8.5432    235.0413     86.4602   6.5078410205e+01   1.4794543911e+01    0.2790006    0.1929016  -6.91 0.0009208694    1.614    0.380
        66  -7.7340     91.3887     86.2750   9.6495388190e+01   4.7023284002e+01    0.1417593    0.1109148  -6.44 0.0006995795    1.725    0.420
        67  -9.8424    220.0000     81.0305   6.5951537657e+01   1.9003292964e+01    0.4218011    0.2135833 -27.18  0.001743757    1.945    0.486
        68  -7.5219    231.3407     81.2496   6.4292355527e+01   1.6355701800e+01    0.1431612    0.1038642  25.09  0.000176569    1.570    0.363
        69  -9.3060    232.4521     59.9506   5.8574548981e+01   1.9009899810e+01    0.4373319    0.3368588  -2.26  0.002277134    1.447    0.309
        70  -8.7506    243.2745     76.0345   6.1292779400e+01   1.4397414664e+01    0.4684568    0.3045996 -17.85  0.001706285    1.548    0.354
        71  -9.2827    237.8863     62.7627   5.8605435599e+01   1.7375899949e+01    0.4663229    0.2781384 -46.00  0.002187235    1.698    0.411
        72  -9.7859    243.3579     64.1191   5.8259222924e+01   1.5953220610e+01      0.41023    0.3714331  16.13  0.002119896    1.169    0.145
        73 -10.6494    248.0956     72.4831   5.9771797277e+01   1.3809303089e+01     1.071561    0.3125898 -35.02  0.003822148    2.853    0.649
        74  -9.0117    249.4626     66.7244   5.8160244863e+01   1.4258670782e+01    0.4060246     0.209734 -41.87  0.001607822    1.846    0.458
        75  -8.1665    234.6735     72.9565   6.1677205935e+01   1.6745131944e+01    0.3241218    0.1837995  -8.72  0.001330936    2.325    0.570
        76  -9.5227    106.1805     71.5066   8.7882723269e+01   4.7376009560e+01    0.6926216    0.3774714 -55.68  0.002588062    2.172    0.540
        77  -8.6729    204.0266     65.5283   6.4246043176e+01   2.5133795600e+01    0.2239881     0.148001  60.19 0.0007799373    1.561    0.359
        78  -9.4092     32.6028     62.7981   1.1005549300e+02   5.9940891594e+01    0.2739432    0.1458307 -77.40   0.00129995    2.311    0.567
        79  -8.2349    131.5148     62.8953   7.8216342230e+01   4.3555601378e+01    0.2249301    0.1472107 -36.46 0.0004785396    1.508    0.337
        80  -8.5138    199.8176     60.1283   6.3377614266e+01   2.6973308182e+01      0.21596    0.1777102  19.44  0.001082101    1.351    0.260
        81  -7.8824     82.2371     59.0288   9.1283966200e+01   5.4292369769e+01    0.1897443     0.109089 -44.61 0.0008763448    1.604    0.377
        82  -8.7639    250.4988     57.4977   5.5722987427e+01   1.5204277417e+01    0.2190239    0.1097536 -37.47 -1.429607e-05    1.770    0.435
        83  -8.0534    168.7625     56.7271   6.7871929647e+01   3.5421490134e+01    0.2540897    0.1077737 -41.24 0.0008928066    2.392    0.582
        84  -8.0833    127.3315     56.6749   7.7192260552e+01   4.5619613543e+01    0.1537063    0.1195312 -73.41 0.0007050764    1.706    0.414
        85  -8.9502    228.7251     50.8810   5.6635204048e+01   2.1080352036e+01    0.3408289    0.2286455 -21.46  0.001666062    1.492    0.330
        86  -9.9002    233.3759     45.0369   5.4501360659e+01   2.0705929328e+01    0.5382606    0.4290929  32.52  0.002248965    1.422    0.297
        87  -8.6561    244.0122     49.5053   5.4436467734e+01   1.7663553227e+01    0.2981841    0.1993598 -29.03  0.001532392    1.370    0.270
        88  -9.3450    250.0027     46.0217   5.2889121031e+01   1.6729563376e+01    0.3658351    0.2409701 -36.54  0.001588941    1.354    0.261
        89  -9.6353    250.3520     40.2721   5.1403651227e+01   1.7337814246e+01    0.5403137    0.2572762 -15.57  0.002211558    2.532    0.605
        90  -8.1152    112.0372     46.9823   7.7856308873e+01   5.0724842259e+01    0.2311221    0.1806827 -70.69  0.001119836    1.727    0.421
        91  -8.4770     86.1520     42.8673   8.4212659881e+01   5.6672658622e+01    0.2125511    0.1968875 -61.72  0.001248653    1.261    0.207
        92  -9.0219    128.5917     41.2308   7.1372551211e+01   4.7860206361e+01    0.4018438    0.2422661 -88.06  0.001327053    3.833    0.739
        93  -8.2782     52.1806     44.4034   9.7149663534e+01   6.1700348066e+01    0.1662665    0.1208498  45.65 0.0009452575    1.687    0.407
        94  -9.8119    200.5658     44.9709   5.8818031308e+01   2.8882772504e+01    0.4852272    0.2597844 -80.80  0.001618101    3.505    0.715
        95  -9.2954    224.3475    248.4263   9.8410180120e+01  -3.4203467520e+00    0.2060902    0.1246159  12.70  0.001085661    1.707    0.414
        96  -8.0955    135.4827    250.4937   1.1302563426e+02   9.3849664747e+00    0.1089147   0.07885201  46.84 2.906485e-05    1.001    0.001
        97  -9.4138    212.6285     27.2136   5.2035854692e+01   2.7981871584e+01    0.5383047    0.2206325 -32.72  0.002127397    2.214    0.548
        98  -9.5717    215.8694     23.5372   5.0617907480e+01   2.7574297248e+01     0.337707    0.3031422 -56.69  0.001246071    1.071    0.066
        99  -8.4290      6.4718     39.4976   1.1493271700e+02   6.6844141810e+01    0.1173907   0.08789893 -54.20 5.467179e-05    1.033    0.032
       100  -7.8608    197.5804    247.2121   1.0249395733e+02   5.8530036173e-01    0.1296452   0.09530219  -5.27 0.0009492317    1.651    0.394
       101  -9.7429    187.3345    246.5324   1.0406885833e+02   2.1800624176e+00    0.2041876    0.1560728 -46.39  0.001541945    1.874    0.466
       102  -8.4990    221.0000    245.9308   9.8598954633e+01  -2.7104423654e+00    0.1371415   0.05960885 -31.99  0.000606836    2.888    0.654
       103  -8.5338    164.4856    246.0198   1.0776206286e+02   5.6608310377e+00    0.1266693    0.1105069 -35.55  0.000579051    1.550    0.355
       104  -8.3410    184.4328     25.7685   5.5283038314e+01   3.5514755959e+01    0.2780776    0.1362208 -29.29  0.001127652    1.995    0.499
       105 -10.0087    146.5869     24.1094   6.1059588056e+01   4.5714324256e+01    0.4601929    0.1869995 -41.78  0.001651645    2.681    0.627
       106  -9.6345    236.1709    241.2278   9.5582996691e+01  -4.4441921607e+00    0.2033503    0.1765868  47.35   0.00161542    1.703    0.413
       107  -9.1689    152.3873     20.2192   5.8555345980e+01   4.4661667826e+01    0.2116752    0.1300337 -36.04 0.0009476893    1.662    0.398
       108  -8.6113    200.9653     14.8020   4.9767269093e+01   3.2360909758e+01    0.2994481    0.1704526 -68.20  0.000977164    2.143    0.533
       109  -9.5717    146.6322     15.2914   5.7781414405e+01   4.6717652729e+01    0.2411346    0.1685462 -60.12  0.001127005    1.739    0.425
       110  -8.8327     93.0562     15.0031   7.0201679595e+01   5.9605303142e+01     0.348214    0.2114986  57.71  0.001686653    1.827    0.453
       111  -9.2276    232.5751    235.8029   9.5368481026e+01  -3.4302855647e+00     0.140347    0.1007478 -16.85 0.0007969638    1.562    0.360
       112  -8.7759    229.6787    234.3227   9.5611194133e+01  -2.8678279166e+00    0.1562586   0.09562699  45.02  0.001016246    1.624    0.384
       113  -8.0119     70.4994    234.4867   1.2250921858e+02   2.0531708366e+01     0.105096   0.07751247  59.27 6.601762e-05    1.041    0.040
       114  -9.0749    234.6745    228.7650   9.4004070877e+01  -3.0664755832e+00    0.2556729    0.1390388 -28.00  0.001594568    2.126    0.530
       115 -10.0871    223.4968    224.9951   9.5230524943e+01  -1.0151918481e+00    0.3402579    0.1621279 -32.89  0.001965301    2.507    0.601
       116 -10.3460    223.2016    218.4139   9.4279664629e+01  -2.7816116059e-01    0.3199038    0.2512601 -21.88  0.002203384    1.479    0.324
       117  -8.2999    243.3438    214.3177   9.0387417462e+01  -2.9396182027e+00    0.2116995    0.1125634  13.81  0.001133289    2.109    0.526
       118 -10.8907    248.6686    219.9942   9.0459553884e+01  -4.2791659343e+00    0.5751348    0.3544389 -27.70  0.003864583    1.850    0.459
       119  -7.9182    156.4988    225.5087   1.0669107696e+02   9.4850869404e+00    0.1172481   0.09082971  40.30 2.362262e-05    1.043    0.041
       120  -7.9354     85.2812    224.3839   1.1919381488e+02   2.0212916431e+01   0.09174142   0.08556187 -10.50 0.0003595885    1.728    0.421
       121  -8.4426    167.3124    221.6840   1.0429810932e+02   8.2706374456e+00    0.1128748   0.08142964  62.35 0.0006767585    1.640    0.390
       122  -9.0754    242.6808    220.8964   9.1537252820e+01  -3.4868616694e+00    0.2472646    0.1582896 -19.51  0.001178157    1.667    0.400
