#   1 NUMBER                 Running object number                                     
#   2 MAG_AUTO               Kron-like elliptical aperture magnitude                    [mag]
#   3 X_IMAGE                Object position along x                                    [pixel]
#   4 Y_IMAGE                Object position along y                                    [pixel]
#   5 X_WORLD                Barycenter position along world x axis                     [deg]
#   6 Y_WORLD                Barycenter position along world y axis                     [deg]
#   7 A_WORLD                Profile RMS along major axis (world units)                 [deg]
#   8 B_WORLD                Profile RMS along minor axis (world units)                 [deg]
#   9 THETA_WORLD            Position angle (CCW/world-x)                               [deg]
#  10 FWHM_WORLD             FWHM assuming a gaussian core                              [deg]
#  11 ELONGATION             A_IMAGE/B_IMAGE                                           
#  12 ELLIPTICITY            1 - B_IMAGE/A_IMAGE                                       
         1 -10.9113     30.8444     15.3068   5.9439131973e+01   6.8438324171e+01    0.2778609    0.1188069 -31.50  0.001390851    2.091    0.522
         2 -12.9474    198.8555      5.5477   1.3410206544e+01   3.3513242189e+01    0.9257133    0.4449146  55.07   0.00420765    1.991    0.498
         3 -11.2657     84.6318      8.2727   3.5599118654e+01   6.0954149411e+01    0.2546794    0.2169053 -21.01 0.0004279274    1.293    0.226
         4 -12.5231     21.5693      5.1948   5.9218492882e+01   7.0861025649e+01    0.4592925    0.3891727  27.75  0.003463506    1.644    0.392
         5 -10.4121     93.5093      8.5413   3.3143787578e+01   5.9119654341e+01    0.1326637    0.1114899  26.85 0.0001226381    1.004    0.004
         6 -11.5589    159.9078      4.0871   1.7923490247e+01   4.3672934680e+01    0.3137307    0.2387773  11.96  0.001716549    1.600    0.375
         7 -12.2675    179.2792      8.7961   1.6639342121e+01   3.8218636853e+01    0.9812142          nan  56.72  0.002294408    6.580    0.848
         8 -10.9296     88.4557      4.0200   3.2637608111e+01   6.0601108569e+01    0.2068269    0.1555769  41.66 0.0007151173    1.172    0.147
         9  -9.9734     50.9352    244.8488   9.5355371312e+01   1.8587390869e+01    0.3178373    0.1339054  50.48  0.001438517    1.780    0.438
        10 -12.9240     64.2842    219.8302   9.1042342614e+01   2.1403299041e+01    0.5130418     0.414558 -63.54  0.001343688    1.531    0.347
        11 -13.6751     52.6883    228.7133   9.3890011201e+01   2.1258064783e+01     1.197411    0.5971265 -75.95  0.002552932    1.964    0.491
        12 -13.3290     65.0676    230.9073   9.1855718041e+01   1.9223049121e+01    0.7212439    0.5096723  24.73  0.001681964    2.235    0.553
        13 -15.4279     20.3911    213.4310   9.8525754894e+01   2.7919874035e+01     2.707405     1.210673  83.36   0.01522639    2.071    0.517
        14  -9.2614    159.6463    221.7381   7.2660555050e+01   5.5902350707e+00    0.1297035    0.0924352  22.04 0.0003688423    1.618    0.382
        15 -15.8344     22.4948    239.0075   9.9648513321e+01   2.2968324150e+01    0.9693262    0.6633114  44.18  0.005513688    1.566    0.361
        16 -12.3878     55.1915    249.5163   9.4967607842e+01   1.7242777631e+01    0.4084901    0.2784082  42.19 0.0005807127    1.546    0.353
        17  -9.9606    173.6057    219.7975   6.9622198629e+01   3.3938003587e+00    0.1628649    0.1274719 -60.41 0.0007030566    1.686    0.407
        18 -10.5753    135.9192    212.2417   7.6021095367e+01   1.1468386397e+01    0.3147076    0.2096322 -52.07  0.001723807    1.753    0.430
        19 -10.3246    173.0770    238.5101   7.2519849420e+01   6.7530714293e-01    0.1741574    0.1502752  35.07 0.0004426305    1.093    0.085
        20 -10.2307    227.5072    211.5189   5.7952197692e+01  -4.9044719526e+00     0.130231    0.1046034  16.90 0.0001024074    1.026    0.025
        21 -11.5301    153.7159    210.0997   7.2076474532e+01   8.6261748944e+00    0.4459984    0.2219733  29.63   0.00184224    2.551    0.608
        22 -10.1250    141.7223    211.5557   7.4739634308e+01   1.0552257281e+01    0.1960015    0.1083492  51.37 0.0009443031    1.645    0.392
        23 -14.6418     95.0541    195.2082   8.2195526320e+01   2.1763816309e+01     1.729465    0.9943033 -76.55  0.008541276    2.005    0.501
        24 -10.3842    224.3266    206.0088   5.7535377505e+01  -3.6048022551e+00    0.1830318     0.157087   1.89  0.001165436    1.107    0.096
        25  -9.8041    123.9976    205.7037   7.7538246310e+01   1.4791850007e+01    0.1882525    0.1510526  50.15 0.0003935087    1.079    0.073
        26 -11.6294    148.0667    203.0019   7.2122410975e+01   1.0936474232e+01    0.4233413    0.3043079  35.50  0.002297025    1.325    0.246
        27 -14.0322     87.8570    206.8559   8.5121484640e+01   2.0533546301e+01     1.223947    0.6887572 -64.91  0.005276315    1.861    0.463
        28 -10.3311    212.3129    199.8474   5.8653516453e+01  -5.8051802891e-01    0.2396844    0.1173228 -44.41 0.0009440882    2.488    0.598
        29  -9.7263    225.6582    199.3292   5.6047539076e+01  -2.8910722576e+00      0.12002    0.1068544  77.70 0.0007051321    1.744    0.426
        30 -11.2137    189.3607    195.2299   6.2297229857e+01   4.4410992432e+00    0.4157572    0.3013303  -7.72   0.00214815    1.730    0.422
        31 -11.0198     12.2532    194.4830   9.8789691745e+01   3.2477099956e+01    0.2623625    0.1435461 -62.57  0.001205364    1.921    0.479
        32 -16.6993     68.3442    193.9308   8.7667968581e+01   2.6040555992e+01     5.006408     4.068748 -31.52   0.03035884    1.959    0.489
        33 -11.0797     34.4626    199.8720   9.4998110971e+01   2.9075823966e+01    0.1917251     0.157552  18.16  0.001312259    1.924    0.480
        34 -10.6966    124.4963    195.3501   7.5913780819e+01   1.6714381487e+01    0.3170896    0.2907496  -6.66  0.001909423    1.418    0.295
        35  -9.9260    166.8922    237.6558   7.3561577288e+01   1.8577899538e+00    0.1837459    0.1635337  -1.03 0.0005428958    1.338    0.253
        36 -11.2656      9.9716    182.8387   9.8444317063e+01   3.5072683350e+01    0.3561401    0.1711839  57.49   0.00211316    1.846    0.458
        37 -12.3987     10.1861    188.7138   9.8798913875e+01   3.3843284075e+01    0.3906531    0.2602077  49.25   0.00276421    1.471    0.320
        38 -14.1092     35.3380    247.0860   9.8043921272e+01   2.0101780577e+01     1.006843    0.5032037  35.36  0.006023705    2.393    0.582
        39 -10.0067      6.3256    185.2960   9.9305402320e+01   3.4891845026e+01    0.1589961    0.1553623 -85.85 0.0002333546    1.521    0.342
        40 -10.9212    223.4179    220.3896   6.0263828386e+01  -5.3994916577e+00    0.2259121    0.1913929  29.47   0.00064234    1.182    0.154
        41 -10.8811     37.5982    183.6032   9.2989780377e+01   3.2112935192e+01      0.28467    0.1637888  78.98   0.00152823    1.629    0.386
        42  -9.9363      1.9556    182.5476   9.9958250500e+01   3.5833269680e+01    0.1696137    0.1115148  89.99 0.0004943129    1.141    0.123
        43  -9.7813     24.5317    179.4310   9.5297997452e+01   3.4397543134e+01    0.2038427   0.07985438 -63.41 0.0007923797    2.290    0.563
        44 -10.3463    248.5123    185.8827   4.9332070992e+01  -4.9363783185e+00     0.236169    0.1775883  38.47 0.0006766262    1.377    0.274
        45  -9.7253     91.0615    236.4835   8.7641546084e+01   1.4502307611e+01    0.1825757   0.09646677  44.76 0.0007315345    1.562    0.360
        46  -9.7544    201.6778    235.6549   6.6770246170e+01  -3.7774963333e+00    0.1286386   0.08337273  14.26 0.0007050008    1.734    0.423
        47 -12.0255     91.7414    168.9330   7.9207902543e+01   2.7948469595e+01    0.6532727    0.3642455  76.15  0.002647058    2.717    0.632
        48  -9.3877    172.9657    195.9499   6.5767411828e+01   7.4717874721e+00    0.1672806    0.1490287  35.46 0.0004592617    1.017    0.017
        49 -10.6378    128.1850    176.8505   7.2099650603e+01   1.9803791679e+01    0.2165574    0.1809902  69.89 0.0003834691    1.195    0.163
        50 -10.7029     45.8030    176.5011   9.0565420717e+01   3.2698091352e+01    0.3047672    0.1961558 -89.05  0.001791568    1.394    0.282
        51 -11.7518     47.8468    168.8245   8.9282373976e+01   3.4148119196e+01    0.5119067    0.2155723 -54.45  0.001671207    2.500    0.600
        52 -15.2957      8.6262    227.3830   1.0127846451e+02   2.6506063813e+01     1.149817    0.8029357  73.81  0.007573896    1.031    0.030
        53  -9.6927    113.7362    175.3932   7.5144592448e+01   2.2772447218e+01    0.1857544     0.129919  35.27 0.0004230964    1.517    0.341
        54  -9.9098      7.0967    175.1320   9.8470676482e+01   3.6934818160e+01     0.153225     0.119773 -81.81            0    1.186    0.157
        55 -10.0495     22.2376    173.6906   9.5286996641e+01   3.5853428182e+01    0.2040676    0.1258852 -88.18  0.001268438    1.331    0.249
        56 -10.1488     27.4225    172.5382   9.4101021007e+01   3.5585807434e+01    0.1765578    0.1588047  56.49  0.001294842    1.320    0.243
        57 -11.6020    105.7501    170.1635   7.6130088185e+01   2.5320695323e+01    0.3839554    0.2990838  70.22  0.001416116    1.280    0.219
        58 -11.9554    220.0611    230.6810   6.2611835985e+01  -6.1708692367e+00    0.2412701    0.2205072  -4.92 0.0006186545    1.296    0.229
        59  -9.3425     18.6912    166.7096   9.5433694775e+01   3.7699553663e+01     0.163939    0.1202903 -63.73  0.001103854    1.402    0.286
        60 -10.7114     22.3557    164.1965   9.4424671773e+01   3.7903640018e+01    0.2341457    0.1409771 -77.64 0.0006105485    1.356    0.263
        61 -10.9499     21.0323    160.5126   9.4372904614e+01   3.8837457350e+01    0.2239795    0.1120359  33.32  0.001023115    2.262    0.558
        62  -9.9754     10.0704    167.3867   9.7295508497e+01   3.8322776983e+01    0.2029451    0.1067089  51.37 0.0007823616    1.808    0.447
        63 -10.9728    215.5318    226.5053   6.2745526517e+01  -4.8885303491e+00    0.3329326    0.1369925  46.30  0.001490437    2.402    0.584
        64  -9.6447     27.2389    166.4019   9.3572099405e+01   3.6943402488e+01    0.1601386   0.09228631  52.10  0.000757355    1.667    0.400
        65 -10.3577    205.7847    164.9164   5.2969232349e+01   6.3523462797e+00    0.2301027    0.1887243   7.72 0.0006190876    1.262    0.208
        66 -10.6214      2.9867    170.2974   9.8951222545e+01   3.8295902408e+01    0.1968577    0.1230922 -75.14 0.0003319058    1.321    0.243
        67 -10.6147    212.0327    223.3742   6.2867124343e+01  -3.8844975092e+00    0.2876506    0.1989893  11.24  0.001668277    1.505    0.336
        68 -11.0934     28.1743    160.5337   9.2793877449e+01   3.8146246633e+01    0.2192517    0.1807495  87.30 0.0003789731    1.057    0.054
        69 -10.3083     87.2649    229.7668   8.7684602245e+01   1.6267824968e+01     0.339752    0.1199461  46.41   0.00157652    2.240    0.554
        70 -10.6305     46.1006    158.9405   8.8527957334e+01   3.6574497304e+01    0.2462545    0.1763875 -11.81  0.001299935    2.572    0.611
        71  -9.9841     14.4646    156.4811   9.5448530748e+01   4.0312010694e+01    0.1959634   0.09077058 -75.26 9.113702e-05    1.730    0.422
        72 -12.7660     21.9193    153.7370   9.3522839068e+01   4.0256690331e+01    0.6225778     0.511278  42.09  0.003677906    1.429    0.300
        73 -11.2907     22.2137    149.3499   9.3010057482e+01   4.1210507856e+01    0.3886093    0.1601973  47.32  0.001435626    2.461    0.594
        74  -9.9040     50.8536    154.1228   8.6801141457e+01   3.7110367046e+01    0.1946224    0.1499097  77.95 0.0003863483    1.201    0.168
        75 -11.0658    129.8821    151.1051   6.6850703573e+01   2.5014928094e+01    0.2766717    0.1988373  53.94 0.0008919834    1.380    0.276
        76 -12.0019    108.8624    148.2918   7.1471159482e+01   2.9672049412e+01    0.3945322    0.3244618 -50.37  0.001521099    1.262    0.208
        77  -9.8831    113.0117    227.9622   8.2607959510e+01   1.2564999415e+01    0.1796377    0.1521833  14.13   0.00101522    1.691    0.408
        78  -9.8140    224.3016    148.6436   4.5847407063e+01   5.3462888989e+00    0.1410434    0.1149713 -69.20 0.0007038135    1.710    0.415
        79  -9.6405      4.9841    147.2574   9.6743669955e+01   4.3099980081e+01    0.1459453    0.1199383  79.94  0.000307042    1.143    0.125
        80 -12.5848    103.8249    142.0968   7.1533522494e+01   3.2001482504e+01    0.9599786    0.4152093  40.58  0.003719604    2.323    0.570
        81  -9.6625     24.9382    144.8641   9.1888517816e+01   4.1971780960e+01    0.1805336    0.1407382 -63.35 0.0004625027    1.249    0.200
        82 -10.3287    212.9756    154.0000   4.9186472064e+01   6.7666400724e+00    0.2415755   0.08046225  46.66 0.0008045475    2.957    0.662
        83  -9.5972     94.2759    141.2986   7.3837019618e+01   3.3844490320e+01    0.1356944    0.1121947 -26.73 0.0001498508    1.534    0.348
        84 -13.3633    153.3203    118.5640   5.3638967025e+01   2.7032428236e+01     1.355869    0.6983597  33.04  0.004750663    2.536    0.606
        85 -11.6673    136.0792    130.7880   6.0866979737e+01   2.8220835569e+01    0.6613609    0.2385681  45.47  0.002131928    2.728    0.633
        86 -13.4974    143.1405    132.8988   5.9616610869e+01   2.6240904416e+01     1.128742    0.7428868  -5.38  0.004029472    3.048    0.672
        87 -13.6251    153.7129    130.1199   5.6405362502e+01   2.4502387821e+01     1.094753    0.7113849  33.63  0.004646756    1.707    0.414
        88  -9.7505     11.6827    133.4244   9.3851270794e+01   4.5665135734e+01    0.1305704    0.1155235 -12.15 0.0009413757    1.573    0.364
        89  -9.5773    126.2470    131.8013   6.3583481755e+01   3.0047736897e+01    0.2007812    0.1803236   5.88 0.0004137688    1.303    0.233
        90  -8.9006    205.2925    131.7021   4.5565624550e+01   1.2418979533e+01    0.1460878    0.1210862 -76.70 0.0002329217    1.563    0.360
        91 -10.4512     30.9775    128.9110   8.8421672379e+01   4.5056179341e+01    0.2852493    0.2135207 -49.60  0.001070714    1.396    0.283
        92  -9.8533     14.5531    126.9018   9.2411156740e+01   4.6915175445e+01     0.171471    0.1567668 -44.73 0.0006263093    1.336    0.252
        93  -9.9473    245.3979    123.0345   3.6352542420e+01   5.2791029365e+00    0.1992915    0.1835395  33.18 0.0002896738    1.152    0.132
        94 -10.6718    125.3154    221.9176   7.9466519508e+01   1.1583014304e+01    0.2413941    0.1977088  75.61 0.0005105641    1.244    0.196
        95 -10.1496    189.0576    121.0304   4.6248295293e+01   1.8157627946e+01    0.2247684    0.2217016   6.86            0    1.009    0.009
        96  -9.9670     35.9754    120.3301   8.5840658619e+01   4.6559851186e+01    0.1617805    0.1554486 -83.46 0.0007818309    1.173    0.147
        97 -10.6219    100.6661    119.4522   6.7539068551e+01   3.7800503238e+01    0.4622241    0.1688807  48.14  0.001541366    3.104    0.678
        98  -9.6314     30.7904    119.0259   8.7069861954e+01   4.7352604816e+01    0.1802907    0.1255925  65.11  0.001056645    1.597    0.374
        99 -11.1870     48.1597    115.9448   8.1697016974e+01   4.6302010964e+01    0.3394128    0.2264745 -53.64  0.001440959    1.345    0.257
       100 -13.0272    135.9371    114.1303   5.6813258429e+01   3.1897079184e+01    0.5758365    0.4931577  25.67  0.002853738    1.272    0.214
       101 -13.7712    150.2046    106.0082   5.1106706945e+01   3.0376341578e+01     1.145144    0.8443992 -67.97  0.005010736    1.713    0.416
       102  -9.9268     23.8318    115.8770   8.8527493968e+01   4.8684059299e+01    0.1849792    0.1340006 -60.31 0.0004746687    1.183    0.155
       103 -10.5167     42.7560    120.9024   8.4058233979e+01   4.5735841815e+01    0.2326941     0.208575 -37.75  0.001398279    1.280    0.219
       104  -9.5831    230.6802    112.7074   3.6357311655e+01   1.0111373065e+01    0.1466788    0.1120223  12.17 0.0004237823    1.607    0.378
       105 -14.8386     15.5550    236.3766   1.0061820285e+02   2.4178506703e+01    0.6456101    0.4678074 -33.12  0.004027202    3.660    0.727
       106 -11.8441     53.7839    110.3930   7.9036041576e+01   4.6945198129e+01    0.4025379    0.2347623 -45.68  0.001842211    1.679    0.404
       107 -10.4372    160.3113    107.8711   4.9194852374e+01   2.7606665219e+01     0.293727    0.2211256 -21.10 0.0009428026    1.569    0.362
       108 -10.2734     91.9928    108.1201   6.7315853621e+01   4.1927530844e+01    0.2126866     0.203789 -62.38 0.0003211561    1.017    0.017
       109  -9.7750    116.5840    103.2597   5.9106511091e+01   3.8384798833e+01    0.2193958    0.1430425 -36.52 0.0009499184    1.628    0.386
       110  -9.3530     79.6495    101.3152   6.9309399096e+01   4.5498120678e+01    0.1447163    0.1100832  79.69  0.000704688    1.730    0.422
       111 -11.8116     57.3957     99.4914   7.5692258172e+01   4.9022131682e+01    0.5208012    0.2679873 -46.82   0.00244014    1.789    0.441
       112 -12.1071     54.6629     93.1581   7.5129234394e+01   5.0794130496e+01     0.304213    0.2582472  82.99  0.001819344    1.379    0.275
       113 -11.2117     10.1968    100.8189   9.0240115608e+01   5.3098764385e+01     0.184173    0.1501516 -68.32 0.0003289782    1.045    0.043
       114 -10.3013    237.8248     98.9730   3.1903224751e+01   1.0828688507e+01    0.2151592    0.1793162 -57.04 0.0004518425    1.250    0.200
       115 -10.2574     21.4994     97.4646   8.6359260039e+01   5.3055231946e+01    0.1229768   0.09910604 -64.21 5.309473e-05    1.003    0.003
       116  -9.1004     66.5253    116.4868   7.6538171635e+01   4.3899888271e+01    0.1376403    0.1233049 -69.89 3.029063e-05    1.021    0.021
       117 -10.3712     59.0048     91.9603   7.3465838491e+01   5.0528088825e+01    0.2042158      0.16039  79.60 0.0004735863    1.633    0.388
       118 -12.0568    130.9986     90.0969   5.1533820952e+01   3.8072299824e+01    0.4750648     0.247543 -38.30  0.001844056    1.971    0.493
       119  -9.3477    232.4275     89.4464   3.0428385933e+01   1.3602804943e+01    0.1443278    0.1341547 -47.28 6.978988e-05    1.018    0.018
       120 -10.6906     58.5627     87.1990   7.2454337378e+01   5.1646577299e+01    0.2691976    0.1869628 -77.58  0.001366414    1.829    0.453
       121 -12.2866     46.5926     87.4780   7.6433306368e+01   5.2991959155e+01    0.4424656    0.2828893   9.57  0.002309264    2.092    0.522
       122 -12.1819     50.7761     83.5943   7.4132740806e+01   5.3383673659e+01    0.3603256     0.242367  42.96   0.00197416    1.753    0.429
       123 -12.3190     50.8390     79.6518   7.3129696181e+01   5.4238644550e+01    0.6564351    0.3400462  41.50  0.003159194    2.291    0.563
       124 -11.1128    125.5669     86.5400   5.1946000807e+01   4.0005916823e+01    0.3813656    0.2490613   5.76  0.001406388    2.729    0.634
       125  -9.4624     11.7664     86.9940   8.7620895103e+01   5.6067886924e+01    0.1588994   0.07933132 -65.84 0.0004133769    1.568    0.362
       126 -11.5021    115.8511     85.7492   5.4396507107e+01   4.2259347609e+01    0.2545141    0.2434918 -44.72 0.0002372015    1.059    0.055
       127 -11.1557     21.8745     80.7363   8.3177152827e+01   5.6746055705e+01    0.2153667    0.1633676 -60.13 0.0002347433    1.079    0.073
       128  -9.0755    214.2885     78.6833   3.0594681911e+01   1.9668652440e+01    0.1537517      0.11159 -66.11 0.0002895028    1.592    0.372
       129  -9.6201     88.2621     78.4096   6.0452661662e+01   4.9085135180e+01    0.1937704    0.1361723  49.94 0.0009393069    1.625    0.385
       130  -9.9870    112.0072     76.3446   5.2647249140e+01   4.4956653404e+01    0.2570346     0.220614  30.04 0.0007978359    1.180    0.153
       131  -9.9681    116.1701     74.1527   5.0776106246e+01   4.4504725438e+01    0.2689436     0.207484  28.18  0.001307249    1.379    0.275
       132 -10.0394     74.9977     75.6679   6.3921183798e+01   5.1832139820e+01    0.1873633    0.1727437  13.90   0.00040276    1.138    0.121
       133  -9.6128     65.8055     74.0264   6.6519112727e+01   5.3528103660e+01    0.1801839    0.1543949 -37.70 0.0002192476    1.039    0.037
       134 -11.5190     32.5035     74.0080   7.8067025238e+01   5.7336861994e+01    0.2612041    0.1505213  -9.60  0.001295477    2.520    0.603
       135 -11.4648    100.2258     69.0891   5.3844568438e+01   4.8747007449e+01    0.4842419    0.2504033 -32.01  0.001644594    2.132    0.531
       136 -12.3827     28.0452     64.0967   7.7241208217e+01   5.9819547572e+01    0.7191434    0.3121451  29.76  0.003598924    2.646    0.622
       137 -10.2387    199.0163     65.2595   2.9560528162e+01   2.5667065106e+01    0.2081173    0.1928155  65.57 0.0003567766    1.067    0.063
       138 -10.6642    178.2973     64.5126   3.3084351487e+01   3.1121019734e+01    0.2784928    0.2530339  23.48 0.0007932868    1.201    0.168
       139 -10.0379    139.3268     61.3183   4.0560240705e+01   4.1518355863e+01     0.160248    0.1169639  19.18 0.0007046078    1.679    0.404
       140 -11.2664    166.0548     58.4902   3.3715468790e+01   3.5257048522e+01    0.2609284    0.2359825 -31.46  0.001363425    1.155    0.134
       141 -10.3681      4.5574     59.1491   8.4818016704e+01   6.2428048024e+01    0.2227096    0.1495841 -13.93 0.0009564434    1.704    0.413
       142 -10.3288    194.0314     57.3278   2.8210778523e+01   2.8184749220e+01    0.2492952    0.2167474 -35.47 0.0005459741    1.188    0.158
       143 -11.6025     50.9895     56.4882   6.6490953747e+01   5.9017929141e+01    0.3736627     0.250356  51.46  0.001981942    2.161    0.537
       144  -9.4966     18.3929     49.2235   7.7009412970e+01   6.3583971832e+01    0.1618134   0.09885143 -63.31 0.0004742056    1.651    0.394
       145 -10.8745     51.4139     43.2258   6.1849599671e+01   6.1447771586e+01     0.174589    0.1122586 -49.70 0.0009491688    1.636    0.389
       146 -11.2707     60.5075     39.4797   5.6973179422e+01   6.0861302459e+01    0.2223518    0.1225338  33.34  0.001126999    1.887    0.470
       147 -10.1426    122.2264     41.4319   3.8130208786e+01   4.8727755990e+01    0.1985869      0.13931  63.89 0.0009406444    1.602    0.376
       148 -11.9921     78.0811     31.2817   4.7407982698e+01   5.9319392409e+01    0.4503935      0.27346  38.64  0.001947239    1.604    0.377
       149 -10.5703    106.6012     31.4004   3.8628229828e+01   5.3649145781e+01    0.2587103    0.2195953  16.08 0.0006397028    1.111    0.100
       150 -10.6678     84.5100     24.0533   4.2328191091e+01   5.9136575240e+01    0.2149953    0.1648514  35.65  0.001245904    1.221    0.181
       151 -10.1238    238.0157    248.5216   6.2316209041e+01  -1.1026000862e+01    0.2002929    0.1434169 -47.63  0.001264055    2.414    0.586
       152 -10.0615    214.2769     10.4490   1.3032766153e+01   2.9120945946e+01    0.1935459    0.1158777  89.21 0.0009470899    1.644    0.392
       153  -9.5047     93.3167    248.8322   8.8399913290e+01   1.2064060427e+01    0.1332898    0.1005721 -62.77 0.0003582041    1.657    0.396
       154  -9.5357    125.0615    248.0416   8.2634848456e+01   7.2671638841e+00    0.1351325    0.1122229  57.64 0.0009402038    1.097    0.088
       155  -9.6585     54.6506     10.6961   4.7106395774e+01   6.5957934529e+01    0.1297468   0.07978032   8.51 0.0007040742    1.699    0.411
       156  -9.9492     84.0698    246.3331   8.9800398637e+01   1.3836687968e+01    0.1712264    0.1116306  54.54 0.0007092882    1.164    0.141
       157 -10.8244    180.4849    244.3189   7.1966232381e+01  -1.3875746769e+00    0.3315651    0.1314478  44.32 0.0006842162    2.036    0.509
       158  -9.7147    133.0143    241.5194   8.0422945895e+01   6.9976179293e+00    0.2010514   0.09763605  44.14  0.001040666    1.618    0.382
       159 -10.9476    116.2231    240.2581   8.3397622789e+01   9.9421091582e+00    0.2043975    0.1549498  59.95 0.0002443358    1.107    0.097
