#   1 NUMBER                 Running object number                                     
#   2 MAG_AUTO               Kron-like elliptical aperture magnitude                    [mag]
#   3 X_IMAGE                Object position along x                                    [pixel]
#   4 Y_IMAGE                Object position along y                                    [pixel]
#   5 X_WORLD                Barycenter position along world x axis                     [deg]
#   6 Y_WORLD                Barycenter position along world y axis                     [deg]
#   7 A_WORLD                Profile RMS along major axis (world units)                 [deg]
#   8 B_WORLD                Profile RMS along minor axis (world units)                 [deg]
#   9 THETA_WORLD            Position angle (CCW/world-x)                               [deg]
#  10 FWHM_WORLD             FWHM assuming a gaussian core                              [deg]
#  11 ELONGATION             A_IMAGE/B_IMAGE                                           
#  12 ELLIPTICITY            1 - B_IMAGE/A_IMAGE                                       
         1 -14.2012    170.5765     51.2682   6.6704704085e+01   3.6051587647e+01     1.823379     1.204996  19.16  0.005887831    2.096    0.523
         2 -14.3484    184.9996     36.2181   5.9704573189e+01   3.4442204611e+01     1.086973    0.9675489 -11.92  0.003841071    1.217    0.179
         3 -13.5927    189.2599     30.1480   5.7295415733e+01   3.4111149907e+01     0.577473    0.5629178 -32.32  0.001303514    1.080    0.074
         4 -14.5469    206.6838      5.9742   4.8504253776e+01   3.2371713107e+01     1.579173     1.219007  17.41  0.006230479    1.680    0.405
         5 -13.1705    189.7678     14.8607   5.2778339956e+01   3.5694637816e+01    0.5988099    0.4493364 -72.55  0.002446707    1.379    0.275
         6 -12.0107     50.3576      5.0863   8.1041752661e+01   6.8262199597e+01     0.216792    0.1459099  23.91 0.0007845866    1.374    0.272
         7 -10.0637    108.0169      1.6667   6.1479950988e+01   5.7252785764e+01    0.2106463    0.1097097  89.78 0.0007047385    4.488    0.777
         8 -12.3253     69.5374    218.6955   1.2539973431e+02   2.1663443035e+01    0.3512709    0.1911865  62.63  0.001460702    1.715    0.417
         9 -11.6084    249.0260    248.9142   9.6679632922e+01  -9.3327837964e+00    0.2392103    0.1621786  -2.18  0.001734513    1.311    0.237
        10 -17.8966     51.6193    245.7451   1.3062490496e+02   1.9117819303e+01     7.349672     4.965095  31.22   0.05162075    1.853    0.460
        11 -12.3267    151.9685    192.5809   1.0542686317e+02   1.3731047053e+01    0.3733257    0.2618305  73.18  0.001341934    2.058    0.514
        12 -10.2991     59.8684    188.4184   1.2445445303e+02   2.8847730336e+01    0.2232984    0.1536544 -69.19 0.0007481272    1.416    0.294
        13 -12.0593    136.2709    185.9595   1.0765148708e+02   1.7723009022e+01       0.2498     0.185575  40.52 0.0007081628    1.238    0.192
        14 -10.6872     87.9529    202.4471   1.2013580549e+02   2.2242331347e+01    0.2741907    0.2407753  73.57  0.001123257    1.067    0.063
        15 -12.3684    150.0837    181.5537   1.0394913895e+02   1.6089286284e+01    0.4071516    0.2740691 -86.54  0.001752825    2.653    0.623
        16 -11.9433     99.3099    180.8757   1.1496455656e+02   2.4891773909e+01    0.2709335    0.2604517  65.19 0.0006084521    1.134    0.118
        17 -19.0785     25.0255     99.6378   1.2195444004e+02   5.2600104918e+01       16.684     1.901216 -67.55   0.03865175    8.192    0.878
        18  -9.6402    168.8688    177.7898   9.9303325646e+01   1.3305235882e+01    0.1821187    0.1619464  70.14 0.0004700414    1.327    0.247
        19 -12.5040    139.3550    170.1218   1.0424902402e+02   2.0264497900e+01    0.6109579    0.2879535 -43.92  0.001967954    2.330    0.571
        20  -9.7577     65.6742    171.0303   1.2123931086e+02   3.1817231337e+01    0.2098388    0.1492711  54.89 0.0005647042    1.319    0.242
        21 -10.3818    165.0832    171.8234   9.8966182408e+01   1.5106390298e+01    0.2160014    0.1983331 -49.31 0.0004865005    1.197    0.165
        22 -10.3810    201.6642    169.3208   9.1038155616e+01   8.5617079961e+00    0.2891489    0.2443105 -78.27  0.001574832    1.778    0.438
        23 -11.1556    204.5941    165.5427   8.9697501175e+01   8.6272256957e+00    0.4515764    0.3445395 -41.35  0.001373113    1.425    0.298
        24 -11.8882    192.9932    165.1479   9.1883952375e+01   1.0919947401e+01    0.5603805    0.3740669 -60.65  0.001413178    2.280    0.561
        25 -12.5094     73.1009    212.4744   1.2414497617e+02   2.2361568765e+01    0.2432763     0.194731  73.11 0.0004495134    1.068    0.063
        26 -10.8054    230.4731    166.4856   8.5131690300e+01   3.6972748355e+00    0.1344212    0.1164591   1.24 7.708848e-05    1.019    0.018
        27 -10.9351    160.0409    164.6220   9.8642999737e+01   1.7428995636e+01    0.2585233    0.2019965 -66.64 0.0007666845    1.595    0.373
        28 -10.7526     76.9004    207.2149   1.2288004520e+02   2.2858140402e+01    0.3788943    0.2138206 -62.70  0.001500834    1.864    0.464
        29 -10.9472      5.4952    161.5827   1.3373531290e+02   4.0076769053e+01    0.2354651     0.168973  20.46  0.001115097    1.918    0.479
        30 -12.7844     65.7792    198.6415   1.2425834581e+02   2.6013683829e+01    0.5923282    0.2494787 -63.39  0.002494585    2.343    0.573
        31 -11.3933    188.9777    154.9117   9.0532172227e+01   1.3500101580e+01    0.4447956    0.3950942  68.36  0.002467335    1.374    0.272
        32 -12.8643     99.5228    153.1779   1.1054911440e+02   3.0837678663e+01    0.6104233    0.4456888 -31.63  0.003092939    1.799    0.444
        33 -11.6962    133.8623    145.5450   1.0072016713e+02   2.6376106443e+01     1.174055    0.3082629 -54.69  0.002894227    5.884    0.830
        34 -11.8386    192.9877    194.6423   9.7566182037e+01   6.0880062927e+00     1.014892    0.5265495 -61.76  0.003011732    7.002    0.857
        35 -10.6864    113.0231    150.9638   1.0684187426e+02   2.9044308683e+01    0.2375054    0.1707019  81.01  0.001134219    1.784    0.440
        36 -10.6725    174.5038    148.8309   9.2219486051e+01   1.7552315352e+01    0.2978165    0.2626737  65.37  0.000773752    1.301    0.231
        37  -9.6615    161.6706    149.3356   9.5120426756e+01   2.0073312267e+01    0.1486927    0.1183307  87.03 0.0007052043    1.728    0.421
        38  -9.6999     69.3457    173.0405   1.2065284927e+02   3.0897417650e+01    0.1747663    0.1440756  85.44  0.000570902    1.080    0.074
        39 -12.3920    109.3918    139.2630   1.0546253980e+02   3.2281415608e+01    0.5963131     0.334988 -36.00  0.002456088    2.327    0.570
        40 -12.5998     98.3428    138.7152   1.0818615473e+02   3.4294272867e+01    0.2714599    0.2695473  87.27 0.0005542621    1.093    0.085
        41 -11.5853    105.9215    130.7912   1.0460334440e+02   3.4803023680e+01    0.3884491    0.3106739 -70.84  0.001254512    1.309    0.236
        42 -11.5664    104.0957    125.7065   1.0398988176e+02   3.6278185585e+01    0.2966072    0.2574901 -16.19 0.0005532622    1.368    0.269
        43 -11.2880    135.7952    128.4057   9.6452317283e+01   2.9656718319e+01    0.5895085    0.1189184 -49.49  0.001385285    5.735    0.826
        44 -10.8964    160.6936    127.7642   9.0403210223e+01   2.4569802975e+01     0.377844    0.2348237 -56.09  0.001586215    1.931    0.482
        45 -10.6825    120.7036    123.7057   9.9162773118e+01   3.3666261477e+01    0.2815093    0.1761963 -38.49  0.001224715    1.715    0.417
        46 -11.2313    116.3417    129.6007   1.0163346305e+02   3.3184226122e+01    0.2915597    0.2503674 -15.68 0.0005945583    1.383    0.277
        47  -9.5827    153.2962    119.6548   9.0111501076e+01   2.7809371106e+01    0.1549767    0.1228353 -80.57  0.000703314    1.670    0.401
        48 -10.2067    111.0855    118.9571   1.0058288849e+02   3.6542617483e+01    0.2159129     0.208353 -68.65 0.0003309751    1.017    0.017
        49 -12.6773     57.7882    213.4604   1.2717840185e+02   2.4126207034e+01    0.2873271    0.1924452  44.37 0.0009465973    1.380    0.275
        50 -10.7120    168.1767    113.0310   8.5030913035e+01   2.5829724209e+01     0.339528    0.2778187 -69.90 0.0009854895    1.499    0.333
        51 -10.8421    135.1364    111.7760   9.2521347947e+01   3.3339551335e+01    0.3983926     0.101682 -42.65  0.001088426    3.966    0.748
        52 -10.5966    205.4098    110.1056   7.6759405831e+01   1.7950768174e+01     0.321578    0.2215533  43.15  0.000904833    1.499    0.333
        53 -11.3468    118.5381    110.0774   9.6404101268e+01   3.7089385676e+01     0.484634     0.238341  54.53   0.00178138    2.568    0.611
        54 -11.7839     64.7816    208.9170   1.2543470541e+02   2.4121902850e+01    0.4537882    0.3480061 -43.62  0.002317633    1.889    0.471
        55 -10.1654     51.7303    208.7900   1.2795042400e+02   2.5751560313e+01    0.1499993    0.1004923  70.01 0.0003360814    1.265    0.209
        56  -9.5709    152.4744     80.5105   7.9492594377e+01   3.5674088921e+01    0.1535497    0.1498436  -6.51  0.000251101    1.005    0.005
        57  -9.6052     74.1765     73.7825   9.9647508395e+01   5.2840952377e+01     0.183359    0.1506508 -20.52 0.0004065367    1.251    0.201
        58 -12.6235    168.1105     67.9341   7.2301260665e+01   3.4069393983e+01     0.941032    0.5317019 -66.26  0.001023216    3.297    0.697
        59 -10.0199    168.9673    235.0484   1.0848612796e+02   4.0972151084e+00    0.1744974    0.1456201  34.37 0.0004289125    1.043    0.041
        60 -11.9169     71.9925    230.1104   1.2592612953e+02   1.9284309535e+01    0.2167025     0.135182  52.60 0.0004124249    1.279    0.218
        61 -10.4408      6.0674    228.2713   1.3723146750e+02   2.6920671079e+01    0.3848344    0.2231242  20.44  0.002422634    3.059    0.673
        62 -11.0271     82.0080    194.9430   1.2050877863e+02   2.4572413603e+01    0.3114486    0.2578633  40.44  0.001834786    1.281    0.219
        63 -10.9702     67.5707    225.5799   1.2635759389e+02   2.0659620195e+01    0.2766228    0.1148503  37.70  0.001257772    2.224    0.550
        64 -12.7634     54.3275    221.6979   1.2848056579e+02   2.3006915822e+01    0.2751586     0.174885  51.50 0.0007192564    1.291    0.225
