#   1 NUMBER                 Running object number                                     
#   2 MAG_AUTO               Kron-like elliptical aperture magnitude                    [mag]
#   3 X_IMAGE                Object position along x                                    [pixel]
#   4 Y_IMAGE                Object position along y                                    [pixel]
#   5 X_WORLD                Barycenter position along world x axis                     [deg]
#   6 Y_WORLD                Barycenter position along world y axis                     [deg]
#   7 A_WORLD                Profile RMS along major axis (world units)                 [deg]
#   8 B_WORLD                Profile RMS along minor axis (world units)                 [deg]
#   9 THETA_WORLD            Position angle (CCW/world-x)                               [deg]
#  10 FWHM_WORLD             FWHM assuming a gaussian core                              [deg]
#  11 ELONGATION             A_IMAGE/B_IMAGE                                           
#  12 ELLIPTICITY            1 - B_IMAGE/A_IMAGE                                       
         1 -10.9528    244.8460     33.8050   3.6281984138e+00   2.2482403856e+01    0.6378281    0.4150032 -46.57  0.002948436    1.112    0.101
         2  -8.3020    117.1553     12.8606   9.3437008679e+00   5.4358684397e+01    0.3460795    0.1600618 -51.10  0.001436307    2.200    0.545
         3  -8.6408     92.9213     13.4858   1.4052551911e+01   6.0763671640e+01     0.237647    0.2053722 -40.03 0.0003238355    1.252    0.201
         4  -9.1493    120.6282      9.0893   7.3584867391e+00   5.3809610980e+01    0.3469202    0.2570745 -66.50  0.001570566    1.257    0.205
         5  -9.3759     29.4932    249.2537   8.4488658878e+01   1.8176648730e+01    0.2816279    0.2060995  55.41 0.0006480405    1.173    0.148
         6  -7.6622     48.7068    249.6079   8.0243461424e+01   1.6148053483e+01    0.1688034    0.1054642 -83.21  0.001041939    1.955    0.488
         7  -8.8912     39.5696    248.3314   8.2213975554e+01   1.7333700326e+01    0.3025033    0.1156319 -82.79  0.001450519    3.298    0.697
         8  -9.8750      2.5246    249.9121   9.0370867385e+01   2.0537223555e+01     0.712172     0.375286  25.15            0    1.653    0.395
         9 -12.1942     43.8255    221.1734   7.9753063789e+01   2.2199024147e+01     2.772138     1.013374  17.69   0.01019179    3.578    0.720
        10 -11.9668      4.2680    228.6524   8.9566665846e+01   2.4507462877e+01      1.13543    0.5640218 -88.80  0.006325652    2.110    0.526
        11 -11.1161     10.3131    225.0838   8.8060933981e+01   2.4711319920e+01    0.7438438     0.410543  69.62   0.00272143    1.639    0.390
        12  -8.2978     55.4709    239.9660   7.8149597828e+01   1.7191360406e+01    0.1572725    0.1170418  86.82  0.001013902    1.562    0.360
        13  -8.6641     38.0023    237.3212   8.2039142029e+01   1.9571983161e+01    0.2274381    0.1240543  55.41 0.0007993853    1.576    0.365
        14  -6.9674    219.3064    226.6583   4.3114176846e+01  -9.9734907542e-02    0.0874174   0.08264475   1.48 0.0007042247    1.686    0.407
        15  -6.8912    139.9846    227.0000   5.7865048202e+01   9.1216659061e+00    0.2076055    0.0587239  31.02 0.0008033277    2.949    0.661
        16  -7.6281    124.5240    225.4499   6.1004039021e+01   1.1374639133e+01    0.1262315    0.1030938  23.71 3.014902e-06    1.005    0.005
        17 -11.8706     10.2291    207.3112   8.7544997816e+01   2.8534845008e+01    0.9752888    0.9027511 -70.47  0.005368566    1.367    0.269
        18 -11.4823     19.7745    227.1597   8.5881995657e+01   2.3414281336e+01    0.7802872    0.5149504  82.95  0.002809111    1.555    0.357
        19  -9.7608     94.7693    213.0229   6.6446399015e+01   1.7622383690e+01    0.2454087    0.2149522 -37.57  0.000430845    1.351    0.260
        20  -9.6576     36.0105    214.8205   8.1328693403e+01   2.4385923020e+01    0.4206676    0.2242721  33.61  0.002200583    1.492    0.330
        21 -10.3423     58.1335    211.8698   7.5499770001e+01   2.2530532808e+01    0.3861387    0.2458422  38.82   0.00211676    1.262    0.207
        22  -9.9497     49.9624    207.0758   7.7234791749e+01   2.4533878154e+01    0.3838218    0.3317456  70.24  0.001885837    1.163    0.140
        23  -8.2748    100.9800    211.3305   6.4747191826e+01   1.7119361221e+01    0.2051543    0.1719763  57.10  0.000521382    1.263    0.208
        24  -8.9710     39.6034    210.5018   8.0155296069e+01   2.4940541359e+01    0.2749582    0.1645914  46.55 0.0009870341    1.338    0.253
        25  -8.8893     21.2680    210.8635   8.4868925798e+01   2.6734682482e+01    0.2962337    0.1543823  45.45  0.001556877    1.465    0.318
        26  -8.0942     42.6933    205.9835   7.9057662872e+01   2.5600883726e+01    0.3173342   0.08952896  46.26  0.001189696    2.758    0.637
        27  -8.2267    101.6826    204.2468   6.3720551282e+01   1.8437120978e+01    0.2796335    0.1690007  23.39 0.0007474744    1.592    0.372
        28 -10.1670     23.0465    202.9503   8.4049127830e+01   2.8333642857e+01    0.4700969    0.2849219  28.45   0.00254576    1.475    0.322
        29  -7.9856     71.5366    201.8983   7.1130505627e+01   2.3023466067e+01    0.1869312    0.1350158 -79.50  0.001019487    1.582    0.368
        30 -11.6065     12.0634    240.0339   8.8066867860e+01   2.1564537731e+01     1.150417    0.6400624  62.44  0.005929827    1.529    0.346
        31  -7.4699    185.5226    198.4514   4.4623821553e+01   7.7045456188e+00    0.1193554    0.1019277   0.90 0.0003161098    1.053    0.050
        32  -9.3726      6.5407    195.6301   8.8133451967e+01   3.1509432221e+01     0.381414    0.1419231  66.69  0.001632662    2.440    0.590
        33 -11.7672     19.3535    161.4165   8.2816113039e+01   3.8870077816e+01     1.639461    0.5876868  53.16  0.006238993    2.511    0.602
        34 -11.1700     11.3661    160.9168   8.5327003424e+01   3.9685276731e+01     0.908806    0.4093833  77.16  0.003847302    2.165    0.538
        35 -10.1083     37.8139    192.1076   7.9411139493e+01   2.9330799452e+01    0.5816271    0.2523881  32.33  0.002580803    1.886    0.470
        36 -10.9495     16.2939    190.3745   8.5285119448e+01   3.1898673196e+01    0.4791133    0.4093416  35.97 0.0008901857    1.176    0.150
        37 -12.5207     26.9313    181.2217   8.1773979454e+01   3.3105880321e+01     1.575898    0.9853368  55.90  0.006498899    1.378    0.274
        38  -8.6739      2.1591    189.0280   8.9119055724e+01   3.3413705560e+01    0.3124168     0.126182  66.86  0.001392894    2.173    0.540
        39  -8.3949      2.2503    178.4562   8.8784689667e+01   3.5958401643e+01    0.2895395    0.1208483  74.23  0.001261076    2.206    0.547
        40  -7.4016     68.4711    193.5094   7.1088598321e+01   2.5299987545e+01    0.1443633    0.1171468  49.46 0.0001323795    1.079    0.073
        41  -8.9765    112.9832    169.8247   5.5865056071e+01   2.4055661246e+01    0.3304813    0.2700462 -10.29 0.0008867698    1.462    0.316
        42  -9.9448      5.7463    169.2794   8.7439732966e+01   3.7980578929e+01    0.4878397    0.2046109  52.19  0.001039255    1.962    0.490
        43  -9.3649     49.2141    168.0020   7.3983885561e+01   3.3953469683e+01    0.4563988    0.3101255  32.79  0.001684104    1.359    0.264
        44  -9.1777     55.2172    163.1837   7.1586046608e+01   3.4428112997e+01    0.2891892    0.2624643   7.15 0.0006925074    1.280    0.219
        45  -9.7076      6.1404    188.8933   8.8025724508e+01   3.3127467273e+01    0.2888287    0.2047835  80.70  0.001333763    1.309    0.236
        46  -7.2119    225.7059    163.6459   3.1909341891e+01   7.5705893762e+00    0.1211853   0.07768659 -10.72 0.0003169517    1.686    0.407
        47  -7.4343     33.6133    162.3067   7.8332189800e+01   3.7228596869e+01    0.1660992   0.08504625  54.13  0.000701754    1.805    0.446
        48  -8.6098     67.1112    154.9733   6.6768176010e+01   3.4908059095e+01     0.260147    0.2134109  25.93 0.0004165681    1.264    0.209
        49  -8.7144     29.6365    154.1880   7.8921864451e+01   3.9791865975e+01    0.3589857    0.1974259  62.35  0.001405755    1.766    0.434
        50 -10.6216     52.4989    150.6017   7.0913789292e+01   3.8082065738e+01     0.447125    0.3296059 -20.12 0.0008534716    1.864    0.463
        51  -7.8879      2.1910    152.1900   8.7883973086e+01   4.2654937223e+01    0.2080295    0.1311204  57.52  0.001068057    1.361    0.265
        52  -7.1179     93.1586    151.5800   5.8228669724e+01   3.1650128848e+01    0.1936632    0.1440634  19.94 0.0001217284    1.521    0.342
        53  -9.2232     74.1807    150.0607   6.3784726906e+01   3.5116060601e+01    0.3836945    0.3019699   0.54 0.0006389382    1.637    0.389
        54 -10.2366     68.7347    144.2154   6.4607231471e+01   3.7476383003e+01     0.849935    0.4346851  60.87  0.003103445    2.474    0.596
        55 -10.6105      6.1804    145.1106   8.6227877281e+01   4.4260806913e+01    0.9589675    0.2694677  69.41  0.002906334    4.097    0.756
        56 -10.6936      2.5150    128.1432   8.6663571376e+01   4.9102351198e+01     1.271828    0.2250422 -84.40  0.003297611    5.420    0.816
        57  -8.0990     26.2940    146.5830   7.9388555508e+01   4.2173727094e+01    0.1891216    0.1408058   9.03 0.0009319509    1.576    0.365
        58  -9.5511     79.4907    135.5853   5.9561715950e+01   3.8015829692e+01    0.2876646     0.263191  70.16 0.0002704984    1.043    0.041
        59  -7.3035     34.4983    136.4321   7.5444904979e+01   4.4106468436e+01    0.1489258    0.1351148  67.05  0.000245468    1.017    0.016
        60 -10.2182     23.3257    132.2277   7.9129978672e+01   4.6396501180e+01    0.2526269     0.237787  33.69 0.0004297859    1.151    0.131
        61  -7.4024     34.9343    146.0026   7.6341071229e+01   4.1437313109e+01    0.1771866    0.1517644  45.46 0.0003067385    1.102    0.093
        62  -7.7913     75.8323    129.8806   5.9690671012e+01   4.0124918354e+01    0.2296612    0.2113545 -29.08  0.000391897    1.257    0.204
        63 -10.3818      5.5796    120.1936   8.5002062066e+01   5.1105315624e+01    0.9754454    0.3550379  73.94   0.00341203    2.978    0.664
        64  -7.9908    171.9319    120.0152   3.2054326436e+01   2.3550321176e+01    0.1965698    0.1863185 -42.39  0.001163896    1.020    0.019
        65  -7.4974    184.9903    118.3688   2.9321884404e+01   2.1341226177e+01    0.1751805     0.165611 -30.19  0.001075783    1.058    0.055
        66  -7.2699     52.6139    117.7037   6.5827249142e+01   4.7033567155e+01    0.1601293    0.1184232 -25.35 0.0007015947    1.774    0.436
        67  -6.9530    105.4917    112.4737   4.6209294258e+01   3.8940726681e+01    0.1585588    0.1512727  78.11 5.037172e-05    1.002    0.002
        68  -7.8276     52.1633    110.5375   6.4647524215e+01   4.9071051601e+01    0.2601862    0.1790388 -60.93  0.001058162    1.430    0.301
        69  -8.3192     31.7835    110.8848   7.3164589962e+01   5.1530389309e+01    0.3222341    0.1545067  51.30   0.00124248    2.169    0.539
        70  -7.8951     99.3578    108.0292   4.6968540407e+01   4.1281762089e+01    0.2134385    0.1958304 -70.09 0.0003399817    1.082    0.076
        71  -7.7568     24.5684    103.7655   7.5266774109e+01   5.4248500533e+01    0.2156399    0.1329333  86.66 0.0009495271    1.678    0.404
        72  -7.3528     69.2294    102.6458   5.6141289888e+01   4.8467280001e+01    0.1591331    0.1181033  83.05 0.0003573062    1.566    0.362
        73  -7.0603    141.7191     95.3232   3.2129165397e+01   3.4767118694e+01    0.1552765    0.1152184 -75.72 0.0002927212    1.591    0.371
        74  -8.5991     73.5042     90.8595   5.1378235166e+01   5.0724797444e+01    0.2784171    0.2472953  46.79 0.0003920172    1.113    0.102
        75  -8.2268    125.0005     76.1338   3.0489744691e+01   4.2543848668e+01    0.2216683    0.2120565 -78.88 0.0003535068    1.062    0.059
        76  -7.1070     74.0000     74.2915   4.6082957402e+01   5.4670992057e+01    0.1840159    0.1378563  44.81 0.0003570088    1.310    0.237
        77  -7.6141    246.0582     61.6500   9.3337512027e+00   1.8855694519e+01    0.1535666     0.124623 -49.23 0.0004257141    1.092    0.085
        78  -8.4281    164.6010     61.1204   1.8176473403e+01   3.5575863142e+01    0.2314753    0.1996323  65.94 0.0003860347    1.239    0.193
        79  -7.4432    143.8404     59.8051   2.1309537805e+01   4.0860730613e+01    0.2128759     0.159804 -70.79 0.0005830324    1.342    0.255
        80  -9.7291    214.5880     54.1507   1.0367145500e+01   2.5622645504e+01    0.2789885    0.2432882 -17.28  0.001543993    1.435    0.303
        81 -10.6971    224.3920     48.9705   8.3264179447e+00   2.4392438820e+01     0.609395    0.4365706 -87.63  0.003878956    1.489    0.328
        82 -10.6513    231.0411     42.9937   6.4866774000e+00   2.3890641583e+01    0.6398721     0.253642  63.58  0.003180727    2.904    0.656
        83  -7.0103    189.3986     51.2725   1.2226363976e+01   3.1331320951e+01    0.1271542    0.1021072  35.67 0.0006040972    1.744    0.426
        84  -7.9548     81.3836     50.2478   3.4196795120e+01   5.8184735399e+01    0.2185001    0.1405073 -52.89 0.0009557073    1.673    0.402
        85  -8.2451     57.5385    248.7894   7.8227883074e+01   1.5344975269e+01    0.1929028    0.1136933 -67.49  0.001154521    2.123    0.529
        86  -8.4404    205.0149     34.0557   6.3835262182e+00   3.0210633484e+01    0.1882433    0.1490489 -57.73 -0.001320134    1.009    0.009
        87  -7.7994     87.9114     25.0712   2.0811479803e+01   6.0672242752e+01    0.2119453    0.1791385 -77.52            0    1.213    0.176
        88  -7.3738    102.9839    246.0792   6.7950515458e+01   1.0575311202e+01    0.1380471    0.1170353  29.45 0.0003457081    1.098    0.089
        89  -7.8985    243.3097    242.3346   4.1658626199e+01  -4.1390927727e+00    0.1033081   0.05491026  -6.30 0.0004910498    1.677    0.404
        90  -8.2919    108.9470     12.7982   1.0634835555e+01   5.6564488651e+01     0.205328    0.1715875  60.61  0.000307051    1.201    0.167
