#   1 NUMBER                 Running object number                                     
#   2 MAG_AUTO               Kron-like elliptical aperture magnitude                    [mag]
#   3 X_IMAGE                Object position along x                                    [pixel]
#   4 Y_IMAGE                Object position along y                                    [pixel]
#   5 X_WORLD                Barycenter position along world x axis                     [deg]
#   6 Y_WORLD                Barycenter position along world y axis                     [deg]
#   7 A_WORLD                Profile RMS along major axis (world units)                 [deg]
#   8 B_WORLD                Profile RMS along minor axis (world units)                 [deg]
#   9 THETA_WORLD            Position angle (CCW/world-x)                               [deg]
#  10 FWHM_WORLD             FWHM assuming a gaussian core                              [deg]
#  11 ELONGATION             A_IMAGE/B_IMAGE                                           
#  12 ELLIPTICITY            1 - B_IMAGE/A_IMAGE                                       
         1 -13.4878    235.4113     36.9635   2.7200530069e+01   2.3691872528e+01    0.9755691    0.7902695  50.98   0.00643026    1.645    0.392
         2 -12.2351      2.4050     22.3680   8.6912222483e+01   7.3003589341e+01     1.474993          nan -50.92  0.004023503    7.086    0.859
         3 -11.7825      2.2123     11.6857   8.2438014197e+01   7.4962635650e+01    0.5223873    0.2082742 -49.25  0.002715428    2.145    0.534
         4 -11.5757      2.8855      3.3357   7.7605312815e+01   7.6300963584e+01    0.3833784    0.3117406 -33.87  0.002828522    1.243    0.196
         5  -9.6847    192.6225    194.0354   6.6972482880e+01   5.8180955026e+00    0.3498484    0.2132802 -73.17  0.000957401    8.595    0.884
         6 -11.5466    102.8780    249.5673   9.3429048717e+01   9.2490709389e+00    0.4061202    0.1740062  36.06  0.001509172    1.855    0.461
         7 -15.0171     97.2247    227.8032   9.2350264943e+01   1.4022362714e+01     8.426847     2.083069  41.04   0.03075509    3.168    0.684
         8 -11.7536     48.5063    169.4226   9.7678031845e+01   3.3626944805e+01    0.3170264    0.2744972 -48.32 0.0002843144    1.327    0.247
         9  -9.2928    110.7519    167.1579   8.0559758958e+01   2.5018277973e+01    0.2143906     0.191008  80.97 0.0005221583    1.179    0.152
        10 -10.7695     61.6790    160.0119   9.2806282985e+01   3.4318952272e+01    0.2650459    0.2378882 -71.04 0.0003580187    1.110    0.099
        11 -11.7712     75.3314    139.1060   8.5417214468e+01   3.7678772809e+01    0.3800716    0.2944108 -68.83 0.0005075264    1.262    0.208
        12 -12.4711     70.8776    153.8593   8.9252202174e+01   3.4596900012e+01    0.7876421    0.5291969  47.28  0.001441126    1.464    0.317
        13 -13.0815     68.5392    144.0053   8.8332072384e+01   3.7434280986e+01     1.004666    0.6182565  70.81  0.003245977    2.084    0.520
        14 -10.5646     88.0939    141.6076   8.2085034247e+01   3.5023815563e+01    0.2916616    0.2835086  29.68 0.0008365443    1.104    0.094
        15  -9.4462     92.0444    138.4898   8.0317275548e+01   3.5139088771e+01    0.2192464    0.1491587  35.65 0.0003986859    1.503    0.335
        16 -13.1459     46.7101    155.8324   9.6542140186e+01   3.7255704315e+01     0.579901    0.3927084 -38.08  0.001991616    1.855    0.461
        17 -10.9067     67.6989    129.5726   8.6008196003e+01   4.1248321761e+01    0.3473351    0.1911729 -78.62  0.001356052    2.317    0.568
        18 -10.3123     66.5116    125.0013   8.5507829833e+01   4.2590059524e+01    0.3050648    0.1963946  49.42    0.0013985    1.644    0.392
        19 -10.0536     89.4094    126.2978   7.8559103298e+01   3.8617430897e+01    0.2734833    0.2617658  33.27 0.0006004409    1.101    0.091
        20  -9.9485     36.9572    124.4726   9.5207491446e+01   4.6426735650e+01    0.2066875   0.09307951  50.09 0.0008096519    2.546    0.607
        21 -10.4910    105.1212    130.5780   7.4861523428e+01   3.4756238140e+01    0.4796854    0.3192984  35.41    0.0016463    1.563    0.360
        22  -9.4272    102.2428    118.8802   7.3010453384e+01   3.8110552252e+01    0.2196944    0.2007079 -87.69 0.0003713736    1.133    0.118
        23 -13.0149      5.6396    200.4596   1.1086138596e+02   3.0621095765e+01    0.4168619    0.3658775  47.95 0.0007812665    1.244    0.196
        24 -11.5812    245.0071    110.3037   4.1755160361e+01   1.1258989463e+01    0.3546351    0.1340901 -34.96  0.001518991    2.343    0.573
        25 -15.3330     13.3688    194.6741   1.0877277033e+02   3.1243106791e+01     2.615084     1.617261 -76.50  0.008611253    1.508    0.337
        26  -9.1356    204.6491    110.7984   4.7712426607e+01   1.8589624905e+01     0.298887    0.1517422  37.12  0.001223193    2.716    0.632
        27 -10.3729     40.2992    103.2739   9.0329174517e+01   5.1509810931e+01    0.2741109    0.2240246  72.74    0.0005041    1.345    0.257
        28 -15.9225      8.8912    242.9055   1.1202952850e+02   2.1493354057e+01     12.30305     2.408504 -79.83   0.04692197    5.004    0.800
        29  -9.7628     43.6365     92.3156   8.6725506462e+01   5.3866695231e+01    0.2317146    0.2042498  74.68 0.0005361665    1.254    0.203
        30 -10.2502     52.9571     90.2851   8.2623585249e+01   5.3185089618e+01     0.260929    0.2263835 -35.84  0.001449726    1.147    0.128
        31 -12.1056      2.2967     74.1587   1.0039384107e+02   6.1750503349e+01    0.6978862    0.1681642 -72.68  0.002372943    3.804    0.737
        32 -10.7528     13.2638     60.1688   9.2368076262e+01   6.4368901493e+01    0.2257481    0.1906451 -63.73 0.0005786092    1.154    0.134
        33 -12.8255    216.6300     51.0060   3.2130532955e+01   2.5675320879e+01    0.7716253    0.6699996 -59.89  0.004977109    1.056    0.053
        34  -9.3993     84.4728     49.9451   5.7952216881e+01   5.6368658584e+01    0.2077953    0.1380603 -39.43 0.0003769126    1.538    0.350
        35 -13.5834     10.3934    206.6426   1.1010912541e+02   2.8829961778e+01      1.25982    0.6901012  18.12  0.003851712    2.350    0.574
        36  -8.8280     94.5545     46.5060   5.3424550981e+01   5.4816570044e+01    0.1386897    0.1351385  51.62   9.7089e-05    1.044    0.042
        37 -13.6036     40.4072    175.3605   1.0049561055e+02   3.3098864313e+01       1.7121     1.179622  -4.92 0.0006314948    2.246    0.555
        38 -10.5459     81.3649    212.6087   9.4267134712e+01   1.9313787651e+01    0.3000196    0.2175868  85.70  0.001114496    1.518    0.341
