#   1 NUMBER                 Running object number                                     
#   2 MAG_AUTO               Kron-like elliptical aperture magnitude                    [mag]
#   3 X_IMAGE                Object position along x                                    [pixel]
#   4 Y_IMAGE                Object position along y                                    [pixel]
#   5 X_WORLD                Barycenter position along world x axis                     [deg]
#   6 Y_WORLD                Barycenter position along world y axis                     [deg]
#   7 A_WORLD                Profile RMS along major axis (world units)                 [deg]
#   8 B_WORLD                Profile RMS along minor axis (world units)                 [deg]
#   9 THETA_WORLD            Position angle (CCW/world-x)                               [deg]
#  10 FWHM_WORLD             FWHM assuming a gaussian core                              [deg]
#  11 ELONGATION             A_IMAGE/B_IMAGE                                           
#  12 ELLIPTICITY            1 - B_IMAGE/A_IMAGE                                       
         1 -13.3150    211.7341      2.2191   5.7937206539e+01   3.1073608786e+01     1.807826    0.8178483  67.72  0.005900607    2.140    0.533
         2 -14.0850    188.4179     25.1326   6.7921667933e+01   3.4877521933e+01     2.159795     1.296801  -2.16  0.006328236    1.961    0.490
         3 -14.2303    196.3830     19.0950   6.4871831727e+01   3.3443376126e+01      1.69637      1.44413 -18.21  0.006673291    1.155    0.134
         4 -12.8674    201.7897     11.3574   6.1766427347e+01   3.2804203370e+01    0.7849345    0.5667239  31.91  0.001431316    1.491    0.330
         5 -10.5777     33.1704      3.5808   1.0277583741e+02   7.1220913021e+01    0.3641923   0.06498271 -40.33  0.001148643    4.576    0.781
         6 -10.3712    184.4891    216.4882   1.1427227263e+02   7.8352786647e+00    0.1156874   0.08857878  31.78 0.0001204969    1.009    0.009
         7 -11.5245    247.5966    249.2866   1.0874942575e+02  -4.3572155501e+00    0.4534979    0.1426731  36.02  0.002515404    2.236    0.553
         8 -14.6125     34.1471    246.7219   1.4173520581e+02   2.3257172783e+01     2.574471    0.8285717  39.23   0.01634065    2.397    0.583
         9 -16.0547     57.1205    212.1260   1.3623457409e+02   2.6102761550e+01     8.317428     1.657923  49.14   0.03676054    3.645    0.726
        10 -11.9623     72.2625    192.3391   1.3195644483e+02   2.7676903105e+01    0.3220884     0.224932 -42.98  0.002108308    2.143    0.533
        11 -11.8801     76.7047    185.6487   1.3047701212e+02   2.8310446347e+01    0.2373841    0.2074944 -58.59 0.0009448263    1.413    0.292
        12  -8.9003    181.5085    192.4385   1.1125182403e+02   1.1351407280e+01    0.1233777   0.09926669  29.89 1.735896e-05    1.023    0.022
        13 -13.4256     57.0294    128.0969   1.2821865610e+02   4.2140041652e+01      2.10285    0.6593543 -76.64  0.005916455    6.562    0.848
        14 -14.2194     68.7257    145.8098   1.2773513090e+02   3.6999828446e+01     2.453456      1.06286  64.09  0.009649444    3.690    0.729
        15 -13.4413     72.8062    171.1773   1.2978948386e+02   3.1463917537e+01    0.3938789      0.24699 -46.05  0.001938577    2.132    0.531
        16 -10.5309    138.5131    171.5172   1.1622812043e+02   2.1740563059e+01    0.2397853    0.1020075  49.99    0.0010391    2.371    0.578
        17  -9.6497    230.3111    166.9639   9.8108194997e+01   6.2449571356e+00    0.1855995   0.08927163 -47.68  0.000704563    4.302    0.768
        18 -14.6067     12.0912    206.9774   1.4355994864e+02   3.1379514436e+01     1.311144    0.7749422  68.96  0.006769608    1.244    0.196
        19 -10.3199    103.1092    149.1257   1.2031843653e+02   3.1559257790e+01    0.3009098    0.2246642 -37.26 0.0009723825    1.661    0.398
        20  -9.6542    105.4987    145.0043   1.1911160455e+02   3.2007439490e+01    0.2510709    0.1768572 -31.96  0.001066719    1.918    0.479
        21 -12.2420     91.8286    148.6384   1.2281197172e+02   3.3329754614e+01     0.238767    0.2306978 -36.40 0.0005710703    1.241    0.194
        22 -12.6133     46.2563    146.8057   1.3298905066e+02   3.9350497455e+01    0.5222989    0.2654996 -86.91  0.002795576    2.031    0.508
        23  -9.9945    134.0917    146.0690   1.1283815653e+02   2.7031941737e+01    0.5363532    0.1357553 -53.59  0.001519635    5.667    0.824
        24 -13.0765     91.0653    166.0918   1.2536395321e+02   3.0023903282e+01     2.563283     0.504989  46.64  0.001406838    4.918    0.797
        25 -13.4364     49.9606    232.2611   1.3863347660e+02   2.3746310544e+01    0.6928769     0.266546  47.89  0.004510342    1.841    0.457
        26 -10.0726    112.7512    135.3051   1.1573118204e+02   3.2783328212e+01    0.2905036    0.2170274 -25.58 0.0009455187    1.776    0.437
        27 -13.9147     83.9635    238.0005   1.3354520349e+02   1.9064317670e+01     1.252063    0.4746852  61.82  0.002827175    3.370    0.703
        28 -11.5216     32.9024    120.9128   1.3341389818e+02   4.6148396168e+01    0.2577038     0.140754 -73.68  0.001478696    1.540    0.351
        29 -11.5285     69.2323    134.5204   1.2609875342e+02   3.9303092394e+01    0.3064083    0.2100374  39.86  0.001074689    1.507    0.337
        30 -10.9315     36.4105    132.7310   1.3382836857e+02   4.3278209599e+01    0.1655187   0.08954307 -63.84 0.0009504161    1.653    0.395
        31 -13.1227     42.2720    126.5470   1.3170763966e+02   4.4042503515e+01    0.4960755    0.3066672 -89.70  0.002912249    1.550    0.355
        32  -9.6618    108.9034    122.7900   1.1425780780e+02   3.5985445031e+01    0.1853259    0.1776147   1.42   0.00032986    1.159    0.137
        33 -11.5390     84.9296    173.8464   1.2758077890e+02   2.9400778116e+01    0.2424908     0.208335 -88.60 0.0003925864    1.139    0.122
        34 -10.8362    100.3110    132.3089   1.1816896668e+02   3.5397467519e+01    0.2691452    0.2024343 -33.91 0.0007655571    1.636    0.389
        35 -11.1005    168.2718    113.0351   9.8112422638e+01   2.6402770603e+01    0.3458617    0.2986593 -84.38 0.0008912308    1.533    0.348
        36 -13.0738     48.9529    225.3531   1.3841487888e+02   2.4898247098e+01    0.3191636    0.2913854 -20.59 0.0007945097    1.917    0.478
        37  -9.4786    205.2549    110.3931   9.0060527388e+01   1.8849332889e+01    0.3402156    0.1548026  37.26  0.001315418    2.345    0.574
        38  -9.1866    118.2779    128.3211   1.1307476204e+02   3.3254243437e+01    0.1318275    0.1071418 -13.44 0.0003746205    1.580    0.367
        39  -9.9970     16.2647     91.8715   1.3452728162e+02   5.3894226397e+01    0.1825882    0.1430219  53.34 0.0006405546    1.417    0.294
        40  -9.4848    154.5311     76.4900   9.1132545801e+01   3.5953588794e+01     0.154121    0.1447544  -0.82 4.289252e-05    1.014    0.014
        41 -10.4720    228.1847    204.5277   1.0514104528e+02   2.3909215906e+00    0.2000643    0.1845323 -14.06 0.0007112734    1.501    0.334
        42 -10.6191    126.1415     53.1372   9.0441520326e+01   4.6541948493e+01    0.4231818    0.3140479  89.81  0.001851777    2.167    0.539
        43 -13.5983     73.7419    227.2450   1.3445847378e+02   2.1842804873e+01    0.7026822    0.2657046  60.80  0.002850751    2.940    0.660
        44 -16.3746      8.1480    240.5325   1.4530577710e+02   2.6534700423e+01     13.94716     1.036671 -79.11   0.04777022   11.089    0.910
        45 -10.8852    192.8309    194.5551   1.0955461015e+02   9.2006563212e+00     0.629523    0.3405546 -59.82  0.002330098    6.011    0.834
        46 -10.7514    174.8627    220.8637   1.1650380180e+02   8.7820294211e+00    0.2251464    0.1359636  59.05  0.001287924    2.282    0.562
        47  -9.3393     33.3008     24.6626   1.1253966994e+02   6.7343664792e+01     0.114367   0.09476433 -78.51 0.0007035957    1.663    0.399
