#   1 NUMBER                 Running object number                                     
#   2 MAG_AUTO               Kron-like elliptical aperture magnitude                    [mag]
#   3 X_IMAGE                Object position along x                                    [pixel]
#   4 Y_IMAGE                Object position along y                                    [pixel]
#   5 X_WORLD                Barycenter position along world x axis                     [deg]
#   6 Y_WORLD                Barycenter position along world y axis                     [deg]
#   7 A_WORLD                Profile RMS along major axis (world units)                 [deg]
#   8 B_WORLD                Profile RMS along minor axis (world units)                 [deg]
#   9 THETA_WORLD            Position angle (CCW/world-x)                               [deg]
#  10 FWHM_WORLD             FWHM assuming a gaussian core                              [deg]
#  11 ELONGATION             A_IMAGE/B_IMAGE                                           
#  12 ELLIPTICITY            1 - B_IMAGE/A_IMAGE                                       
         1 -15.0424     48.4268     96.3600   1.1710418004e+02   5.0770801237e+01     2.032157      1.50622 -27.86   0.01182903    1.665    0.399
         2 -15.9522      7.0861     69.7967   1.2536820766e+02   6.0122826163e+01     2.730428    0.8910754 -70.20  0.009961996    2.547    0.607
         3 -15.2004     43.0530     11.1873   9.1756603924e+01   6.8228650135e+01      2.48871    0.9858029 -37.91   0.01192503    2.226    0.551
         4 -13.4715      9.0961      3.2795   1.0465082469e+02   7.3020420985e+01    0.6492401    0.5456284  31.49  0.004018909    1.691    0.409
         5 -14.6599    101.6549     50.3427   8.7217712863e+01   5.2199361068e+01     1.053218    0.9604606 -45.39  0.001766003    1.180    0.153
         6 -15.3193    119.9241     54.7874   8.3658670110e+01   4.7587901953e+01     1.531239    0.9507012  32.80  0.005004525    1.830    0.454
         7 -15.5811    147.0234     30.5656   6.8698699127e+01   4.4765674419e+01     3.557405     1.040871  61.34   0.01107885    3.448    0.710
         8 -14.9375    122.2609     37.0005   7.6618080087e+01   4.9884755002e+01     1.361081    0.6597285  36.93  0.004358416    2.369    0.578
         9 -15.2817      8.3489     29.3202   1.1525467493e+02   6.8428885136e+01     1.448922    0.7501454  27.65  0.008737711    2.379    0.580
        10 -14.1366     66.9160     49.9419   9.8409949435e+01   5.8335252069e+01     1.872713    0.8083165 -36.38   0.00785315    2.316    0.568
        11 -14.6726     87.5840     65.6770   9.6789991070e+01   5.1949261975e+01     1.554662     1.144621  -5.92  0.004320619    1.735    0.423
        12 -15.6618     16.7746     18.0609   1.0719356672e+02   6.9914889930e+01     1.392351    0.8056943  -7.99  0.005778988    2.049    0.512
        13 -13.1297    139.2784     21.4559   6.6969599152e+01   4.7817638515e+01    0.5690143    0.3285077  57.98 0.0004616303    1.635    0.388
        14 -15.1099    218.1399     16.1613   5.3797838857e+01   2.8131667732e+01     2.253306     1.177431 -21.02   0.01012911    2.089    0.521
        15 -12.4528    232.1397      2.5775   4.8986551931e+01   2.6116673718e+01    0.5417176    0.2891999  54.59  0.002116832    2.001    0.500
        16 -14.9739    166.4789     30.1812   6.4955376531e+01   3.9829500469e+01     1.224675     1.010948  61.90  0.003282339    1.174    0.148
        17 -15.0308    190.7842     25.4370   5.9715911481e+01   3.4069610049e+01     2.274512     1.007267 -40.84  0.007578639    2.230    0.552
        18 -15.7950     99.7113     12.9120   7.2761047165e+01   5.8030960263e+01     1.516679    0.8105246  49.97  0.002922632    1.763    0.433
        19 -11.9212    202.7924     11.5194   5.4151873077e+01   3.2495224602e+01    0.4131789    0.3091179 -64.01  0.001439621    1.356    0.263
        20 -11.3291    140.0037     11.0635   6.2988203697e+01   4.8757190935e+01    0.3314642    0.2015097  62.72  0.001072823    1.558    0.358
        21 -12.1416    153.6258      8.2396   5.9638046232e+01   4.5567597469e+01    0.3020066    0.2656317  84.39 0.0004851792    1.173    0.148
        22 -12.1225    125.5780      8.7168   6.4898132942e+01   5.2543862285e+01     0.375071    0.3329521  77.54  0.001604332    1.250    0.200
        23 -11.9592    120.5871      4.0287   6.4050623138e+01   5.4184154774e+01    0.3599728    0.2694693  85.41  0.001225075    1.652    0.395
        24 -11.1505    117.7824      1.3665   6.3543509051e+01   5.5086814533e+01    0.1872423    0.1521998  33.57 0.0002840822    1.118    0.106
        25 -14.1003    111.6527     40.9681   8.0892238236e+01   5.1661906486e+01     1.018879    0.6942272   0.34  0.002371257    1.851    0.460
        26 -11.3260     67.7046      3.8351   7.8322733280e+01   6.5348071303e+01     0.278046    0.2238739   7.35  0.001690201    1.051    0.048
        27 -11.1381    192.9129      3.0539   5.2791295114e+01   3.5859061479e+01    0.2257264     0.196009 -34.86   0.00077812    1.200    0.167
        28 -11.4598     26.5556      3.8730   9.5767658483e+01   7.1293099968e+01    0.2218838    0.1641741  -2.99 0.0008020838    1.216    0.178
        29 -12.2511     80.5328      1.8894   7.3175560313e+01   6.3155845495e+01    0.5947543    0.1628608  49.97  0.002270876    3.157    0.683
        30 -10.9093     62.4760      1.5169   7.9000091609e+01   6.6520292736e+01    0.2227893     0.157809  16.71 0.0006654894    1.294    0.227
        31 -11.2388     59.4916      1.5106   8.0099000716e+01   6.7025602150e+01    0.2428167    0.1605812  22.30  0.001079365    1.432    0.302
        32 -12.8366     39.7238    195.4371   1.3152466736e+02   3.0291174187e+01    0.4576072    0.2985543  71.36   0.00251648    1.244    0.196
        33 -13.1284     54.9911    247.1286   1.3243129692e+02   1.9490393958e+01    0.7776365    0.4166333  30.58  0.004685308    2.713    0.631
        34 -13.6491     27.6582    244.9881   1.3654658596e+02   2.2896977176e+01    0.7762128    0.4447162  82.60  0.005631215    1.445    0.308
        35 -14.2395     23.7405    224.1496   1.3612728695e+02   2.6759557198e+01     1.011558    0.5655182 -82.03  0.007320847    1.603    0.376
        36 -13.5899      9.0200    210.8211   1.3787821780e+02   3.0538353271e+01    0.6627581    0.4914404  44.86  0.005273591    1.508    0.337
        37 -12.9476     16.5932    196.2033   1.3580604662e+02   3.2517294954e+01     0.814741    0.2203199 -68.10  0.004029267    3.154    0.683
        38 -14.0560     30.4381    168.3588   1.3117159153e+02   3.6683291067e+01    0.6948481    0.5923247 -69.81  0.002628129    1.341    0.254
        39 -13.3747     22.5595    181.2073   1.3373959914e+02   3.4851669901e+01    0.5029308    0.3813338  86.78  0.002366252    1.080    0.074
        40 -14.9286      7.9087    183.9089   1.3667154813e+02   3.5662155548e+01     1.107645    0.7558638  78.99  0.008392814    1.075    0.070
        41 -15.0625     15.4772    175.4361   1.3471180745e+02   3.6664194410e+01     2.276924    0.9481006  77.67   0.01138286    2.425    0.588
        42 -14.1127      8.9621    245.5368   1.3935288067e+02   2.4692774668e+01    0.6772119    0.3100635  59.64   0.00322088    1.499    0.333
        43 -13.1467    164.4304    194.7650   1.0696657788e+02   1.1637429420e+01    0.6125849    0.3802039 -62.98  0.003067435    2.356    0.575
        44 -12.7557    201.2222    191.9298   9.9531783999e+01   5.4384472723e+00    0.4076846    0.3154569  -4.00  0.001808544    1.405    0.288
        45 -10.5145    107.5164    193.0020   1.1800670130e+02   2.1648072626e+01    0.1754037     0.120123 -62.59  0.001026482    1.576    0.365
        46 -10.3625     81.2609    193.3916   1.2330479204e+02   2.5484375399e+01    0.1761126   0.09298023  50.54 0.0009558465    1.648    0.393
        47 -12.5223     98.6517    186.8105   1.1901001612e+02   2.4204534228e+01    0.3591792    0.3099716   9.75  0.002266995    1.666    0.400
        48 -11.5630    109.4834    183.7305   1.1636127563e+02   2.3095911931e+01    0.3538052    0.1890525  26.16  0.001497795    3.031    0.670
        49 -12.2610     48.7739    180.9561   1.2855030188e+02   3.2118182771e+01    0.4801608    0.2639421 -64.46  0.002840438    1.770    0.435
        50 -12.3662    198.6360    182.4286   9.8287205303e+01   7.3087738028e+00    0.2861907    0.2645092   7.94  0.001459177    1.098    0.089
        51 -12.5096    194.8640    177.7481   9.8122166470e+01   8.7304927434e+00    0.3742518    0.3180679 -58.50  0.001606358    1.518    0.341
        52 -11.4480    122.3509    181.5763   1.1337143722e+02   2.1377187297e+01    0.4609514    0.2607542  79.15  0.001813728    3.448    0.710
        53 -12.7766     85.1799    180.1275   1.2095987765e+02   2.7533142401e+01    0.5267545    0.2668311  61.25  0.002541669    2.159    0.537
        54 -10.5269    100.9928    176.0071   1.1706835414e+02   2.5969183038e+01    0.1803609    0.1583858  69.77   -0.0106749    1.012    0.011
        55 -12.4366    131.7179    173.0556   1.1005271946e+02   2.1373813956e+01    0.4352506    0.3781729  49.93  0.002638461    1.060    0.057
        56 -11.8733      2.6645    249.6987   1.4040721695e+02   2.4637141426e+01    0.2453409    0.1355899  59.28  0.001795211    1.222    0.181
        57 -13.4895    123.9758    166.4856   1.1062508948e+02   2.4032226140e+01    0.7097787    0.4714975 -75.31  0.003540072    1.886    0.470
        58 -12.8055    122.2858    155.7671   1.0913818208e+02   2.6499251371e+01    0.5334033    0.3796715 -42.37   0.00278526    1.589    0.371
        59 -11.0871    177.3872    167.7444   9.9616433089e+01   1.3724858377e+01    0.1855642    0.1307495 -28.10 0.0008727637    1.621    0.383
        60 -11.5630     27.6807    158.5109   1.3089113801e+02   3.9015460055e+01    0.3022917    0.2069371 -82.24  0.001870339    1.194    0.163
        61 -12.1377     25.7865    155.4009   1.3102075012e+02   3.9855100956e+01     0.417672    0.2928381 -31.27  0.002560153    2.384    0.581
        62 -12.3799     77.4821    157.3129   1.1963353510e+02   3.3386077391e+01    0.7231303    0.3499502  51.10   0.00128651    2.051    0.512
        63 -13.2175     74.5486    153.1716   1.1972377378e+02   3.4691860843e+01    0.6221569     0.567197  39.47  0.002837476    1.293    0.227
        64 -13.1722    208.3804    154.6679   9.0936610642e+01   9.7363370874e+00    0.7164225    0.4652611  42.43  0.003617758    1.466    0.318
        65 -11.0016    155.2491    157.5788   1.0221526845e+02   1.9907816616e+01     0.283015    0.1282849  48.75  0.001136999    2.148    0.534
        66 -12.2105    112.8118    157.0135   1.1150516557e+02   2.7906961701e+01    0.3374756    0.2092882  55.33  0.001302614    1.627    0.385
        67 -11.3968    109.6125    153.8096   1.1168562389e+02   2.9124850893e+01    0.3219984    0.2290467 -79.99  0.001670749    1.604    0.376
        68 -11.6265     55.5455    155.7056   1.2442642381e+02   3.6603019218e+01    0.3703783    0.2712082 -31.58  0.002134738    2.141    0.533
        69 -12.1132     85.5742    153.3093   1.1717830072e+02   3.3076165746e+01    0.5026212    0.3075492 -47.66  0.002575573    1.855    0.461
        70 -11.3984     41.6161    154.3016   1.2741119358e+02   3.8495797953e+01    0.2828223    0.1367676  60.90  0.001431627    2.191    0.544
        71 -12.1175    103.3667    150.0960   1.1249477930e+02   3.0963877784e+01    0.3763772    0.3202022 -26.19  0.001787978    1.531    0.347
        72 -12.2377      6.3181    148.5939   1.3467761387e+02   4.2955570274e+01    0.4707449    0.2632847 -88.90  0.002999632    1.425    0.298
        73 -11.9431    244.3620    147.2370   8.3030947084e+01   3.8597163169e+00    0.2913079    0.2272256 -32.15  0.001691122    1.302    0.232
        74 -12.1134     63.4875    146.9977   1.2145489021e+02   3.7519255914e+01    0.2177227    0.1892247  11.65  0.001378186    1.591    0.371
        75 -11.8027     38.0717    145.9509   1.2730381202e+02   4.0684749346e+01    0.2125878    0.1475013 -75.83 0.0007029313    1.215    0.177
        76 -11.2992     44.6674    145.1565   1.2566925094e+02   4.0158167592e+01    0.1909548    0.1776825  40.50  0.000617546    1.343    0.255
        77 -11.0532    162.5933    141.4887   9.7296715957e+01   2.1479739441e+01    0.3305596    0.1416919 -44.34  0.001256162    2.429    0.588
        78 -11.3819    149.2147    140.9475   1.0012452914e+02   2.4338483915e+01    0.4353874    0.2839233  66.30  0.001916016    2.003    0.501
        79 -13.4247     43.6516    136.1707   1.2479493490e+02   4.2260391131e+01    0.7952749    0.4950331 -54.69  0.004596193    1.605    0.377
        80 -10.3645     15.1667    139.1443   1.3191671564e+02   4.4277538513e+01    0.1516031    0.1072492  71.27 0.0004623139    1.279    0.218
        81 -10.7967     56.6526    137.6534   1.2179632883e+02   4.0446549967e+01    0.1906954    0.1407712 -41.14  0.001106416    1.691    0.409
        82 -12.5667    246.3799    134.0485   7.9802417832e+01   5.3470666676e+00    0.4648852    0.3742507 -49.98  0.002634891    1.531    0.347
        83 -11.8106     62.2294    134.1851   1.1989452696e+02   4.0535170539e+01    0.4270306    0.2554272  46.02  0.001883323    1.720    0.419
        84 -10.7520     31.6364    136.1746   1.2772103307e+02   4.3476751781e+01     0.174092   0.08811001 -63.55 0.0006421765    1.681    0.405
        85 -13.7769    233.1368    127.2932   8.0424785010e+01   8.9728395048e+00    0.8231453    0.6523404 -65.46  0.004316593    1.777    0.437
        86 -13.5107    230.7977    133.0619   8.2145684381e+01   8.5740846956e+00    0.6720641    0.5377239  76.69  0.003547649    1.804    0.446
        87 -12.7092    223.1068    128.4399   8.2404169618e+01   1.0872050893e+01    0.6922072    0.5029888 -62.29  0.003333108    1.991    0.498
        88 -12.6802    120.6301    111.4092   1.0020606575e+02   3.6214600941e+01    0.6199885    0.5462835 -72.64  0.002189331    1.189    0.159
        89 -13.5484     98.0104     93.0920   1.0165163466e+02   4.4397421289e+01      1.01841    0.6927635  71.17  0.001066798    2.151    0.535
        90 -13.5165    122.8789    102.1605   9.7288656307e+01   3.7731846968e+01     1.305188    0.4803787  44.38   0.00452888    2.787    0.641
        91 -14.8586    105.3390    122.7648   1.0673986007e+02   3.6585712605e+01     1.819503      1.30412  38.35  0.009298761    1.482    0.325
        92 -14.6994     89.2608    111.9881   1.0865355824e+02   4.1692162560e+01     1.974838     1.396002 -15.45  0.007890119    2.255    0.557
        93 -12.7785    136.0624    103.3605   9.4272063592e+01   3.4739479821e+01    0.5620967    0.4148806  39.24  0.001492897    1.406    0.289
        94 -13.2507    137.0452     96.4109   9.2154492853e+01   3.5939548106e+01     0.565881     0.409072 -35.02  0.002669281    1.413    0.292
        95 -11.5766     11.2435    134.3122   1.3238548254e+02   4.5634146985e+01    0.1953214    0.1425536  85.31 0.0003145452    1.121    0.108
        96 -12.0192    137.9773    132.7539   1.0091548834e+02   2.8267025554e+01    0.3814278    0.2613744  34.03 0.0009129512    1.590    0.371
        97 -13.1386    132.7355    129.2183   1.0137019385e+02   3.0047550070e+01    0.8400969    0.4480818 -41.35  0.003528624    2.002    0.500
        98 -13.3417     62.2043    102.5067   1.1426623269e+02   4.7739317028e+01     1.271992     0.480974 -62.06  0.005082252    2.504    0.601
        99 -14.4348     95.0990    236.2340   1.2499261902e+02   1.6021209858e+01     1.245188    0.6631653  64.32  0.002455609    1.863    0.463
       100 -11.5687    235.0075    248.7633   1.0284293904e+02  -6.7286727860e+00    0.1511897   0.07001248  38.22 0.0008930875    1.663    0.399
       101 -13.4606    171.0431    242.3433   1.1254504517e+02   3.6639494412e+00    0.7690332    0.4129703  35.64  0.004551015    1.560    0.359
       102 -11.4204     41.2771    249.8995   1.3471920816e+02   2.0641354088e+01    0.2583313    0.1140393 -73.43  0.001716179    2.324    0.570
       103 -14.2283      2.5490     97.1316   1.3074946270e+02   5.4381833877e+01     1.321366    0.3894453 -77.06  0.004939157    2.980    0.664
       104 -15.5246     17.9527    111.0589   1.2819905311e+02   5.0255366608e+01      1.62097     1.378503  58.44   0.01179234    1.310    0.237
       105 -15.4514     25.2359     94.5594   1.2376082871e+02   5.3388743377e+01     1.869434     1.132252 -19.76   0.01002262    2.555    0.609
       106 -11.0267    185.1382    124.3613   8.8595747292e+01   1.9803519736e+01    0.2372712    0.2094493 -85.72 0.0004511522    1.384    0.277
       107 -12.4115    180.8425    121.0754   8.8675384646e+01   2.1357611307e+01    0.4748635    0.2950139  49.52  0.001254514    1.606    0.377
       108 -10.1298    126.6381    124.6929   1.0182672008e+02   3.2203393483e+01    0.1482591    0.1176361   0.21 0.0007039394    1.738    0.425
       109 -11.8089     59.9541    125.7332   1.1914227398e+02   4.2730859723e+01     0.500564    0.3036772 -31.62  0.002348165    2.645    0.622
       110 -14.8244    106.9778    107.0133   1.0270656185e+02   3.9753259445e+01     1.779199      1.04403 -36.49  0.007734423    1.960    0.490
       111 -11.3725     51.8927    117.0665   1.1986512608e+02   4.5665029192e+01    0.4204685    0.1897209 -77.20  0.001736574    2.708    0.631
       112 -10.9134    192.8531    117.2964   8.5322506392e+01   1.9334089018e+01    0.2386443    0.1981554  74.96   0.00119606    1.472    0.321
       113 -11.4906    194.6293    112.8961   8.3874677655e+01   1.9701596595e+01    0.2707077    0.2007555  36.57 0.0006661525    1.382    0.277
       114 -12.2213    176.4099    111.3422   8.7156984844e+01   2.4152817189e+01    0.4468489    0.3587981 -18.50  0.002205206    1.354    0.261
       115 -12.5551     45.3856    110.0073   1.2048119430e+02   4.7993827658e+01    0.5682992     0.397834 -50.96  0.003367848    1.379    0.275
       116 -11.2159    222.5678    109.8218   7.8028932205e+01   1.3930297302e+01    0.2383868    0.1777806  56.20   0.00110922    1.466    0.318
       117 -13.0925    249.0028     97.9821   7.1002205555e+01   1.0039662723e+01     0.667347    0.2901025 -33.61  0.002798785    2.040    0.510
       118 -11.2378    161.9780     97.0958   8.6490931393e+01   3.0161063937e+01    0.3179638    0.2584876  48.77  0.001568271    1.234    0.190
       119 -12.4492    127.7832     96.0313   9.4383634907e+01   3.7998085179e+01    0.5234383     0.314708  65.23  0.002066043    2.381    0.580
       120 -10.5106    188.5107     96.5121   8.0797973951e+01   2.3990743275e+01    0.1510356    0.1478864 -16.02 0.0008103972    1.019    0.019
       121 -10.8979     76.0206     95.5450   1.0866250605e+02   4.7417244049e+01    0.2012387     0.169751 -55.67 0.0003513625    1.070    0.065
       122 -13.7940    214.2302     78.2073   7.1263961900e+01   2.0830699351e+01     1.175438    0.8421628  70.64  0.005638489    1.611    0.379
       123 -14.5943    198.0753     70.7846   7.1907596731e+01   2.5930850232e+01     2.492585    0.8678872  42.25  0.007424328    3.804    0.737
       124 -13.7416    188.3596     84.5519   7.7546979297e+01   2.6082837220e+01     1.410568    0.5471641  48.97  0.003280509    2.554    0.609
       125 -13.5899    163.9692     71.1368   7.8528855636e+01   3.4374587319e+01     1.192417    0.5728155  39.20  0.003586248    2.474    0.596
       126 -14.9060    160.9375     80.6423   8.2031410549e+01   3.3447219442e+01     2.142437    0.9486927  34.69  0.006582257    3.528    0.717
       127 -14.5434    170.2781     77.0622   7.8984637555e+01   3.1802305068e+01     1.060129    0.8652999  36.13  0.004629408    1.273    0.215
       128 -13.9803    133.1767     81.5159   8.8843472451e+01   3.9739254053e+01     1.257412    0.8910128  22.07  0.004438691    1.799    0.444
       129 -13.8599    133.5163     67.3714   8.4360538494e+01   4.2314736433e+01     1.267379    0.8680469  38.58  0.005748494    1.529    0.346
       130 -12.3481    147.2810    238.9086   1.1622301091e+02   7.8409090528e+00    0.3189534    0.2297887  84.53  0.001596403    1.960    0.490
       131 -14.0244    157.4565     44.4677   7.1372518058e+01   4.0231098937e+01     1.439669    0.6265035  45.99  0.005326526    2.331    0.571
       132 -12.2320    144.6394    231.9473   1.1586084970e+02   9.2459976992e+00    0.2714632    0.1826813 -41.80  0.001732779    1.962    0.490
       133 -10.8698    160.3192    230.3223   1.1287752974e+02   6.9703632080e+00    0.1150984   0.08343918  18.35 0.0007044311    1.670    0.401
       134 -11.3405    235.3356    229.6654   9.9924582018e+01  -4.8630053310e+00   0.09993526   0.08761752  55.29 0.0005605725    1.741    0.426
       135 -11.7766     89.8400     87.6120   1.0255779483e+02   4.6990979711e+01    0.4611097    0.2560504  51.27  0.002026417    2.141    0.533
       136 -13.0875     57.3224    203.6654   1.2890188301e+02   2.6676712225e+01    0.7457952    0.2865271 -73.97  0.003751195    2.663    0.624
       137 -13.6372    238.9767     81.6655   6.8421224429e+01   1.4577323118e+01    0.8811836    0.5776727 -88.22  0.003906861    2.386    0.581
       138 -10.8678     98.3164     84.0456   9.9086404091e+01   4.6276823888e+01    0.2439375    0.1992596  78.56 0.0006269444    1.548    0.354
       139 -12.9433     45.5490    208.6453   1.3144205106e+02   2.7153032517e+01    0.5497753    0.2308326  68.61  0.002820382    2.542    0.607
       140 -14.6820     39.4595     67.8056   1.1364394598e+02   5.8050696733e+01     2.622735    0.6683857  27.49  0.009419519    4.838    0.793
       141 -13.1979     72.1565     74.9248   1.0451167306e+02   5.2499190249e+01     0.822409    0.4531045 -36.30  0.003747605    1.940    0.484
       142 -13.0774     77.1219     73.6188   1.0254386688e+02   5.2029456280e+01    0.7274199    0.4108346 -30.09  0.003177924    2.215    0.548
       143 -13.6990     67.6264    222.9022   1.2862503617e+02   2.1922235021e+01    0.7403036    0.4913307  38.89  0.005033275    1.586    0.370
       144 -13.6864     56.6058     78.8477   1.1061477958e+02   5.3740780548e+01    0.6960881    0.4199991 -38.97  0.001940103    1.676    0.403
       145 -14.0141     60.8634     75.5690   1.0836993582e+02   5.3919093924e+01    0.8001919    0.5129809 -47.60  0.001237338    1.360    0.265
       146 -11.9956    113.8437     80.3854   9.3615244399e+01   4.4063571000e+01    0.4373215    0.3683688 -38.39   0.00145593    1.142    0.124
       147 -11.9088     90.7323     80.2727   1.0025125793e+02   4.8407961816e+01    0.4249862    0.3480653  -6.56  0.001807999    1.455    0.313
       148 -12.2681     41.8945     77.3298   1.1510705078e+02   5.5726421973e+01    0.3585126    0.2387698 -57.18 0.0008994251    1.246    0.197
       149 -14.3653     62.8637    214.7538   1.2880965692e+02   2.3959092639e+01      1.02101    0.4648266  45.07  0.005910465    1.825    0.452
       150 -11.6594     23.5379     75.4195   1.2084811074e+02   5.7791102604e+01    0.2515543    0.1885501  69.05  0.001596095    1.635    0.389
       151 -12.3848    241.3158     71.5982   6.5563206247e+01   1.5498850241e+01    0.5583169    0.3381583 -68.57  0.002380809    2.463    0.594
       152 -10.9815    248.9975    225.0000   9.6975683149e+01  -6.4100781502e+00    0.1878124   0.05290522  41.42 0.0008113972    3.005    0.667
       153 -11.5955    158.2455     63.8155   7.7481489013e+01   3.7022682803e+01     0.423313    0.2456996 -48.93  0.001702837    1.932    0.482
       154 -13.5431     79.4655     60.2110   9.7620566948e+01   5.4394812246e+01    0.8400565    0.5444939 -25.28  0.004097115    1.740    0.425
       155 -11.6015     85.9735     50.2996   9.2065591197e+01   5.5166689130e+01    0.4460093    0.2283261 -35.09  0.001167989    1.880    0.468
       156 -14.0682    178.0287     57.4819   7.1568760658e+01   3.3049959678e+01    0.9131506    0.6804785 -52.08  0.002420861    1.445    0.308
       157 -12.5110     39.5164     60.3646   1.1166389694e+02   5.9631928882e+01    0.3321426    0.3189619  10.30  0.001962279    1.232    0.188
       158 -12.4767     24.4874     59.9304   1.1709425156e+02   6.1075937235e+01    0.3294959    0.1961365 -53.74  0.001068146    1.311    0.237
       159 -11.9619     30.6259     58.0943   1.1434267025e+02   6.0951418830e+01    0.3665661    0.2010588 -59.37  0.001584054    1.545    0.353
       160 -11.6235    249.6600     48.6971   5.8817613281e+01   1.6719023282e+01    0.3326523    0.2204916 -36.31  0.001242826    1.345    0.256
       161 -11.9163    230.1932     55.3163   6.2837712061e+01   2.0344058683e+01    0.4828293     0.297089  75.48  0.002229336    1.904    0.475
       162 -11.0079     36.5141     53.4745   1.1083330329e+02   6.1365952732e+01    0.1256828    0.1021515 -44.00 -7.64242e-05    1.006    0.006
       163 -12.6375    247.4915     53.0054   6.0130106016e+01   1.6645964789e+01    0.6234516     0.372383 -44.79  0.002794977    1.556    0.357
       164 -10.9080     23.0901     50.0124   1.1506757197e+02   6.3265283130e+01    0.1817104    0.1462361 -49.39  0.000507072    1.030    0.029
       165 -13.3792     55.9585     27.5099   9.3848810949e+01   6.3919362230e+01    0.4842706    0.3266053  36.40   0.00135713    1.642    0.391
       166 -12.0633    211.3717     33.4066   5.9314489709e+01   2.7831920217e+01    0.3409203    0.2693609 -62.74 0.0002255686    1.293    0.227
       167 -13.4537     94.4981    218.7689   1.2344314802e+02   1.8984756986e+01    0.3997071    0.2661065  56.79  0.001977822    1.224    0.183
       168 -13.6791     98.7154    216.7213   1.2246037016e+02   1.8725084196e+01    0.5094057    0.4006097 -64.74  0.003558554    1.470    0.320
       169 -14.9213    212.2693     41.1011   6.1348121586e+01   2.6630799976e+01     2.270129    0.8565482  71.60  0.007691466    3.263    0.694
       170 -10.2547    163.4935    225.4721   1.1167143371e+02   7.1360185938e+00    0.1209255   0.09687064  40.06 0.0001562043    1.022    0.022
       171 -11.0773    204.7652    217.9799   1.0324850333e+02   1.3132478255e+00     0.140735   0.09961291 -29.92 0.0007575678    1.635    0.388
       172 -11.5874     25.6034     43.2250   1.1209061674e+02   6.4440276300e+01    0.2405061    0.1454869 -46.59 0.0006231188    1.297    0.229
       173 -13.2273     75.8392     37.4069   9.0578628560e+01   5.9178683941e+01    0.5956419     0.393426  22.38 0.0008109545    1.718    0.418
       174 -12.3902     70.4968     36.5200   9.2103910414e+01   6.0208295307e+01    0.4314411    0.2908613  13.73  0.002037616    1.764    0.433
       175 -11.6027    181.0299     40.5504   6.5820554680e+01   3.4709493770e+01    0.4602672    0.2521771  84.42  0.001701316    2.701    0.630
       176 -10.7614     34.9830     37.9694   1.0648342844e+02   6.4600548748e+01    0.2763369    0.1160515 -44.99  0.001032599    1.907    0.476
       177 -12.7281    245.3602     36.7097   5.6303001923e+01   1.9205949749e+01    0.4911555    0.3366726 -46.06  0.001590114    1.331    0.249
       178 -13.3253    241.0241     36.2327   5.6636594772e+01   2.0268156111e+01    0.7306942    0.7034843 -62.60  0.003377474    1.068    0.064
       179 -10.5597     89.1605     30.1626   8.3226472167e+01   5.7921567294e+01    0.2072015    0.1673134   3.93 0.0002927245    1.212    0.175
       180 -12.2292     97.6239     26.7956   7.9262022506e+01   5.6719418201e+01    0.3414119    0.2825745  53.42   0.00149226    1.342    0.255
       181 -11.1082     65.2243     24.5610   8.9027776216e+01   6.2990654215e+01    0.2910743    0.1899918 -13.70  0.001558759    1.603    0.376
       182 -11.5096     75.0173     23.4738   8.5037025110e+01   6.1512149318e+01    0.2807522    0.2022976  40.99  0.001037906    1.459    0.314
       183 -11.1283    213.1095    200.7238   9.8933202023e+01   2.1381282292e+00    0.2498504    0.2062365  77.31  0.001493543    1.992    0.498
       184 -10.7457    247.3105     17.6738   5.1438070402e+01   2.0980454171e+01    0.1422416   0.08388351 -57.74 0.0002238639    1.659    0.397
       185 -11.5029     70.7544     16.7906   8.3513735816e+01   6.3197821818e+01    0.2205072    0.1978776  -8.98 0.0004439106    1.133    0.117
       186 -10.6464     60.0475     15.4736   8.6847399594e+01   6.5151200285e+01    0.1790061    0.1179865  35.89 0.0005017659    1.566    0.361
       187 -11.5827     85.2824    215.8671   1.2484275234e+02   2.0790497836e+01    0.2636591    0.1605744  48.97  0.001559941    1.354    0.262
       188 -12.0480    185.6196    213.8848   1.0601291458e+02   5.0629544545e+00    0.2149401    0.1617624 -60.47  0.001305838    1.926    0.481
       189 -10.4289    154.4778    214.5060   1.1181618779e+02   1.0247611316e+01    0.1241659    0.1021277  47.40 5.465276e-05    1.041    0.040
       190 -11.0435    157.4234    213.2591   1.1109418499e+02   9.9428088361e+00    0.1515343    0.1194169 -68.72 0.0009504072    1.643    0.391
       191 -11.4055    136.7772    211.4308   1.1471410662e+02   1.3679289172e+01    0.2018076    0.1730156 -66.21  0.001002902    1.362    0.266
       192 -11.1713     39.2736    210.7461   1.3270350572e+02   2.7478102981e+01    0.3174179    0.1130339  41.73  0.001726129    2.367    0.577
       193 -11.4727     80.1522    208.4510   1.2507473028e+02   2.2822925266e+01    0.2652989     0.148199  63.24   0.00153226    1.676    0.403
       194 -10.8168    149.7056    206.8351   1.1163173930e+02   1.2259377578e+01    0.2233449    0.1486947  36.96 0.0009680103    1.368    0.269
       195 -11.3828     72.2211    206.5862   1.2638169128e+02   2.4233155593e+01     0.267578    0.1906774  58.77  0.001817902    1.144    0.126
       196 -10.7087    186.3363    205.3202   1.0453573014e+02   6.1473342000e+00    0.1294761   0.08892181  15.61 0.0007049778    1.706    0.414
       197 -11.7929     45.2938    197.7431   1.3066145038e+02   2.9223262447e+01    0.3660161    0.2071539 -82.87  0.002302797    1.610    0.379
       198 -12.2710     41.7093    200.9985   1.3157477063e+02   2.9011948015e+01    0.2322725    0.1653123  66.27  0.001280638    1.102    0.093
