#   1 NUMBER                 Running object number                                     
#   2 MAG_AUTO               Kron-like elliptical aperture magnitude                    [mag]
#   3 X_IMAGE                Object position along x                                    [pixel]
#   4 Y_IMAGE                Object position along y                                    [pixel]
#   5 X_WORLD                Barycenter position along world x axis                     [deg]
#   6 Y_WORLD                Barycenter position along world y axis                     [deg]
#   7 A_WORLD                Profile RMS along major axis (world units)                 [deg]
#   8 B_WORLD                Profile RMS along minor axis (world units)                 [deg]
#   9 THETA_WORLD            Position angle (CCW/world-x)                               [deg]
#  10 FWHM_WORLD             FWHM assuming a gaussian core                              [deg]
#  11 ELONGATION             A_IMAGE/B_IMAGE                                           
#  12 ELLIPTICITY            1 - B_IMAGE/A_IMAGE                                       
         1 -13.9626     68.6386    144.3359   9.7651941461e+01   3.7410698146e+01     3.711727     2.074569  81.16  0.003957131    3.321    0.699
         2 -13.6409    203.3774     42.1891   4.0071536020e+01   2.9800006361e+01      1.50194     1.248202  15.90  0.007020362    1.725    0.420
         3 -13.4838    214.9950     31.4844   3.6459422481e+01   2.8669095599e+01    0.8790143    0.7692276  27.77  0.002653559    1.609    0.379
         4 -11.2330      2.0978      4.6378   8.7410917112e+01   7.5885546206e+01    0.7576249     0.233825 -51.39  0.003167917    3.826    0.739
         5 -12.7250    241.0532      6.1134   2.9323395190e+01   2.6315717005e+01    0.7344542    0.5478748 -74.33  0.005450337    1.121    0.108
         6  -9.6700     55.0193      5.5035   5.7357455754e+01   6.7952284271e+01    0.1960409    0.1092909  50.28   0.00103659    1.605    0.377
         7  -9.4474     60.5142      2.9767   5.4009327326e+01   6.7091333941e+01    0.1772783    0.1202098 -16.20  0.001036333    1.601    0.376
         8 -10.0216    119.8250    212.1285   9.4608287655e+01   1.3972677622e+01    0.2072078    0.1755704  46.54  0.000599194    1.205    0.170
         9  -9.8195    140.2117    250.0294   9.5183122889e+01   4.2457649532e+00    0.2986573    0.1310921  43.31  0.001391622    2.361    0.576
        10 -10.2634    102.2641    249.8071   1.0323886575e+02   9.2490560983e+00    0.2826657    0.2276431 -73.52 0.0009617439    1.554    0.356
        11 -10.9348    101.3990    244.5950   1.0287343317e+02   1.0295284318e+01    0.3564248    0.2142636 -74.60  0.001896041    2.337    0.572
        12 -15.1237      4.9850    156.8501   1.1858463703e+02   4.0688457359e+01     7.192214     1.185344 -75.64   0.02131736    4.834    0.793
        13 -13.5290     16.5277    216.6883   1.1955509758e+02   2.5712287595e+01    0.8905454    0.5317488  25.55  0.005164175    1.737    0.424
        14 -16.8876     14.7743    242.6708   1.2123735740e+02   2.0536780795e+01     6.794428     2.326077  19.77   0.02762386    4.170    0.760
        15  -9.7547    122.4316    199.0215   9.2009405755e+01   1.6273385357e+01    0.3091949    0.2443001  78.07  0.001008224    1.716    0.417
        16 -11.0915    192.8937    194.6502   7.5583627083e+01   6.1773085605e+00    0.7897909    0.4290053 -61.15  0.002773864    4.836    0.793
        17  -8.8254     67.4701    197.8603   1.0567118993e+02   2.4401043651e+01    0.1947392    0.1325952 -73.40  0.001012736    1.554    0.356
        18  -9.6870     32.9702    210.4225   1.1537086134e+02   2.5499572094e+01     0.217145    0.1697742 -84.96 5.949222e-05    1.250    0.200
        19 -10.0050    148.8076    189.5813   8.4143427934e+01   1.4024632240e+01    0.5420654    0.3529882 -86.10  0.001952522    4.088    0.755
        20  -9.5794    118.2539    190.4919   9.1670355454e+01   1.8746550491e+01    0.3364844    0.2126362  78.47  0.001296767    3.142    0.682
        21  -9.3860    201.3168    198.3324   7.4606912030e+01   4.3333659625e+00    0.1367526    0.0881801  -6.71 0.0007047341    1.689    0.408
        22 -10.5926     81.1579    182.1528   1.0004136558e+02   2.6247117207e+01     0.348993    0.3384044  61.69  0.001034976    1.024    0.023
        23  -9.5367     99.4905    180.9865   9.4958678294e+01   2.3814079202e+01    0.2765404    0.2105027  30.23 0.0006235573    1.268    0.212
        24 -10.2399    186.8528    174.9321   7.3073978920e+01   1.0616156735e+01    0.3745696    0.2876899 -46.65  0.001165714    1.418    0.295
        25  -9.6638     90.1353    174.9140   9.6505885429e+01   2.6667750779e+01    0.2259597    0.2143012  64.15 0.0006464873    1.059    0.056
        26 -12.1817     79.0981    159.0182   9.7023707351e+01   3.2197453676e+01     1.071184    0.5272465  53.25 0.0004808754    2.564    0.610
        27 -12.8638     66.9717    154.4774   9.9878095454e+01   3.5051965726e+01    0.5932651    0.4531364 -44.31 0.0008954899    1.368    0.269
        28 -14.7634      9.3438    207.6489   1.2068268233e+02   2.8320421690e+01     1.450484     1.106662 -32.33  0.008317889    1.818    0.450
        29 -11.1235    102.9493    171.4541   9.2440990098e+01   2.5500871274e+01    0.6347688     0.296633  36.26   0.00240274    2.026    0.506
        30 -10.2290    240.2891    169.4062   6.2410965286e+01   3.4786633625e+00    0.1968035    0.1333244 -47.17 0.0002595379    1.676    0.404
        31  -8.4254    102.9793    164.9821   9.1283737100e+01   2.7028653535e+01     0.171774    0.1685917  22.62            0    1.007    0.007
        32 -10.1848     35.7268    161.6156   1.1017385771e+02   3.6910813107e+01     0.410148    0.2878048  18.44  0.001542145    1.602    0.376
        33 -11.6021     86.5765    152.5192   9.3678657376e+01   3.2688490723e+01    0.6632252    0.4603752 -18.85  0.002922694    1.953    0.488
        34  -8.1927    112.0142    150.2181   8.5922358232e+01   2.9006905221e+01    0.1967426    0.1228144  35.04 0.0004064386    1.589    0.371
        35  -9.5670    174.8500    149.3032   7.0286404896e+01   1.7575917060e+01    0.2178193    0.1863938  60.65 0.0006840437    1.436    0.304
        36 -10.3882    133.7937    145.1710   7.9005524252e+01   2.6179477420e+01     1.060606    0.2595315 -52.84  0.002558849    5.502    0.818
        37 -11.4380     65.5497    172.3160   1.0295661835e+02   3.0760614757e+01    0.4538317    0.3042624 -30.01  0.001327511    1.944    0.486
        38 -10.1825    101.0138    138.6708   8.6637339419e+01   3.3713816518e+01    0.5632219     0.355323 -21.94  0.002200272    2.345    0.574
        39 -11.6069     88.2384    138.0011   9.0342188920e+01   3.6041103852e+01    0.3079043     0.276926 -36.76 0.0004240088    1.128    0.113
        40 -10.4906     23.6788    136.6372   1.1093849419e+02   4.4445453838e+01    0.2418151    0.2036889  71.48 0.0007798476    1.195    0.163
        41 -10.0083    105.9160    130.8949   8.3461886708e+01   3.4710270332e+01    0.4141704    0.3184865 -63.03  0.001457783    1.416    0.294
        42  -9.4891    110.5039    129.4915   8.1798360380e+01   3.4193668551e+01    0.3654189    0.2461182  17.02  0.001136659    1.890    0.471
        43 -10.1503    134.9783    128.3447   7.4824349335e+01   2.9692200338e+01    0.4477055    0.2961707 -49.22   0.00199736    1.525    0.344
        44 -10.2922     43.9526    129.5070   1.0315707618e+02   4.4343562046e+01    0.2285882    0.1883582 -64.51   0.00104529    1.132    0.117
        45 -11.4207     70.0332    167.7153   1.0102483307e+02   3.1305734424e+01    0.4834537    0.3119985 -48.41 0.0007872703    1.618    0.382
        46 -10.1131     23.0107    129.3335   1.1023609024e+02   4.6394101329e+01    0.1851254    0.1765692  38.29  0.000911636    1.150    0.131
        47 -10.2438     97.7481    125.2410   8.4604208575e+01   3.7547762692e+01    0.3376144    0.2721858   2.54  0.001268529    1.460    0.315
        48 -10.4410     46.7974    124.6517   1.0134487718e+02   4.5284074063e+01    0.2663261     0.257245 -29.14 0.0009086356    1.073    0.068
        49  -9.2112    116.7775    123.7990   7.8641867044e+01   3.4320714007e+01    0.2620616    0.1690606  -8.06 0.0009444451    2.741    0.635
        50 -10.6861     24.7980    120.1968   1.0835324306e+02   4.8616028847e+01    0.4830651     0.177791  40.29   0.00180535    2.907    0.656
        51  -8.8622    135.0000    119.9446   7.2758773557e+01   3.1524837449e+01    0.2578493   0.08668125 -45.43 0.0008018254    2.938    0.660
        52  -9.0727    107.0860    118.4732   8.0141828260e+01   3.7426682789e+01    0.2140888    0.2034953 -33.44 0.0003730648    1.039    0.038
        53  -8.5333     82.3793    116.8593   8.7526886288e+01   4.2248719612e+01    0.2077516    0.1873625  53.25 0.0004743173    1.181    0.153
        54 -10.0903    231.3036    113.8758   5.2638982945e+01   1.3697638137e+01    0.2588656    0.2203824 -35.47 0.0007941482    1.020    0.020
        55  -9.6289     39.9873    113.4541   1.0173409092e+02   4.8926933656e+01     0.256099    0.1941503 -88.98 0.0003546633    1.478    0.323
        56 -10.7965    247.0013    107.0027   4.9157223980e+01   1.2136499667e+01     0.185345    0.1504613 -39.14 0.0009926099    1.002    0.002
        57  -9.3910    205.4430    110.2017   5.5738322907e+01   1.9011949109e+01    0.2817129    0.1967219  39.15  0.001207833    1.654    0.395
        58  -8.5616    114.6715    108.9803   7.5473179071e+01   3.8100185826e+01    0.2645516    0.1180591 -29.59 0.0007049334    4.439    0.775
        59  -8.4251    163.5978    120.8204   6.6181306961e+01   2.5432967355e+01    0.2135229    0.1359294 -51.12 0.0006411034    1.645    0.392
        60 -10.3572     33.1522    109.6043   1.0356699274e+02   5.0603812941e+01    0.3480228    0.1964525 -71.76  0.000787341    1.767    0.434
        61  -9.0718    119.4744    103.5391   7.2643882209e+01   3.8306115116e+01    0.1534648    0.1492415  -2.58 -6.771162e-06    1.022    0.021
        62 -10.3420     38.8779    102.1260   9.9921973609e+01   5.1929906694e+01    0.4688039    0.2037995  46.27  0.001755245    2.941    0.660
        63  -9.5329    120.8726     98.1503   7.0765437064e+01   3.9159780628e+01    0.2403844    0.2138095  88.45 0.0006588167    1.309    0.236
        64 -14.8653     36.1306    192.4965   1.1314849323e+02   2.9284910405e+01     4.949395     1.898357  66.22   0.01349026    4.053    0.753
        65 -13.5060     50.1372    186.9241   1.0896180147e+02   2.9083864341e+01     1.567848     1.163585  70.52  0.007443656    1.352    0.260
        66  -9.6672     73.2117     83.7168   8.1901730423e+01   5.1600941386e+01    0.3468218    0.2211643  51.55 0.0008128043    1.894    0.472
        67  -8.7377    159.8201     83.3881   5.7341717562e+01   3.3342568289e+01    0.2005137    0.1339584  43.66 0.0003287918    1.594    0.373
        68  -8.1362    107.5127     77.5283   6.8480237733e+01   4.6215305960e+01    0.1483666    0.1456694  63.97 3.357661e-05    1.072    0.068
        69  -8.5103     93.8428     67.8377   6.9570764584e+01   5.0966290279e+01    0.1935319    0.1771367  86.07 0.0005440437    1.304    0.233
        70 -10.5562      1.8411     62.2085   1.0782205643e+02   6.4436342797e+01    0.4443482     0.145383 -70.84  0.001727217    3.041    0.671
        71  -9.2292     50.8881     63.8321   8.4612801505e+01   5.9420488163e+01    0.3729741    0.1611174  44.69  0.001413964    2.913    0.657
        72 -10.2990     13.4318     59.7763   1.0136813831e+02   6.4323539381e+01     0.229911    0.2154716 -32.76 0.0004216072    1.136    0.120
        73 -12.7507    193.4978     49.3192   4.2951473940e+01   3.1013506486e+01    0.8508065     0.631427  49.72 0.0009363189    1.542    0.352
        74 -10.8382    119.9296    244.7749   9.8860014103e+01   7.8182931310e+00    0.2351841     0.183398 -62.42 0.0007921983    1.616    0.381
        75 -10.8751      1.9948     48.4915   1.0451338688e+02   6.7509321737e+01    0.5499926    0.1337363 -67.41  0.001830222    4.415    0.773
        76  -8.4139     45.5870     41.2568   7.8640943549e+01   6.4592467891e+01    0.1270533    0.1030542  57.09 0.0006946953    1.741    0.426
        77 -11.0569      2.1761     25.1650   9.6958272483e+01   7.2286517464e+01    0.4617659    0.2709595  18.33  0.002728267    1.736    0.424
        78 -10.7397      2.2509     21.0003   9.5232764582e+01   7.3063504628e+01    0.3118838     0.202306 -66.16  0.001807515    2.057    0.514
        79  -9.4724    193.3361    205.3053   7.7393890035e+01   4.3174218237e+00    0.1361269   0.08854034  -3.65  0.000537225    1.670    0.401
        80  -8.6530    189.5105     14.9594   3.4920529641e+01   3.6009558133e+01     0.173165    0.1150048 -34.98 0.0005425384    1.537    0.349
        81  -9.8881    110.9852    203.3389   9.5455842617e+01   1.7100109476e+01    0.2105435    0.1905789  71.32 0.0004652556    1.243    0.195
        82 -10.5119    184.4013    213.2355   8.0536559165e+01   4.2669427659e+00    0.2231785    0.2097111  83.33  0.001431092    1.658    0.397
        83  -9.3526    107.6243    204.1862   9.6401226622e+01   1.7418535562e+01    0.1920259    0.1617687  -1.18 0.0005667653    1.302    0.232
