#   1 NUMBER                 Running object number                                     
#   2 MAG_AUTO               Kron-like elliptical aperture magnitude                    [mag]
#   3 X_IMAGE                Object position along x                                    [pixel]
#   4 Y_IMAGE                Object position along y                                    [pixel]
#   5 X_WORLD                Barycenter position along world x axis                     [deg]
#   6 Y_WORLD                Barycenter position along world y axis                     [deg]
#   7 A_WORLD                Profile RMS along major axis (world units)                 [deg]
#   8 B_WORLD                Profile RMS along minor axis (world units)                 [deg]
#   9 THETA_WORLD            Position angle (CCW/world-x)                               [deg]
#  10 FWHM_WORLD             FWHM assuming a gaussian core                              [deg]
#  11 ELONGATION             A_IMAGE/B_IMAGE                                           
#  12 ELLIPTICITY            1 - B_IMAGE/A_IMAGE                                       
         1 -13.2424     83.9244     23.4481   4.7827381621e+01   6.1754052733e+01    0.6599103     0.385375 -60.65  0.002662277    2.334    0.572
         2 -12.3023     85.0331     10.5475   4.0616569677e+01   6.3141830859e+01    0.3013807    0.1863306 -43.96  0.001390405    1.700    0.412
         3 -11.5734    210.2265      7.7036   2.3775646375e+01   3.0361316899e+01    0.2869971    0.1551166 -35.06  0.001472798    1.535    0.348
         4 -10.2527    223.4846      6.4727   2.2753378678e+01   2.7504369358e+01    0.1275991    0.1038978 -49.58 7.094862e-05    1.020    0.019
         5 -11.6071    144.5266      5.5949   2.8191315680e+01   4.7361104928e+01    0.3585412     0.200539 -49.26   0.00161058    1.703    0.413
         6 -10.7377     67.0838      1.5498   4.0429243059e+01   6.8658920669e+01    0.2113364    0.1308857  65.21 0.0007541492    1.562    0.360
         7 -10.3441     35.9618      1.7791   5.4718774991e+01   7.5594893571e+01    0.1713995    0.1029202  48.16 0.0005535862    1.651    0.394
         8 -11.9245    179.8996    244.2622   7.8357452379e+01   4.4162419026e+00    0.1821269    0.1523082 -14.84  0.000801897    1.408    0.290
         9 -10.6162    102.6305    242.6649   9.2396679788e+01   1.4344923619e+01    0.2151863    0.2069481 -86.52  0.001150651    1.389    0.280
        10 -11.0805     97.6913    249.6111   9.3926376021e+01   1.3962822282e+01    0.1506343    0.1160262  64.98 0.0002154293    1.484    0.326
        11 -10.6160     96.5039    244.9181   9.3781711185e+01   1.4779524823e+01    0.3013566    0.1726427  36.22  0.001664927    1.254    0.203
        12 -17.1457    108.4076    147.1423   7.9104842478e+01   3.0639903483e+01      3.05059     2.782997  72.77   0.01778506    1.107    0.096
        13 -10.1801    197.9733    242.7761   7.5178877313e+01   2.4112589603e+00    0.1338281   0.06404573  30.92 0.0003627775    1.587    0.370
        14 -10.5665    159.6632    242.2694   8.1643621325e+01   7.1504585712e+00    0.1030915    0.0688081  45.06 0.0002932247    1.596    0.374
        15 -11.4676    116.2096    240.1746   8.9526705527e+01   1.2979959293e+01    0.1812511     0.131146  32.89 0.0003765341    1.050    0.048
        16 -10.6063    165.9833    240.2398   8.0286904981e+01   6.5940390678e+00    0.1510842    0.1115377  23.70  0.001136944    1.012    0.011
        17 -11.2675    108.3702    237.1540   9.0777801211e+01   1.4417651032e+01    0.2366235    0.1601187 -43.51  0.001601505    2.013    0.503
        18 -10.5206    157.5877    234.2707   8.1087190232e+01   8.3927036153e+00    0.1345033    0.1095226 -32.95 0.0007407458    1.542    0.351
        19 -11.0411    160.3959    231.8239   8.0282216315e+01   8.3319931610e+00    0.1851016    0.1281614  13.56 0.0004918652    1.364    0.267
        20 -10.5797    131.7894    232.3572   8.5714528213e+01   1.2041415033e+01    0.1675156   0.08498976  27.48  0.000534992    1.712    0.416
        21 -12.0819    112.9936    228.2652   8.8996775573e+01   1.5132099575e+01    0.2969742    0.2342439  46.67   0.00176917    1.176    0.149
        22 -11.2774    155.1793    230.1079   8.1031437300e+01   9.2368750611e+00    0.1775606    0.1257433  16.61 0.0007700397    1.284    0.221
        23 -10.8190    177.9971    229.2206   7.6815387464e+01   6.3588039681e+00    0.1552531    0.1093874  26.63 0.0003294175    1.093    0.085
        24 -12.0073    150.3375    228.3539   8.1722584365e+01   1.0110593161e+01    0.2554641    0.1880434   1.83  0.001045222    1.503    0.335
        25 -12.9537    187.1732    226.2983   7.4844858244e+01   5.5194315091e+00    0.3178205    0.2065362  -9.93  0.001564472    1.674    0.403
        26 -10.8128    144.8594    225.7960   8.2454471270e+01   1.1192619644e+01     0.282287    0.1608486 -65.70  0.001489284    3.446    0.710
        27 -16.4996     93.3858    199.0795   9.0134888411e+01   2.2685008531e+01     1.929418      1.43952 -34.71   0.01164796    1.846    0.458
        28 -10.8605    231.9160    227.1285   6.7817091181e+01   2.9636146480e-02    0.1439392    0.1134151  11.39 0.0005677199    1.248    0.199
        29 -10.7297    138.2740    226.1016   8.3757959073e+01   1.2043555834e+01    0.1837577    0.1577991  71.93   0.00106838    1.600    0.375
        30 -10.2322    215.4890    226.5153   7.0235197100e+01   1.9928099759e+00    0.1045523   0.07712866  13.46 0.0001273785    1.042    0.040
        31 -11.7410    171.2501    224.9751   7.7459745788e+01   7.7532308778e+00    0.1878264     0.165495  41.24 0.0003175222    1.425    0.298
        32 -12.8178    173.5854    219.4233   7.6305415672e+01   8.1325268019e+00      0.31295    0.2004284  14.55 0.0006277662    1.509    0.337
        33 -12.1971    125.4066    221.9664   8.5825214540e+01   1.4398844838e+01    0.3956784    0.3010353  56.53  0.002063812    1.468    0.319
        34 -12.5945    115.9600    218.6365   8.7380101679e+01   1.6208407538e+01    0.5017924      0.31666  43.48  0.002999749    1.309    0.236
        35 -10.1379    118.7806    224.9732   8.7488503727e+01   1.4851517156e+01    0.1166008   0.09792345 -54.54  0.000836257    1.549    0.355
        36 -11.1591    159.4865    222.0613   7.9232385010e+01   9.7052053068e+00    0.1827522     0.121431  31.16 0.0006345007    1.176    0.149
        37 -11.1393    106.3840    220.6304   8.9577277963e+01   1.7201661611e+01    0.2122764    0.1965127  -2.93  0.001059251    1.332    0.249
        38 -12.2589    193.5562    218.5117   7.2690871544e+01   5.5934677110e+00    0.2439634    0.1729487 -51.00  0.001616215    2.334    0.572
        39 -10.2038    138.9592    217.9811   8.2656352586e+01   1.3105807571e+01     0.141445    0.1122767  30.18  0.000461635    1.015    0.015
        40 -11.2015    144.6109    216.7277   8.1390785633e+01   1.2494206384e+01    0.2016062    0.1140447  45.75 0.0007622979    1.702    0.412
        41 -10.8610      2.4627    215.5250   1.1172780689e+02   3.0001847399e+01    0.1525197   0.09128069  43.43    0.0010313    1.210    0.173
        42 -12.7892    124.7851    212.2094   8.4821144872e+01   1.5978134574e+01    0.4462458     0.274104 -28.64  0.002459195    2.417    0.586
        43 -11.5210    124.1928    206.0134   8.4189667181e+01   1.7049349408e+01    0.2752533    0.1471874  35.79 0.0007948417    1.507    0.336
        44  -9.9118      1.5678    212.2454   1.1185424814e+02   3.0689797471e+01    0.1758392   0.09451146  89.19 0.0005147196    1.848    0.459
        45 -13.0904    183.9256    213.0598   7.3583077406e+01   7.5255189282e+00    0.2913572    0.2129652 -11.14  0.002036928    1.402    0.287
        46 -13.2635    158.0780    212.4165   7.8229560930e+01   1.1200637574e+01    0.4419362    0.2531803 -39.44 0.0008852456    2.078    0.519
        47 -12.9535    153.4530    210.5289   7.8862772762e+01   1.2123351079e+01    0.5173824    0.2596911  17.82  0.002292277    2.809    0.644
        48 -11.4919    142.9976    211.8820   8.1090341446e+01   1.3424971214e+01    0.2920317    0.1632972 -38.15  0.001201049    2.224    0.550
        49 -13.4474    146.6912    203.3783   7.9219371828e+01   1.4152843726e+01    0.4323319    0.3510406  26.02  0.001601522    1.038    0.036
        50 -17.7833     68.4717    188.0332   9.4885771228e+01   2.8235552333e+01     3.445429     2.833255  73.72   0.02229342    1.201    0.167
        51 -11.8705    229.7055    206.9342   6.5194817716e+01   2.2891976816e+00    0.2216053     0.147301 -21.01  0.001236311    1.424    0.298
        52 -10.6924    193.9899    208.7309   7.1208152136e+01   6.6909515831e+00    0.1417809    0.0810689  32.06 0.0004146731    1.457    0.314
        53 -10.9147    137.2722    207.8815   8.1721900697e+01   1.4850868537e+01    0.2295203    0.1394289  14.16  0.001070477    2.078    0.519
        54 -12.9416    168.7702    205.7403   7.5281738702e+01   1.0592092877e+01    0.3025727    0.2399736  23.37  0.001314701    1.013    0.013
        55 -10.2117      6.5330    207.1728   1.1065166239e+02   3.1222490181e+01    0.1740978    0.1377315  -1.02  0.001205475    1.885    0.470
        56 -10.3877    247.6596    206.3216   6.2489535368e+01   2.2489843874e-01   0.08455886   0.07839238  -1.79 0.0007050426    1.720    0.419
        57 -11.1982    220.0603    206.1492   6.6553748949e+01   3.5718649616e+00     0.162986    0.1236816  12.25 0.0004617721    1.044    0.042
        58 -10.9102     18.6442    205.7451   1.0788860142e+02   3.0383419719e+01    0.1920724    0.1140676  69.87  0.001010925    1.458    0.314
        59  -9.7615     13.9570    202.2018   1.0883085593e+02   3.1517284704e+01    0.2550747    0.1248818  50.15 0.0009573959    1.471    0.320
        60 -10.7976    215.3619    201.7571   6.6618283522e+01   4.6615442465e+00    0.1617836    0.1309136  16.55  0.000334488    1.162    0.139
        61 -10.9017    212.2419    199.9885   6.6842475665e+01   5.2738715756e+00    0.1543662    0.1358677   8.39 0.0004821859    1.282    0.220
        62 -10.4867     14.0377    211.5450   1.0911548177e+02   2.9709505899e+01    0.4110935    0.1385269  66.97  0.001985088    2.697    0.629
        63 -10.6521    127.4828    202.4984   8.3051258422e+01   1.7135815872e+01    0.1248645    0.1016315  34.69 -6.590831e-05    1.002    0.002
        64 -11.9913    127.2696    198.6720   8.2596169453e+01   1.7794261349e+01     0.208459    0.1900741  40.38 0.0002031143    1.127    0.113
        65 -11.5845    121.2849    200.7172   8.4142691916e+01   1.8346837399e+01    0.1851628    0.1515153  34.43 0.0004588226    1.027    0.026
        66 -13.3262    123.9852    196.6984   8.3039614541e+01   1.8617864440e+01    0.4655612    0.3426747 -27.78  0.001784562    1.755    0.430
        67 -12.0854    225.1989    198.7383   6.4608177553e+01   3.7241319763e+00    0.2628487     0.182347 -35.60  0.001563668    1.753    0.430
        68 -12.9056    134.2907    198.1748   8.1045274852e+01   1.6818403217e+01    0.3629811    0.2177994  35.57 0.0009375702    1.377    0.274
        69 -13.5301    140.2081    195.8851   7.9493163213e+01   1.6287870433e+01    0.4228044    0.2646502  33.61  0.002239666    1.342    0.255
        70 -13.5711    135.4953    193.4771   8.0138531706e+01   1.7399345373e+01    0.6966406    0.3699535  61.11   0.00284558    3.590    0.721
        71 -11.1419     16.4517    198.1581   1.0811061463e+02   3.2085315361e+01    0.2418619    0.1331044  54.09 0.0007924247    1.361    0.265
        72 -10.3021     18.5439    194.4677   1.0747352821e+02   3.2629893686e+01    0.1509503    0.1068592  20.87 0.0002864876    1.614    0.380
        73 -13.2621    189.4774    195.2425   6.9935504049e+01   9.0074719195e+00    0.5083363    0.2210422  42.03    0.0025827    2.208    0.547
        74 -10.2597     13.4476    207.4515   1.0911764352e+02   3.0544346197e+01    0.1472483   0.08128738  41.57 0.0004208423    1.336    0.252
        75 -11.2079     26.6870    195.2615   1.0556892661e+02   3.1665181263e+01    0.2174468    0.1417005 -68.76  0.001298914    1.787    0.441
        76 -11.0328    212.9108    194.3568   6.5842531624e+01   5.8379976499e+00    0.2208589    0.1512226 -42.69    0.0010055    1.972    0.493
        77 -14.0882    163.0618    192.5589   7.4409003663e+01   1.3304574389e+01    0.7504817    0.3281344  48.14  0.003373931    2.662    0.624
        78 -12.7656    173.1362    188.7302   7.1880810449e+01   1.2322053173e+01    0.2886789    0.2114734  50.16  0.001426066    1.609    0.379
        79 -10.6055      5.3138    190.6373   1.1049276166e+02   3.4609979902e+01    0.1314436   0.09661338  32.97 0.0002289269    1.337    0.252
        80 -12.0344     87.9737    250.5591   9.5871042006e+01   1.4998684935e+01    0.3192903   0.08899876  31.98 0.0009940796    2.736    0.634
        81 -13.1832    147.5059    193.5985   7.7662620178e+01   1.5531420835e+01    0.3814936    0.2454676  -4.41  0.001951829    2.353    0.575
        82 -13.5150    127.2127    185.4641   8.0778641270e+01   2.0048757562e+01    0.5495574    0.3513339  20.13  0.001852811    1.793    0.442
        83 -12.7833    135.8843    185.2127   7.8852251859e+01   1.8716543270e+01    0.3321556    0.2675983  80.48  0.001051635    1.710    0.415
        84 -13.5628    143.5424    181.8388   7.6701309593e+01   1.8055904753e+01    0.6756263    0.2375495  34.34  0.002669084    2.725    0.633
        85 -11.0284    248.3073    186.0232   5.9174841988e+01   2.1711568422e+00    0.1955442    0.1174163  11.18  0.001019345    1.547    0.354
        86 -10.5027    208.7717    186.0303   6.5154664888e+01   7.4118132097e+00    0.1396224   0.08719557 -29.20 0.0003865884    1.598    0.374
        87 -11.9797    186.3775    185.7251   6.8954313931e+01   1.0731227118e+01    0.2533073    0.1266751  39.69  0.001168859    1.827    0.453
        88 -10.4921    213.6904    184.6835   6.4130123225e+01   6.8820644922e+00    0.1186259   0.07488982   5.68   0.00024408    1.635    0.389
        89 -11.5393    148.8879    184.1289   7.5942206899e+01   1.6821347350e+01    0.1832945    0.1575042  46.06 0.0003142589    1.207    0.172
        90 -12.6791    177.6645    182.4578   7.0009002172e+01   1.2523497718e+01    0.3880765    0.2059117  20.20  0.001851945    2.347    0.574
        91 -13.7348    126.8022    176.5441   7.9537282284e+01   2.1702862259e+01     0.621721    0.4498902 -18.06  0.003342701    1.900    0.474
        92 -13.9033    117.5587    179.0571   8.2023992718e+01   2.2739063457e+01    0.7878394    0.4431233  61.01   0.00346643    2.460    0.593
        93 -16.1102    127.7695    168.7415   7.8079091473e+01   2.2974061558e+01     1.999343    0.8272523  38.00  0.008420973    2.149    0.535
        94 -13.1686    116.2980    166.3829   8.0388551917e+01   2.5357091122e+01    0.4632397     0.328314 -70.31   0.00235657    1.761    0.432
        95 -13.5298    121.6546    165.6267   7.8992600342e+01   2.4598974850e+01    0.4640569    0.2893864  33.41  0.002340366    1.507    0.336
        96 -14.4918    142.4508    172.1998   7.5378276650e+01   1.9874893470e+01    0.7042743    0.4943022  82.83  0.003393379    2.590    0.614
        97 -12.8364    137.9308    170.3258   7.6053824764e+01   2.0966233015e+01    0.3503706    0.2831522  87.78  0.001315928    1.706    0.414
        98 -13.1659    138.8773    165.6968   7.5060245066e+01   2.1632141236e+01    0.3764214    0.2689282  -3.01  0.001246081    1.956    0.489
        99 -11.4946      8.6276    182.1463   1.0942454293e+02   3.6094527309e+01    0.2083952     0.161156  17.59  0.001050019    1.565    0.361
       100 -10.7018     23.1545    181.5267   1.0575039927e+02   3.4878302791e+01    0.1652483    0.1046126  33.73 0.0004568977    1.424    0.298
       101 -12.1147    191.3133    178.2178   6.6809341824e+01   1.1006616934e+01    0.2320887    0.1979174 -31.17 0.0008941626    1.331    0.249
       102 -12.0434    132.0416    179.0554   7.8754228837e+01   2.0398761005e+01    0.2075512    0.1822519  38.91  0.001015218    1.044    0.042
       103 -12.5712    136.6261    176.5177   7.7348721721e+01   2.0092873586e+01    0.3448803     0.233213 -55.97  0.001891021    1.798    0.444
       104 -11.2994     28.7384    177.6318   1.0410566678e+02   3.5152680791e+01    0.2694862     0.140523  78.16  0.001045362    1.876    0.467
       105 -11.9944    174.9832    173.2222   6.8940990630e+01   1.4306563752e+01    0.2322682     0.164076 -67.96  0.001183139    2.638    0.621
       106 -11.2767     28.3606    171.6413   1.0383821824e+02   3.6506606008e+01    0.4078301    0.1408503  37.13  0.001788271    2.187    0.543
       107 -13.9077    153.8837    167.2932   7.2107203267e+01   1.8773685994e+01    0.5687731     0.396687  -9.69  0.001985769    1.895    0.472
       108 -10.7205    197.3535    170.3126   6.4364922198e+01   1.1152638584e+01    0.1288942   0.08374745   8.25  0.000704508    1.731    0.422
       109 -11.8985    160.0537    169.5162   7.1227093814e+01   1.7358719080e+01    0.2189181    0.1905144 -67.11  0.001119124    1.520    0.342
       110 -12.6668    171.5116    168.9937   6.8862095030e+01   1.5521797728e+01    0.2204013    0.1846586  -3.40  0.001015178    1.184    0.155
       111 -11.9147    201.1109    167.1136   6.3143865535e+01   1.1000507035e+01    0.2575803    0.1931186 -84.68  0.001264343    3.413    0.707
       112 -12.8530    154.0711    178.4260   7.3959961952e+01   1.6906494068e+01    0.3557276    0.2076278  34.69  0.001878768    1.519    0.342
       113 -11.2866     33.1231    168.0099   1.0231574626e+02   3.6816221995e+01    0.2543336    0.1843637 -37.02  0.001382642    2.018    0.504
       114 -10.8155    205.4711    164.5345   6.1939344266e+01   1.0666240211e+01    0.1220895    0.1017271   4.82 4.296299e-05    1.023    0.023
       115 -13.3875    171.1392    160.1789   6.7326079403e+01   1.6967799133e+01    0.3500067    0.2980506  26.45  0.002183147    1.067    0.063
       116 -17.4114     51.3395    229.3595   1.0187201739e+02   2.2623505928e+01     4.381239     1.650325  38.75   0.02358992    1.804    0.446
       117 -12.8713     28.6226    124.6207   9.9958550751e+01   4.7717225949e+01    0.3372783    0.2950091 -85.41   0.00112162    1.122    0.109
       118 -14.0927     45.0828    129.6368   9.5017553951e+01   4.4595132308e+01    0.9565519    0.5991974  -2.19  0.004085266    2.795    0.642
       119 -14.3945     36.5592    126.5391   9.7474421146e+01   4.6381657266e+01     1.283305    0.7258748 -28.96  0.005176099    3.192    0.687
       120 -14.1273     37.3467    138.7077   9.8558204266e+01   4.3259135804e+01    0.8438652    0.5277669  46.91  0.002131066    1.410    0.291
       121 -12.5149     21.5056    159.6811   1.0497503642e+02   3.9898314940e+01    0.3479771    0.1969449  33.79 0.0002535504    1.592    0.372
       122 -10.4238      3.3668    161.4724   1.1009331822e+02   4.1065945313e+01    0.1226772   0.09544083  66.63 0.0001119875    1.040    0.038
       123 -13.1368    158.3694    157.3980   6.9374032388e+01   1.9664181443e+01    0.4121573    0.2252438  37.13  0.001982283    1.717    0.418
       124 -10.8316    165.6420    157.3028   6.7872930423e+01   1.8392517970e+01    0.1279679    0.1046934  73.92 0.0007038556    1.717    0.418
       125 -12.9745     27.1332    160.4622   1.0344311318e+02   3.9162311002e+01    0.4950319    0.2581289  19.42   0.00238788    2.254    0.556
       126 -11.8387     37.7766    155.0744   9.9988168888e+01   3.9276569965e+01     0.315832    0.1866443  64.11 0.0009594135    1.557    0.358
       127 -11.0223      3.4815    154.3491   1.0981023342e+02   4.2687988663e+01     0.295273    0.1194368  57.52  0.001191842    1.992    0.498
       128 -11.9287    212.2839    154.0872   5.8866296882e+01   1.0987755443e+01    0.2156356    0.1732328  41.25 0.0006791002    1.380    0.276
       129 -13.5283    169.3231    151.3139   6.5984709024e+01   1.8720875289e+01    0.3898339    0.3586854  31.53  0.002454842    1.089    0.082
       130 -14.2190    146.7395    149.4899   7.0346664233e+01   2.3165891117e+01    0.6062773    0.4574022  51.69 0.0007273649    1.355    0.262
       131 -11.7500    179.9461    150.3065   6.3738149947e+01   1.6985362122e+01    0.1873005    0.1602514  24.71 0.0005568565    1.088    0.081
       132 -11.1476     40.2476    149.1645   9.8717614017e+01   4.0393210956e+01    0.3128477    0.1111314 -77.13  0.001201256    2.942    0.660
       133 -10.6910    224.7914    148.8024   5.5917350212e+01   9.7092507275e+00    0.1504418    0.1359875 -35.25 0.0004857578    1.360    0.265
       134 -11.9047    170.6667    145.5511   6.4569956915e+01   1.9425759144e+01    0.2775786    0.1973132  -5.99  0.001429389    1.752    0.429
       135 -12.5819    156.3892    145.1352   6.7398926398e+01   2.2150130569e+01    0.3561002    0.1853811  47.12 0.0009485412    1.893    0.472
       136 -11.7247     17.1632    143.5925   1.0524241477e+02   4.4102416535e+01     0.346141    0.1928561  27.54  0.001449808    1.788    0.441
       137 -10.7811    203.2868    143.3318   5.8215336260e+01   1.3954619504e+01    0.1294576   0.09007639   2.99 0.0003412049    1.620    0.383
       138 -12.1660     69.6994    142.4328   8.9107364101e+01   3.8092274144e+01    0.4264978    0.2715912  88.06  0.000440832    1.826    0.452
       139 -12.3531     74.9124    125.3101   8.4703440962e+01   4.1383862258e+01    0.2636172    0.2483191  49.48   0.00149938    1.115    0.103
       140 -12.0532     71.0748    133.8754   8.7368877303e+01   3.9923461028e+01    0.2795718    0.2218354 -77.12 0.0008426212    1.272    0.214
       141 -12.3340     59.1299    135.2755   9.1281211744e+01   4.1344023508e+01    0.4782321    0.2198634 -58.04  0.002018171    2.222    0.550
       142 -13.3627     65.6906    134.7523   8.9164131321e+01   4.0525912336e+01    0.7659615    0.2481683  41.38  0.002757329    2.655    0.623
       143 -13.3211     75.9650    133.2942   8.5782796259e+01   3.9294121355e+01    0.4698667    0.2998962  37.82  0.001557555    1.490    0.329
       144 -13.1753     74.6561    129.8018   8.5583086150e+01   4.0340307285e+01    0.4113282    0.2783944  27.49  0.001459966    1.646    0.393
       145 -11.2142    151.0912    141.7222   6.7839571372e+01   2.3763947896e+01    0.2014753     0.171876  33.93   0.00052135    1.112    0.100
       146 -13.8574    127.7949    147.2354   7.4274424989e+01   2.7102745377e+01    0.5157774    0.3271419  59.48  0.001285166    1.873    0.466
       147 -14.8111     22.7325    152.6644   1.0417606002e+02   4.1418400122e+01     1.206723     1.142676  17.56  0.005285206    1.330    0.248
       148 -11.9478    159.9334    135.7607   6.4705075691e+01   2.3130252856e+01    0.3146856    0.1950704 -24.98  0.001093145    1.986    0.496
       149 -11.5397      4.7150    136.2743   1.0869178864e+02   4.6886577781e+01    0.2951297    0.1510781  84.43   0.00105587    1.730    0.422
       150 -11.9463     16.3097    135.8793   1.0499605992e+02   4.6058025443e+01    0.3630315    0.1358212  39.05  0.001601728    2.195    0.544
       151 -11.4308     11.4984    132.9934   1.0635245739e+02   4.7170941153e+01    0.2234463    0.1473198  58.10 0.0005894402    1.294    0.227
       152 -12.5767    140.2490    134.5901   6.8778602010e+01   2.7203145209e+01    0.4210897    0.2248518  41.13  0.001832608    1.799    0.444
       153 -11.8897    143.5301    132.4634   6.7569037087e+01   2.6963330347e+01    0.2901765     0.222675  29.17  0.000977195    1.367    0.269
       154 -15.4769     88.5113    185.4872   8.9739527175e+01   2.5957539381e+01      1.17849     0.743495 -75.24  0.006376736    1.929    0.481
       155 -13.0164     91.2969    130.6748   8.0753323666e+01   3.7329504364e+01    0.4282985    0.2142715 -59.44  0.001651674    2.116    0.527
       156 -16.8250     68.1152    207.4068   9.6693829712e+01   2.4533440914e+01     3.694714    0.6617613  38.38   0.01374283    3.290    0.696
       157 -12.4797     20.6836    132.2436   1.0331379049e+02   4.6567692978e+01    0.2643898    0.2166075 -34.27  0.001557097    1.597    0.374
       158 -12.4548    132.1813    132.0842   7.0149069124e+01   2.9286970509e+01    0.2678967    0.2023331  42.81 0.0008553901    1.257    0.205
       159 -14.5481    154.4828    127.5200   6.4053370214e+01   2.5693348120e+01     1.012336    0.6559291  47.42  0.004916934    1.517    0.341
       160 -13.6637     64.0151    113.7020   8.6117368662e+01   4.5977550136e+01    0.6405627    0.3756243  63.16   0.00256718    1.963    0.491
       161 -13.3910     63.9143    128.0696   8.8668796654e+01   4.2420386144e+01    0.7053831     0.358448 -83.64  0.002735932    2.606    0.616
       162 -12.5076     56.9709    118.0251   8.9303124030e+01   4.5935401755e+01    0.4148729    0.3399885  48.82   0.00122494    1.158    0.136
       163 -13.3264     56.5902    128.4021   9.1082725086e+01   4.3390792529e+01    0.5954437    0.3534052  30.84  0.001711408    1.725    0.420
       164 -14.3295     54.8805    123.9584   9.0968372450e+01   4.4736417318e+01     1.128287    0.6217727  12.11  0.004327744    3.062    0.673
       165 -11.8526     47.7570    121.9979   9.3076770397e+01   4.6180925566e+01    0.4412015    0.2519948  32.65  0.001543381    1.733    0.423
       166 -14.1079     41.2412    120.1174   9.5058128592e+01   4.7468485160e+01     1.135791    0.5223883  14.23  0.004084682    3.524    0.716
       167 -11.3672     49.1608    116.1551   9.1704111017e+01   4.7483022191e+01    0.3974444    0.2190078  36.78 0.0008545604    1.733    0.423
       168 -11.0060    134.0121    127.5054   6.8708828660e+01   2.9838547688e+01    0.2071744    0.1951429 -45.69 0.0003586567    1.111    0.100
       169 -12.9702    120.5991    123.7808   7.1228251739e+01   3.3307670505e+01    0.3580267    0.2862558  88.57  0.001510175    1.508    0.337
       170 -12.3472     10.8175    123.2858   1.0595044728e+02   4.9643516756e+01    0.4710918    0.1872105  40.95  0.002118246    2.147    0.534
       171 -13.1146    101.1109    120.4632   7.5819270560e+01   3.7869249825e+01     0.474794    0.3316625 -83.28  0.002136806    1.843    0.457
       172 -13.0965     19.1169    121.6530   1.0295650395e+02   4.9372000875e+01    0.5486028    0.1718549 -82.90   0.00196254    3.184    0.686
       173 -13.0841     22.8453    116.0731   1.0110585274e+02   5.0460645889e+01    0.4269762    0.3549812 -52.75  0.002157514    1.367    0.268
       174 -11.3405    137.8161    131.0035   6.8573496816e+01   2.8382815210e+01    0.2687119    0.2006021  36.83 0.0006502658    1.321    0.243
       175 -12.9343     70.8575    117.9644   8.4634805592e+01   4.3837313208e+01    0.5253836    0.2768236  58.13  0.001126539    2.192    0.544
       176 -12.2499    105.9494    114.0406   7.2979238976e+01   3.8374670052e+01    0.4702168     0.341054  -4.85  0.001483938    2.345    0.574
       177 -12.2422     82.9226    114.0311   7.9930232858e+01   4.2747532323e+01     0.377945    0.2118131 -61.69  0.001603439    1.850    0.459
       178 -12.6003     31.9570    118.3572   9.8097466022e+01   4.8967985671e+01     0.464697    0.2617379  33.15  0.001159947    1.726    0.420
       179 -10.8276    189.1447    121.8709   5.6041846070e+01   1.9745724067e+01    0.1920453    0.1843844 -71.96  0.000576981    1.222    0.182
       180 -11.4169    114.9801    110.6610   6.9649391863e+01   3.7276466538e+01    0.3146621    0.1962584 -50.30 0.0009937814    1.650    0.394
       181 -13.0435    106.9295    122.5444   7.4628133076e+01   3.6278814350e+01    0.4608013    0.2595302  51.96   0.00188803    1.801    0.445
       182 -11.1564     20.9959    239.3556   1.0851660903e+02   2.4102974317e+01    0.2444653    0.1425015 -77.12  0.001693717    2.062    0.515
       183 -10.9612     11.6636    114.6891   1.0502755844e+02   5.1758238042e+01    0.1319492   0.09304746 -46.21 0.0004893541    1.684    0.406
       184 -12.1664     72.5897    111.8103   8.2837733467e+01   4.5072394585e+01    0.4439788    0.2926383  15.19  0.001886685    2.241    0.554
       185 -10.4038    174.7821    243.7629   7.9170984828e+01   5.0962036735e+00    0.1358296    0.1010928  34.65 0.0006113398    1.302    0.232
       186 -11.3382    121.8104    110.7358   6.7842612713e+01   3.5824016466e+01    0.3337068    0.2159752 -32.35  0.001437145    1.913    0.477
       187 -12.4807     88.4785    110.5747   7.7407295877e+01   4.2561018921e+01    0.3233448    0.2690772 -28.27  0.001106023    1.508    0.337
       188 -12.8362     58.2363    108.0192   8.7056683881e+01   4.8285952054e+01    0.4745983    0.2542835  66.02   0.00114488    2.450    0.592
       189 -12.8166     53.6287    110.7181   8.9206206233e+01   4.8262700075e+01    0.4281953    0.3268733  57.10  0.001564254    1.248    0.199
       190 -12.1075     51.2970    106.9439   8.9374831093e+01   4.9552615642e+01    0.2636738    0.2384907  54.04 0.0004167776    1.099    0.090
       191 -12.3216    141.4962    108.5184   6.2429566250e+01   3.2025979785e+01    0.3024754    0.1898187  45.66 0.0009190502    1.576    0.365
       192 -12.6268    152.5771    107.5001   5.9695272550e+01   2.9793994953e+01     0.473481    0.1431088  49.48  0.001500617    3.294    0.696
       193 -11.0950    174.9783    106.2729   5.4909081101e+01   2.5158863278e+01    0.1881012    0.1791333  37.55   0.00030497    1.075    0.069
       194 -10.4923     19.3826    105.7344   1.0131025119e+02   5.3441798931e+01      0.19454    0.1109032 -67.55 0.0009439368    1.624    0.384
       195 -11.1884     14.5234    105.8477   1.0319695174e+02   5.3812119998e+01     0.207318    0.1190302 -81.42   0.00102239    1.562    0.360
       196 -11.1397     64.3541    105.2307   8.4312420900e+01   4.8053475637e+01     0.207642    0.1353776 -75.93 0.0003484972    1.625    0.385
       197 -11.3482    105.3488    104.0155   7.0701470065e+01   4.0750039443e+01    0.3208326    0.1899027  44.97  0.001137984    1.646    0.392
       198 -10.3268    117.4237    103.4901   6.7172312221e+01   3.8307706940e+01    0.1504292    0.1468374  76.34 0.0001110685    1.033    0.032
       199 -13.4690     76.5587     98.5883   7.8513260637e+01   4.7639263290e+01    0.7929372    0.3840781  55.79  0.002883079    2.522    0.603
       200 -11.7312     71.4609     97.4616   8.0034059083e+01   4.8815968753e+01    0.2481496    0.1911251  56.64 3.473091e-05    1.286    0.222
       201 -12.7725     60.2034     93.8252   8.3332072559e+01   5.1589122654e+01    0.5996766    0.3005426 -64.45  0.002080535    1.996    0.499
       202  99.0000     14.4396    237.4985   1.0976895267e+02   2.5036640799e+01    0.2643234    0.1609126  35.59  0.001875566    1.312    0.238
       203 -10.9536    179.0820     99.9274   5.2582397451e+01   2.5327989014e+01    0.2143755    0.1873259 -65.43 0.0004878333    1.270    0.213
       204 -11.9512     19.6323     99.6937   1.0052795926e+02   5.4993889603e+01    0.3014162    0.1620931  23.79   0.00142238    1.994    0.498
       205 -10.9743    237.9360     98.8943   4.3767371113e+01   1.3912682478e+01    0.1820792    0.1538214 -27.36 0.0003856548    1.043    0.041
       206 -12.7395     57.9061     99.7624   8.5514101629e+01   5.0436140747e+01    0.3946334    0.3213605 -88.36  0.001196596    1.206    0.171
       207 -11.6325     39.2497     95.9565   9.2029860510e+01   5.3953915591e+01     0.243842    0.1930102   4.51   0.00127287    1.611    0.379
       208 -12.4316     35.2574     93.8366   9.3284453420e+01   5.4973847841e+01    0.4003422    0.2436111   5.66  0.001084006    2.388    0.581
       209 -10.7474    214.2349     92.5734   4.5320456667e+01   1.9148035479e+01    0.1670215    0.1215011  40.09 0.0003695973    1.537    0.349
       210 -10.6201    196.4852     92.5010   4.7851167117e+01   2.2775324731e+01    0.1369864      0.12614 -30.44 0.0003900487    1.003    0.003
       211 -11.8573     21.2345     91.3153   9.8788213240e+01   5.7048027715e+01    0.2193151    0.1700044  22.77 0.0008686307    1.439    0.305
       212 -11.5629      2.5933     90.9589   1.0672318698e+02   5.8472194109e+01    0.2158098    0.2130763  53.45  0.000567928    1.188    0.158
       213 -11.2478     12.0230     88.3745   1.0240322086e+02   5.8550839683e+01    0.3945791     0.188015 -87.50  0.001744525    1.990    0.497
       214 -10.7565    171.0067     88.0274   5.0926558782e+01   2.9085788987e+01    0.1735173    0.1688014 -47.22 0.0004038474    1.012    0.012
       215 -13.8437     53.5416     84.2648   8.3685904258e+01   5.5038351178e+01    0.8539093    0.5546137  75.95  0.003754368    1.939    0.484
       216 -10.6029    138.3090    101.6526   6.1401269784e+01   3.4076045994e+01    0.1564072    0.1187033 -81.34 0.0006247953    1.706    0.414
       217 -11.8736     45.9358     86.6820   8.7418140611e+01   5.5506670090e+01    0.2039093    0.1839975  62.14 0.0005155891    1.088    0.081
       218 -12.1384     31.7657     87.4419   9.3627592771e+01   5.7032681406e+01     0.329091    0.1466029  20.68   0.00129961    2.680    0.627
       219 -11.2823     68.7454     83.6153   7.7467786909e+01   5.2702813509e+01    0.2192294    0.1342876  49.71 0.0009479107    1.663    0.399
       220  -9.9750    222.4950     82.3825   4.1837116739e+01   1.8902994325e+01    0.1271106    0.1128498 -33.29 0.0001286034    1.032    0.031
       221 -11.5104    206.7998     81.5589   4.3635678571e+01   2.2196279659e+01    0.2272913    0.1514846 -37.43  0.001193911    1.337    0.252
       222 -11.6471    152.1734     80.5634   5.2453163057e+01   3.4792657152e+01    0.3646285    0.2397589  37.44  0.001285992    1.795    0.443
       223 -11.3473     87.5982     79.2231   6.9336579244e+01   5.0092420753e+01     0.322042    0.2746884 -39.79  0.001203653    1.268    0.212
       224 -11.7511     32.7454     79.9979   9.1758557733e+01   5.8867667485e+01    0.2012656     0.176554 -80.65  0.000434828    1.044    0.042
       225 -11.8846     27.9598     79.7867   9.3914023312e+01   5.9432456399e+01    0.2427074    0.1327129  53.08  0.001080436    1.957    0.489
       226 -10.9360    106.0298     79.2992   6.3487537697e+01   4.6038674803e+01    0.2478793    0.2066432 -80.07 0.0002024989    1.306    0.234
       227 -11.5563    183.0550     77.3246   4.5985955826e+01   2.8032435915e+01    0.2889525    0.2482383 -12.19  0.001590705    1.259    0.206
       228 -10.7607    189.9554     77.5159   4.4979315728e+01   2.6437489992e+01     0.200449    0.1396916  59.12  0.000486552    1.537    0.349
       229 -10.9848    158.0678     75.9792   4.9945547179e+01   3.4161121880e+01    0.2180347    0.2123122 -69.97  0.001211372    1.020    0.019
       230 -12.0364     75.2409     75.6295   7.2647858507e+01   5.3413196755e+01    0.3296824    0.2786798  45.72 0.0007016048    1.197    0.164
       231 -10.9527     15.4968     76.0262   9.9163067612e+01   6.1525445717e+01    0.2078278     0.121563 -76.70 0.0004936082    1.533    0.348
       232 -10.2215    120.4918     78.5392   5.9204207518e+01   4.2817063375e+01    0.1552439    0.1495198  86.17 1.141305e-05    1.011    0.011
       233 -11.3489    115.9440     74.4838   5.9131556654e+01   4.4716213598e+01    0.2922096    0.2229192 -23.72  0.001074784    1.607    0.378
       234 -12.4103     31.9542     74.7270   9.1007151095e+01   6.0323187343e+01    0.3398116    0.2523781   0.40  0.001460703    1.729    0.421
       235 -11.2357    177.9400     86.9969   4.9430467876e+01   2.7677971319e+01    0.2121319    0.2042311 -41.49 0.0004567161    1.012    0.012
       236 -10.3687    232.4721     73.4852   3.8597855479e+01   1.8111187236e+01    0.1276796    0.1081636 -30.55 9.055522e-05    1.023    0.022
       237 -10.5043    125.0609     73.4900   5.6427122547e+01   4.2706204973e+01    0.2323316    0.1515195  53.74 0.0005263197    1.520    0.342
       238 -10.6545    219.5426     72.4977   3.9794572068e+01   2.0792497788e+01    0.1325499    0.1140228 -36.47 0.0002615862    1.014    0.014
       239 -12.0988    188.3454     66.6191   4.2259940595e+01   2.8406478520e+01    0.5651018     0.240445 -30.50  0.001970438    2.226    0.551
       240 -12.6535    100.0600     66.4611   6.1039636788e+01   5.0108751480e+01    0.7033198    0.3465648 -42.01  0.002683355    2.064    0.515
       241 -10.9034    197.3787     67.2259   4.1187456752e+01   2.6256204961e+01    0.2929451    0.1342411  34.78 0.0009664464    4.158    0.760
       242 -10.7795     60.7864     66.7946   7.5625097655e+01   5.8175097882e+01    0.2478086    0.1613474 -17.94 0.0009484152    2.770    0.639
       243 -11.0997    250.0120     66.1548   3.5204382924e+01   1.5738285750e+01    0.1762807    0.1427011 -34.98 0.0003593549    1.023    0.023
       244 -13.5965     24.5589     63.8791   9.2252477823e+01   6.3890510078e+01    0.7514887    0.3607122   9.53  0.002985854    2.985    0.665
       245 -11.0246    114.5092     64.3229   5.6108346419e+01   4.7060678088e+01    0.3398835    0.2073997 -67.69 0.0008107668    2.333    0.571
       246 -10.3548     78.5698     65.4980   6.8034384904e+01   5.5067145934e+01    0.1537362    0.1437067 -85.42 7.948845e-05    1.053    0.050
       247 -10.7612    195.9274     62.2962   4.0049058997e+01   2.7271133656e+01    0.2202022    0.1089379 -86.58  0.000702951    4.306    0.768
       248 -11.7024     45.2457     61.3829   8.0989025730e+01   6.1987317840e+01    0.2915893    0.2225006 -33.67  0.001477513    1.496    0.331
       249 -10.3006     13.2835     62.3512   9.7995480992e+01   6.5240058421e+01    0.1430843   0.08718261 -46.42 0.0004160395    1.656    0.396
       250 -11.2576    109.7178     60.1230   5.5932418465e+01   4.9045024400e+01     0.284322    0.2124586  69.66  0.001309954    1.420    0.296
       251 -10.2953    119.5375     58.5074   5.2742482380e+01   4.6887141784e+01    0.1555244    0.1489174 -85.07 0.0001046793    1.008    0.007
       252 -11.6180    193.0849     57.2369   3.9024700576e+01   2.8622528356e+01     0.242016    0.1492805 -69.81   0.00109325    2.012    0.503
       253 -11.3880      3.1452     59.3301   1.0313608525e+02   6.6628831763e+01    0.3132596    0.2198321 -12.10  0.001751282    1.698    0.411
       254 -12.3856     29.4176     56.4234   8.7694747091e+01   6.5268256602e+01    0.4605759    0.2498418  44.30  0.001947243    1.979    0.495
       255 -10.8413    139.3050     56.6696   4.7588677253e+01   4.2124671546e+01     0.163186    0.1137654 -67.44 0.0004356451    1.656    0.396
       256 -11.3195    153.4799     57.5979   4.5156652515e+01   3.8321206918e+01    0.2542392    0.2390311 -54.88 0.0002161369    1.034    0.033
       257 -11.2869    181.2635     51.5284   3.8940566031e+01   3.2232112452e+01    0.2554626    0.1437788  73.60 0.0007812196    1.969    0.492
       258 -11.5409    174.1638     50.4354   3.9594524756e+01   3.4140109486e+01    0.3311402    0.2440081 -86.55  0.001647676    1.483    0.326
       259 -10.1687     94.2985     51.3641   5.7202209343e+01   5.4472368536e+01    0.1560733    0.1240888   8.02 0.0004020275    1.722    0.419
       260 -11.0195     17.7039     50.5797   9.2852725959e+01   6.7890638301e+01    0.2683071    0.1679752 -65.11  0.001374734    1.421    0.296
       261 -10.3874     37.6608     50.2799   8.1172955109e+01   6.5744719104e+01    0.1421506    0.1057367  67.86 0.0003154624    1.622    0.383
       262 -10.8918     29.3007     50.0224   8.5803368598e+01   6.6862664511e+01    0.1986987    0.1670654 -64.52 0.0004584669    1.108    0.098
       263 -10.5245    133.1991     48.3775   4.5960116660e+01   4.5066510118e+01    0.2125305    0.1447455  76.02 0.0003646111    1.574    0.365
       264 -10.2739      1.4429     47.5007   1.0234937957e+02   6.9716674175e+01    0.1288844    0.1127846 -82.06 2.334418e-05    1.048    0.046
       265 -10.4125    157.2497     46.0411   4.0757870828e+01   3.9087904642e+01    0.2058395    0.1819684 -42.82 0.0003743783    1.101    0.092
       266 -10.6685    153.1384     44.8572   4.1033837458e+01   4.0334587220e+01     0.195233    0.1776364  20.01 0.0002821515    1.291    0.226
       267 -10.5697     90.0795     44.8876   5.5894898917e+01   5.6697335078e+01    0.2264689    0.1986182 -77.37 0.0003098888    1.207    0.171
       268 -11.1686    195.8100     44.1430   3.5041715153e+01   2.9705129782e+01    0.2194089    0.1702551 -57.45  0.000659369    1.210    0.173
       269 -11.2612    143.3234     43.6502   4.2314988845e+01   4.3106353565e+01    0.1675197    0.1080655 -63.88 0.0005719052    1.749    0.428
       270 -11.1441     51.0266     43.0087   7.1178946135e+01   6.5320352245e+01    0.1759035    0.1675424 -50.78 0.0007056178    1.017    0.017
       271 -10.6105    188.9875     42.7807   3.5423398556e+01   3.1511577752e+01    0.1799979     0.114025  71.19 0.0005433244    1.661    0.398
       272 -11.3281    146.0202     39.6303   4.0431084947e+01   4.2966867959e+01     0.210073    0.1857605  81.32  0.001106113    1.101    0.092
       273 -11.0783    104.2352     39.9483   4.9557357418e+01   5.4023249777e+01    0.2648121    0.2148093  58.11 0.0005595093    1.206    0.171
       274 -11.5779     35.9191     39.5252   7.7983076653e+01   6.8490829638e+01     0.339513     0.237052  -9.69   0.00161809    1.992    0.498
       275 -11.4755     60.2119     38.0558   6.4448500612e+01   6.4627925190e+01    0.3279689    0.1924822 -52.30  0.001100286    1.795    0.443
       276 -11.7656     10.6425     35.5934   9.3299888334e+01   7.2141308097e+01    0.4607375    0.3050962 -82.40  0.002469372    1.565    0.361
       277 -12.5938     30.1275     33.4544   7.8926920725e+01   7.0648039662e+01    0.5708481     0.335858 -22.10  0.002441664    2.565    0.610
       278 -11.1095    223.3229     33.1343   2.9541759087e+01   2.4794499125e+01    0.2641855    0.1158488 -18.04 0.0005767801    2.636    0.621
       279 -11.6581     43.7225     33.9055   7.0862639227e+01   6.8510350315e+01    0.2585145    0.2025065  46.88 0.0006261469    1.351    0.260
       280 -10.7045    124.1443     33.1030   4.2045566694e+01   4.9786326651e+01    0.2182511    0.2019359  47.15 0.0003225029    1.156    0.135
       281 -11.8069    106.8005     32.3541   4.5636232826e+01   5.4542061090e+01    0.3250068    0.2414551 -34.79 0.0006873081    1.372    0.271
       282 -10.6162    214.6463     31.3125   2.9756091897e+01   2.6898207363e+01    0.1464824   0.08081963 -56.18 0.0007045002    1.731    0.422
       283 -11.3795    169.8120     31.1560   3.4154006237e+01   3.7791871125e+01    0.2255743    0.1765658 -61.99 0.0005001369    1.205    0.170
       284 -10.1295    242.4146     30.4240   2.7533388264e+01   2.1154742914e+01     0.122964   0.09847706 -41.20 8.897053e-05    1.018    0.017
       285 -11.3300    140.2669     29.6740   3.7791523336e+01   4.5865694008e+01    0.3875946    0.2597392  35.26  0.001724507    1.878    0.467
       286 -12.3966     74.3049     30.2345   5.4640871945e+01   6.3013686676e+01    0.3557222    0.1949379  51.80 0.0008600041    1.788    0.441
       287 -12.1133     38.9853     29.1405   7.1217401761e+01   7.0276173278e+01    0.3264891    0.2664852   4.69 0.0009126941    1.413    0.292
       288 -11.1885    156.1583     29.1871   3.5253789599e+01   4.1634954992e+01    0.2112662    0.1582914 -59.50 0.0005117776    1.286    0.223
       289 -10.8247    178.9610     28.0096   3.2124952649e+01   3.5817787228e+01    0.2091823      0.18985 -58.47  0.001209205    1.029    0.028
       290 -12.2321    101.4773     25.2389   4.3772433049e+01   5.6969940503e+01    0.3015701    0.2441835 -84.87  0.001048526    1.314    0.239
       291 -10.6717    238.2505    249.0148   6.9828423713e+01  -2.5984065439e+00    0.1322154   0.09208497   3.71 0.0005976955    1.121    0.108
       292 -10.2332    250.0005     22.2425   2.5181855784e+01   2.0520137065e+01    0.1336582   0.09785674  88.44 0.0004530117    1.543    0.352
       293 -10.0437     20.6685     22.6995   8.0458348772e+01   7.4186355336e+01    0.1365016   0.09311157 -25.10 0.0007032842    1.649    0.394
       294 -10.1986    134.5034     18.5204   3.4436926481e+01   4.8800976507e+01    0.1491608    0.1380391 -82.19 0.0001446294    1.010    0.010
       295 -11.5519    104.1482     15.8411   3.8738758962e+01   5.7450797133e+01    0.2104031    0.1712639  40.02 0.0008278188    1.312    0.238
       296 -10.5334    234.3838     13.2715   2.3888112854e+01   2.4529706532e+01    0.1140318   0.09057306  36.90 0.0006994257    1.705    0.413
       297 -10.6205    177.3964    249.2827   7.9372087092e+01   4.1753047459e+00    0.1405211   0.09520341  22.01  0.001062193    1.076    0.071
       298 -11.0823    172.1389     22.5287   3.1126401305e+01   3.8201742176e+01    0.2876859    0.1912193  -2.12  0.001329016    2.002    0.501
       299 -10.8167    127.3503    247.4712   8.8105334695e+01   1.0578125563e+01    0.2082372    0.1408667 -35.08  0.001467244    2.018    0.504
       300 -10.0198    200.2499    247.3059   7.5375024473e+01   1.6926969236e+00   0.09785768   0.05975892   7.22  0.000150906    1.505    0.336
       301  99.0000     17.2083    242.4996   1.0935436383e+02   2.3943877899e+01    0.3611496    0.1668815  48.08  0.002366374    1.421    0.296
       302 -10.1647    107.8406    243.8208   9.1482864435e+01   1.3526895662e+01     0.270431    0.1974442  71.45  0.001919928    1.791    0.442
