#   1 NUMBER                 Running object number                                     
#   2 MAG_AUTO               Kron-like elliptical aperture magnitude                    [mag]
#   3 X_IMAGE                Object position along x                                    [pixel]
#   4 Y_IMAGE                Object position along y                                    [pixel]
#   5 X_WORLD                Barycenter position along world x axis                     [deg]
#   6 Y_WORLD                Barycenter position along world y axis                     [deg]
#   7 A_WORLD                Profile RMS along major axis (world units)                 [deg]
#   8 B_WORLD                Profile RMS along minor axis (world units)                 [deg]
#   9 THETA_WORLD            Position angle (CCW/world-x)                               [deg]
#  10 FWHM_WORLD             FWHM assuming a gaussian core                              [deg]
#  11 ELONGATION             A_IMAGE/B_IMAGE                                           
#  12 ELLIPTICITY            1 - B_IMAGE/A_IMAGE                                       
         1 -14.9015    169.9819     44.5675   6.8708347725e+01   3.7290858837e+01     1.390237     1.116274   4.96  0.003892998    1.370    0.270
         2 -15.1547    190.3732     11.3732   5.4498395221e+01   3.5897346417e+01     2.771125     1.342696  64.49  0.007960448    1.945    0.486
         3 -11.7870    167.8449    245.5409   1.1097873329e+02   6.8068637163e+00    0.2011051    0.1528289 -29.65  0.001025081    1.864    0.464
         4 -14.6727    100.9920    243.3317   1.2133277660e+02   1.6518769273e+01    0.5391898    0.4420029 -58.88  0.004603639    1.717    0.417
         5 -19.5513     61.9177    160.6776   1.2093836969e+02   3.5326908050e+01     14.86591     5.177099 -71.38   0.06742578    2.947    0.661
         6 -11.5046    101.9559    199.5629   1.1720793599e+02   2.2914967115e+01    0.3126073    0.1682814  36.31   0.00080531    1.914    0.478
         7 -11.4236    113.3037    207.6610   1.1601560925e+02   1.9974093361e+01    0.2036615    0.1538355  68.47 0.0005898323    1.227    0.185
         8 -12.0998     11.7857    206.0150   1.3337682035e+02   3.2334683548e+01    0.2544824    0.1280322  37.95  0.001833692    1.984    0.496
         9 -12.3123    147.7719    185.3516   1.0686736608e+02   1.8002598800e+01    0.3063497     0.211746 -45.92  0.001857634    1.729    0.422
        10 -13.2194    153.6404    184.8407   1.0568699728e+02   1.7077800172e+01    0.4449337    0.3194749 -63.94  0.001900182    1.785    0.440
        11 -13.0882    151.6151    195.5856   1.0760534770e+02   1.5795429415e+01    0.5629928    0.4067953  24.84  0.003379277    1.604    0.377
        12  99.0000    134.8267    243.1051   1.1595660093e+02   1.1894476636e+01    0.2515873    0.1855782 -20.56  0.001096896    2.518    0.603
        13 -12.0538    159.6538    194.8028   1.0603132912e+02   1.4562194958e+01    0.2699123    0.2088996  73.63 0.0009062646    1.591    0.372
        14 -11.1516    138.7172    250.2820   1.1601894637e+02   1.0468446411e+01    0.1844891    0.1446165  36.55  0.001512839    1.289    0.224
        15 -11.0350     15.2299    194.8497   1.3231359224e+02   3.3909493264e+01      0.35775   0.07631344  62.61  0.001340112    5.718    0.825
        16 -10.6003     10.9639    189.4703   1.3279230738e+02   3.5223757681e+01    0.1213364    0.0882568  61.78 0.0003142874    1.168    0.144
        17 -13.5068    172.6560    185.4950   1.0225898750e+02   1.3663971980e+01    0.6099403    0.2999122  54.41  0.002904955    2.198    0.545
        18 -12.1155    164.6723    187.3512   1.0401308967e+02   1.4790581126e+01     0.240787     0.197519  54.12  0.000591817    1.167    0.143
        19  -9.5212    159.6953    247.7427   1.1249139993e+02   7.7542443945e+00   0.09870346   0.06510285  30.06 0.0001710963    1.514    0.340
        20 -10.1234    131.0375    234.2658   1.1571214217e+02   1.3570991570e+01    0.1510379    0.1325708 -70.85  0.001028361    1.462    0.316
        21 -11.2235    167.9615    240.4419   1.1039724356e+02   7.3605416835e+00    0.1484443    0.1258804  40.34  0.000356335    1.166    0.142
        22 -12.7541     27.9980    183.9655   1.2948396032e+02   3.4628713925e+01    0.1912217    0.1630606  56.08  0.001252768    1.348    0.258
        23 -11.7005    162.9668    181.1521   1.0337000406e+02   1.6015372902e+01    0.2731231    0.1751729 -67.06  0.001413497    2.434    0.589
        24 -10.3980     23.0350    182.6290   1.3030495009e+02   3.5345206572e+01    0.1006747   0.09130445  41.20 0.0003549792    1.552    0.356
        25 -13.2405    125.7744    172.5566   1.0928181975e+02   2.3824826749e+01    0.6560715    0.3801312  69.46  0.002396887    2.385    0.581
        26 -11.7595    148.9017    179.5492   1.0578983370e+02   1.8727061377e+01    0.2407874    0.1994861  62.15 0.0007283508    1.191    0.160
        27 -14.7062    141.5564    172.1564   1.0608367741e+02   2.1213566039e+01    0.9607985     0.779227  73.45  0.004951159    1.331    0.249
        28 -10.5771      4.7499    179.8066   1.3343707704e+02   3.7463299055e+01   0.07464693   0.06440517  85.87 0.0006469523    1.357    0.263
        29 -11.3958    225.7553    177.9834   9.1647443090e+01   5.2033943589e+00    0.1720809    0.1461759  10.30  0.000601328    1.101    0.092
        30 -11.9309    169.3612    178.0601   1.0167494608e+02   1.5343250227e+01    0.3686779    0.1600146  56.14  0.001485218    2.984    0.665
        31 -11.2376    203.2601    173.7741   9.4751573473e+01   9.7748435873e+00    0.2683524    0.1665907 -50.90  0.001389207    2.322    0.569
        32 -11.6679    195.5365    173.0041   9.5992482127e+01   1.1297794862e+01     0.293237    0.2510788 -47.30  0.001168563    1.459    0.314
        33 -11.8502      9.2782    175.2080   1.3240428547e+02   3.7919920405e+01    0.1617987    0.1087486  50.98 0.0007104669    1.369    0.269
        34 -11.3898    185.5189    169.0128   9.7109539801e+01   1.3722657204e+01     0.365351    0.2286963 -46.21  0.001495435    1.926    0.481
        35 -10.7881    207.6217    171.5119   9.3572307903e+01   9.2743497752e+00    0.3456982    0.1981744 -51.39  0.001465708    2.727    0.633
        36 -11.5315    188.4764    173.9924   9.7447707804e+01   1.2458883373e+01    0.2820132    0.2379937 -75.50  0.001243025    1.693    0.409
        37 -11.6922    230.1144    166.9708   8.8873913889e+01   5.7435178789e+00     0.387104    0.1479294 -44.87  0.001413662    4.559    0.781
        38 -12.5731    131.4424    171.6742   1.0801891299e+02   2.3029810489e+01    0.4033045    0.2433418  54.73  0.002188607    1.560    0.359
        39 -12.4274    160.2012    164.9478   1.0122463911e+02   1.9063228333e+01    0.4337629    0.2629237 -69.87  0.001933357    2.959    0.662
        40 -10.5158     23.9065    165.8008   1.2909301385e+02   3.8386454782e+01    0.1592422    0.1174782  19.28 0.0008097733    2.078    0.519
        41 -10.6978    192.6443    165.3364   9.5124680294e+01   1.2917000517e+01     0.192713    0.1600766  80.08  0.001121008    1.692    0.409
        42  -9.6481      1.5250    165.5400   1.3336185395e+02   4.0330428075e+01    0.1013859   0.07225312  78.16 0.0008087645    1.011    0.011
        43 -11.7450    131.2340    158.6971   1.0602914661e+02   2.5360299257e+01    0.2228096     0.214321 -71.06 0.0007655741    1.149    0.130
        44 -10.7391     15.4351    156.8739   1.3018159944e+02   4.0853952115e+01    0.1599936    0.1376871  53.27 0.0005275003    1.361    0.265
        45 -12.0377    188.3847    154.3470   9.3825588336e+01   1.5357628275e+01    0.6087008     0.331138  45.76  0.002945208    1.658    0.397
        46  -9.6200    177.9502    156.0388   9.6144219808e+01   1.7128682180e+01    0.1597574    0.1389349  38.39 0.0003119975    1.025    0.024
        47 -12.1788    163.3454    151.4841   9.8155618469e+01   2.0697100760e+01    0.3019559    0.2423913  64.03 0.0009353805    1.355    0.262
        48 -11.3216    141.0592    228.4544   1.1346159499e+02   1.2860901353e+01    0.2664139    0.2024664 -74.02  0.001420074    1.731    0.422
        49 -11.5422    174.4296    148.8911   9.5444522201e+01   1.8959781255e+01    0.3020578    0.2623542 -68.71  0.001099631    1.418    0.295
        50 -12.5598    189.2743    178.6068   9.8101235022e+01   1.1666742994e+01    0.4329053    0.3402914  67.64  0.001342345    1.649    0.394
        51 -12.6448    160.8960    127.9957   9.3860886643e+01   2.5264140369e+01     0.491746    0.3812446 -82.26   0.00248095    1.769    0.435
        52 -11.8630    168.4028    113.4253   8.8914365728e+01   2.6259127158e+01    0.3856696    0.3192428 -73.93 0.0008515419    1.515    0.340
        53 -10.9075    231.2541    113.6880   7.7263406145e+01   1.2446429457e+01    0.2569959    0.2149774  15.46  0.000752225    1.121    0.108
        54 -13.7192    118.5737    110.3183   9.9592771190e+01   3.7054262738e+01    0.7017394    0.4552591  61.98  0.003327917    1.811    0.448
        55 -10.9797    205.4251    110.1242   8.0845059619e+01   1.8579570327e+01     0.324923    0.2066391  43.96 0.0009479404    1.516    0.340
        56 -12.0057    189.5181    228.9976   1.0555570861e+02   5.3558928381e+00    0.1365515    0.1102131 -30.32  0.001037932    1.607    0.378
        57 -11.0388    126.5471    227.8811   1.1581943198e+02   1.5080372322e+01    0.2329666    0.1666641  42.20 0.0009117781    1.210    0.174
        58 -10.7367    127.8160    223.8136   1.1519252107e+02   1.5457161784e+01    0.1589107     0.143445 -83.83 0.0005571168    1.340    0.254
        59 -11.7881    125.1101    241.5804   1.1736281301e+02   1.3463438248e+01    0.4162653    0.1354158 -55.23  0.002204164    4.040    0.752
        60 -10.2750    138.6089    242.8777   1.1533283631e+02   1.1381432813e+01    0.1814104    0.1304593 -87.10 0.0009250123    1.922    0.480
        61 -10.5755    147.2945     81.9423   8.5288142906e+01   3.6679157733e+01     0.212206    0.1920235 -30.00 0.0004727946    1.104    0.094
        62 -10.6360     92.9118     79.0878   9.8741311320e+01   4.8131908778e+01    0.2041354    0.1892238 -56.15 0.0003635262    1.014    0.014
        63 -10.1882    119.4919    212.4651   1.1543348785e+02   1.8328663080e+01    0.1130645   0.08784679  54.05 0.0001064748    1.004    0.004
        64 -10.2612    142.0633     71.7920   8.3507846938e+01   3.9717496144e+01    0.2264682    0.2021105 -84.86 0.0005685676    1.298    0.230
        65 -14.3504    157.3576     59.2404   7.6069774998e+01   3.8243460580e+01     1.475492     1.092946  43.46 0.0009812528    1.353    0.261
        66 -10.0841    112.8321    195.2858   1.1473042755e+02   2.2017873557e+01     1.053761    0.7290205 -14.64  0.005245744    3.704    0.730
        67 -13.0807    174.5834     37.1287   6.5399255790e+01   3.7113384012e+01    0.4730986    0.4075424  -9.77 0.0008652015    1.186    0.157
        68 -13.1748    106.8253    203.4431   1.1673108493e+02   2.1584180663e+01    0.4266057    0.2740085  54.18  0.001529983    1.262    0.207
        69 -10.7642     13.5022     59.8290   1.2012052146e+02   6.1473573950e+01    0.1662689    0.1545252 -65.53 0.0003999625    1.199    0.166
