#   1 NUMBER                 Running object number                                     
#   2 MAG_AUTO               Kron-like elliptical aperture magnitude                    [mag]
#   3 X_IMAGE                Object position along x                                    [pixel]
#   4 Y_IMAGE                Object position along y                                    [pixel]
#   5 X_WORLD                Barycenter position along world x axis                     [deg]
#   6 Y_WORLD                Barycenter position along world y axis                     [deg]
#   7 A_WORLD                Profile RMS along major axis (world units)                 [deg]
#   8 B_WORLD                Profile RMS along minor axis (world units)                 [deg]
#   9 THETA_WORLD            Position angle (CCW/world-x)                               [deg]
#  10 FWHM_WORLD             FWHM assuming a gaussian core                              [deg]
#  11 ELONGATION             A_IMAGE/B_IMAGE                                           
#  12 ELLIPTICITY            1 - B_IMAGE/A_IMAGE                                       
         1 -13.4519     85.3656    166.0699   1.2682615651e+02   3.0617003279e+01     1.297412    0.8075115  -6.93  0.004009004    6.093    0.836
         2 -10.0149     74.8217     17.0634   8.8541403727e+01   6.2590294384e+01    0.2171021    0.1724924  37.41 0.0004395922    1.188    0.158
         3 -12.6706     80.2472    213.0042   1.3390808246e+02   2.1500262176e+01    0.5276844    0.2337883  42.18  0.002599268    1.927    0.481
         4 -11.5902     61.2730    210.3096   1.3749609394e+02   2.4681650159e+01    0.3073801    0.2159416 -34.35  0.001696179    2.643    0.622
         5 -10.8772     59.0161    206.5031   1.3760168519e+02   2.5741809911e+01     0.255231   0.08074693  45.24  0.001119218    2.543    0.607
         6 -11.4189     51.1778    205.1055   1.3907111569e+02   2.7030444468e+01    0.4121646    0.1476555 -84.31  0.001546991    4.147    0.759
         7 -13.2152     84.7481    202.8592   1.3185181240e+02   2.2846290800e+01     0.575288    0.3744916  42.33  0.003263379    1.415    0.293
         8 -13.0970     78.9140    198.4981   1.3259618652e+02   2.4604538679e+01    0.5569671    0.4302847 -21.96  0.003085133    2.271    0.560
         9  -9.6323    106.3120    197.3243   1.2650045425e+02   2.0536302947e+01    0.1233352    0.1067589  -4.16 0.0007040093    1.658    0.397
        10 -12.6654     77.3530    189.8282   1.3191611292e+02   2.6644075120e+01    0.5785075    0.2426936  36.65  0.002552924    2.363    0.577
        11 -12.0463     64.2142    189.8006   1.3481400487e+02   2.8506565266e+01    0.7530978   0.08438213  45.34  0.002121792    5.848    0.829
        12 -10.9441     97.7044    181.0276   1.2612709037e+02   2.5348589120e+01    0.1927745    0.1734616  83.85  0.001167807    1.076    0.071
        13 -14.0365     92.2314    170.7717   1.2588267174e+02   2.8474582968e+01    0.9745449    0.7674394  -5.66  0.005046984    2.027    0.507
        14 -12.0561     84.0866    224.0995   1.3427394341e+02   1.8821916139e+01    0.4018669    0.1645944  44.30  0.001964703    1.966    0.491
        15 -10.7931     98.5797    171.7224   1.2451290257e+02   2.7217347531e+01    0.3898057   0.09401154  43.52  0.001226571    3.662    0.727
        16 -11.9445     81.3308    161.9383   1.2718831985e+02   3.2173829140e+01    0.4412946    0.2706753  80.54  0.002031482    2.072    0.517
        17  -9.4760    111.6669    156.6624   1.1875435198e+02   2.8245111088e+01    0.1438174     0.116967 -10.27 0.0006689978    1.743    0.426
        18 -12.4373     75.1375    153.5091   1.2744230768e+02   3.5031517102e+01    0.6385964    0.3694915  33.50  0.003073112    1.887    0.470
        19  -9.2532     56.3250    154.6489   1.3239045926e+02   3.7352168097e+01    0.1419668    0.0880623  71.69 0.0007048275    1.757    0.431
        20 -11.2196     88.8749    136.3620   1.2081585507e+02   3.6856865977e+01    0.2879575    0.1916905 -85.38   0.00131339    1.902    0.474
        21 -10.0017    108.4871    133.4787   1.1494820045e+02   3.4052611057e+01     0.147212    0.1413645  79.84 0.0001438179    1.009    0.009
        22 -10.4199     79.6197    131.7956   1.2247725933e+02   3.9401546562e+01    0.2063644    0.1282769 -71.55 0.0007768683    1.734    0.423
        23  -9.9296     50.3975    119.8060   1.2864337769e+02   4.6200803628e+01    0.1948787    0.1060065 -54.59 0.0003211033    1.663    0.399
        24  -9.5681    105.3567    114.6731   1.1151388775e+02   3.8899326772e+01    0.1574919    0.1167092  80.50 0.0007044913    1.778    0.437
        25 -13.8843     86.2740    173.7025   1.2773661210e+02   2.8778217384e+01    0.8326654    0.6005372  77.51  0.004516467    1.435    0.303
        26  -9.6774     96.6746    106.3288   1.1194878319e+02   4.2389853358e+01    0.1514482    0.1157229  83.11 0.0006263576    1.701    0.412
        27 -11.1351    120.5103    102.6899   1.0423544320e+02   3.8470036007e+01    0.3231625    0.2457727  13.33  0.001470928    1.736    0.424
        28  -9.4192     84.6617     93.3040   1.1222208976e+02   4.7392053166e+01    0.1440902    0.1129688  80.08 0.0006998843    1.672    0.402
        29 -10.6656     53.5052     92.8456   1.2223450990e+02   5.2047218705e+01    0.2835956    0.1239526 -60.93   0.00119566    2.201    0.546
        30  -9.4289     77.6871     88.6745   1.1320176617e+02   4.9553904542e+01    0.1446105    0.1070385 -18.84 0.0003792737    1.663    0.399
        31 -11.4231    110.4705     84.9904   1.0205299971e+02   4.4268982324e+01    0.2860059    0.2676165  61.61  0.001323978    1.123    0.109
        32 -11.2277    102.2407     70.0911   9.9874298232e+01   4.8892376645e+01     0.416573    0.1936311 -41.97  0.001653237    2.146    0.534
        33 -10.9536    106.7406     65.7099   9.7096847505e+01   4.8776624888e+01    0.4103674     0.184838  34.15  0.001439779    2.870    0.652
        34  -9.6435     62.3147     65.3439   1.1169473972e+02   5.6776644501e+01    0.1411892   0.09673066 -18.77 0.0007047683    1.712    0.416
        35  -9.9398    167.5093     59.4901   8.0384560578e+01   3.5209122864e+01    0.1512459    0.1440662  67.81 3.742937e-05    1.008    0.008
        36 -11.0850     94.5226     52.3951   9.6230260655e+01   5.3632636301e+01     0.298027    0.2596614  34.59 0.0009035363    1.122    0.109
        37 -10.9648     97.4979     45.1321   9.2654650780e+01   5.4211316243e+01    0.2483874    0.1892486  23.26  0.001306426    1.354    0.261
        38  -9.4309     83.6890     41.6657   9.5758491244e+01   5.7494172455e+01    0.1425992    0.1002597   6.32 0.0006575757    1.679    0.404
        39  -9.5903     84.6189     20.8271   8.6978018251e+01   6.0229485628e+01    0.1764311     0.117184 -36.24    0.0004753    1.653    0.395
