#   1 NUMBER                 Running object number                                     
#   2 MAG_AUTO               Kron-like elliptical aperture magnitude                    [mag]
#   3 X_IMAGE                Object position along x                                    [pixel]
#   4 Y_IMAGE                Object position along y                                    [pixel]
#   5 X_WORLD                Barycenter position along world x axis                     [deg]
#   6 Y_WORLD                Barycenter position along world y axis                     [deg]
#   7 A_WORLD                Profile RMS along major axis (world units)                 [deg]
#   8 B_WORLD                Profile RMS along minor axis (world units)                 [deg]
#   9 THETA_WORLD            Position angle (CCW/world-x)                               [deg]
#  10 FWHM_WORLD             FWHM assuming a gaussian core                              [deg]
#  11 ELONGATION             A_IMAGE/B_IMAGE                                           
#  12 ELLIPTICITY            1 - B_IMAGE/A_IMAGE                                       
         1 -13.9715    215.0370      8.2123   3.8646362018e+01   3.0216517167e+01     2.463364     1.561538  39.48   0.01225397    2.118    0.528
         2 -13.1783    175.1807     53.4278   5.6432368478e+01   3.4489718619e+01     1.865206     1.265252  29.17  0.005019426    1.880    0.468
         3 -13.4017    189.9556     39.9043   5.0058999213e+01   3.2661442886e+01     1.079603     1.018597 -40.53  0.003699377    1.102    0.092
         4 -12.7798    195.0770     33.8681   4.7635792990e+01   3.2159574997e+01    0.6460306    0.6231885  49.09  0.001215371    1.141    0.123
         5 -10.6530     59.0150    230.0526   1.1980631583e+02   1.9768669612e+01    0.1691362    0.1301042  75.96 0.0003762745    1.086    0.080
         6 -12.3526    246.3580    246.2109   8.7012203191e+01  -1.0842770190e+01    0.7139506    0.5164663  18.54  0.005130326    1.085    0.079
         7 -19.5394     22.3620    146.0889   1.1987610919e+02   4.1957511394e+01     19.20823     4.764748 -74.89   0.06668045    3.814    0.738
         8  -9.5924    184.5467    212.2764   9.2690049471e+01   3.2033537581e+00    0.2253617     0.129746 -46.78  0.001129171    2.060    0.514
         9  -6.6162     56.6730    211.6475   1.1870186821e+02   2.3665373627e+01    0.2193913    0.1123243  69.26 0.0009717941    2.013    0.503
        10  -9.2002     37.5890    211.0602   1.2235695886e+02   2.6063465608e+01    0.1640469    0.0955082 -76.20 0.0003950734    1.566    0.361
        11  -9.1289    174.5028    210.5003   9.4391197723e+01   5.2369027348e+00    0.1336371    0.1162137  28.89 0.0008106919    1.002    0.002
        12  -9.8922     55.9129    223.6228   1.1986590542e+02   2.1388144459e+01     0.127529   0.08544037  61.40 0.0002394754    1.207    0.172
        13 -10.5881     43.9611    205.4309   1.2067693695e+02   2.6483996995e+01    0.1640553    0.1303645 -86.28 6.905971e-05    1.168    0.144
        14  -8.0753     75.7330    247.6536   1.1820265970e+02   1.4400605062e+01    0.1350643    0.1057861 -52.93  0.000938764    1.780    0.438
        15 -10.5871     67.0665    205.3882   1.1601703466e+02   2.3599339460e+01    0.2583209    0.1955919 -47.10 0.0008216747    1.767    0.434
        16  -9.4377     72.1506    202.5451   1.1466843483e+02   2.3501979736e+01    0.3078582    0.1731998  71.90   0.00155469    1.959    0.490
        17 -10.6371     57.7406    201.5881   1.1755548855e+02   2.5607622389e+01    0.2934786    0.2029169 -42.44  0.001672342    2.152    0.535
        18 -11.5559     59.5628    196.0587   1.1662793383e+02   2.6548879441e+01    0.3605894    0.2815317 -60.48  0.001694783    1.438    0.304
        19  99.0000     43.4920    221.3076   1.2200606292e+02   2.3346435775e+01    0.2007666      0.14615  30.91  0.001330307    1.751    0.429
        20 -10.8324    193.0715    195.1304   8.7951152312e+01   4.5081079724e+00    0.8526626    0.4549488 -62.34  0.002775939    5.223    0.809
        21  -9.6031     82.1067    195.2144   1.1171027481e+02   2.3642805551e+01    0.2149964    0.1953597 -86.78 0.0007176693    1.142    0.125
        22  -7.7548     61.5612    220.0753   1.1849318534e+02   2.1360464234e+01    0.1520788   0.09987353 -60.18 0.0009281281    1.742    0.426
        23 -11.7409    149.6167    188.6291   9.5855222251e+01   1.3688186186e+01    0.4252769    0.3805444  72.96  0.001622804    1.224    0.183
        24  -9.0358    156.5046    189.9185   9.4591059443e+01   1.2165804496e+01    0.1978055    0.1403241 -49.00 0.0006968298    1.541    0.351
        25 -11.0139    150.6717    179.4709   9.3967630603e+01   1.5309216717e+01    0.4544645    0.2882898 -67.10  0.002003986    2.193    0.544
        26 -11.1143    140.3785    172.7178   9.5029850524e+01   1.8650580107e+01    0.5053831    0.2906917  53.19  0.001951976    1.865    0.464
        27 -11.3875    144.7780    180.3704   9.5447658025e+01   1.6237127523e+01      0.40595    0.3424806  48.24  0.001227728    1.125    0.111
        28 -10.9266    143.2421    176.3948   9.5063501053e+01   1.7341964596e+01    0.3620507    0.2451138  52.16  0.001257399    1.492    0.330
        29 -10.7331    131.0358    180.5008   9.8572154671e+01   1.8745988471e+01    0.2128951    0.1907867 -62.82 0.0006158432    1.172    0.147
        30 -10.6313    188.9660    176.7056   8.5208103457e+01   8.4798779187e+00    0.7001055    0.3911622 -56.61  0.001686649    2.656    0.623
        31  -9.8722    238.4975    175.5033   7.5491259823e+01  -3.8169869542e-01    0.1351602    0.1140135  -3.28 -9.473689e-05    1.007    0.007
        32  -9.6786     50.4298    224.6265   1.2096898536e+02   2.1872200285e+01    0.1978887   0.09381375 -88.31  0.001030731    2.255    0.557
        33  -9.9901    240.2304    169.3788   7.3921698531e+01   2.6186892899e-01    0.1708604    0.1259028  47.84 0.0003093573    1.622    0.383
        34  -9.4780    231.3144    169.3234   7.5489342014e+01   1.8365317357e+00    0.1427095   0.09736955   2.55  0.000383421    1.662    0.398
        35  -8.3285     48.4841    217.5527   1.2078236298e+02   2.3491166465e+01    0.1938481    0.1084545  33.28 0.0007450437    2.024    0.506
        36  -8.2747     51.5226    215.4471   1.2003095807e+02   2.3540837652e+01    0.1478577    0.1009602 -68.54 2.500361e-05    1.515    0.340
        37 -11.0329     90.7381    158.0202   1.0433610267e+02   3.0708852224e+01    0.2686166    0.2624842 -65.08 0.0003757253    1.145    0.127
        38 -11.7627     96.5141    151.2853   1.0168593241e+02   3.1359833432e+01     0.620061    0.4733375 -28.37  0.003096361    1.714    0.416
        39 -10.9013    133.9099    145.7954   9.1122809889e+01   2.5781098142e+01     1.316073      0.33722 -55.05  0.002986031    6.306    0.841
        40  -9.9483    187.6995    152.1204   8.0229732297e+01   1.3330478718e+01     0.238927    0.1930624 -60.96 0.0009505757    1.501    0.334
        41  -9.2710    113.1245    150.8534   9.7374455124e+01   2.8581414122e+01    0.2351904    0.1962722  82.07 0.0006562082    1.301    0.231
        42  -9.6105    174.4057    148.9719   8.2371700357e+01   1.6728502658e+01    0.2917604    0.2621676  65.69 0.0008920794    1.251    0.201
        43  -9.1438    111.0162    141.2137   9.5953317631e+01   3.1210599464e+01    0.2305135      0.18449 -89.80 0.0005132733    1.435    0.303
        44 -11.1586    107.6662    138.0296   9.6161482089e+01   3.2566012007e+01     1.023774    0.3517433 -49.41  0.003451581    2.805    0.644
        45  -9.5859    143.5989    145.8003   8.8759984633e+01   2.3825394497e+01    0.2235402    0.1447902 -58.93  0.000955026    1.744    0.427
        46 -11.8038     96.2690    137.4470   9.9079417093e+01   3.4690512610e+01    0.3322938    0.2888599 -89.21 0.0002223189    1.178    0.151
        47 -10.8756    105.6346    131.2008   9.5228100885e+01   3.4544577891e+01    0.5050083    0.3745954 -40.14  0.002448625    1.419    0.295
        48 -10.0330    136.0004    128.5191   8.6629476766e+01   2.9235016943e+01    0.4026552     0.180392 -46.80  0.001457585    2.204    0.546
        49 -10.1931    115.1278    128.8806   9.2150359712e+01   3.3328788776e+01    0.3461307    0.2855744 -13.81 0.0007929055    1.503    0.335
        50  -9.4010    160.8898    128.1277   8.0485632159e+01   2.3955356304e+01    0.2470973     0.220589 -83.53  0.001234949    1.291    0.225
        51 -10.5260    102.6609    124.7023   9.4581293595e+01   3.6616095670e+01    0.2971409    0.2550986 -22.71 0.0006611794    1.338    0.252
        52 -10.0287    120.0962    123.3561   8.9513424366e+01   3.3643847779e+01    0.2713892    0.2078514 -36.94 0.0008946907    1.361    0.265
        53  -9.4518    110.0713    118.1832   9.0979861760e+01   3.6782317747e+01    0.2447536    0.2099064 -49.32 0.0003426924    1.120    0.107
        54 -10.0127    231.2857    113.7813   6.2949674235e+01   1.1137496591e+01    0.2672873    0.2529326  31.56 0.0007803801    1.146    0.127
        55  -9.3560    167.4723    112.2993   7.4913910377e+01   2.5749258025e+01     0.335936    0.2452045 -74.72 0.0009595374    1.934    0.483
        56  -8.4329    146.5336    113.4751   8.0170530395e+01   3.0267706213e+01    0.1571096    0.1531064 -65.03 0.0003774701    1.050    0.048
        57 -10.2782    135.0000    111.4971   8.2561158593e+01   3.3228642380e+01    0.6192796   0.08824263 -44.68  0.001246604    6.871    0.854
        58  -9.7085    134.5718    105.2709   8.0987696468e+01   3.4677709998e+01    0.4303503    0.1537462 -44.35  0.001373676    2.738    0.635
        59 -11.3030    118.4707    110.4208   8.6686830524e+01   3.6923023699e+01    0.6144828     0.452775  69.23  0.002619755    1.754    0.430
        60  -9.5559    205.4267    110.1698   6.6569877943e+01   1.7410569254e+01    0.3218402    0.2166958  40.17 0.0009812739    1.606    0.377
        61  -9.3171     74.8530    250.6578   1.1859968441e+02   1.4003404975e+01    0.1063486   0.08173423  57.57 0.0001823373    1.064    0.060
        62  -9.4767    130.1738     96.2852   7.9615858760e+01   3.7563501714e+01     0.417587    0.1872298  55.73  0.001377609    2.897    0.655
        63  -8.6968    154.3183     82.2912   6.9463304390e+01   3.4788600005e+01    0.1586213    0.1229473  14.99  0.000348267    1.601    0.375
        64  -9.1085     69.8800     72.1215   9.0789863017e+01   5.4015594067e+01    0.1949372    0.1822492 -59.95 0.0002621682    1.206    0.171
        65 -10.4955     71.8966    245.2933   1.1869365484e+02   1.5322645592e+01    0.2489406     0.145022 -69.60  0.001571016    1.862    0.463
        66 -11.5349    248.8184    231.3948   8.4154276749e+01  -9.5105854601e+00    0.2990189    0.2054673   0.32  0.001981664    1.248    0.199
        67  -9.2086    167.8328    231.0980   9.8927389802e+01   3.0588602217e+00    0.1746953    0.1549868  45.21 0.0004796536    1.157    0.136
