#   1 NUMBER                 Running object number                                     
#   2 MAG_AUTO               Kron-like elliptical aperture magnitude                    [mag]
#   3 X_IMAGE                Object position along x                                    [pixel]
#   4 Y_IMAGE                Object position along y                                    [pixel]
#   5 X_WORLD                Barycenter position along world x axis                     [deg]
#   6 Y_WORLD                Barycenter position along world y axis                     [deg]
#   7 A_WORLD                Profile RMS along major axis (world units)                 [deg]
#   8 B_WORLD                Profile RMS along minor axis (world units)                 [deg]
#   9 THETA_WORLD            Position angle (CCW/world-x)                               [deg]
#  10 FWHM_WORLD             FWHM assuming a gaussian core                              [deg]
#  11 ELONGATION             A_IMAGE/B_IMAGE                                           
#  12 ELLIPTICITY            1 - B_IMAGE/A_IMAGE                                       
         1 -10.3487    103.9466     18.9038   2.9077442615e+02   6.9150937840e+00   0.02022202  0.006842526 -48.94  0.001391954    2.908    0.656
         2 -11.1038     25.3187     20.2405   2.9168449753e+02   7.3717388764e+00   0.02781906   0.01440751 -31.11  0.002274767    2.770    0.639
         3 -11.3280     20.0032     18.7649   2.9173637430e+02   7.4203919373e+00   0.01361981   0.01280247 -55.83 0.0004131481    1.054    0.051
         4 -11.1137    217.6788     16.0166   2.8945452640e+02   6.2620751278e+00    0.0258823   0.01477633   0.56  0.002152802    2.759    0.638
         5 -11.1930    133.1782     11.9118   2.9039611912e+02   6.8188472412e+00    0.0170506  0.009973341 -43.64  0.001080104    1.784    0.439
         6 -10.6701     99.3920     12.8724   2.9078926044e+02   7.0112581237e+00   0.02079374   0.01213574 -84.29  0.001825034    2.461    0.594
         7 -10.8930     26.2843     13.4544   2.9163144650e+02   7.4433579699e+00   0.01264058   0.01035574 -41.12 0.0004903702    1.237    0.192
         8 -11.9360     80.7841      6.7590   2.9096473755e+02   7.1928075435e+00    0.0248508   0.01412359 -28.14 0.0006580501    2.436    0.590
         9  -9.6228      8.5030      8.3065   2.9180370576e+02   7.6084807691e+00     0.014015  0.008336867   7.91  0.001278999    2.204    0.546
        10 -10.3556     75.1403      5.6120   2.9102236058e+02   7.2397871098e+00   0.01834822  0.005407897 -53.29  0.001073824    3.044    0.671
        11  -9.7704     59.5510      5.2556   2.9119897789e+02   7.3374378243e+00   0.01755316  0.006247099  21.18  0.001201622    3.653    0.726
        12  -9.9637     91.5100      3.9413   2.9082428013e+02   7.1604692548e+00   0.00941445  0.008871988  33.93 0.0004661721    1.068    0.063
        13 -11.3552     27.0444      3.1832   2.9155917587e+02   7.5559333335e+00   0.01645573   0.01220737  30.30 0.0006073255    1.345    0.257
        14  -9.7581     85.9677      1.1797   2.9087072075e+02   7.2252629350e+00  0.008506097  0.004949991  28.35  0.000309689    1.720    0.419
        15 -11.5524     19.8509    237.9699   2.9308788097e+02   4.9169971909e+00   0.02827712   0.01456037  34.39  0.002639979    1.890    0.471
        16  -9.7181    243.1836    247.4185   2.9059532162e+02   3.4683646528e+00   0.01146816  0.009201708 -77.97 0.0006265471    1.348    0.258
        17 -10.8643    247.5082    249.8761   2.9056117116e+02   3.4142828810e+00   0.02583609   0.01153303  19.96  0.002077913    2.703    0.630
        18 -10.5763    250.2677    244.5147   2.9049663817e+02   3.4588490478e+00   0.02238725  0.008629414 -57.47  0.001820818    2.432    0.589
        19 -12.1709    226.0027    245.9499   2.9078220210e+02   3.5885485563e+00   0.03729131   0.02340697 -23.55  0.003517285    2.125    0.529
        20 -12.0211    232.4065    246.2914   2.9071126813e+02   3.5461061126e+00   0.01934812   0.01793559  55.38  0.002393002    1.116    0.104
        21 -10.4233    127.9202    249.6267   2.9192444718e+02   4.1362216091e+00   0.01178382  0.008541703 -49.33 0.0008971113    1.362    0.266
        22  -9.5305     72.9147    249.9907   2.9255511161e+02   4.4619818863e+00   0.01093349  0.007562455 -28.31   0.00111641    1.700    0.412
        23  -9.1945     46.2914    250.3682   2.9286167856e+02   4.6171020960e+00  0.007102064  0.004793412 -31.45 0.0007025827    1.715    0.417
        24 -11.6724     27.8979    246.1075   2.9304578132e+02   4.7758517242e+00   0.02289136   0.01240415 -57.54  0.001746627    1.780    0.438
        25 -12.3784     21.3796    249.0022   2.9313802887e+02   4.7817377031e+00    0.0275353   0.01501136  38.30  0.002631055    1.817    0.450
        26 -11.6314     14.4169    244.5892   2.9319057314e+02   4.8738062381e+00    0.0181718   0.01174731 -82.64  0.001590373    1.944    0.486
        27 -11.4780     74.1475    238.6434   2.9247134245e+02   4.5842864546e+00   0.03125067    0.0152935  34.29  0.002849117    1.980    0.495
        28  -9.5002     50.0076    240.4962   2.9275863762e+02   4.7077011153e+00  0.009633507    0.0065055  26.26 0.0006465449    1.501    0.334
        29 -10.5826    174.5004    238.5079   2.9132407463e+02   3.9833617509e+00   0.01547633   0.01142796   1.05  0.001653259    1.599    0.375
        30 -11.3640    177.5596    234.9739   2.9126737465e+02   4.0053265817e+00   0.01674548    0.0126594 -29.15  0.001292614    1.471    0.320
        31 -11.4441    181.7141    248.4772   2.9130313113e+02   3.8261331621e+00   0.03140436   0.01373967 -47.59  0.002658179    2.306    0.566
        32  -9.7885    135.3654    237.2900   2.9176350790e+02   4.2324587862e+00   0.00697938  0.004951744 -22.19 0.0006710139    1.704    0.413
        33 -11.0095    160.1406    235.6900   2.9147068495e+02   4.1018756224e+00   0.01386404   0.01159618   3.09 0.0009721983    1.298    0.230
        34 -11.0156     73.6814    233.0491   2.9244230483e+02   4.6510195478e+00   0.01577326   0.01219728 -77.10  0.001072296    1.407    0.289
        35 -10.6128    167.0912    233.8832   2.9138018446e+02   4.0807292885e+00   0.01125286   0.01105065 -32.16 0.0007797962    1.012    0.012
        36 -11.0664    153.2576    233.8626   2.9153804027e+02   4.1641183969e+00   0.01299841  0.008283822 -41.58  0.001306663    1.654    0.396
        37  -9.6451     53.6658    234.7084   2.9268129680e+02   4.7519574644e+00  0.006865865  0.004956241 -24.00 0.0004972344    1.636    0.389
        38  -9.6448    240.9123    231.2820   2.9052167249e+02   3.6662012572e+00  0.008969568  0.008689766   4.92 0.0004713235    1.042    0.040
        39 -10.0574     79.5117    231.2751   2.9236476074e+02   4.6363497147e+00   0.01185212  0.008895783  27.38 0.0005848063    1.341    0.254
        40  -9.6505    235.8789    230.2374   2.9057263489e+02   3.7084356099e+00  0.009262926  0.007504371 -29.08 0.0005347976    1.329    0.248
        41  -9.1213    215.6463    240.3069   2.9086555151e+02   3.7152961929e+00  0.007034574  0.004904677  60.88 0.0007042271    1.717    0.417
        42 -10.3325    169.8832    228.8512   2.9131730097e+02   4.1214168809e+00   0.01037548  0.008924996 -25.87  0.001164824    1.232    0.188
        43  -8.9319    159.3134    229.3367   2.9144100102e+02   4.1794193658e+00   0.00704009  0.004882538 -28.43 0.0005636811    1.691    0.409
        44 -10.7221    144.6104    227.6775   2.9159872548e+02   4.2867393366e+00   0.01673024  0.006810417 -73.69  0.001120446    3.930    0.746
        45  -9.6998    115.6723    225.3512   2.9191504505e+02   4.4871229102e+00   0.00708414  0.004952543  64.95 0.0001579877    1.765    0.433
        46  -9.2577     93.6760    229.3405   2.9219097230e+02   4.5735253834e+00  0.007021499  0.004963238  64.64 0.0007051007    1.727    0.421
        47 -10.4510     86.1942    233.7424   2.9230354392e+02   4.5680866688e+00    0.0129448  0.008075979 -84.07  0.001206608    2.121    0.528
        48 -10.4758    129.4790    226.7039   2.9176560251e+02   4.3887623674e+00   0.02054491  0.009913558  48.73  0.001532257    2.449    0.592
        49 -10.6287    190.4886    226.4586   2.9106728636e+02   4.0248026118e+00   0.01207416   0.01081865 -56.15 0.0006961131    1.103    0.093
        50 -10.3924     88.1363    226.9396   2.9223953023e+02   4.6341885511e+00   0.01233777  0.008939001 -52.38  0.001343836    1.352    0.260
        51 -10.7743     66.6021    226.4947   2.9248296501e+02   4.7683574547e+00   0.01611731   0.01017189  37.46  0.001472455    1.574    0.364
        52 -10.6185     81.4133    224.8735   2.9230367944e+02   4.6981153797e+00   0.01333559   0.01153723 -67.84 0.0008685784    1.172    0.146
        53 -10.6273    182.0936    223.4426   2.9114453970e+02   4.1097513993e+00   0.01611711  0.009291179 -59.68  0.001571868    1.700    0.412
        54  -9.1021    156.6346    223.7493   2.9143717844e+02   4.2593463563e+00  0.006737654   0.00497861 -17.25 0.0004911768    1.621    0.383
        55 -10.7396     13.1848    222.2030   2.9306742315e+02   5.1370992668e+00   0.01225519   0.01020243 -27.82 0.0004055397    1.285    0.222
        56 -11.0857    141.4813    221.3990   2.9159580793e+02   4.3772692986e+00   0.01742286   0.01242465 -13.35  0.001312957    1.749    0.428
        57 -11.1429    145.9874    218.0093   2.9152344816e+02   4.3889162383e+00   0.01795904   0.01164294 -35.61  0.001803146    1.735    0.424
        58  -9.2646     51.6715    222.6782   2.9263022924e+02   4.9014140787e+00  0.007018679  0.004909076 -26.73 0.0006596654    1.691    0.409
        59 -10.5138    174.1902    219.9238   2.9121309887e+02   4.1974799351e+00   0.01157087   0.01005031   1.39 0.0006853252    1.230    0.187
        60  -9.9676    165.8337    220.2092   2.9131029483e+02   4.2444765752e+00  0.009220642   0.00745029 -32.31 0.0003955833    1.314    0.239
        61 -10.1951     21.8714    220.1625   2.9295556312e+02   5.1084945297e+00  0.008843301   0.00752162 -24.31 0.0003892431    1.258    0.205
        62  -9.8322    250.3099    219.0813   2.9033919072e+02   3.7488347368e+00  0.009378099  0.008358125 -60.13 0.0006541517    1.114    0.103
        63  -8.8712    233.6631    219.3148   2.9053050457e+02   3.8464527950e+00  0.006981648  0.004943863  62.31 0.0007047211    1.694    0.410
        64 -11.1041    192.5156    216.5523   2.9098306087e+02   4.1257298253e+00   0.01956436   0.01289509 -23.10  0.001917849    1.939    0.484
        65  -9.7259     50.2019    218.3583   2.9262050147e+02   4.9595949638e+00   0.00948392  0.005787554  37.68  0.000563614    1.626    0.385
        66 -10.7416     10.0589    216.9485   2.9307094516e+02   5.2158545921e+00   0.01687052   0.01301206  56.57   0.00135829    1.429    0.300
        67 -10.6528    201.5937    215.9530   2.9087572672e+02   4.0779346355e+00   0.01205667  0.009964017  10.30  0.001390974    1.291    0.225
        68  -9.5015    137.2055    215.6365   2.9160917230e+02   4.4687958930e+00  0.009351743  0.006304007  12.48 0.0009431253    1.697    0.411
        69 -10.1685    170.0560    213.3033   2.9121950220e+02   4.2979627169e+00   0.01232645  0.008908857 -37.00  0.001298693    1.479    0.324
        70 -11.2700    210.1421    211.7602   2.9075228011e+02   4.0743436990e+00   0.02195689   0.01490654  12.55   0.00154052    1.680    0.405
        71 -11.0649    123.5444    221.2916   2.9180010044e+02   4.4862428016e+00   0.01530319   0.01317969  14.21  0.001097978    1.206    0.171
        72 -11.4524      5.2694    207.6566   2.9306872974e+02   5.3507075548e+00   0.02503469   0.01378477 -73.45  0.002262574    2.173    0.540
        73 -10.2057      1.5609    207.2307   2.9310854293e+02   5.3777327884e+00     0.011669  0.008399558 -64.73  0.001140913    1.404    0.288
        74  -9.0711     32.2816    209.6803   2.9277215768e+02   5.1660599253e+00  0.006691282  0.005016239  67.17 0.0004378968    1.585    0.369
        75 -10.2552     10.6195    208.6969   2.9301391070e+02   5.3068415176e+00   0.01510176  0.007908837 -32.16  0.001078752    2.632    0.620
        76 -10.7235    218.2324    206.8901   2.9062988460e+02   4.0812243960e+00   0.01616797  0.008719758 -33.88  0.001399074    2.385    0.581
        77 -11.2847     20.6508    211.5079   2.9291641287e+02   5.2147360339e+00   0.01629953   0.01185928  79.79 0.0007464059    1.725    0.420
        78  -9.4355    247.5223    207.5249   2.9029962094e+02   3.8975172471e+00  0.006583557    0.0063207  66.15  0.000118914    1.076    0.070
        79  -9.5365     27.5622    205.4884   2.9280040109e+02   5.2422152711e+00  0.006532141  0.006329095  74.09 0.0004122657    1.062    0.058
        80 -10.5630    193.3699    202.7909   2.9088841322e+02   4.2777353942e+00  0.009712744  0.005671677 -50.42 0.0005882339    1.676    0.403
        81  -9.5796    238.7424    201.3741   2.9036178862e+02   4.0206271507e+00  0.008859485  0.006324058  12.36  0.000541959    1.567    0.362
        82  -9.9423    218.2791    201.3504   2.9059515393e+02   4.1441866258e+00  0.006966077  0.004824245 -31.69 0.0007010736    1.645    0.392
        83 -11.7553    215.5397    194.0525   2.9058136076e+02   4.2440042715e+00   0.02059592  0.009542737 -62.54  0.001632298    2.175    0.540
        84  -9.9584    196.6087    201.2156   2.9084171082e+02   4.2762258978e+00  0.009693718  0.005743394 -50.21  0.000872865    1.654    0.395
        85 -11.3331    227.2657    196.6868   2.9046379332e+02   4.1432852721e+00   0.01812766   0.01116374 -28.46  0.001256333    2.073    0.518
        86 -11.9499    231.8221    191.7873   2.9038153416e+02   4.1717551593e+00   0.02224599   0.01353022 -16.56  0.001978077    2.443    0.591
        87 -11.8018    192.1214    194.8195   2.9085347799e+02   4.3762787148e+00   0.01905296   0.01461412  67.79  0.001826164    1.532    0.347
        88  -9.8338    202.9121    195.8944   2.9073689560e+02   4.2990316973e+00   0.01027319  0.008743762 -31.76 0.0006582926    1.227    0.185
        89  -9.7991      7.3586    196.1694   2.9297433358e+02   5.4695520135e+00  0.009440821  0.006274261 -76.15 0.0009430804    1.721    0.419
        90 -10.1644    163.4919    190.9130   2.9115641509e+02   4.5931928669e+00   0.01527646  0.005490801 -54.87  0.001199689    2.560    0.609
        91  -9.2917     59.8311    192.6140   2.9235213415e+02   5.1961935032e+00  0.009263615  0.005774514  40.32 0.0004672144    1.616    0.381
        92 -10.5669    250.2784    190.1423   2.9016079607e+02   4.0792793221e+00   0.01218513  0.009133504 -88.55 0.0009053648    1.586    0.370
        93  -9.8481    198.6308    191.2185   2.9075691534e+02   4.3782041291e+00  0.009798407   0.00572163 -51.35 0.0009504831    1.668    0.400
        94  -9.1940    205.6123    190.2025   2.9067092423e+02   4.3477588662e+00  0.009456776  0.005770707 -50.09 0.0007827574    1.608    0.378
        95 -10.9715    210.4928    201.0087   2.9068192090e+02   4.1949852402e+00   0.01402451  0.007485538 -45.48  0.001209034    1.928    0.481
        96 -11.6465    187.4469    189.3546   2.9087313522e+02   4.4668278355e+00   0.01931592  0.009676826 -50.71  0.001639332    1.939    0.484
        97 -10.5314    168.0083    184.0793   2.9106264720e+02   4.6440736051e+00   0.02388634   0.01039378  52.12   0.00176667    3.289    0.696
        98  -9.3815     61.6181    184.8257   2.9228377939e+02   5.2745056948e+00  0.009412361  0.006345979 -76.89 0.0009474466    1.703    0.413
        99 -11.8705     16.2386    183.1012   2.9279246211e+02   5.5658671223e+00   0.02001486   0.01555251 -79.13  0.001673142    1.415    0.293
       100 -12.2836    244.6099    177.8406   2.9014943371e+02   4.2538457731e+00   0.01986436   0.01445304 -37.00  0.001693169    1.466    0.318
       101 -10.8665    250.4950    178.4799   2.9008624251e+02   4.2110603964e+00   0.01205525   0.01020118 -47.57 0.0008515712    1.172    0.146
       102 -10.1773    236.4691    182.4773   2.9027098302e+02   4.2500109744e+00  0.006473699  0.006431326  88.03  0.000433167    1.021    0.021
       103 -10.0670    246.4864    190.0217   2.9020330854e+02   4.1035171811e+00   0.00987364  0.004727287 -40.14 0.0008053166    2.458    0.593
       104 -10.0261     22.7435    180.9819   2.9270499149e+02   5.5511921017e+00   0.01404071  0.008303309 -11.44  0.001188781    2.681    0.627
       105 -10.5628      2.2595    180.1769   2.9293449768e+02   5.6828521838e+00   0.01182034   0.01024636  45.99 0.0005647035    1.182    0.154
       106 -11.9607    224.1218    178.3264   2.9038625492e+02   4.3718181116e+00   0.01545277   0.01455581  31.25 0.0005702124    1.068    0.063
       107 -11.2899    200.4641    176.5073   2.9064513663e+02   4.5351374830e+00   0.01195971   0.01141928 -35.27 0.0008973878    1.047    0.045
       108  -9.2479     70.4157    177.5286   2.9213821348e+02   5.3051733530e+00  0.006540062  0.006277519 -38.51 0.0001290415    1.037    0.035
       109 -10.0081    100.9939    176.0070   2.9177902391e+02   5.1391065415e+00  0.009146183  0.008964987 -45.08            0    1.010    0.010
       110 -10.0294    211.3779    174.8434   2.9051022821e+02   4.4883808542e+00    0.0100131  0.005560519 -49.46 0.0009448546    1.771    0.435
       111 -11.3932    249.5582    182.1015   2.9011931663e+02   4.1753816526e+00   0.02413378   0.01345789 -11.61  0.001874716    3.269    0.694
       112  -9.9399    218.3437    173.3041   2.9042118450e+02   4.4639738843e+00  0.006978985  0.004945531 -24.35 0.0006993001    1.685    0.407
       113 -10.7616     17.7500    172.9572   2.9271282757e+02   5.6727893555e+00   0.01995093  0.009726335  48.57  0.001699581    2.404    0.584
       114  -9.8186    175.4783    179.5396   2.9094927739e+02   4.6509646434e+00  0.006543826  0.006355687 -28.57 0.0001135727    1.029    0.029
       115  -9.3930     59.7714    172.0179   2.9222609240e+02   5.4319605902e+00  0.008936576   0.00542004 -62.05 0.0008760216    1.643    0.391
       116  -9.7276     74.4864    171.4913   2.9205446485e+02   5.3497636754e+00  0.006536992  0.006381222 -32.12 6.569827e-05    1.020    0.020
       117 -10.7488    197.0276    169.0434   2.9063828155e+02   4.6410601151e+00   0.01032736   0.01010942  50.78 0.0007674844    1.039    0.037
       118  -9.8523      4.5838    167.7372   2.9283147233e+02   5.8111682083e+00    0.0131673  0.005926867 -56.98   0.00114106    2.106    0.525
       119  -9.9888    210.0076    166.3136   2.9047316939e+02   4.5940164836e+00  0.009262658  0.008588273  18.69 0.0004955012    1.092    0.084
       120 -10.6638     51.7217    164.6911   2.9227312217e+02   5.5639337777e+00    0.0223973   0.01028349 -33.96  0.001658246    3.311    0.698
       121 -10.5851     40.9321    165.0449   2.9239880226e+02   5.6245106796e+00  0.009431325  0.009343859 -77.08   0.00119588    1.020    0.020
       122  -9.3574    229.5126    164.5398   2.9023950774e+02   4.4966843244e+00  0.006561972   0.00633951 -27.79 0.0001352466    1.038    0.036
       123 -11.4681    246.5071    162.4687   2.9003274296e+02   4.4178247838e+00   0.01248035  0.009438207  40.58 0.0007983652    1.335    0.251
       124 -11.3744    247.6886    158.9239   2.8999733685e+02   4.4511471031e+00   0.02238328   0.01462738 -70.41  0.002285073    1.653    0.395
       125  -9.4535    200.0162    162.9622   2.9056657275e+02   4.6924861972e+00  0.007964088  0.007587932  24.10 0.0004727786    1.056    0.053
       126  -9.4888    213.3189    162.3252   2.9041070627e+02   4.6195902523e+00  0.006999263  0.004909369 -27.34 0.0003799315    1.676    0.403
       127 -10.7390     36.0999    160.7559   2.9242772863e+02   5.7024630292e+00   0.01533303  0.009492512 -64.32  0.001084834    1.641    0.391
       128 -10.3272    238.2062    158.8178   2.9010489567e+02   4.5095600810e+00  0.009392477   0.00760077 -28.95 0.0005855857    1.333    0.250
       129  -9.6015     48.1453    158.8975   2.9227839617e+02   5.6515729333e+00  0.009158676  0.007626456 -28.22 0.0004800411    1.282    0.220
       130 -10.5153     22.4399    156.3781   2.9255718994e+02   5.8342451589e+00   0.02344017   0.01013051  34.80  0.002014687    2.217    0.549
       131  -9.0567     23.5360    152.9713   2.9252368047e+02   5.8666269383e+00   0.01021771  0.006306067 -58.71  0.001021572    1.582    0.368
       132 -10.3541    217.6971    154.6085   2.9031300601e+02   4.6812823750e+00   0.01287708  0.006562655  22.02  0.001137907    2.154    0.536
       133 -10.1712    205.4182    152.3605   2.9043934297e+02   4.7809656693e+00   0.01312104  0.005814847 -55.62  0.001128432    2.131    0.531
       134  -9.9568    197.0147    153.5237   2.9054252967e+02   4.8183315220e+00   0.01036675  0.006462207  28.13  0.001038511    1.610    0.379
       135  -9.2154    151.6665    153.3251   2.9105959573e+02   5.0936692948e+00  0.007009317  0.004952217  63.18 0.0006177235    1.711    0.416
       136 -10.4804     11.3319    152.9198   2.9266311462e+02   5.9402029168e+00    0.0225406  0.009552087  36.17   0.00191655    2.268    0.559
       137 -10.6074    178.3725    151.4062   2.9074245887e+02   4.9548151186e+00   0.01452503   0.01117511  49.87  0.001591947    1.376    0.273
       138  -9.2157    154.5081    150.5597   2.9101002891e+02   5.1081543694e+00  0.006458306  0.006420591 -13.49 0.0001149012    1.008    0.008
       139  -9.6154     92.8052    148.1777   2.9170116356e+02   5.5062555500e+00  0.009368306  0.007692733 -24.62   0.00106627    1.326    0.246
       140  -9.3458    233.5961    147.2150   2.9008575376e+02   4.6697799483e+00  0.009580705   0.00579194 -49.94 0.0008627148    1.624    0.384
       141  -9.0807     37.5297    146.4839   2.9232351172e+02   5.8570183897e+00  0.006502559  0.006400094 -37.10 0.0002487373    1.006    0.006
       142 -10.6689     18.0118    146.5154   2.9254721893e+02   5.9734573636e+00   0.01538255  0.006891361  17.92 0.0008857132    2.863    0.651
       143 -11.0794      3.0795    143.8884   2.9270208192e+02   6.0927565524e+00   0.01405862   0.01009463   5.96   0.00129601    1.626    0.385
       144 -10.8117    212.0876    142.0046   2.9029912930e+02   4.8589696504e+00   0.01903505   0.01322112   1.52  0.001945192    1.778    0.438
       145 -11.8985     12.2446    140.8069   2.9257814720e+02   6.0731883047e+00   0.05122576   0.02443651  11.88  0.003920905    3.182    0.686
       146 -10.7029      2.8213    136.4304   2.9265916245e+02   6.1795357680e+00   0.01697667  0.008606141 -63.52  0.001185673    2.004    0.501
       147 -10.6941      5.9439    133.8096   2.9260726540e+02   6.1908240905e+00   0.01507471   0.01127546 -31.32 0.0004784362    1.472    0.321
       148 -11.6917     57.5744    138.3931   2.9204414630e+02   5.8293958067e+00   0.01968775   0.01281875  60.89 0.0006562226    1.923    0.480
       149 -10.6258     42.7550    136.9003   2.9220465198e+02   5.9352460299e+00   0.02430401   0.01421332  68.93  0.002072472    2.683    0.627
       150 -10.4866    206.8723    145.9780   2.9038327295e+02   4.8450593938e+00   0.01129921  0.009495514  26.40 0.0006849007    1.199    0.166
       151  -9.2604    230.2582    137.3227   2.9006266092e+02   4.8028058366e+00  0.006729956  0.004832212 -32.54 0.0002221375    1.549    0.354
       152 -11.5238      9.1514    136.7743   2.9258876475e+02   6.1377694175e+00   0.01326914   0.01141084 -18.27 0.0002561252    1.252    0.202
       153  -9.9546    138.3544    135.2684   2.9110032429e+02   5.3799906539e+00   0.01208088  0.008169853  10.79 0.0007758671    1.719    0.418
       154  -9.9813     67.6334    133.9903   2.9190182908e+02   5.8193947559e+00  0.009314718  0.008126446 -59.01 0.0004609891    1.135    0.119
       155 -11.9300     36.3729    130.7404   2.9223980028e+02   6.0438549849e+00   0.02158872   0.01523153 -68.31  0.001601814    1.475    0.322
       156 -10.4134    249.6348    130.1077   2.8979681334e+02   4.7681856240e+00   0.01298264   0.01115328  56.16  0.001275471    1.235    0.190
       157 -10.0604    126.5224    129.4833   2.9119995521e+02   5.5172272133e+00  0.006532097   0.00638233 -32.21 0.0002927837    1.018    0.018
       158 -10.2166     74.1684    129.1678   2.9179726417e+02   5.8352954013e+00   0.01131261   0.01045064 -26.81 0.0007186161    1.107    0.097
       159  -9.8411      1.2687    126.4454   2.9261550886e+02   6.3029227853e+00   0.01154666  0.005764286 -62.91 0.0006828836    2.019    0.505
       160 -10.7450     44.8430    125.6645   2.9211150499e+02   6.0511266558e+00   0.01112801   0.01034717 -69.04   0.00038566    1.086    0.079
       161 -10.4687    219.4291    124.5731   2.9010742989e+02   5.0136322486e+00   0.01106756   0.01087383 -45.37 0.0004943461    1.008    0.008
       162 -11.6200     10.1253    122.5866   2.9249027672e+02   6.2940766185e+00   0.02466475   0.01541748   8.79  0.002372832    1.992    0.498
       163 -11.8614     17.8028    116.4682   2.9236462446e+02   6.3180720554e+00   0.03167596   0.01511574 -38.54  0.002615922    2.584    0.613
       164 -12.2740     16.6328    108.3828   2.9232821726e+02   6.4174472555e+00   0.02027318   0.01774066 -27.93 0.0006343712    1.193    0.162
       165 -10.4874     20.7579    121.6750   2.9236283829e+02   6.2409006809e+00   0.01106567    0.0100576 -70.81 0.0003307818    1.118    0.106
       166  -9.1809    164.6804    125.3129   2.9073771160e+02   5.3352162685e+00  0.006882717  0.004974255  63.25 0.0005008017    1.650    0.394
       167  -9.5496     41.0529    120.4788   2.9212295762e+02   6.1330787470e+00  0.009611188  0.006477538  27.30 0.0003626769    1.495    0.331
       168  -9.7665    166.5000    119.0559   2.9067821670e+02   5.3956925346e+00  0.009710607  0.006399333 -59.90 0.0005244419    1.495    0.331
       169 -10.2626    179.1650    116.1628   2.9051550956e+02   5.3524126840e+00  0.009775008  0.008842486 -24.62 0.0003935556    1.146    0.128
       170 -10.1291     35.1918    113.8727   2.9214938616e+02   6.2436541575e+00    0.0137194  0.006419238 -70.37   0.00111699    2.574    0.612
       171 -10.7840     36.8865    110.4456   2.9210884111e+02   6.2726592526e+00   0.02030202   0.00920009  45.33  0.001116129    2.438    0.590
       172 -10.1023     66.7855    113.0436   2.9178234306e+02   6.0637862442e+00  0.009428941  0.008511771  72.34 0.0002786984    1.188    0.158
       173 -10.1330     16.4088    125.1603   2.9243413146e+02   6.2270910231e+00   0.01029543  0.008908253   7.14 0.0004210758    1.221    0.181
       174 -10.3228     42.3574    110.4840   2.9204639406e+02   6.2394524588e+00   0.01111937  0.009835269 -50.17 0.0003122165    1.116    0.104
       175  -9.8046    167.3134    109.0195   2.9060684037e+02   5.5053677039e+00  0.009399706  0.008353486 -58.15 0.0004628263    1.114    0.102
       176 -11.3089     23.2751    106.9734   2.9224340927e+02   6.3938088091e+00   0.01410268     0.011399 -64.39 0.0006537461    1.243    0.196
       177  -9.6205    133.0335    107.4842   2.9098951694e+02   5.7292868707e+00  0.009974756  0.006523966  25.68 0.0009386741    1.557    0.358
       178  -9.4105     61.2855    107.3201   2.9181002795e+02   6.1621506595e+00  0.006831439  0.004882281 -29.79 0.0002050371    1.593    0.372
       179  -8.9168     49.3054    107.2785   2.9194701939e+02   6.2344411893e+00  0.006668455  0.004956227 -24.61 0.0002098557    1.551    0.355
       180 -10.8575      4.3973    101.0512   2.9242328119e+02   6.5743696928e+00   0.01695132   0.01307816  49.81  0.001899916    1.372    0.271
       181 -10.7039      5.7935    106.2213   2.9243912885e+02   6.5069583712e+00   0.01452111   0.01342563 -48.84 0.0008602244    1.069    0.065
       182 -10.4940      2.6845    105.3007   2.9246909300e+02   6.5360603083e+00   0.01044844  0.009913122 -72.90  0.000537928    1.069    0.064
       183  -9.8081    223.3372    103.9561   2.8993515199e+02   5.2252884511e+00  0.009334385  0.008195406 -61.77 0.0005291274    1.135    0.119
       184 -10.6491     93.0652    103.7363   2.9142390774e+02   6.0123582068e+00   0.01596046   0.01167697  84.23  0.001514759    1.702    0.412
       185 -11.5768     70.3032    102.7837   2.9167872911e+02   6.1598774258e+00    0.0219601  0.009461368  24.47  0.001198569    2.489    0.598
       186 -10.2852    247.5179    102.4863   2.8964991732e+02   5.0960413929e+00  0.006548726  0.006365777 -31.02 0.0001953684    1.027    0.026
       187  -9.7455      9.9753    102.4817   2.9236815745e+02   6.5246795621e+00   0.01018043  0.006542566  24.53  0.001031201    1.599    0.375
       188  -9.9981    120.4358    101.2350   2.9109507401e+02   5.8764207826e+00   0.01161035  0.008338203   6.16 0.0004943473    1.626    0.385
       189  -9.7341     36.5954    101.6821   2.9205813768e+02   6.3745132635e+00   0.01250302  0.005966693  28.69  0.001102506    2.085    0.520
       190 -10.1616     27.9463    100.9707   2.9215287130e+02   6.4344247799e+00  0.009460083  0.009114282  27.03 0.0003477588    1.045    0.043
       191 -11.4713     20.2752     99.2768   2.9223034756e+02   6.4996823556e+00   0.02066078   0.01135064 -44.75  0.001115202    1.885    0.469
       192 -10.7850     64.2822     98.0410   2.9171842821e+02   6.2501636802e+00   0.02656466   0.01426739  11.22  0.002169138    2.522    0.603
       193  -9.9699     92.2895     97.3884   2.9139357872e+02   6.0895103087e+00   0.01118281  0.009642968 -70.37 0.0007189849    1.188    0.158
       194  -9.5456     49.4674     97.9221   2.9188743985e+02   6.3403448788e+00  0.009181784  0.006478628 -64.51  0.000294133    1.434    0.303
       195 -10.3763     15.7262     93.9745   2.9224980250e+02   6.5874638123e+00    0.0120186  0.008270586 -66.24   0.00057254    1.491    0.329
       196 -11.9089      8.6528     94.1369   2.9233188917e+02   6.6279121904e+00   0.02210364   0.01240695 -41.39  0.001595213    1.932    0.483
       197  -9.6737     57.3114     93.9522   2.9177305728e+02   6.3386650728e+00   0.01082849  0.005489264 -88.85 0.0007042406    4.370    0.771
       198 -10.3937      2.1715     92.9105   2.9239863435e+02   6.6806659597e+00   0.02098017  0.009375163 -41.51  0.001701496    2.603    0.616
       199 -10.0080    109.5819     92.3346   2.9116432213e+02   6.0433067619e+00   0.01302903  0.006618795 -67.94 0.0009015641    2.171    0.539
       200 -10.6335     96.1628     90.5750   2.9130711943e+02   6.1440439467e+00   0.01334766  0.007764796 -30.67  0.001201945    2.219    0.549
       201 -10.4148     78.2137     90.4914   2.9151220273e+02   6.2527892009e+00   0.01634821   0.00972591  60.11   0.00148727    2.242    0.554
       202  -9.1599     25.4956     91.5259   2.9212271697e+02   6.5569756000e+00   0.00646367  0.006440276 -54.73 -4.122341e-05    1.012    0.011
       203  -9.4458    184.8005     90.6176   2.9029298031e+02   5.6099869568e+00  0.009147082  0.005776146  40.67            0    1.599    0.374
       204  -9.4961    103.5196     88.5569   2.9121039128e+02   6.1228792905e+00  0.006458457  0.006415031  56.94 0.0001514202    1.022    0.022
       205 -10.8343     47.2002     84.2758   2.9182919803e+02   6.5097840465e+00    0.0255426   0.01485517  67.47  0.002134289    2.669    0.625
       206  -9.9996     46.6729     78.9901   2.9180260983e+02   6.5733027240e+00   0.01231259  0.006372903 -29.35 0.0009686715    2.928    0.659
       207 -11.0410     67.5996     84.8667   2.9159906848e+02   6.3807136057e+00   0.01213484   0.01062413 -20.03 0.0005391401    1.214    0.176
       208 -10.0012     24.0382     85.3047   2.9210104948e+02   6.6367522636e+00  0.009443123  0.008714574  23.66 0.0007961754    1.092    0.084
       209 -11.2585    118.2501     82.9941   2.9100731311e+02   6.0978191845e+00   0.01526253    0.0112577 -36.08  0.001050718    1.450    0.311
       210  -9.3712    130.3193     82.3090   2.9086489369e+02   6.0330274167e+00  0.006908514  0.004934205 -26.22 0.0005009242    1.640    0.390
       211 -11.0581     75.2237     81.2635   2.9148944974e+02   6.3761047521e+00    0.0177018   0.01007608 -70.83  0.001653771    1.981    0.495
       212 -11.2830     77.8437     71.9631   2.9140195333e+02   6.4665604265e+00   0.01746303   0.01419773  36.42  0.001018889    1.232    0.188
       213 -11.2724     71.9863     78.9911   2.9151250437e+02   6.4214815200e+00    0.0138368   0.01161668 -22.04  0.001610383    1.291    0.225
       214 -10.7568     74.3205     76.3185   2.9146924389e+02   6.4379855582e+00   0.01232103   0.01122708 -28.62 0.0005206842    1.125    0.111
       215  -9.9944      7.5012     79.8022   2.9225671478e+02   6.7985199490e+00   0.01985219  0.009347354  52.28   0.00122631    2.845    0.649
       216 -12.1601      5.5849     74.1027   2.9224353863e+02   6.8750639224e+00   0.03331004   0.02434259  18.71  0.002275782    1.445    0.308
       217 -11.0313     55.1143     72.3579   2.9166489000e+02   6.5984256320e+00   0.01595003   0.01141145  49.28 0.0008095595    1.495    0.331
       218 -11.4028     23.8962     78.1342   2.9205843871e+02   6.7194896779e+00   0.01224521  0.009452404 -46.90 0.0009339842    1.289    0.224
       219 -10.1679     18.7478     79.4459   2.9212556032e+02   6.7353206610e+00  0.009065073   0.00642475   8.07 0.0009380626    1.634    0.388
       220 -10.0876    150.1901     77.8586   2.9060991137e+02   5.9641835567e+00  0.009929084  0.008786558  74.42 0.0006326289    1.228    0.186
       221 -10.1136    100.5155     78.4877   2.9118254653e+02   6.2558902103e+00  0.006550744  0.006363734 -30.68 0.0008102127    1.027    0.026
       222 -10.4420     89.0524     77.6423   2.9130863264e+02   6.3344153198e+00   0.02131699  0.007720315  46.46  0.001509731    3.426    0.708
       223  -9.0351     12.3343     78.2821   2.9219192001e+02   6.7869770055e+00   0.00680786  0.004961076 -23.01 0.0004261285    1.616    0.381
       224 -10.3657     85.9108     82.9530   2.9137744780e+02   6.2926525694e+00   0.01110794  0.007720194  62.04  0.001131641    1.743    0.426
       225 -11.4976    107.9578     76.0192   2.9108203908e+02   6.2393326756e+00   0.02164569   0.01194124 -53.78  0.002082138    1.745    0.427
       226 -10.5963     94.0071     75.5445   2.9123890178e+02   6.3285983211e+00   0.01294451  0.009445132 -85.50  0.001357368    1.630    0.386
       227 -10.9889     68.5504     67.8335   2.9148293111e+02   6.5694823634e+00    0.0222382   0.01119149 -49.55  0.001445542    1.949    0.487
       228  -9.5570     63.9869     68.0742   2.9153672367e+02   6.5941166902e+00  0.008852224  0.008421496  27.92   0.00109759    1.057    0.054
       229  -9.9655     65.3220     73.7323   2.9155638402e+02   6.5215104483e+00   0.01168222   0.01052541  69.28 0.0004370685    1.188    0.158
       230 -10.7215     62.1996     71.8384   2.9158046846e+02   6.5618649252e+00   0.01513404  0.009028579 -56.18 0.0005050892    1.622    0.384
       231 -10.2187     40.5636     73.2151   2.9183698550e+02   6.6758521227e+00   0.01359583   0.01040004  64.15  0.001319639    1.514    0.339
       232 -11.1333    151.6326     72.2037   2.9055839494e+02   6.0200242936e+00   0.01534034  0.008793399  25.70  0.001478979    1.788    0.441
       233 -10.7052    115.8436     71.0425   2.9096093985e+02   6.2487155941e+00   0.01539657   0.00935125 -62.41  0.001076878    1.648    0.393
       234 -11.0505     59.1240     76.8678   2.9164678978e+02   6.5228895929e+00    0.0195356   0.01381392 -70.82  0.001385491    1.505    0.336
       235 -10.5303    136.8498     70.3036   2.9071584115e+02   6.1307362100e+00   0.01089422  0.009084855 -78.94 0.0004601633    1.285    0.222
       236 -12.1571     49.4723     69.8428   2.9171402928e+02   6.6609665358e+00   0.02253518   0.01743978  -6.94  0.001939393    1.505    0.335
       237  -9.1787    215.4659     70.5207   2.8981792905e+02   5.6541894238e+00   0.00646723  0.006432788 -70.81 9.554001e-05    1.014    0.014
       238 -11.8053     95.9648     67.3397   2.9116573638e+02   6.4104920758e+00   0.02585614   0.01567248 -32.85  0.002459416    1.993    0.498
       239 -10.3293    131.3392     68.4759   2.9076761693e+02   6.1847678944e+00   0.01566421  0.008426406 -79.03  0.001311182    2.610    0.617
       240 -10.3236    127.9428     69.7753   2.9081454748e+02   6.1903814961e+00  0.008624749    0.0054514  25.75 0.0003590355    1.613    0.380
       241 -10.5765     37.2822     67.8070   2.9184121160e+02   6.7572575361e+00   0.02027943   0.01226501 -44.55  0.001490147    1.698    0.411
       242 -11.1567     40.9218     63.3882   2.9177218965e+02   6.7858998647e+00   0.01490362  0.008718442 -87.36  0.001280579    2.572    0.611
       243 -10.2477    118.9892     65.9290   2.9089327415e+02   6.2881525619e+00   0.01209785  0.009584892  15.92 0.0004307003    1.331    0.249
       244 -10.4414    122.6654     67.7771   2.9086261189e+02   6.2449429473e+00  0.009430755  0.006199948 -74.30 0.0009396562    1.717    0.418
       245 -10.8694     31.1965     66.4913   2.9190286677e+02   6.8087271631e+00   0.01406362   0.01120674 -63.62 0.0007859968    1.258    0.205
       246  -9.9499      6.6606     67.9335   2.9219314601e+02   6.9390763641e+00   0.01082582  0.008851432   7.63 0.0007172904    1.322    0.244
       247 -10.3688     13.7657     66.8953   2.9210525219e+02   6.9084380179e+00   0.01704042  0.009265924   2.42  0.001078812    3.010    0.668
       248  -9.9977    156.4725     66.5045   2.9046771491e+02   6.0558906118e+00  0.006485799  0.006424756  80.03 0.0001961277    1.027    0.026
       249 -10.5397    138.1498     65.4831   2.9067111717e+02   6.1779163708e+00   0.01056069  0.008968959  65.29 0.0006841812    1.292    0.226
       250 -11.1946     84.6865     63.7783   2.9127293766e+02   6.5188996154e+00   0.02430223   0.01651586 -89.04  0.002427844    1.898    0.473
       251 -10.4084     86.0419     58.2367   2.9122313235e+02   6.5740081774e+00    0.0158627   0.01206233 -85.04  0.001044688    1.519    0.342
       252 -11.0281     59.8059     65.1809   2.9156676779e+02   6.6522263531e+00   0.01515752  0.005626472 -68.98  0.001048057    3.534    0.717
       253 -10.6186     21.1424     66.2163   2.9201646240e+02   6.8720538390e+00   0.01141652  0.006667526  50.19  0.001050644    1.949    0.487
       254 -11.0226      2.3903     64.9459   2.9222369225e+02   6.9987170206e+00   0.02088402  0.008955543 -44.14  0.001696577    2.545    0.607
       255 -11.4909    174.3094     63.8592   2.9024723704e+02   5.9785417321e+00   0.01242343   0.01149306  82.63 0.0003521206    1.143    0.125
       256  -9.7355    165.5706     64.9395   2.9035391096e+02   6.0189085051e+00  0.009864941  0.006347604 -60.44 0.0003760538    1.535    0.349
       257 -10.8637     76.9164     65.2451   2.9137105033e+02   6.5488154805e+00   0.01779232  0.007340129  38.12  0.001480877    2.359    0.576
       258  -9.6904    109.4626     63.5084   2.9098740875e+02   6.3730784592e+00   0.01186575  0.006582316 -77.11  0.001032886    2.344    0.573
       259 -10.2146     51.7264     62.5290   2.9164300365e+02   6.7309502416e+00   0.01390052  0.008937868 -36.47  0.001180474    1.735    0.424
       260 -11.1486     11.2891     61.9278   2.9210299935e+02   6.9799665896e+00   0.01741637   0.01415644 -22.41 0.0009748432    1.355    0.262
       261  -9.3329    140.6470     62.3078   2.9062286785e+02   6.1991105279e+00  0.007032985  0.004906008  60.98 0.0005314311    1.717    0.418
       262 -10.3491    121.9674     61.7908   2.9083355455e+02   6.3174577633e+00   0.01044079  0.008836932 -17.05  0.001059701    1.288    0.224
       263 -10.1178     70.6878     61.4570   2.9141901758e+02   6.6294434723e+00   0.02069167   0.00776445  39.20 0.0009636427    2.615    0.618
       264 -10.0614     70.6146     58.2354   2.9139993859e+02   6.6666544420e+00   0.01279863   0.00963796 -53.67  0.000263692    1.301    0.231
       265 -10.1017     57.6478     61.0482   2.9156596785e+02   6.7123463173e+00   0.01471282  0.008489723 -10.04   0.00120277    2.891    0.654
       266 -10.8198     27.2379     61.1868   2.9191550797e+02   6.8929884841e+00   0.02081079  0.008957314  27.99  0.001391842    2.327    0.570
       267 -10.3218     32.6518     60.6709   2.9185023615e+02   6.8664593515e+00   0.01593265   0.01011164 -27.08  0.001333015    1.992    0.498
       268 -10.7157     64.5152     60.1224   2.9148152030e+02   6.6817182114e+00   0.01427448  0.007601035  43.96  0.001314181    1.975    0.494
       269 -12.3721    127.9383     51.5399   2.9070170900e+02   6.3984842609e+00   0.01667481   0.01359857 -61.04 0.0003365464    1.219    0.180
       270 -11.4770    137.4003     55.9005   2.9062036192e+02   6.2917649024e+00   0.02483742   0.01163666 -49.07  0.002190426    2.104    0.525
       271 -11.8749    134.4840     49.6218   2.9061486949e+02   6.3809562192e+00   0.03403563   0.01369318  47.95  0.002551815    3.123    0.680
       272 -10.7406    113.7283     57.3570   2.9090047758e+02   6.4176207426e+00   0.01913698   0.01003024  12.70  0.001615103    2.554    0.608
       273 -11.0850    122.6083     56.3990   2.9079283785e+02   6.3751242926e+00   0.01767335  0.009726102  48.90  0.001623143    2.060    0.515
       274  -9.8179     80.6950     57.0262   2.9127692296e+02   6.6199368521e+00  0.009146884  0.008152756 -60.69 0.0004208776    1.115    0.104
       275 -11.0137     99.8984     55.8707   2.9104971673e+02   6.5177447133e+00   0.02446898   0.01041581  22.64  0.001966767    2.653    0.623
       276 -10.1383     96.2605     53.0017   2.9107364686e+02   6.5723501158e+00  0.009729662   0.00948514 -28.45 0.0002533692    1.023    0.023
       277 -10.5216     18.1018     59.3054   2.9200867207e+02   6.9691479178e+00    0.0121611  0.009537449 -77.61 0.0003200264    1.387    0.279
       278 -11.1802    157.2548     53.2469   2.9037663742e+02   6.2024192628e+00   0.01256745   0.01080721 -43.05 0.0003946579    1.166    0.142
       279 -11.2504     38.3814     51.4561   2.9172760420e+02   6.9373236135e+00   0.02878827   0.01770643 -44.00  0.002883659    1.676    0.404
       280 -11.0617      4.6239     52.7294   2.9212268069e+02   7.1248306281e+00   0.02764915   0.01481191   0.25  0.002124422    3.309    0.698
       281 -11.4960     13.1760     50.1996   2.9200895232e+02   7.1025625678e+00   0.02528684   0.01403243 -42.90  0.002116718    1.913    0.477
       282 -11.9126      7.8062     44.2395   2.9203375388e+02   7.2027049650e+00   0.04155098   0.03128666  36.93  0.004660433    1.328    0.247
       283 -11.6634    114.5423     49.6601   2.9084350659e+02   6.5005465588e+00   0.01881717    0.0130983 -18.66  0.001917273    1.799    0.444
       284  -9.8428     86.9582     52.5115   2.9117721487e+02   6.6338408678e+00   0.01000837  0.006473226  27.67  0.001020939    1.555    0.357
       285 -10.1589     83.1575     51.1074   2.9121208841e+02   6.6726939656e+00   0.01049949  0.008653611 -31.50   0.00120679    1.283    0.220
       286  -9.9250     52.0126     42.2503   2.9151437485e+02   6.9606805487e+00   0.01255736  0.008306988 -50.30 0.0005452716    1.484    0.326
       287 -11.1411     51.9653     49.5367   2.9155996612e+02   6.8778131582e+00   0.01998603   0.01221373 -56.36   0.00159333    1.586    0.370
       288 -10.6149     49.9530     45.0000   2.9155499477e+02   6.9416518659e+00   0.01723606  0.006263821  35.48 0.0006967703    2.588    0.614
       289 -10.6348     45.1528     50.9807   2.9164701139e+02   6.9021726339e+00    0.0146637  0.009832467  17.87  0.001513973    1.618    0.382
       290 -10.2370     77.1303     49.8019   2.9127309524e+02   6.7237876147e+00  0.009369273  0.007605919 -25.09 0.0008922355    1.346    0.257
       291 -10.8043    162.9539     47.8757   2.9027812873e+02   6.2293260199e+00   0.01391484   0.01106845  82.90 0.0008430826    1.469    0.319
       292 -11.7376    142.0869     46.0913   2.9050594113e+02   6.3754379943e+00     0.021927   0.01604579 -80.64  0.002308521    1.567    0.362
       293 -11.2339    101.1685     48.6056   2.9099020190e+02   6.5930082415e+00   0.01142092  0.009094763 -22.89  0.001280788    1.399    0.285
       294 -11.0596    153.2426     47.2516   2.9038541563e+02   6.2949849627e+00   0.01588466  0.008533919  61.47  0.001281878    2.887    0.654
       295 -10.1404     91.8734     45.8080   2.9107940402e+02   6.6808000293e+00    0.0140133  0.009296406 -69.85  0.000761418    1.613    0.380
       296 -10.4201    123.5034     38.4822   2.9067163023e+02   6.5741356528e+00   0.01254654   0.00605424 -56.38 0.0005953916    1.977    0.494
       297 -10.6538    122.0456     45.1516   2.9072963847e+02   6.5068317295e+00   0.01188191   0.01075863  55.51 0.0006246467    1.151    0.131
       298 -11.2398    120.5423     40.5046   2.9071807790e+02   6.5688889322e+00    0.0242517   0.01493792  64.47  0.001766208    2.238    0.553
       299  -9.4483     22.8637     46.1684   2.9187292066e+02   7.0906014432e+00  0.008812569  0.007227772 -34.44 0.0003854695    1.273    0.215
       300  -9.8260    233.1218     45.1776   2.8945901981e+02   5.8364378229e+00  0.009774032  0.008548195 -30.59 0.0004474884    1.188    0.158
       301  -9.7611     86.0613     45.0000   2.9114101731e+02   6.7249413905e+00  0.007801956  0.007613476  18.00 0.0003654005    1.030    0.029
       302  -9.5185     74.9571     43.8002   2.9126087959e+02   6.8053220118e+00   0.00875394  0.005210659  26.46 0.0008446874    1.706    0.414
       303 -12.1302     64.6968     41.1184   2.9136192315e+02   6.8975092188e+00   0.02505819   0.01620113 -21.95  0.002415884    2.030    0.507
       304 -10.5415    163.0366     42.2673   2.9024242189e+02   6.2927872073e+00  0.009168899  0.008595736  27.09 0.0004364978    1.072    0.067
       305  -9.9569     56.1194     41.2325   2.9146098429e+02   6.9476655993e+00   0.01224176  0.008339393  79.91 0.0008000989    1.977    0.494
       306 -10.4780     24.0991     41.6763   2.9183099513e+02   7.1344726635e+00   0.01212814   0.01169356  64.27  0.001525076    1.069    0.064
       307 -10.1108    226.2067     40.8274   2.8951104146e+02   5.9278169230e+00   0.01001725  0.009032366  60.25 0.0008670548    1.168    0.144
       308 -10.9825     94.9849     40.3408   2.9100990373e+02   6.7244752712e+00   0.01908345   0.01010967  40.57  0.000957841    1.904    0.475
       309 -10.4397     90.0813     40.4879   2.9106701567e+02   6.7522672274e+00   0.01271376   0.01009691  39.81 0.0007219178    1.269    0.212
       310 -10.0084     44.2127     40.1128   2.9159061201e+02   7.0318329349e+00   0.01352018  0.009039015 -65.65 0.0009882965    1.533    0.348
       311  -9.7776    196.9763     39.7779   2.8983868812e+02   6.1163729318e+00  0.008820451  0.005404591  27.03 0.0005695551    1.651    0.394
       312  -9.6308    177.6002     38.1970   2.9005052814e+02   6.2513526159e+00  0.008878893  0.005905866 -49.74 0.0002716151    1.481    0.325
       313 -10.9319    135.0557     37.6990   2.9053446029e+02   6.5135102629e+00  0.009618944  0.008835672  16.99  0.001173381    1.106    0.096
       314 -11.6471     82.5086     36.5892   2.9112968795e+02   6.8422435958e+00   0.01591678   0.01474954 -53.91 0.0009522724    1.067    0.063
       315  -9.5624     19.6192     37.8487   2.9185874115e+02   7.2049667404e+00   0.00909809  0.008135991  -4.09 0.0006051211    1.181    0.153
       316 -10.4117     73.6583     52.4746   2.9132942585e+02   6.7141329438e+00    0.0173007   0.01044505  63.34  0.001569096    2.296    0.564
       317 -11.7438    104.3220     35.8971   2.9087538575e+02   6.7190309375e+00   0.02498234   0.01655397 -19.46  0.001737898    1.972    0.493
       318  -9.8074    164.2768     36.3441   2.9019150746e+02   6.3528511563e+00  0.006918713  0.004832399 -31.58  0.000700426    1.626    0.385
       319 -11.2510     24.6045     35.4129   2.9178649132e+02   7.2029200413e+00   0.01366874   0.01173989  44.34  0.000536385    1.189    0.159
       320 -10.9047    110.9084     33.9445   2.9078781989e+02   6.7016865128e+00    0.0206272   0.01188582 -65.49  0.001989754    1.801    0.445
       321 -10.5490     76.1431     33.8518   2.9118572229e+02   6.9117040147e+00   0.01389156   0.01104359 -32.75 0.0009651936    1.340    0.253
       322 -10.9767     81.8626     29.3690   2.9109239926e+02   6.9284890390e+00    0.0205012   0.01300422 -89.45  0.001745825    2.195    0.544
       323 -10.1563     78.1726     30.0933   2.9113918973e+02   6.9423910782e+00   0.01163019   0.01086883  19.69 0.0006681805    1.080    0.074
       324 -10.8606      9.3579     33.9860   2.9195261543e+02   7.3104351207e+00   0.02352008   0.01842946  46.81  0.002672862    1.326    0.246
       325 -11.6557      6.0127     29.9812   2.9196626180e+02   7.3761354923e+00   0.02770001   0.01629459   7.28  0.001597446    2.275    0.560
       326 -11.1926      8.3305     26.3510   2.9191723149e+02   7.4036922931e+00   0.02393496   0.01266303 -30.90  0.001710047    2.657    0.624
       327 -11.4410    146.5607     32.2549   2.9036897122e+02   6.5062821608e+00   0.03148546    0.0108918  42.41  0.002120619    3.063    0.674
       328 -10.6182     97.6713     32.2769   2.9092918782e+02   6.8003152965e+00   0.01634588  0.009779653 -39.11  0.001514846    1.846    0.458
       329 -10.6044     53.8258     33.9071   2.9144198020e+02   7.0450034305e+00   0.01982606    0.0103644   6.02  0.001553936    3.084    0.676
       330  -9.8642     31.4101     34.0420   2.9169993889e+02   7.1778103127e+00  0.009619677  0.008451069  24.89 0.0002648144    1.148    0.129
       331  -9.3552     90.0495     31.4764   2.9101159259e+02   6.8552600551e+00   0.00943016  0.006474119  27.27 0.0004280761    1.467    0.318
       332 -10.5502     57.4937     29.6100   2.9137332957e+02   7.0720261100e+00   0.01565943   0.01102709  80.73  0.001172178    1.846    0.458
       333 -10.1998     63.9758     30.0345   2.9130161528e+02   7.0282916621e+00    0.0107308  0.007650806 -24.75  0.001088246    1.660    0.398
       334 -10.4240     50.0578     28.1796   2.9144976859e+02   7.1329416675e+00   0.01522072  0.007880936 -44.76   0.00108049    2.014    0.503
       335  -9.3757    124.3856     28.2709   2.9059825816e+02   6.6852839591e+00  0.006929784  0.004954158 -19.27 0.0006992393    1.708    0.414
       336  -9.9440    172.2542     27.1885   2.9004343292e+02   6.4091112227e+00  0.009024982  0.007515545  68.36 0.0004672337    1.343    0.255
       337 -10.9569     70.8787     26.0930   2.9119806164e+02   7.0318192113e+00   0.02078248    0.0111646  19.97   0.00189469    2.088    0.521
       338 -11.8661     67.0820     21.8716   2.9121547185e+02   7.1027594223e+00   0.01909139   0.01532419  24.41  0.002198792    1.263    0.208
       339 -10.5979    113.3715     25.2742   2.9070588406e+02   6.7857500563e+00   0.01124611   0.01048906  55.93 0.0004187865    1.109    0.098
       340  -9.8615     90.7417     26.6271   2.9097363117e+02   6.9064116987e+00  0.009152418  0.005863197  38.38 0.0002965221    1.557    0.358
       341 -10.8378    100.0795     22.6148   2.9084174189e+02   6.8960335816e+00   0.01532506    0.0140967 -49.69  0.001515544    1.075    0.070
       342  -9.4890    168.2249    250.6266   2.9147035036e+02   3.8826795676e+00  0.008780463  0.006310276  11.53 0.0003389744    1.560    0.359
       343 -10.1690     54.0984     23.3163   2.9137333036e+02   7.1641856479e+00   0.01116923  0.008616121 -45.68 0.0005536524    1.297    0.229
       344  -9.9102     17.7927     23.8075   2.9179291982e+02   7.3760997439e+00  0.009692154   0.00869623 -18.46 0.0003937346    1.169    0.145
       345 -10.9191    152.3687     26.6403   2.9026766183e+02   6.5352926073e+00   0.01508599   0.01019318  49.46 0.0009360058    1.604    0.376
       346  -9.5658    160.9723    250.0000   2.9154929562e+02   3.9334247333e+00   0.01069146  0.003743414  27.75 0.0005017406    2.876    0.652
       347 -10.1390    137.2806    246.9548   2.9180110136e+02   4.1105411953e+00  0.009519999  0.008345641 -53.38 0.0007016445    1.125    0.111
       348 -11.6036    123.7819     21.6412   2.9056408700e+02   6.7645150957e+00   0.01799216   0.01174234  19.77  0.000428696    1.643    0.391
       349 -10.5031     84.4416     22.4567   2.9102003143e+02   6.9918341989e+00    0.0112176  0.009979922  -0.02 0.0007220507    1.186    0.157
       350 -10.2666     86.8738     18.8904   2.9097005832e+02   7.0178912693e+00   0.01256513  0.009275747 -53.05 0.0004254855    1.327    0.246
       351 -10.1517    137.0102     20.0912   2.9040294016e+02   6.7025172919e+00  0.009876627  0.009579124  51.52 0.0003403978    1.051    0.048
       352 -10.5445    135.6573     16.6887   2.9039734094e+02   6.7494574854e+00   0.01070553  0.008249704  -5.90  0.001166726    1.516    0.341
       353  -9.7671     45.0149     20.5170   2.9146021180e+02   7.2505831900e+00   0.01006417  0.006471554  27.44 0.0005754491    1.566    0.361
       354 -10.6870      6.4065    245.2818   2.9328638264e+02   4.9137541033e+00   0.01643858   0.01047519 -71.73  0.001057244    1.725    0.420
       355 -10.3471     81.5668     18.1132   2.9102609426e+02   7.0586410464e+00   0.01762697  0.008146768 -52.89  0.001064492    2.061    0.515
       356  -9.5247    130.9396     26.7003   2.9051344516e+02   6.6637284121e+00   0.01337154  0.006366488  17.41  0.001083232    2.650    0.623
       357  -9.4954     34.2326     19.6195   2.9157836987e+02   7.3254369313e+00  0.008902345  0.006324063  11.29 0.0004313235    1.587    0.370
       358  -9.7769    108.1755     17.1709   2.9071521806e+02   6.9094136905e+00  0.009099737  0.007567709  57.63 0.0004388988    1.298    0.229
       359  -9.3741     57.2531     16.9600   2.9129780484e+02   7.2177600671e+00  0.008092301  0.005626103 -63.11            0    1.444    0.308
       360  -9.2295      5.2764     17.6907   2.9189876184e+02   7.5207481611e+00  0.006603258  0.005013912  66.98 0.0006784262    1.555    0.357
       361  -9.6040    188.4952     16.5565   2.8979163229e+02   6.4322557926e+00  0.006476827  0.006396273 -20.88 4.679123e-05    1.010    0.010
       362 -10.6569     60.8667     15.3315   2.9124627235e+02   7.2146504336e+00   0.01206519  0.009342024 -80.24   0.00133503    1.437    0.304
       363  -9.5116      9.5405     16.4984   2.9184244657e+02   7.5088462246e+00  0.006507413  0.006371889  72.71  0.000132734    1.047    0.045
       364 -10.4347    130.6744     15.3036   2.9044583426e+02   6.7952645060e+00   0.01155703  0.009325327  40.85  0.000864151    1.253    0.202
       365 -11.7697      8.6222    241.8649   2.9324012165e+02   4.9395797204e+00   0.02193738   0.01555535  74.90  0.002254693    1.803    0.445
       366 -10.0100     35.4319     14.9393   2.9153565632e+02   7.3716322588e+00     0.008955  0.007832376 -57.79   0.00106463    1.131    0.116
       367  -9.5083    166.3056     14.6830   2.9003394477e+02   6.5875418345e+00  0.006814302  0.004994809  64.69  0.000332045    1.628    0.386
       368  -9.8776    115.3820    244.4817   2.9203603481e+02   4.2702681559e+00   0.01121534  0.006283226 -62.22   0.00106386    1.783    0.439
       369 -11.2480    146.9979    244.0761   2.9167240748e+02   4.0850577514e+00   0.01379913  0.009262377  27.00  0.001036418    1.504    0.335
       370  -8.8285    115.3472     13.6752   2.9061136083e+02   6.9061135883e+00  0.007070066   0.00492045  62.39 -1.064214e-05    1.746    0.427
       371  -9.1277    107.4781     10.5069   2.9068190995e+02   6.9895877202e+00  0.006515508  0.006389692 -32.83  8.57515e-05    1.013    0.012
       372 -10.4148    109.7657    243.2299   2.9209250375e+02   4.3182761106e+00   0.01510761   0.01031554  66.56  0.001512707    1.863    0.463
       373 -10.2397     71.9707    243.9897   2.9252905469e+02   4.5362258343e+00   0.01035755  0.009732227 -26.95 0.0007263331    1.081    0.075
       374 -11.7694     34.5094    241.6445   2.9294284148e+02   4.7873248250e+00   0.02495249    0.0163266  26.06  0.002594571    1.552    0.356
       375 -10.6706     31.8155    237.3410   2.9294724254e+02   4.8526353836e+00   0.01709999   0.01161461  82.92  0.001049315    1.971    0.493
       376 -10.4748     28.6426    232.8835   2.9295617535e+02   4.9225716005e+00   0.02651573   0.01097059  33.99  0.002237525    2.303    0.566
       377 -12.0334    156.3520    240.9301   2.9154621741e+02   4.0647903726e+00   0.01510198    0.0140692  76.13  0.001373672    1.131    0.116
