#   1 NUMBER                 Running object number                                     
#   2 MAG_AUTO               Kron-like elliptical aperture magnitude                    [mag]
#   3 X_IMAGE                Object position along x                                    [pixel]
#   4 Y_IMAGE                Object position along y                                    [pixel]
#   5 X_WORLD                Barycenter position along world x axis                     [deg]
#   6 Y_WORLD                Barycenter position along world y axis                     [deg]
#   7 A_WORLD                Profile RMS along major axis (world units)                 [deg]
#   8 B_WORLD                Profile RMS along minor axis (world units)                 [deg]
#   9 THETA_WORLD            Position angle (CCW/world-x)                               [deg]
#  10 FWHM_WORLD             FWHM assuming a gaussian core                              [deg]
#  11 ELONGATION             A_IMAGE/B_IMAGE                                           
#  12 ELLIPTICITY            1 - B_IMAGE/A_IMAGE                                       
         1 -14.3381    171.7047     71.4820   5.7145371822e+01   3.2324264624e+01     2.773073     1.539605 -49.54   0.01219275    1.912    0.477
         2 -13.1009    160.7480     45.1985   5.1652870593e+01   3.8729023077e+01     2.410387     1.637709  18.36    0.0113289    2.186    0.543
         3 -13.8680    196.9955     81.2917   5.5500372213e+01   2.5159078114e+01      2.55348     1.117379 -39.04   0.01011013    2.072    0.517
         4 -13.9378    200.4100     48.9307   4.7099754123e+01   2.9074881763e+01     2.914056     1.984515 -86.89   0.01396879    1.615    0.381
         5  -9.5222    242.3380     34.7163   3.9919055165e+01   2.2320273579e+01    0.6877339     0.342187 -39.56  0.003942613    1.655    0.396
         6 -12.2229      2.0733     83.3438   1.1831077211e+02   5.9219803932e+01     1.560436     0.177751 -72.40  0.003439437    8.500    0.882
         7 -10.7728      1.9253     15.0254   9.9435805543e+01   7.4191581937e+01    0.7343568   0.09118148 -53.70  0.002161874    6.484    0.846
         8 -10.3615    236.3622     13.4835   3.6059378386e+01   2.5782219782e+01     0.570505    0.3464485 -56.80   0.00287781    1.345    0.257
         9 -11.4055    211.9207     11.6215   3.7317979592e+01   3.0881072593e+01    0.8727816    0.5391378  80.06  0.003801975    1.518    0.341
        10 -11.4569    213.4677      3.9015   3.5525517753e+01   3.1307373963e+01      1.29332    0.3856281  81.21  0.005322492    3.535    0.717
        11 -10.7709    122.2393     10.7541   4.7211127513e+01   5.2012524504e+01    0.5175616    0.3553207  71.77  0.001736206    1.317    0.241
        12 -10.5717    135.4126      9.7206   4.4764772600e+01   4.8847723589e+01    0.3806616    0.2368003  81.64   0.00197235    1.565    0.361
        13 -11.3587    138.6720      2.9336   4.2153011047e+01   4.8605842454e+01     1.210806    0.3362635  68.75  0.004550797    2.892    0.654
        14  -9.6944    153.0336      3.0506   4.0463822026e+01   4.5094316046e+01    0.4566597    0.2608069 -59.56  0.002359923    1.882    0.469
        15 -11.6985    182.2676      3.4630   3.7738483353e+01   3.8165982752e+01    0.9175458    0.3289899  70.22  0.004161631    2.393    0.582
        16  -9.2684     87.0847      2.7800   5.1312553840e+01   6.1158731039e+01    0.3194331    0.1377737  56.16  0.001468466    1.824    0.452
        17 -13.3005     35.6891    197.9948   1.2032162793e+02   2.7973394961e+01     1.906316     1.176075  60.25   0.01021688    1.584    0.369
        18 -13.6846    172.3725    240.5134   9.3345018217e+01   1.5491328882e+00     1.897827     1.054491  37.33  0.007724368    1.779    0.438
        19 -10.1183     30.6062    248.4292   1.2489120723e+02   1.7924214970e+01    0.3329932    0.2304794  -7.20  0.001993809    2.320    0.569
        20 -10.2948     14.7585    249.8771   1.2814230925e+02   1.9169411189e+01    0.3951635    0.1433257  30.99  0.002063387    2.259    0.557
        21 -11.5318     13.1065    240.8927   1.2808224156e+02   2.1025548799e+01    0.5015804    0.3032269 -56.97  0.003133833    2.059    0.514
        22 -11.9777      3.4098    244.0686   1.3013902068e+02   2.1264672191e+01     1.481198    0.4523856 -85.96  0.006858569    3.435    0.709
        23 -11.7793      7.6840    230.1235   1.2872448238e+02   2.3626855047e+01    0.6754925    0.3134839  45.16  0.003867048    1.698    0.411
        24 -11.7335     15.0379    214.2935   1.2635894534e+02   2.6284785639e+01    0.5019763    0.4065437  35.01  0.002181248    1.239    0.193
        25 -12.6211     10.1990    206.9692   1.2706057946e+02   2.8288097013e+01    0.9240083    0.6724035  -5.26  0.004101288    1.915    0.478
        26  -9.9512    167.2893    204.8387   8.8673427633e+01   8.1911816251e+00    0.3784918    0.3333129  46.79  0.001991517    1.470    0.320
        27  -9.4936    193.6075    182.2924   7.8879068177e+01   8.1061119403e+00     0.295734    0.2456054 -66.66   0.00149927    1.939    0.484
        28 -11.1637      2.3406    181.4762   1.2753852359e+02   3.4690962308e+01    0.6855632    0.1027445 -79.04  0.001934076    6.051    0.835
        29  -9.6350     55.3460    180.7251   1.1339469897e+02   2.9916850629e+01    0.3954887    0.2377538 -32.27  0.001284733    2.260    0.557
        30  -9.9719     61.4540    174.7278   1.1093137453e+02   3.0641496964e+01    0.3192286     0.234512 -39.10 0.0009719664    1.531    0.347
        31 -10.4364    166.2074    181.5492   8.4618277244e+01   1.2693350826e+01    0.6819624    0.3975292  33.71  0.003189878    1.646    0.392
        32  -9.6187     72.1996    164.8683   1.0640428899e+02   3.1680392610e+01    0.2994333    0.2336498 -44.22 0.0004675254    1.336    0.251
        33 -11.6474     58.7280    161.1295   1.0984590959e+02   3.4372761357e+01     0.562395    0.3092234 -40.44  0.001512495    2.122    0.529
        34  -9.8275    151.4865    160.9922   8.3900687201e+01   1.9393668619e+01    0.4928712    0.3291898 -50.36  0.002276401    1.640    0.390
        35 -10.9190     79.7766    158.1276   1.0304504067e+02   3.2289068475e+01    0.5606182    0.4079304 -19.61  0.001523936    1.697    0.411
        36 -10.1993    224.9555    153.0586   6.7133774548e+01   8.1075203423e+00    0.4457884    0.3438675  31.70  0.002559528    1.425    0.298
        37  -8.3004    124.5059    153.4969   8.9250034405e+01   2.5971852794e+01     0.274226    0.1529337 -62.37  0.001019002    2.465    0.594
        38  -8.8398    188.0469    152.7059   7.3917941916e+01   1.4383590831e+01    0.2048881    0.1821274  11.93   0.00107722    1.103    0.093
        39 -12.6475      2.2029    129.1764   1.2379612222e+02   4.7616696053e+01     2.045455    0.3181633 -79.15  0.004733092    7.637    0.869
        40 -10.6592     69.9968    145.7006   1.0387013900e+02   3.6826298932e+01    0.4877407    0.3644827  26.90  0.001503541    1.359    0.264
        41 -10.6020     67.5081    142.4885   1.0408640956e+02   3.7992120624e+01     0.489796    0.3142358  40.02  0.001335273    1.579    0.367
        42 -11.7730    182.6665    137.7520   7.1690062019e+01   1.8179891677e+01     1.350134    0.6330425 -29.54  0.005109302    2.463    0.594
        43 -10.8273     11.9469    145.0932   1.2219983054e+02   4.2973600627e+01    0.3572958    0.1874765 -50.08  0.001718738    1.876    0.467
        44 -10.4705    191.4830    143.2821   7.1155783838e+01   1.5501821034e+01    0.4800946    0.2225039 -38.07  0.001990844    2.007    0.502
        45 -10.5561     82.9207    142.2984   9.9137971541e+01   3.5785034446e+01    0.3186439     0.277404 -36.42 0.0004955105    1.158    0.136
        46 -11.1369    202.0923    125.2325   6.5085106684e+01   1.6770271257e+01    0.5642533    0.3860875 -40.57  0.002436029    1.351    0.260
        47 -11.0173    196.1160    137.1084   6.8875789787e+01   1.5773793764e+01      0.44214    0.3373701 -33.34  0.002098486    1.195    0.163
        48 -11.6746    195.7650    129.6142   6.7244726660e+01   1.7187744362e+01    0.6728465    0.4784573 -36.89  0.003279026    1.290    0.225
        49 -11.4210    168.7251    132.6404   7.3478130675e+01   2.1887887407e+01     1.043047    0.6474018 -24.15  0.003945278    1.856    0.461
        50 -11.7753    222.4284    131.3753   6.2995485927e+01   1.2078213061e+01    0.7980079     0.629319 -72.77  0.004171444    1.888    0.470
        51 -11.3210    211.3862    124.6981   6.3352247396e+01   1.5141794199e+01    0.5492941     0.397885  51.64  0.002224388    1.620    0.383
        52  -8.6355    106.8898    131.9513   8.9476478468e+01   3.4247491367e+01     0.250364    0.2149858  -7.39  0.001231559    1.236    0.191
        53  -8.2080     94.3340    128.3373   9.2512266626e+01   3.7372661444e+01     0.166904    0.1196794 -15.92 0.0007051927    1.744    0.427
        54  -7.8728    105.2637    120.3138   8.7144683661e+01   3.7307419822e+01    0.1581172    0.1203455 -15.45 0.0002347075    1.541    0.351
        55 -12.2992    242.7746    113.0242   5.6130959114e+01   1.1558461920e+01    0.7491235    0.6831661 -55.88  0.003212531    1.231    0.187
        56 -12.5389    189.6990    107.9306   6.3258601343e+01   2.2248962840e+01     1.163028    0.9311735  76.25  0.006111519    1.596    0.373
        57 -11.8221    182.6352    101.8877   6.3078921494e+01   2.4788544651e+01    0.8210282    0.5965943  77.96  0.003916301    1.902    0.474
        58 -11.5486    160.2128    108.6746   6.9421423188e+01   2.8358313578e+01    0.7594897    0.6625509 -73.27  0.002707453    1.370    0.270
        59 -12.3335    247.1527     93.9400   5.1632238675e+01   1.3653279274e+01    0.9744211    0.5007365 -36.02  0.003401485    1.604    0.377
        60 -11.3555    232.1772     86.6709   5.1890728557e+01   1.7353713324e+01    0.9489966    0.6613241 -82.52  0.005276792    1.946    0.486
        61 -10.4517    217.3785     97.4792   5.6274541221e+01   1.8485617274e+01    0.3943172    0.2934437 -24.84  0.002224747    1.343    0.256
        62 -10.0995    150.0039     96.5134   6.8493858623e+01   3.2947380615e+01    0.5158812    0.1495298  48.94  0.001541008    3.472    0.712
        63  -9.1503     86.7795    249.4171   1.1301437374e+02   1.1386018188e+01    0.1768362     0.103774  21.01 0.0009500586    1.687    0.407
        64 -10.1497    249.8942    241.8718   7.9048077316e+01  -7.7834146783e+00    0.2803509    0.1567055   1.07  0.001509292    1.527    0.345
        65 -12.2849    225.7329     62.0799   4.7249876950e+01   2.2064291775e+01      1.14509     0.666077 -38.11  0.004181115    1.500    0.333
        66  -9.4373    133.0059    248.0603   1.0276229629e+02   5.6063323794e+00    0.2051805    0.1609162  22.31  0.001313593    1.019    0.018
        67 -10.5095    128.9933    241.3954   1.0279275859e+02   7.2680163001e+00    0.3599415    0.2246873  49.85  0.001914624    1.898    0.473
        68 -11.7719    247.5747     62.4034   4.5103810946e+01   1.7934267974e+01    0.8119746    0.4272976 -42.08  0.003236978    1.526    0.345
        69  -9.9713     13.1172     60.2910   1.0829766997e+02   6.4160553484e+01    0.2432916    0.1477547 -46.22 0.0008278882    1.355    0.262
        70 -11.5872    133.1210     43.5047   5.6240124977e+01   4.5702092586e+01    0.6885687    0.6584927 -28.34   0.00407739    1.123    0.110
        71 -11.9275    147.9982     75.7858   6.3050519419e+01   3.7162188917e+01    0.9113703    0.8074371 -40.35  0.003386941    1.141    0.124
        72 -10.5165    247.7321     38.8179   4.0331640557e+01   2.0846242370e+01     0.462478    0.3645249 -77.43  0.003329588    1.213    0.176
        73  -9.2953     21.1468    239.2064   1.2635437138e+02   2.0612967026e+01    0.1595231    0.1393468  49.70 0.0004467363    1.136    0.120
        74  -8.2325     61.4421    234.9024   1.1732196723e+02   1.7205291291e+01    0.1613296    0.1194899 -81.63 0.0009123628    1.514    0.340
        75 -12.4197    144.5583     61.1751   5.9423029019e+01   4.0362995283e+01      1.00913    0.6974886 -59.84  0.003317621    1.744    0.427
        76 -10.1625      2.0000     34.0113   1.0694191064e+02   7.0524229287e+01    0.3024858   0.09998919 -53.26  0.001355787    2.291    0.564
        77  -8.6968    223.1120     26.5372   3.9712670652e+01   2.6992200851e+01     0.156955   0.09854124  58.04 0.0009255336    1.805    0.446
        78  -9.6508     61.1322    250.0829   1.1861187091e+02   1.4337185867e+01    0.1920257    0.1315877  54.23  0.001212997    1.318    0.241
        79 -10.0471    116.1792    230.5594   1.0428920910e+02   1.0970870000e+01    0.2408347     0.175921  35.46  0.001394483    1.193    0.162
        80 -10.1397      1.4864    225.4985   1.2982267634e+02   2.5078632534e+01    0.4199958     0.113986 -82.16  0.001683699    3.608    0.723
        81 -10.2180     87.6407    226.4456   1.1044900585e+02   1.5638620068e+01    0.3032796    0.1896358  41.66 0.0006615481    1.402    0.287
        82  -9.0444    222.5162    194.5084   7.5667437242e+01   1.8728864974e+00    0.2789896    0.1899516  -6.29  0.001638306    1.334    0.250
        83 -12.5364    199.9760    208.9616   8.2560424616e+01   2.7215819765e+00     1.137695     0.769017  48.34  0.006014748    2.267    0.559
        84 -10.6440    143.2824    207.7941   9.4638104953e+01   1.1317152666e+01    0.6257332    0.3781588 -53.89   0.00259051    2.014    0.504
        85 -12.6987     11.4039    157.5919   1.2346236403e+02   3.9854648933e+01     3.140098    0.9815416  73.48  0.007149615    8.982    0.889
        86 -11.3433     25.5910    208.6232   1.2358022575e+02   2.6561455551e+01    0.3891136     0.300546 -40.26 0.0007911632    1.641    0.391
