#   1 NUMBER                 Running object number                                     
#   2 MAG_AUTO               Kron-like elliptical aperture magnitude                    [mag]
#   3 X_IMAGE                Object position along x                                    [pixel]
#   4 Y_IMAGE                Object position along y                                    [pixel]
#   5 X_WORLD                Barycenter position along world x axis                     [deg]
#   6 Y_WORLD                Barycenter position along world y axis                     [deg]
#   7 A_WORLD                Profile RMS along major axis (world units)                 [deg]
#   8 B_WORLD                Profile RMS along minor axis (world units)                 [deg]
#   9 THETA_WORLD            Position angle (CCW/world-x)                               [deg]
#  10 FWHM_WORLD             FWHM assuming a gaussian core                              [deg]
#  11 ELONGATION             A_IMAGE/B_IMAGE                                           
#  12 ELLIPTICITY            1 - B_IMAGE/A_IMAGE                                       
         1 -12.0525    189.7207     38.8799   5.4041706311e+01   3.2782240357e+01     1.318339    0.9901838  36.58  0.005282373    1.507    0.337
         2 -11.4632    212.9623      6.7624   4.1820710553e+01   3.0510140755e+01    0.8872998    0.5853052 -51.43  0.004623398    1.412    0.292
         3  -8.7210    120.0799      8.8799   5.5128742718e+01   5.4517200784e+01    0.3127725    0.2841315  43.21  0.001355884    1.040    0.039
         4 -10.2334    218.0264      4.2154   4.0695863160e+01   2.9501941610e+01    0.6096987    0.3518059 -43.86  0.003046157    1.560    0.359
         5  -7.5058    178.2087      8.4504   4.5841285353e+01   3.9346719021e+01     0.188813    0.1313233 -87.78 0.0002970596    1.498    0.332
         6  -8.2940    170.0641      8.0390   4.6696789463e+01   4.1550395157e+01    0.2046251    0.1989255 -83.27 0.0003560421    1.026    0.025
         7  -8.6410    137.0060      6.9242   5.1134396434e+01   5.0392546591e+01    0.2424962    0.1949402 -18.64 0.0003822193    1.291    0.225
         8  -9.4815      5.3015      2.9852   9.8613564386e+01   7.5323668967e+01    0.3344212    0.1809711 -11.27  0.001933528    2.119    0.528
         9  -8.1855     79.0421    194.8491   1.1516899118e+02   2.5028022557e+01    0.1941667    0.1340584  65.02 0.0007092336    1.271    0.213
        10 -14.3418     10.5627    210.7472   1.2937177883e+02   2.9861640684e+01     2.032494     1.620455 -56.08   0.01602342    1.900    0.474
        11 -17.3440     18.0764    244.2986   1.2947892553e+02   2.3314968168e+01     3.562575     2.906545  40.56   0.01854083    1.628    0.386
        12  -8.5488    236.6141    213.7268   8.7978611079e+01  -3.1126827301e+00    0.1989167    0.1579844  19.96 0.0003839563    1.113    0.101
        13  -8.5790      6.4339    193.1755   1.2934099129e+02   3.3575441189e+01    0.1913122    0.1193878  52.14 0.0006191753    1.365    0.267
        14  -9.2629    223.3259    190.9239   8.6239655703e+01   1.7264334944e+00    0.2624424    0.1989517  46.89 0.0004819366    1.527    0.345
        15  -9.1854    130.5496    188.1377   1.0362796357e+02   1.8326531815e+01    0.3840307    0.2407156 -83.60  0.001443871    2.539    0.606
        16  -9.0511     41.7159    188.9706   1.2223652324e+02   3.0894544499e+01    0.3182204    0.1636696  50.43   0.00122762    1.638    0.390
        17  -7.8062     82.5359    211.4681   1.1612744243e+02   2.1402192859e+01    0.1172174   0.09485197  62.07 9.897416e-05    1.040    0.038
        18  -8.1284      1.2955    188.2474   1.3008153129e+02   3.4984754608e+01    0.1416349   0.07080238  84.87 0.0002450088    1.555    0.357
        19  -8.0364    249.0273    186.9709   8.1216208450e+01  -1.9099141624e+00    0.1965768    0.1210381   9.40 0.0004060786    1.637    0.389
        20  -9.0952    224.0141    186.0128   8.5214043494e+01   2.2592210511e+00    0.2505003    0.1966217  10.99 0.0003261079    1.110    0.099
        21  -9.5583    224.2021    181.0497   8.4244621955e+01   2.8940242946e+00    0.2773776    0.2320064 -17.22 0.0004973667    1.200    0.167
        22  -9.4165     12.9755    184.2353   1.2764711318e+02   3.4769776654e+01    0.3232948    0.1939039  83.19  0.001627834    1.296    0.228
        23  -8.3775      7.7873    183.5995   1.2862552546e+02   3.5359119006e+01    0.2558564   0.08117533  50.33 0.0007224418    2.425    0.588
        24  -8.8283     51.7915    183.5805   1.1971717745e+02   3.0832783032e+01     0.276408    0.1567308  58.50  0.000833849    1.537    0.349
        25  -7.7027    100.8256    180.8104   1.0890124593e+02   2.4616705886e+01    0.1754759    0.1335498  73.36 0.0003330962    1.286    0.223
        26 -10.0541    192.1547    177.7663   8.9463821512e+01   9.0607987076e+00    0.2384922     0.221872  23.10 0.0004027641    1.099    0.090
        27  -8.5478    144.8845    179.0382   9.9193473169e+01   1.7502787230e+01    0.1960064    0.1773391  42.44  0.000362503    1.031    0.030
        28  -9.9252     83.9876    169.0267   1.1106192101e+02   2.9634291129e+01    0.3162557    0.2670942 -37.44 0.0006825798    1.589    0.371
        29  -9.4587     77.8283    177.1526   1.1345776263e+02   2.8792532304e+01    0.2256797    0.1862953 -87.73 0.0002349053    1.127    0.113
        30  -9.7625     80.3775    173.6956   1.1247399858e+02   2.9160805087e+01    0.2870001    0.2696951 -46.88  0.001880183    1.378    0.274
        31  -8.9534      2.1503    175.6484   1.2933886551e+02   3.7452026506e+01     0.306988    0.1790323 -57.15  0.001602741    2.130    0.530
        32  -8.8039      7.7479    175.5277   1.2821328386e+02   3.7011807097e+01    0.3165656    0.1840238  43.88  0.001293939    1.641    0.390
        33  -9.1254     12.4708    174.5315   1.2719944179e+02   3.6809363310e+01    0.4729502    0.1704631  67.90  0.002248681    2.707    0.631
        34  -8.3359    250.2429    176.1659   7.8953046016e+01  -7.8697010659e-01    0.1875078    0.1404979   4.49 0.0005800687    1.137    0.121
        35  -8.6816     98.3186    200.6828   1.1189463810e+02   2.1133077586e+01    0.2750605    0.2640041   6.55  0.001936438    1.407    0.289
        36  -8.7225     48.1594    173.0640   1.1952846767e+02   3.3478869078e+01    0.2341788    0.1776855 -86.16   0.00131909    1.151    0.131
        37  -8.8617    195.1806    199.0130   9.2689276564e+01   5.3558996767e+00    0.2956338    0.1913054 -69.23  0.001250914    4.054    0.753
        38 -11.0712     79.7031    155.3376   1.1017147701e+02   3.3269397123e+01    0.4712937    0.3067915 -57.48   0.00109393    1.549    0.355
        39 -10.1428     75.5164    165.6445   1.1255855440e+02   3.1583524881e+01    0.7583548     0.344063  62.98  0.002294256    2.871    0.652
        40  -9.4112     77.9699    161.4859   1.1144138015e+02   3.2149925779e+01    0.2806151    0.2227578  48.37 0.0005087121    1.245    0.197
        41 -13.6207      6.4510    228.5173   1.3074913576e+02   2.7078730736e+01     0.498588    0.3913032  12.45  0.002899843    2.409    0.585
        42  -9.7246      6.0598    161.7355   1.2778687435e+02   4.0056711932e+01    0.2427767    0.1663597  47.24  0.001699705    1.462    0.316
        43  -7.9026      1.4300    162.0319   1.2878784447e+02   4.0356774526e+01    0.1634233   0.08421697 -86.82 2.791973e-05    1.504    0.335
        44  -8.5647    212.3755    161.0938   8.2376406267e+01   7.8911613156e+00    0.2175551    0.1777656  40.46 0.0002983383    1.251    0.201
        45  -8.8129     90.9344    160.4638   1.0825185406e+02   3.0446079764e+01    0.2299474     0.181243 -73.19 0.0001348534    1.230    0.187
        46  -7.5746    198.0025    159.4364   8.4713986373e+01   1.0893412212e+01    0.2028641    0.1285721  42.88 0.0004087275    1.518    0.341
        47  -9.2168     51.2208    157.9982   1.1729680478e+02   3.6427255287e+01    0.3435997    0.1919355  53.25  0.001853913    1.683    0.406
        48  -9.0101     50.1175    152.8649   1.1698043308e+02   3.7716858950e+01    0.2391987    0.1505243 -80.48  0.001103791    1.413    0.292
        49  -9.2661     33.1634    158.1154   1.2150229254e+02   3.8389030435e+01    0.3415144    0.1085766  34.86   0.00152612    3.045    0.672
        50  -7.5611    140.5284    156.0982   9.6020721519e+01   2.2736004915e+01    0.1926099    0.1404043 -51.14 0.0002922959    1.442    0.306
        51  -8.8429     95.5664    154.7009   1.0626076228e+02   3.0986912195e+01    0.4487637    0.2709056 -47.60   0.00143826    1.865    0.464
        52  -8.9389     99.7624    152.6008   1.0490780157e+02   3.0771247949e+01    0.3391393    0.2136531  60.01  0.001408802    1.684    0.406
        53  -8.2181    145.0073    151.7619   9.4162306793e+01   2.2744621070e+01    0.1997659    0.1810548  45.33 0.0003091658    1.058    0.055
        54  -9.3584    133.9277    148.3174   9.6004253782e+01   2.5592337995e+01    0.4783782    0.1987747 -54.56  0.001774823    2.687    0.628
        55  -7.3448     28.3109    145.6621   1.2148680230e+02   4.1675940318e+01    0.1311785   0.07404392  70.41 0.0007044928    1.687    0.407
        56  -9.2497     13.0310    142.5065   1.2489098946e+02   4.3734188404e+01    0.2408963    0.1302444  83.44 0.0009904043    1.586    0.369
        57  -9.0201    109.8703    146.3481   1.0135635667e+02   3.0439125916e+01    0.3755848    0.1890316 -74.60  0.001294709    3.487    0.713
        58  -7.1748     23.2861    142.6968   1.2242951298e+02   4.2818387485e+01    0.1245854   0.07355534  71.24 0.0003848566    1.561    0.359
        59  -9.6122    107.9479    139.1079   1.0046087690e+02   3.2391724189e+01    0.5184909    0.3007829 -31.88  0.002047288    2.802    0.643
        60 -10.3093     96.2126    139.2180   1.0344552977e+02   3.4371325542e+01    0.3302344     0.276182  79.22 0.0003352799    1.184    0.156
        61  -9.1956     80.2982    140.3222   1.0770705221e+02   3.6613549227e+01    0.4900886    0.2237853  58.16  0.001897141    2.848    0.649
        62  -8.7334     24.0357    138.4758   1.2184570795e+02   4.3720587407e+01    0.2390302    0.1422193  51.87  0.001103418    1.644    0.392
        63  -9.2133      4.5990    139.1510   1.2665507467e+02   4.5133616408e+01    0.1598741    0.1429804  32.33  0.001209702    1.491    0.329
        64  -7.7667    121.7955    135.9854   9.6386657713e+01   3.0552152995e+01    0.2191456    0.1538596  64.70 0.0008129944    1.637    0.389
        65  -9.6036    234.8402    195.9883   8.5199865582e+01  -7.7439043671e-01    0.2657651    0.2516839  78.56  0.001835009    1.752    0.429
        66  -9.4655      4.2041    133.6587   1.2635069828e+02   4.6402484208e+01    0.2972035    0.1348402  65.42 0.0009385883    2.133    0.531
        67  -9.3147      6.3736    130.0984   1.2553463352e+02   4.7061660432e+01    0.2005705      0.17435  17.57 0.0006375957    1.597    0.374
        68  -8.9741     84.9198    132.6952   1.0518208811e+02   3.7691673693e+01    0.4075646    0.1922997  57.70  0.001565214    2.777    0.640
        69  -8.0814    114.5144    130.5146   9.7053338381e+01   3.3136321646e+01    0.1450272    0.1393983 -83.83  0.000249563    1.026    0.026
        70  -9.3817     35.3423    129.2560   1.1791712627e+02   4.4810016457e+01    0.3090341    0.1432118  37.46  0.001060376    2.257    0.557
        71  -9.5315      2.1035    127.2466   1.2638994137e+02   4.8005190389e+01     0.330581    0.1327368 -79.11  0.001318322    1.910    0.476
        72  -9.5179     25.4003    127.4279   1.2035042064e+02   4.6173889602e+01    0.3591145    0.1827663  42.83 0.0009237647    2.027    0.507
        73  -7.9204    110.0880    119.6901   9.5814207327e+01   3.6415499277e+01    0.1979651    0.1910356  74.12 0.0004303655    1.052    0.050
        74  -8.3556     33.0916    119.5415   1.1729476948e+02   4.7339485823e+01    0.2083723     0.150864 -59.52  0.001088897    1.310    0.237
        75  -9.2604     43.6867    115.6921   1.1372324878e+02   4.7192936716e+01    0.2765925    0.1387786  89.29  0.001142161    2.558    0.609
        76  -9.1532     37.0020    115.0153   1.1555374092e+02   4.8045122748e+01    0.2326349    0.1607733 -73.38 0.0006562092    1.199    0.166
        77  -8.5482    102.5620    126.5389   9.9309268057e+01   3.6205757082e+01     0.274963    0.2376487   5.09  0.001129147    1.497    0.332
        78  -8.8305    156.9900    111.0717   8.1995642267e+01   2.8503901999e+01    0.2210049    0.2173173 -51.20  0.001186601    1.027    0.026
        79 -10.5422     53.6501    108.5409   1.0957294620e+02   4.7793360304e+01    0.4997763    0.2733752 -66.86  0.002421318    1.606    0.378
        80  -9.1515    119.1929    108.2579   9.0618061167e+01   3.7237116359e+01    0.3624471    0.2563513  14.98  0.000945097    2.109    0.526
        81  -9.5335    213.2912    106.8092   6.9596955489e+01   1.6454006495e+01    0.2474425    0.2287112   6.44 0.0002429717    1.074    0.069
        82  -9.3850     63.6849    106.4791   1.0614436047e+02   4.7024363185e+01    0.2370974    0.2215497 -15.11  0.001439063    1.302    0.232
        83  -8.6365      3.4132    104.2146   1.2399832131e+02   5.3260291414e+01    0.2493289     0.181944 -22.30  0.001622855    1.920    0.479
        84  -7.7962    218.5473    102.8152   6.7682924966e+01   1.5938484946e+01    0.2653802    0.1670336  40.43 0.0006537903    1.716    0.417
        85  -8.4528    101.2718     88.9312   9.0411570099e+01   4.5086620857e+01    0.2264522    0.2148823  48.95  0.000438379    1.123    0.109
        86  -7.3920    158.5236     84.5851   7.4179097300e+01   3.3351535892e+01     0.155011    0.1525223 -20.84 0.0001221342    1.015    0.014
        87  -7.8602    133.5299     72.6163   7.6380362927e+01   4.1628582451e+01    0.3040676     0.210846  15.32 0.0009212872    2.076    0.518
        88 -10.2362    116.2631     67.7053   7.9361509227e+01   4.6512854763e+01    0.2664011    0.2495507 -31.90 0.0002303748    1.017    0.017
        89  -7.8422    127.8502     65.2052   7.5359346714e+01   4.4369820362e+01    0.2267113    0.2089116 -71.90 0.0003973857    1.193    0.162
        90  -8.8820    212.3530     58.4545   5.6607541146e+01   2.4283863767e+01    0.3608289    0.2432088 -24.36  0.001283989    1.470    0.320
        91 -10.6997    175.2314     51.5940   6.0419417200e+01   3.4767927925e+01    0.5023086    0.4578543  78.75  0.001681675    1.140    0.123
        92  -9.2667    186.6736     49.8231   5.7922681071e+01   3.2051356528e+01    0.3517718    0.2983686  32.81 0.0009155077    1.294    0.227
        93  -9.3654    120.3293    246.5112   1.1259311944e+02   1.0339243942e+01    0.1977568    0.1567437  74.32  0.001005784    1.356    0.262
        94  -7.0564    160.6159     38.7348   5.8752358222e+01   4.0470336149e+01    0.1620152     0.109813  33.81 0.0006579599    1.692    0.409
        95  -8.0770     12.6729     17.6900   1.0117654161e+02   7.2087389619e+01    0.1258556   0.06882492 -30.90 0.0004853059    1.660    0.398
        96 -11.1512    194.6172     31.7783   5.1165483786e+01   3.2420188422e+01    0.6559245    0.4983186  61.36   0.00165812    1.330    0.248
        97  -9.1426    115.6970    195.0789   1.0767049064e+02   1.9490404531e+01    0.2215297    0.1876612  65.43 0.0005341936    1.081    0.075
        98  -8.0970    168.6765    220.6896   1.0090645752e+02   6.6684653108e+00    0.1196762   0.08432187  15.49 0.0007038134    1.653    0.395
        99  -8.7496     10.4717     10.4888   9.9160146182e+01   7.3598907011e+01    0.1190041   0.08806527 -34.55 0.0008098627    1.015    0.014
       100  -8.9548     95.0084    194.1226   1.1180819480e+02   2.2873559861e+01    0.3867874    0.2479039  37.75  0.001953103    1.542    0.352
       101  -8.4793     93.0598    219.2513   1.1487339722e+02   1.8550640896e+01    0.1776768    0.1415368  74.22 0.0003775622    1.160    0.138
       102  -7.6319    157.3071    219.6461   1.0285293858e+02   8.6465181484e+00     0.118535   0.08670755  66.81 8.376377e-05    1.718    0.418
       103  -8.9780    183.8562    214.7163   9.7272163405e+01   5.0451341674e+00    0.2433117     0.162485 -53.05  0.001423574    2.090    0.522
