#   1 NUMBER                 Running object number                                     
#   2 MAG_AUTO               Kron-like elliptical aperture magnitude                    [mag]
#   3 X_IMAGE                Object position along x                                    [pixel]
#   4 Y_IMAGE                Object position along y                                    [pixel]
#   5 X_WORLD                Barycenter position along world x axis                     [deg]
#   6 Y_WORLD                Barycenter position along world y axis                     [deg]
#   7 A_WORLD                Profile RMS along major axis (world units)                 [deg]
#   8 B_WORLD                Profile RMS along minor axis (world units)                 [deg]
#   9 THETA_WORLD            Position angle (CCW/world-x)                               [deg]
#  10 FWHM_WORLD             FWHM assuming a gaussian core                              [deg]
#  11 ELONGATION             A_IMAGE/B_IMAGE                                           
#  12 ELLIPTICITY            1 - B_IMAGE/A_IMAGE                                       
         1 -13.7644    199.4278     46.4876   3.3000222915e+01   3.0054267647e+01     1.276193    0.9215829  38.08  0.005515413    1.922    0.480
         2 -12.7624    231.2782     19.8227   2.3841784190e+01   2.6611350978e+01    0.7839249    0.3968226  62.59  0.004292661    2.180    0.541
         3 -13.1288    229.5097     13.6549   2.2643398986e+01   2.7673351394e+01    0.7807686    0.4587564  60.42   0.00458717    1.987    0.497
         4 -10.9299     32.5939      4.7307   5.8893479542e+01   7.2469638501e+01     0.222263    0.1070095 -27.93  0.001140919    2.139    0.532
         5 -10.5518     60.9960      2.4027   4.5048931549e+01   6.7617473819e+01    0.3657769   0.02569279  47.49 0.0009619179    6.385    0.843
         6 -10.3358     60.3563     21.1263   5.4671220921e+01   6.5573863042e+01     0.218418     0.159367  31.93 0.0004265686    1.281    0.219
         7  -9.8503    154.7197    249.9733   8.2986751302e+01   2.1871150680e+00       0.2044    0.1393257  23.01 0.0006002936    1.263    0.208
         8 -11.7951    150.1095    246.7583   8.3492527070e+01   3.3046058722e+00    0.4586405    0.2742036  40.84  0.002668921    1.520    0.342
         9 -16.5036     69.1196    146.3637   8.8553224076e+01   3.6749865079e+01     19.80967     9.464799  86.14   0.05246085    5.685    0.824
        10  -9.8633     56.2766    192.6228   9.8176453168e+01   2.7087063381e+01    0.2230504    0.1633901  65.22  0.001248931    1.268    0.212
        11 -11.9853    126.1245    190.0813   8.0618490116e+01   1.7344679384e+01     0.349867     0.262863 -48.63  0.001585246    1.416    0.294
        12 -10.2591     83.2076    195.3050   9.1794570079e+01   2.2846515170e+01    0.3060017    0.2357404  57.91  0.001155166    1.226    0.184
        13 -10.4548     61.9289    235.7087   1.0078174295e+02   1.7114271922e+01    0.2934782    0.1791772  88.53  0.001454232    1.830    0.454
        14 -10.3152     33.8846    187.7234   1.0330903115e+02   3.0836557484e+01    0.4341669    0.2488615 -57.38  0.001907546    1.879    0.468
        15 -10.3295     30.5182    186.5090   1.0404912842e+02   3.1478017595e+01    0.4562427    0.1939398  52.35  0.001824639    2.177    0.541
        16  -9.7974     54.1247    229.1615   1.0194533918e+02   1.9371485998e+01    0.2273537    0.1445436  83.28  0.001313425    1.634    0.388
        17 -11.8179     48.8819    188.1371   9.9578464469e+01   2.9043472674e+01    0.4622264    0.3217146 -20.30  0.001590598    2.306    0.566
        18 -12.3182    115.7260    183.5215   8.2064892241e+01   2.0471190187e+01    0.3951295    0.2859252 -39.64  0.001631905    1.562    0.360
        19 -11.8004     74.6152    180.4747   9.2067025569e+01   2.7514595075e+01    0.5869424    0.3296329  73.17  0.001308814    2.406    0.584
        20  -9.1375     90.1521    229.5104   9.4089376505e+01   1.4664728419e+01    0.1853017     0.109121  35.23 0.0004079248    1.467    0.318
        21 -11.6026    121.3641    181.5397   8.0361981214e+01   1.9973055284e+01    0.2813895     0.232599  60.43 0.0009273597    1.277    0.217
        22 -12.4629     61.2950    176.4238   9.5062375290e+01   3.0304320198e+01    0.7810954    0.6751687 -23.28  0.003568886    1.481    0.325
        23 -10.3322     40.6836    178.1669   1.0070160994e+02   3.2383870750e+01    0.2556298    0.2139053 -82.20 0.0004315937    1.135    0.119
        24 -10.8823     47.1150    177.1918   9.8910784471e+01   3.1881466550e+01    0.5243171     0.314553  69.45  0.002561063    1.739    0.425
        25 -18.3397     11.0835    228.1594   1.1098549008e+02   2.4206196620e+01     6.276628     2.058155 -78.50   0.02381523    2.899    0.655
        26 -11.2227     47.9739    237.4451   1.0386051332e+02   1.8439655433e+01    0.1779582    0.1520498 -80.66 0.0001412754    1.312    0.238
        27  -8.9442    199.7252    174.3304   6.1992952712e+01   8.0962704958e+00    0.1219947    0.1055979 -71.03 0.0004230545    1.593    0.372
        28 -10.5461    181.2877    179.0512   6.6482964792e+01   1.0280205356e+01    0.2808078    0.2172856 -73.52  0.001110085    1.954    0.488
        29  -9.6760    187.7605    169.9481   6.3449172312e+01   1.0866605474e+01    0.2539101    0.1897107 -56.54  0.001348626    1.602    0.376
        30 -11.0634    111.2428    168.4492   8.0659802007e+01   2.4635105919e+01    0.4670423    0.2634952 -77.36  0.001520548    2.822    0.646
        31 -11.7126     98.9665    180.5693   8.5791386865e+01   2.3841910170e+01    0.3886138    0.3212444 -77.47   0.00137972    1.277    0.217
        32 -10.5253     35.9758    179.5943   1.0206311869e+02   3.2555623196e+01    0.2817013    0.2141042 -85.70   0.00085345    1.206    0.171
        33 -10.2592     55.9764    163.0679   9.4830164575e+01   3.4292993982e+01    0.4300039     0.227379  30.65  0.001933497    1.940    0.485
        34 -11.5145     95.5193    219.5618   9.1802272015e+01   1.5894943929e+01    0.3623931    0.2624371  19.04  0.000291882    1.556    0.357
        35 -10.9875     84.6952    153.6525   8.5259524472e+01   3.2567910032e+01    0.2615793    0.2543575 -61.87 0.0003913017    1.092    0.084
        36 -11.1219    134.2401    147.1214   7.0676338441e+01   2.5366693136e+01    0.8715952    0.2206569 -52.70  0.002332679    4.503    0.778
        37 -10.4481    132.6015    140.0173   6.9558321843e+01   2.7287042330e+01    0.5069994    0.2146192 -57.37  0.001697806    2.895    0.655
        38 -11.8007     91.1210    147.8785   8.2396749116e+01   3.2965135858e+01    0.6461496    0.4447812 -28.70  0.001702604    1.967    0.492
        39 -16.4516      1.5852     91.9769   1.0334882849e+02   5.7452491271e+01      13.1829          nan -73.56    0.0193866   19.404    0.948
        40  -8.9757    111.4400    140.2635   7.5186386680e+01   3.1260282903e+01    0.2096095    0.1463765 -68.95 0.0008171316    1.623    0.384
        41 -11.4962    105.2328    133.0188   7.5365761266e+01   3.4145985067e+01    0.6960828    0.4039452 -47.73  0.002173503    1.731    0.422
        42 -11.5360     91.9812    134.2322   7.9469291081e+01   3.6206386682e+01     0.287363    0.2765101 -24.98 0.0003390806    1.131    0.116
        43 -11.2718    134.6203    129.3874   6.6645679331e+01   2.9282688496e+01    0.6150829    0.3915837  82.79  0.002175796    3.098    0.677
        44 -11.4484    117.7145    125.7472   7.0235910825e+01   3.3497476344e+01    0.4850968    0.3587674 -82.13  0.001176636    1.747    0.428
        45 -10.6667    112.7306    127.1853   7.1946285304e+01   3.4129907919e+01     0.345555    0.2780062  19.80  0.001086072    1.462    0.316
        46 -10.6182    126.6061    126.5263   6.8036997815e+01   3.1547723884e+01    0.3135527    0.2698462 -82.73 0.0009494059    1.292    0.226
        47 -10.5266     80.2413    125.6342   8.1252011086e+01   4.0317245607e+01    0.5099841    0.2169395  47.57  0.001134989    2.620    0.618
        48 -10.3187    100.0679    122.7053   7.4550699298e+01   3.7594969314e+01    0.3038087    0.2513574  10.37  0.001078441    1.473    0.321
        49 -10.5164     56.2082    210.5224   9.9918983156e+01   2.3051896204e+01     0.227859    0.1757475  69.94 0.0005167624    1.178    0.151
        50  -9.4646    162.8203    120.2567   5.7863744749e+01   2.5392384696e+01    0.2509226    0.1630407 -79.99 0.0005438329    2.749    0.636
        51 -10.3618     53.7554    205.2081   1.0001225980e+02   2.4527491045e+01    0.3429298    0.1593207  57.45  0.001067111    2.181    0.542
        52  -9.3807     37.4599    242.0023   1.0632004276e+02   1.8737639046e+01    0.1401407    0.1048317 -82.35 0.0005019638    1.410    0.291
        53  -9.3156    108.6406    117.0008   7.0690683208e+01   3.7329195609e+01    0.2121693    0.1920079 -56.28 0.0009070085    1.087    0.080
        54  -9.0508    183.5061    116.4768   5.2767056450e+01   2.1824363319e+01    0.1444931    0.1353842 -40.06 0.0001011141    1.023    0.023
        55  -9.9114    205.4729    110.2126   4.7444240951e+01   1.8530033603e+01    0.2275956    0.1979387  53.63 0.0005995382    1.278    0.218
        56 -10.6478    134.4394    106.0701   6.0922768602e+01   3.4456234934e+01    0.6393541    0.1450562 -47.31  0.001640757    4.504    0.778
        57 -11.1006    114.5390    108.4800   6.6863227790e+01   3.8124451726e+01     0.280873      0.27492  83.67 0.0008919599    1.016    0.016
        58 -11.6770     47.9301    231.7153   1.0346892784e+02   1.9586217693e+01    0.2279281    0.1539096 -84.03 0.0007169305    1.522    0.343
        59  -9.7218     73.0171    203.2374   9.5210424395e+01   2.2488200543e+01    0.3736026    0.2080016 -72.62   0.00182381    1.939    0.484
        60 -10.9373    120.0194    103.0056   6.3897050306e+01   3.8212680964e+01    0.2512625    0.1984666  -3.37  0.001146582    1.727    0.421
        61  -9.1440     40.1052    201.0764   1.0289771222e+02   2.7059573909e+01    0.1733369    0.1228894  69.32 0.0004457557    1.260    0.206
        62  -8.8744     45.2525    199.2621   1.0151175599e+02   2.6884507823e+01    0.1108002   0.09790792 -43.47 0.0002997666    1.436    0.303
        63 -11.1709     54.2594    238.9197   1.0264817180e+02   1.7413277195e+01    0.1923469    0.1616075  57.43  0.000439642    1.067    0.063
        64 -11.2212     21.8911     94.8711   9.5801000116e+01   5.5399060336e+01    0.3276734     0.188209 -80.01  0.001116029    1.797    0.443
        65 -10.7029    164.1191    196.1189   7.3104987320e+01   9.9316094059e+00    0.2094087    0.1733549  -0.22 0.0008074399    1.234    0.190
        66  -8.7397    184.3388     77.3159   4.2949535266e+01   2.8724348453e+01    0.1396872    0.1133959  16.84 0.0007048133    1.702    0.412
        67  -9.6949     91.1411     76.3807   6.4817914222e+01   4.9934974912e+01    0.2725072    0.2141858  77.27  0.001110955    1.638    0.390
        68 -10.5411    191.4620    192.2293   6.6876275502e+01   6.3044314104e+00    0.5117103    0.3107882 -68.89  0.001893208    4.574    0.781
        69 -11.4904     39.8464     71.2846   8.2964042918e+01   5.9322051883e+01    0.3303024    0.2227422  40.72 0.0007935213    1.646    0.393
        70 -12.1750    183.2865     58.9332   3.8337070203e+01   3.1922356381e+01    0.4444105    0.3889605 -34.83 0.0007794125    1.224    0.183
        71  -9.4995    241.6766    249.6906   6.7291887067e+01  -8.3390609027e+00     0.110909   0.06348445  -1.66 0.0004216091    1.650    0.394
        72 -12.5292    205.1065     41.1375   3.1042026232e+01   2.9518303995e+01    0.5529525    0.4467096 -74.23  0.001028556    1.107    0.097
        73  -8.7584     82.6924     51.7249   5.9223958719e+01   5.6416786452e+01    0.1400633    0.1081485  11.01 0.0003218988    1.549    0.354
        74 -10.0058     58.6096     50.2918   6.7877406960e+01   6.1105529332e+01    0.2354404    0.1618087  47.54 0.0007743206    1.618    0.382
        75  -9.8767     86.9770     48.5729   5.6601645024e+01   5.6087905040e+01    0.2342051    0.1967278 -61.34 0.0005493494    1.389    0.280
        76 -11.4334     23.8542     41.5953   8.1275093951e+01   6.7462581735e+01    0.3521961     0.171647  32.84  0.001734545    2.180    0.541
        77  -9.1113     79.4449    247.6311   9.8090581957e+01   1.2654954294e+01    0.2658263    0.1250216  50.61   0.00115736    1.896    0.473
        78 -10.7561     52.8314    246.1146   1.0344971709e+02   1.6201761015e+01    0.1784166    0.1430825 -81.32  0.000792726    1.375    0.273
        79 -10.3753     57.4555    233.6670   1.0157686477e+02   1.8063977610e+01    0.2138688    0.1950651 -41.60 0.0008859082    1.460    0.315
        80  -8.5649     76.0000    244.8270   9.8566411009e+01   1.3609532416e+01     0.166872   0.06823523 -67.68 0.0007883557    2.846    0.649
