#   1 NUMBER                 Running object number                                     
#   2 MAG_AUTO               Kron-like elliptical aperture magnitude                    [mag]
#   3 X_IMAGE                Object position along x                                    [pixel]
#   4 Y_IMAGE                Object position along y                                    [pixel]
#   5 X_WORLD                Barycenter position along world x axis                     [deg]
#   6 Y_WORLD                Barycenter position along world y axis                     [deg]
#   7 A_WORLD                Profile RMS along major axis (world units)                 [deg]
#   8 B_WORLD                Profile RMS along minor axis (world units)                 [deg]
#   9 THETA_WORLD            Position angle (CCW/world-x)                               [deg]
#  10 FWHM_WORLD             FWHM assuming a gaussian core                              [deg]
#  11 ELONGATION             A_IMAGE/B_IMAGE                                           
#  12 ELLIPTICITY            1 - B_IMAGE/A_IMAGE                                       
         1 -10.0849     46.7851     16.6275   7.2553663803e+01   6.7335273731e+01    0.2568945    0.1435608 -23.28 0.0007983375    1.705    0.413
         2 -11.2212     41.7336     21.1844   7.6972379688e+01   6.7446150764e+01    0.6086496    0.3517854  38.38  0.003138788    1.859    0.462
         3 -12.4686    216.3198     13.8295   3.5775778967e+01   2.9542540811e+01    0.5091915    0.4041041  72.72  0.001134902    1.248    0.199
         4  -9.6277     68.5878     10.8068   6.1296423142e+01   6.4302953170e+01    0.1723853     0.143862   0.67 0.0002619429    1.131    0.116
         5 -10.2674     65.4627     11.4763   6.2700265213e+01   6.4812798806e+01    0.2141074    0.1533477  49.23 0.0007490647    1.475    0.322
         6 -12.6998    190.4660      9.4669   3.7186391816e+01   3.6086059070e+01    0.5135573    0.2685648  82.54  0.002490543    1.843    0.457
         7 -12.3804    185.1250      4.2593   3.6389372907e+01   3.7880825328e+01    0.4358578    0.4148909  79.37  0.002952421    1.172    0.147
         8 -10.9634     57.4070      6.9499   6.3465187640e+01   6.6725662590e+01    0.3670002    0.2603064  28.04  0.001374737    1.191    0.161
         9 -11.2313    165.7308      1.6792   3.7801316069e+01   4.2838873225e+01    0.3437074    0.1421776  65.69 0.0007206335    2.000    0.500
        10 -11.7334     43.7197      8.5169   6.9855927337e+01   6.8792080700e+01    0.3048419    0.2197706  38.35 0.0009740606    1.473    0.321
        11  -9.4287    120.6589      1.7176   4.4357089687e+01   5.3807602308e+01     0.139107   0.08071058  41.32 0.0004402514    1.631    0.387
        12 -10.2040    104.2623    225.4653   1.0622761951e+02   1.3479737091e+01     0.228586    0.1756159 -68.58  0.001295543    1.434    0.303
        13  -9.8941      7.9910    250.7576   1.2662045529e+02   2.0846497724e+01    0.1306253   0.07252838  42.95 0.0008825545    1.600    0.375
        14 -11.0163     95.6774    225.0557   1.0798938918e+02   1.4870337070e+01    0.4058442    0.2027062  52.31  0.001953565    1.881    0.468
        15 -10.7072    232.2906    223.5515   8.0068920893e+01  -6.6476547565e+00    0.2264878    0.1074752  39.13  0.001139725    2.115    0.527
        16 -10.1242    149.2151    223.4396   9.6434566259e+01   6.5771368815e+00    0.1926575    0.1103223  46.96 0.0007697862    1.659    0.397
        17 -11.8092    239.2036    216.4788   7.7575695447e+01  -6.6549002810e+00     0.481472    0.2336541 -16.82  0.002192962    2.617    0.618
        18 -10.9470    226.2783    221.5594   8.0810828291e+01  -5.4978912953e+00    0.2294415    0.1091746  39.61  0.001133063    2.096    0.523
        19  -9.6110     21.7504    218.9923   1.2248694851e+02   2.5618761775e+01     0.153642   0.08310258 -81.13 0.0009008979    1.632    0.387
        20  -9.9850    211.6291    218.3190   8.2977573623e+01  -2.8058307444e+00     0.176175    0.1621883  75.42   0.00111199    1.714    0.417
        21 -11.2326    231.2858    212.4529   7.8264490096e+01  -4.9314454991e+00    0.3852357    0.2059206  -5.59  0.001692377    2.768    0.639
        22  -9.7406    217.9351    211.9750   8.0645771470e+01  -2.8267326568e+00    0.1828857    0.1653663  69.11  0.001133201    1.748    0.428
        23 -10.3962    116.1036    209.2552   1.0150946638e+02   1.4844743964e+01    0.3442085    0.1818407 -57.56  0.001599181    2.071    0.517
        24  -9.7477     85.6837    209.3572   1.0828613086e+02   1.9606454383e+01    0.1432011   0.08942482  68.58 0.0002443043    1.750    0.429
        25  -9.6156    185.6657    204.3389   8.5615675776e+01   3.7436981381e+00    0.1312946    0.1100614  74.35 0.0007051609    1.749    0.428
        26 -11.5870     50.2063    201.7175   1.1526583468e+02   2.6110869422e+01    0.4983329    0.2580786  64.95  0.002446185    1.995    0.499
        27 -10.0083    112.3109    197.6420   1.0065476540e+02   1.7924135709e+01    0.1477323    0.1024745  71.92 0.0007042739    1.738    0.425
        28  -9.8181    133.3949    195.6241   9.5477346979e+01   1.4713005712e+01    0.2602151    0.1343227 -68.64 0.0009539686    3.171    0.685
        29 -12.0151    159.8600    191.8419   8.8837158763e+01   1.0689487004e+01    0.7197573    0.5065642  88.75  0.003046309    2.579    0.612
        30  -9.6194     66.3233    194.6452   1.1089886152e+02   2.5617729742e+01    0.1453151   0.08776198  69.06 0.0007046439    1.763    0.433
        31 -10.1762    148.7940    198.1893   9.2435073269e+01   1.1438857801e+01     0.237788    0.1541897  75.69 0.0009537882    2.854    0.650
        32 -10.0645     94.6169    186.4384   1.0313727021e+02   2.3318992362e+01    0.2725208    0.1290234 -76.55 0.0009533478    3.334    0.700
        33  -9.9585    109.2433    186.2537   9.9594535649e+01   2.0954130256e+01    0.2205053    0.1193297 -71.32 0.0005921011    2.419    0.587
        34 -10.2884    183.2647    182.4284   8.1940942080e+01   8.1716228862e+00    0.3327726    0.1665273 -38.38  0.001397485    2.057    0.514
        35 -11.1472     37.1776    179.0228   1.1596400557e+02   3.2827489262e+01    0.2597491    0.1465957  87.51  0.001312915    1.759    0.431
        36 -10.9354     38.4360    174.7752   1.1522347344e+02   3.3693600456e+01    0.2124334     0.166872 -54.02 0.0009200186    1.418    0.295
        37  -9.5831     28.7919    176.4369   1.1767401371e+02   3.4317285429e+01    0.1424967    0.1253846   8.31 0.0004484345    1.567    0.362
        38  -9.9173     76.5000    175.5082   1.0596626497e+02   2.8651957522e+01    0.1415397     0.124868  79.79 0.0008103519    1.037    0.036
        39 -11.4963     45.2166    171.2558   1.1318241855e+02   3.3770921016e+01    0.5578167    0.2779081  85.77  0.002368293    2.502    0.600
        40 -10.3456     79.1474    163.1773   1.0340269725e+02   3.1240918855e+01    0.3660037    0.1921577 -89.91   0.00126304    3.392    0.705
        41  -9.3730     69.6731    163.3371   1.0590408795e+02   3.2574900440e+01    0.1508967   0.09968103  71.87 0.0007051697    1.725    0.420
        42 -11.4158    106.7639    158.1215   9.5253910699e+01   2.7947544051e+01    0.7165794    0.4678019  79.59  0.002928909    2.290    0.563
        43 -11.5050     55.0976    167.7696   1.1028140692e+02   3.3424446491e+01    0.4565067    0.2549179  86.54  0.001580148    2.152    0.535
        44 -10.2460     22.5128    159.5140   1.1752395060e+02   3.8946435447e+01    0.3005007    0.1437293  65.02  0.001374878    2.385    0.581
        45  -9.7857      8.3356    160.0034   1.2103820404e+02   4.0026641666e+01    0.2133383   0.07414006  81.52 0.0007052172    4.402    0.773
        46 -11.3112    118.5704    157.5834   9.2082236105e+01   2.5928399741e+01      0.40354    0.3374677 -46.87  0.001128715    1.217    0.178
        47 -10.6643    167.3706    156.5504   7.9985486925e+01   1.6472237473e+01    0.3299022    0.2731973 -77.67  0.001611909    1.544    0.352
        48 -10.1952    218.3153    155.6668   6.9282583644e+01   6.5351465193e+00     0.305309    0.1192904 -41.60  0.001154469    2.419    0.587
        49  -9.8124     81.7770    155.1567   1.0135702966e+02   3.2811333007e+01    0.2589176     0.145302  72.17 0.0009514205    2.881    0.653
        50  -9.8273     68.3399    154.6736   1.0490425339e+02   3.4896663030e+01    0.1516089    0.1014841  71.43 0.0007051452    1.731    0.422
        51  -9.4657     23.4868    153.5514   1.1665063919e+02   4.0298224063e+01    0.1297362    0.1054272 -89.36 9.000685e-05    1.044    0.042
        52 -10.0364     52.0643    160.0200   1.1002619975e+02   3.5692485140e+01     0.213947    0.1787918  83.09 0.0006635412    1.103    0.093
        53 -11.0530    107.3696    145.8623   9.2627639629e+01   3.0793796224e+01    0.5503677    0.3125601  70.71  0.001807416    3.471    0.712
        54  -9.9513    138.8145    164.9623   8.8511728490e+01   2.0366098305e+01    0.2529703    0.1817369 -84.95  0.001087386    2.028    0.507
        55  -8.8608    195.6605    146.3319   7.1586457923e+01   1.2727332055e+01    0.1499593    0.1206358 -79.68 0.0006415472    1.744    0.427
        56 -10.1620    148.7915    145.5261   8.1863053063e+01   2.2705507391e+01    0.2930193    0.2091479 -86.65  0.001049364    2.208    0.547
        57 -10.3310     55.6787    145.6966   1.0694822127e+02   3.8800867834e+01    0.2985834    0.1796372  71.30  0.001336324    2.108    0.526
        58  -9.7408    181.9887    141.5210   7.3319425463e+01   1.6534216853e+01     0.209132    0.1377014  71.54 0.0008085205    2.473    0.596
        59 -11.8945     99.7702    129.0624   9.1061550951e+01   3.6246812358e+01    0.9372457    0.5595481  69.41   0.00336703    2.917    0.657
        60 -11.0679     94.3931    121.7431   9.0922547764e+01   3.8976833669e+01     0.461235    0.2671278  39.04  0.001232432    1.801    0.445
        61 -11.4435     82.9812    130.9998   9.6372229371e+01   3.8614433576e+01    0.6286455    0.2748893 -65.94  0.002161637    2.838    0.648
        62  -9.9955    132.3145    131.9831   8.2819062768e+01   2.9212708554e+01    0.2585962    0.1283422 -66.53 0.0007045511    4.247    0.765
        63 -11.1149     43.4515    122.5254   1.0667306755e+02   4.6008701649e+01    0.7739097     0.402128  85.87  0.002876444    3.306    0.697
        64  -9.7148    117.3517    125.6546   8.5291883465e+01   3.3732376097e+01    0.1655521    0.1246741  84.03  0.000703986    1.817    0.450
        65 -10.2200     58.8912    124.3896   1.0226850473e+02   4.3724761634e+01    0.2810397     0.183214 -89.71  0.001216595    1.961    0.490
        66 -11.0727     27.8204    122.0171   1.1137611201e+02   4.7657735948e+01    0.6562953    0.2924884  80.05  0.002037791    5.134    0.805
        67 -11.8503    193.3107    118.3032   6.5356389499e+01   1.8692950060e+01    0.6390468    0.4427594 -67.70  0.001975516    1.970    0.492
        68 -10.3699     71.3259    120.3154   9.7596139419e+01   4.3034592727e+01    0.3624473    0.2397944  86.59  0.001346845    2.200    0.545
        69 -10.4119     71.5896    115.2882   9.6398606102e+01   4.4232018919e+01    0.2910046    0.1673526 -53.56 0.0006437467    1.576    0.365
        70 -11.2129    141.5892    113.8522   7.5811572633e+01   3.1295601075e+01    0.5262319     0.301312 -36.13  0.002072445    1.855    0.461
        71 -10.5475    108.4537    113.0110   8.4612437192e+01   3.8447976018e+01     0.657328    0.2800092 -60.11  0.001980603    3.504    0.715
        72 -11.0187     78.6203    112.5178   9.3538084986e+01   4.3838490392e+01    0.5316811    0.3021358 -80.37  0.001820752    3.385    0.705
        73 -11.9139    159.8985    111.5324   7.0750224187e+01   2.7645029478e+01    0.6975051    0.3562467 -54.04   0.00239377    2.361    0.576
        74 -11.5046     14.7794    109.4642   1.1353393550e+02   5.1741761437e+01    0.6501406    0.3697365 -88.40  0.003294827    1.905    0.475
        75 -10.1308     66.2360    110.6541   9.7049887027e+01   4.6130340254e+01    0.3019136    0.1695731 -89.32 0.0009583302    4.186    0.761
        76 -10.2732     91.9396    111.5866   8.9171646501e+01   4.1846078932e+01    0.4860649    0.2104883 -60.52   0.00161909    2.904    0.656
        77 -11.3442    140.8591    105.1492   7.3634522921e+01   3.3336592766e+01    0.4653117    0.3582513  86.06  0.002050064    1.765    0.434
        78 -11.3237    141.7280    100.5529   7.2131835758e+01   3.4108371037e+01    0.4569341    0.2682756  53.67  0.001841608    1.821    0.451
        79 -11.8710     44.6243    100.6067   1.0199047611e+02   5.1253237653e+01    0.6949646    0.4254668 -85.25  0.003118458    2.294    0.564
        80 -11.9504    127.7088    100.9825   7.5911576603e+01   3.7156765821e+01    0.5632115    0.3322527 -47.70  0.002313022    1.701    0.412
        81 -12.6302    109.4168     99.6926   8.0707427689e+01   4.1290948661e+01     1.080268    0.6512796  65.02  0.004006685    2.663    0.625
        82 -11.1356     63.0280     95.5921   9.4463802556e+01   5.0176128511e+01    0.4852905    0.2470142 -72.03  0.001696858    3.354    0.702
        83 -10.8069    170.3257     94.9113   6.3935637321e+01   2.8526308420e+01    0.2768831    0.2267123  53.57 0.0003423376    1.247    0.198
        84 -12.1316    169.8203     90.5590   6.2840881200e+01   2.9473354373e+01    0.3965002    0.3546558 -67.92 0.0006640718    1.170    0.145
        85 -10.7364     20.8846     99.7779   1.0994903769e+02   5.3630860592e+01    0.5820363    0.2764788  81.52  0.001963023    4.758    0.790
        86 -10.6520     34.4260     87.4821   1.0265937600e+02   5.5393869043e+01    0.7731642    0.2000866 -58.38  0.002747661    3.034    0.670
        87 -10.2427      4.4862     90.5125   1.1402080096e+02   5.6865301445e+01     0.226775    0.1046181 -81.61  0.001039676    2.343    0.573
        88 -11.4401     87.5604     87.2148   8.3856751669e+01   4.8199549961e+01    0.5105311    0.3084788  54.72  0.002152357    2.171    0.539
        89 -10.4855     49.2002     85.7995   9.6828433389e+01   5.4213723963e+01    0.3872407    0.2465598  79.17  0.001582038    3.164    0.684
        90 -10.6367     45.2480     81.6416   9.7197738380e+01   5.5614967140e+01     0.244056    0.2325351 -59.00 0.0006839277    1.164    0.141
        91 -10.9659    104.4718     83.2076   7.7294424690e+01   4.5831199310e+01    0.4307173    0.3152139 -69.25  0.001933246    1.879    0.468
        92 -10.8238    174.0186    110.6486   6.7367092328e+01   2.4572341954e+01    0.3853038    0.2612236 -48.90 0.0009913145    1.489    0.328
        93  -9.2715      1.7327     77.6431   1.1282399241e+02   5.9957425448e+01    0.1317583   0.06510623 -46.64 0.0006990787    1.635    0.388
        94 -10.9695     62.3610     70.8151   8.7607612182e+01   5.5775906474e+01    0.2892249    0.1575561 -45.24 0.0009110521    1.667    0.400
        95 -11.1595     82.0373     72.8922   8.1237201856e+01   5.2194139630e+01    0.4413573    0.3031853 -71.79  0.001905052    2.420    0.587
        96 -10.8324     24.3124     80.2319   1.0477844065e+02   5.7943180040e+01    0.4304154     0.223749 -76.82  0.001921509    2.502    0.600
        97 -10.6939     51.5087     70.4442   9.1618466595e+01   5.7324958757e+01    0.4294987    0.2243696 -65.73  0.001710187    2.927    0.658
        98 -11.3453     29.3445     52.3698   9.5063553673e+01   6.3495732682e+01    0.5055526    0.3136692  -5.45  0.002755943    1.836    0.455
        99 -11.5194     21.0676     51.2475   9.8399980315e+01   6.4447610786e+01    0.5748419    0.3096669 -59.16  0.003029349    1.843    0.457
       100 -11.9895     42.2022     63.2987   9.3103078935e+01   5.9938170794e+01    0.6470867    0.5223593 -58.69  0.002118211    1.363    0.266
       101 -11.9466     33.8840     58.2046   9.4966709461e+01   6.1874906743e+01    0.4782209    0.3325858   1.05  0.002721691    1.561    0.360
       102 -10.2137    197.2005     67.2253   5.1466593512e+01   2.6914826635e+01     0.335994    0.1882692  58.05  0.000832623    1.801    0.445
       103 -11.9262    239.4296     64.7792   4.5129904410e+01   1.7724617084e+01    0.4426856    0.2748395 -89.28  0.002191135    2.008    0.502
       104 -11.4981    231.1372     59.9895   4.5004590111e+01   2.0218077378e+01    0.4591616    0.2401695 -58.34  0.001302573    2.055    0.513
       105  -9.9430     72.6767     59.3270   7.9919189665e+01   5.6447223996e+01    0.1316174    0.1142771 -86.90 0.0007048792    1.691    0.409
       106 -11.2454      8.7774     55.3171   1.0506274121e+02   6.4467100122e+01    0.4447488    0.3128017 -64.37  0.002809769    1.388    0.280
       107 -10.2459     54.1335     54.3624   8.5248996100e+01   6.0216795656e+01    0.4073501    0.1702197 -56.40   0.00142587    3.834    0.739
       108 -10.9574    149.2617     53.2400   5.6113766489e+01   4.0913979832e+01     0.271778    0.2517208 -49.10 0.0006925238    1.116    0.104
       109 -12.5197     28.1661     60.5692   9.8117345042e+01   6.1929608095e+01    0.7307736    0.3802715  37.70  0.001068863    2.395    0.583
       110 -10.1587    161.7026     53.4224   5.3705584006e+01   3.7792819193e+01    0.2816727    0.1428813  65.32  0.000941834    2.072    0.517
       111 -10.2278     92.0044     50.1510   6.9934448992e+01   5.4497749235e+01    0.3883512    0.1247077 -43.01  0.001292631    3.450    0.710
       112 -10.3226    153.9883     48.2515   5.3606327765e+01   4.0476068373e+01    0.2301458    0.2102382 -33.26  0.000407148    1.151    0.131
       113 -11.4115     74.2932     43.5715   7.3423516159e+01   5.8917835746e+01    0.3646706     0.305464  60.48  0.002075621    1.608    0.378
       114 -10.3040     10.6520     43.7329   1.0088682651e+02   6.6704968949e+01    0.3386736    0.1686221  -1.37  0.001322023    2.424    0.587
       115 -10.4421      4.6832     41.3297   1.0302027151e+02   6.7540738714e+01    0.3521617    0.2742082 -86.64  0.002294406    1.885    0.469
       116 -11.0829     36.8896     38.9758   8.6856281477e+01   6.5221426522e+01    0.3632055    0.2829705 -64.70  0.002133886    1.959    0.489
       117  -9.8115     48.0149     35.2353   8.0402144175e+01   6.4436657784e+01    0.2011243    0.1447434  -7.68 0.0006532471    1.318    0.241
       118 -10.3563     73.3882     32.3194   6.9165914490e+01   6.0781462158e+01    0.3054585    0.2335972  76.07  0.001565221    2.328    0.570
       119 -10.3922    109.2375     31.8447   5.8032135902e+01   5.3445666039e+01    0.2341448    0.1837291  64.19 0.0005780992    1.369    0.269
       120 -10.2084    104.7974     30.3568   5.8633678522e+01   5.4629302266e+01    0.2426861     0.170787  44.88 0.0003465854    1.291    0.225
       121  -9.9314    101.3545     29.6833   5.9305552007e+01   5.5474258815e+01    0.2262358    0.1965434 -61.72 0.0008500669    1.469    0.319
       122 -10.8614    219.7046    248.7262   8.6547060342e+01  -8.2143880085e+00    0.2789137     0.198632  59.92   0.00150557    3.012    0.668
       123 -11.4557     22.0467    248.4951   1.2413642534e+02   1.9806448982e+01    0.2321491    0.1832977  24.70  0.001387918    1.850    0.459
       124 -11.2317    239.6535     20.5921   3.5310982135e+01   2.3600825650e+01    0.2748568    0.1892641  81.93  0.000633709    1.383    0.277
       125 -12.0235    204.1853     21.0532   3.8675483791e+01   3.1558109826e+01    0.4382293    0.1839105  73.35  0.001899021    2.292    0.564
       126 -10.0736      2.6815    249.6696   1.2744930216e+02   2.1566832173e+01   0.08874738   0.07487398 -66.34 0.0007047639    1.688    0.407
       127 -10.2534    222.7984     16.2151   3.5754566463e+01   2.7806733191e+01    0.2547138    0.2171843  56.27  0.001270603    1.407    0.289
       128  -9.8520     88.9408     18.0084   5.8084225455e+01   5.9493004528e+01    0.1954425    0.1632078 -72.24 0.0008067576    1.736    0.424
       129 -10.2185     39.6888     14.7001   7.4792705666e+01   6.8615983563e+01    0.3033262    0.1580827  -7.45  0.001197924    2.562    0.610
       130 -10.3358    198.2389    247.9575   9.0399423200e+01  -5.0533839034e+00    0.2417095    0.1396638  53.21  0.001184901    2.747    0.636
       131 -10.2088     10.2308    246.6263   1.2606203168e+02   2.1381218963e+01    0.1309586   0.09283382  35.44 0.0009484305    1.672    0.402
       132  -9.9625     32.8077    242.5528   1.2189897310e+02   1.9735300490e+01    0.1641771   0.07578646  50.06 0.0009438256    1.687    0.407
       133 -10.3798      8.2326    240.6358   1.2612617076e+02   2.2702549850e+01    0.1676911     0.130005  43.21  0.001062353    1.459    0.314
       134  -9.6739     19.3531    236.3101   1.2395648485e+02   2.2400870532e+01   0.09545494   0.08332379 -52.31 0.0007044125    1.723    0.420
       135 -10.0375    109.1234    232.8165   1.0609921566e+02   1.1318758462e+01    0.1981783    0.1468702  54.14 0.0008267716    1.195    0.163
       136 -10.7917     13.0290    228.1813   1.2465694448e+02   2.4643436319e+01    0.2708521    0.1278079  88.02  0.001079934    1.871    0.466
