#   1 NUMBER                 Running object number                                     
#   2 MAG_AUTO               Kron-like elliptical aperture magnitude                    [mag]
#   3 X_IMAGE                Object position along x                                    [pixel]
#   4 Y_IMAGE                Object position along y                                    [pixel]
#   5 X_WORLD                Barycenter position along world x axis                     [deg]
#   6 Y_WORLD                Barycenter position along world y axis                     [deg]
#   7 A_WORLD                Profile RMS along major axis (world units)                 [deg]
#   8 B_WORLD                Profile RMS along minor axis (world units)                 [deg]
#   9 THETA_WORLD            Position angle (CCW/world-x)                               [deg]
#  10 FWHM_WORLD             FWHM assuming a gaussian core                              [deg]
#  11 ELONGATION             A_IMAGE/B_IMAGE                                           
#  12 ELLIPTICITY            1 - B_IMAGE/A_IMAGE                                       
         1 -13.8802    197.2306     43.3278   3.9773719764e+01   3.1026012776e+01     1.217242    0.9481818  33.83  0.004968798    1.761    0.432
         2 -12.9411    203.0677     37.6886   3.7739591109e+01   3.0453043566e+01    0.6621827    0.5601847 -42.54  0.001794773    1.255    0.203
         3 -13.3329    226.1939     12.7772   3.0138003120e+01   2.8438901167e+01    0.8233913    0.6744365 -68.74  0.003974349    1.085    0.078
         4 -11.9005     32.8617     14.6996   7.1759229557e+01   6.9519498122e+01    0.3464947    0.1520695 -31.35  0.001774316    2.216    0.549
         5 -11.2808     40.1332      9.2627   6.5599602249e+01   6.9118604297e+01    0.2034006    0.1563005 -48.71  0.001257176    2.165    0.538
         6 -12.2515     59.4115      3.7468   5.5128242465e+01   6.6385215213e+01    0.4265423     0.335495  23.90  0.002886089    1.042    0.041
         7  99.0000     57.4438    211.0467   1.0959549251e+02   2.2370758474e+01    0.4983856    0.1963898  31.46  0.002085586    2.523    0.604
         8 -16.5676     70.0916    147.5457   9.7371305237e+01   3.6477342706e+01     21.02141     10.57441 -89.42   0.05813701    5.104    0.804
         9  -8.7119     54.9432    206.7731   1.0973461125e+02   2.3674107276e+01    0.3408181    0.1647286  67.06  0.001183122    2.654    0.623
        10 -18.2252      9.5597    237.9298   1.2179467963e+02   2.1791502732e+01     6.333511      2.35734 -74.91   0.02929026    2.438    0.590
        11 -18.0951      1.6023     96.2995   1.1125290703e+02   5.6008435753e+01     15.65384    0.2582543 -70.21   0.01888027   29.494    0.966
        12  -9.6992     38.4010    185.8278   1.1155017977e+02   3.0638486531e+01    0.2773978    0.1998705  80.88  0.001452989    1.316    0.240
        13  -9.1633     40.6273    183.3018   1.1071838752e+02   3.1017354915e+01    0.2710902    0.1440865  51.86  0.001273343    1.898    0.473
        14 -11.3694     45.1229    221.2630   1.1335667805e+02   2.1562972964e+01    0.4113803    0.2234372 -86.74  0.001075843    1.914    0.477
        15 -10.3231    145.3613    183.3973   8.3840842038e+01   1.4981883474e+01     0.273019    0.2632836  84.83 0.0006724676    1.161    0.138
        16 -10.2197    184.2614    181.0414   7.4481663593e+01   8.4811659854e+00     0.542831    0.2446944 -56.16  0.001832353    3.491    0.714
        17  -9.1333     40.6899    207.2406   1.1310276177e+02   2.5259664577e+01    0.1623856    0.1046727 -67.35 0.0005663019    1.497    0.332
        18  -8.7222     40.9570    178.0053   1.1004067323e+02   3.2298991603e+01    0.1573225    0.1328927 -84.17 0.0009213922    1.052    0.050
        19  -9.4289    164.3041    203.3352   8.3160846145e+01   7.4697804731e+00    0.1477089    0.1057883  -7.98 0.0003259172    1.665    0.400
        20  -9.9130    180.0739    174.4446   7.4037649820e+01   1.0564847141e+01    0.2795184    0.2122708 -48.08 0.0007332996    1.364    0.267
        21  -8.6669     40.3257    200.6607   1.1257090051e+02   2.6844026545e+01    0.1436711   0.08389948  65.37 0.0007051401    1.728    0.421
        22 -10.8270    193.5188    196.0138   7.5478516428e+01   4.0123497620e+00    0.4459879    0.2769897 -65.51  0.001781193    3.234    0.691
        23  -9.2476     47.0986    172.0321   1.0769768756e+02   3.3111290568e+01    0.2113021    0.1908061 -88.09  0.000793008    1.015    0.015
        24 -10.6872    246.0028    169.4861   6.0479949070e+01   4.7972649003e-01    0.1777738    0.1270293  34.02  0.001037667    1.605    0.377
        25 -10.2653    191.8381    166.6954   6.9908741840e+01   9.9888861168e+00    0.3548709    0.2983178 -35.93  0.001107174    1.123    0.110
        26 -10.2450    110.5388    167.5275   8.9651891745e+01   2.4939358132e+01    0.3191104    0.2666795  78.93 0.0008587631    1.380    0.275
        27 -10.1259     46.0174    166.0019   1.0721075457e+02   3.4770574739e+01    0.4743049    0.2457308 -38.39   0.00194794    2.608    0.617
        28 -10.2366    186.3684    165.5678   7.0816931232e+01   1.1220868000e+01     0.341878     0.215232 -35.87  0.001570483    1.530    0.346
        29  -9.3451     74.8394    250.0566   1.0960528636e+02   1.1799198659e+01    0.1704471    0.1454212  80.32 0.0007724315    1.177    0.150
        30  -9.5198     59.6794    197.0483   1.0751374261e+02   2.5379435025e+01    0.1775025    0.1503858 -84.60  0.000197816    1.109    0.098
        31 -10.9755     85.7680    155.7332   9.4291740799e+01   3.2027748197e+01    0.2954504     0.252423 -51.62 0.0004392939    1.144    0.126
        32 -11.0367    134.2454    147.2325   7.9064982557e+01   2.5419763154e+01    0.9208959    0.2616565 -53.48  0.002403312    4.287    0.767
        33 -10.1770    133.0000    140.9969   7.7954836989e+01   2.7135924632e+01    0.4930068    0.2049364 -53.57  0.001522423    2.627    0.619
        34 -11.7194     92.3559    149.4611   9.1167000702e+01   3.2561870267e+01    0.6871915    0.5054209 -14.65  0.003077021    1.821    0.451
        35  -9.4662    111.4957    149.6515   8.5753831905e+01   2.9173799082e+01    0.3531132    0.2211996  68.20  0.001307263    2.548    0.608
        36  -9.4922    174.7684    148.8714   6.9658956194e+01   1.6926246642e+01    0.2841782    0.2103608 -60.64 0.0007632516    1.585    0.369
        37 -10.7240    105.5507    135.7806   8.4361946273e+01   3.3690148182e+01    0.5692203    0.3546513 -19.80  0.002088958    2.595    0.615
        38 -10.0958    105.6501    130.5652   8.3112339628e+01   3.4953229114e+01    0.3821917    0.2937744 -58.00  0.001639832    1.321    0.243
        39 -11.5144     92.8236    135.6160   8.8095645425e+01   3.5984727638e+01    0.3014182    0.2649419 -30.62 0.0004676033    1.178    0.151
        40  -9.8880     75.6745    246.7074   1.0911717805e+02   1.2344875160e+01    0.2604584    0.1092863 -59.79  0.001226743    2.585    0.613
        41 -10.1999    135.7363    128.8413   7.4306015798e+01   2.9405871103e+01    0.3831194     0.136708 -48.88  0.001195276    2.825    0.646
        42 -10.2893    113.3429    128.0727   8.0274244492e+01   3.4098223799e+01    0.3260936    0.3016404   8.11 0.0008036621    1.136    0.120
        43  -9.3172     41.2736    250.0913   1.1638828789e+02   1.5965140200e+01    0.1565086    0.1120323 -88.92  0.001023546    1.344    0.256
        44 -10.2514    100.4356    123.7501   8.3021878907e+01   3.7577444955e+01    0.2937551    0.2422322  -1.95 0.0005642833    1.420    0.296
        45  -9.8667    135.0000    120.4433   7.2379075308e+01   3.1471001806e+01    0.3526455   0.08896113 -45.82 0.0009288452    3.887    0.743
        46  -9.4030    109.0767    117.6327   7.8895890332e+01   3.7411194258e+01     0.244627    0.2131529 -61.39 0.0003877371    1.205    0.170
        47  -9.5878    135.0000    111.9670   7.0161113231e+01   3.3355168169e+01    0.2705932   0.08864783 -44.62  0.000811145    3.003    0.667
        48  -9.6090    205.4279    110.2097   5.4570727131e+01   1.8376441321e+01    0.2383354    0.2051442  54.49 0.0006597755    1.273    0.215
        49 -10.2995    115.3292    109.3400   7.4873561079e+01   3.8080956734e+01    0.2567429    0.2052505  18.46 0.0009758469    1.416    0.294
        50 -10.1758     50.3375    214.7207   1.1159639644e+02   2.2409334697e+01    0.3747474    0.1737975 -78.16  0.001694315    2.277    0.561
        51 -10.4517    119.3332    104.0902   7.2288037554e+01   3.8422490131e+01    0.2594132    0.1973673 -25.69  0.001035292    1.459    0.314
        52 -10.0525     75.4094    209.8189   1.0522207385e+02   2.0269740583e+01    0.5263154    0.2340798 -83.09  0.001804573    3.864    0.741
        53  -9.8383    207.1819    192.7844   7.2090908468e+01   2.3975903265e+00    0.2111186    0.1603582 -89.60 0.0009590456    2.877    0.652
        54 -11.8639    129.8921    188.0897   8.8502979591e+01   1.6676845853e+01     0.504231     0.299607 -77.09  0.001849131    3.024    0.669
        55  -9.9782     76.9935    233.6814   1.0753706642e+02   1.4814665633e+01    0.2503121    0.1741862 -57.68 0.0005600095    1.598    0.374
        56 -12.5772    181.8218     56.1282   4.5120681546e+01   3.2779124777e+01    0.5107794    0.4784802   0.13 0.0008619763    1.308    0.236
        57  -8.5734     59.3315    191.6730   1.0695919827e+02   2.6725051793e+01    0.1494624   0.09419043  65.86 0.0007051311    1.711    0.416
        58 -10.2094     62.0661    244.8974   1.1178946213e+02   1.4477992771e+01    0.2019784    0.1423965 -78.37 0.0008804138    1.479    0.324
        59  -9.8588     63.2783     52.0507   7.4253875115e+01   5.9372894924e+01    0.2437131    0.1839684  37.75  0.000585598    1.381    0.276
        60  -9.6574     32.7072    190.5256   1.1342390209e+02   3.0099225627e+01    0.2197125    0.1710124 -46.42 0.0007320833    1.518    0.341
        61 -10.2494     60.2219     21.0095   6.2761349588e+01   6.4448725005e+01    0.2188252    0.1597913  31.84 0.0005741917    1.185    0.156
        62  -9.6341     71.6311    242.9980   1.0961649377e+02   1.3621425396e+01    0.2556026    0.1438674 -86.02  0.001221723    2.161    0.537
        63 -10.0111     48.1486    241.8818   1.1440863485e+02   1.6807046969e+01    0.1598267    0.1341317  65.81   0.00033115    1.045    0.043
        64  -8.9297     56.0457    241.4109   1.1274184755e+02   1.5941063033e+01    0.1495791    0.1211561  57.80 0.0009767257    1.028    0.027
