#   1 NUMBER                 Running object number                                     
#   2 MAG_AUTO               Kron-like elliptical aperture magnitude                    [mag]
#   3 X_IMAGE                Object position along x                                    [pixel]
#   4 Y_IMAGE                Object position along y                                    [pixel]
#   5 X_WORLD                Barycenter position along world x axis                     [deg]
#   6 Y_WORLD                Barycenter position along world y axis                     [deg]
#   7 A_WORLD                Profile RMS along major axis (world units)                 [deg]
#   8 B_WORLD                Profile RMS along minor axis (world units)                 [deg]
#   9 THETA_WORLD            Position angle (CCW/world-x)                               [deg]
#  10 FWHM_WORLD             FWHM assuming a gaussian core                              [deg]
#  11 ELONGATION             A_IMAGE/B_IMAGE                                           
#  12 ELLIPTICITY            1 - B_IMAGE/A_IMAGE                                       
         1 -14.7902    106.3612    105.3927   5.9206620235e+01   4.0379960720e+01     1.337277     1.210728  70.16  0.005707813    1.244    0.196
         2 -14.0234     57.3808     63.6836   6.3329460002e+01   5.7259130030e+01     1.779524    0.9365356 -20.17  0.007243522    2.844    0.648
         3 -14.9236      6.2725     71.0842   8.4568790071e+01   6.0213145381e+01      1.04834    0.5934016 -52.68  0.005582854    1.324    0.244
         4 -15.6559    218.1705     16.6001   1.0931704683e+01   2.8201720915e+01     2.105256     1.746023 -22.84   0.01284393    1.445    0.308
         5 -14.7523    212.5771     40.8215   1.7547651465e+01   2.6573501591e+01     2.423508    0.7514238  70.87   0.00755804    4.037    0.752
         6 -14.5214    188.4420     24.4249   1.6420333772e+01   3.4642276451e+01     1.617762     0.803072 -56.67  0.006706671    2.444    0.591
         7 -14.1107    188.0126     10.9296   1.2814290770e+01   3.6214832551e+01     1.024736    0.6326525 -52.64   0.00524853    1.697    0.411
         8 -14.1844    122.2126     36.8186   3.2787330869e+01   4.9692989318e+01     1.079019    0.5620856  31.36   0.00322928    2.328    0.570
         9 -13.8377    241.5807     35.1141   1.2863526861e+01   2.0528904251e+01    0.8826789    0.5289628 -85.44  0.003394301    1.842    0.457
        10 -12.9209      7.7979      2.5631   6.2231768210e+01   7.2881526069e+01    0.5090757    0.3282049  28.19  0.003525649    1.915    0.478
        11 -15.8978     11.2502     23.4088   6.9322309749e+01   6.9324115652e+01     1.755651    0.8122912 -32.32  0.007741338    1.778    0.438
        12 -14.6037     27.1934     11.5074   5.6260759032e+01   6.9799050365e+01    0.8459902    0.4968063  -9.30  0.005063637    1.640    0.390
        13 -14.8034    166.6739     28.5208   2.0870048426e+01   3.9713766832e+01     1.147328    0.9150695  57.50  0.004473197    1.149    0.130
        14 -13.6473    140.8308     21.5379   2.3311071090e+01   4.7038734978e+01      1.13492    0.3241143  61.48  0.003332257    3.130    0.680
        15 -14.7927    147.6657     29.6290   2.4651256586e+01   4.4408492929e+01     1.417284    0.7547342  61.39  0.004643459    1.736    0.424
        16 -15.4814     97.7505     11.9244   2.9678032012e+01   5.8080466112e+01     1.786257    0.8455805  46.92  0.005956464    1.785    0.440
        17 -11.8520     70.9713     16.3151   3.9919236403e+01   6.2886731092e+01    0.2795236    0.1935489 -16.83 0.0008466929    1.380    0.275
        18 -12.5066     60.1658     15.2081   4.3435719550e+01   6.4855932441e+01    0.5355589    0.2856749  20.50  0.002416206    2.058    0.514
        19 -13.2412    120.3491     25.9173   2.9306588523e+01   5.1496881681e+01    0.8419448    0.5118172  30.39   0.00397564    1.756    0.431
        20 -11.9423     46.6802     12.7534   4.7818987733e+01   6.7207870722e+01    0.2546418    0.2061401  20.93  0.001598114    1.257    0.205
        21 -12.5489    123.2518     10.8556   2.3153464262e+01   5.2391050929e+01    0.2760701    0.2478772 -70.22 0.0004367608    1.348    0.258
        22 -13.9607     41.9220      4.3541   4.5803821445e+01   6.8905728702e+01    0.6562894    0.4494574   3.13  0.003580306    1.227    0.185
        23 -12.3651     75.3776      8.5481   3.4927451168e+01   6.2936285983e+01    0.3485675     0.219067 -13.65  0.001614992    1.590    0.371
        24 -12.2419    152.7392      8.4972   1.6964341850e+01   4.5357967430e+01     0.297689    0.2091481  35.96  0.001591737    1.504    0.335
        25 -11.0837     80.3000      7.3089   3.2792576771e+01   6.2114710817e+01    0.2088619    0.1462172 -10.78   0.00105936    1.420    0.296
        26 -12.4194    118.7389      2.4505   2.1011723655e+01   5.4186471922e+01    0.4211053    0.2490089  82.87  0.001958951    2.284    0.562
        27 -12.0202     78.2593      2.0871   3.1087748353e+01   6.2998985962e+01    0.7826879   0.09049797  48.19  0.002427666    4.708    0.788
        28 -11.2719     67.5111      2.8645   3.4964105391e+01   6.4948612085e+01    0.2610081    0.1560536  23.19  0.001460494    1.535    0.349
        29 -11.3569     61.2856      1.4609   3.6508908931e+01   6.6182801702e+01    0.3164893    0.1052673  47.77  0.001372116    2.780    0.640
        30 -10.9029     54.8357     11.6159   4.3875814084e+01   6.6139496367e+01    0.2487976   0.09294873  34.24  0.001093703    2.611    0.617
        31 -12.5855     51.6156    248.0325   9.3453757432e+01   1.7351174550e+01    0.3590545    0.3059976  87.04  0.002817146    1.296    0.229
        32 -12.2912      2.8379    249.6332   1.0150872629e+02   2.2449163236e+01    0.3300419    0.2131691  64.45  0.001772287    1.093    0.085
        33 -13.8779      9.9537    245.8522   1.0023864835e+02   2.2410561830e+01    0.7749319    0.3148806  57.44   0.00383066    1.818    0.450
        34 -11.1568      2.2588    159.1460   9.6578506913e+01   4.0580364332e+01    0.1883685    0.1125906 -67.59  0.001181411    1.424    0.298
        35 -11.6208    112.3130    156.7309   6.9213073751e+01   2.7355903220e+01    0.2728048    0.2303191  79.97  0.001424383    1.273    0.215
        36 -12.1628     77.0505    156.7523   7.8241440869e+01   3.3126437730e+01    0.3913331    0.2905577  27.45  0.001157056    1.573    0.364
        37 -13.4446     73.4925    153.2053   7.8587571287e+01   3.4479858569e+01    0.6477262    0.4762702  28.17  0.002567678    1.576    0.366
        38 -12.7370    211.3350    154.3271   4.5897893415e+01   7.6828991558e+00    0.4143913    0.3097321  23.90  0.002080868    1.392    0.281
        39 -11.7512     86.2248    152.1134   7.5091096745e+01   3.2845410865e+01     0.434376    0.2163206 -43.29  0.001753718    2.390    0.582
        40 -11.7439    103.3521    149.8407   7.0191516278e+01   3.0554330669e+01    0.3655421    0.2564134 -36.18  0.001590106    1.691    0.409
        41 -12.3105      8.0151    149.8207   9.4498389142e+01   4.2249927548e+01     0.304296    0.2666962  69.20  0.002250908    1.221    0.181
        42 -12.8348     61.0237    147.0389   8.0870270196e+01   3.7632064858e+01     0.371273    0.2942986 -14.16  0.002044145    1.759    0.432
        43 -12.1573     42.2975    138.5248   8.4574412557e+01   4.1846748119e+01    0.4012745    0.2048877  54.67  0.001873191    2.304    0.566
        44 -14.1406    231.0813    128.4021   3.6284757409e+01   8.2387849488e+00     1.135588     1.115566 -62.17  0.006758254    1.158    0.137
        45 -12.2731    136.1163    132.1428   5.7774018020e+01   2.8325116913e+01    0.5402057    0.2903748  44.13   0.00213652    1.849    0.459
        46 -12.2388     44.3957    132.7788   8.3153799987e+01   4.2997555365e+01    0.1958613    0.1021599 -57.06 0.0009497829    1.660    0.398
        47 -11.8928    133.9083    125.7438   5.6794232406e+01   3.0224219306e+01    0.4567247    0.2655619 -31.06  0.001748453    2.165    0.538
        48 -14.4358    105.1440    120.8773   6.3456161238e+01   3.7052727396e+01     1.537376     1.227699  31.59  0.007699319    1.330    0.248
        49 -12.6365    109.3056    249.2995   8.3114643773e+01   9.1076733121e+00    0.4229298    0.2197175  51.06  0.002337295    1.593    0.372
        50 -11.8098     87.8367    109.1432   6.5693409704e+01   4.2812862251e+01    0.4347635    0.2499649 -61.72  0.001842848    1.917    0.478
        51 -12.8166     84.4249    115.0131   6.8115183970e+01   4.1988430201e+01    0.6853051    0.3383622  31.66  0.002786936    2.286    0.563
        52 -12.2121     78.3910    109.9726   6.8769958030e+01   4.4111048824e+01      0.40737    0.2976644 -85.09  0.001955991    1.791    0.442
        53 -12.6750     42.2980     90.3950   7.5928861509e+01   5.3208228531e+01    0.3071046    0.2244331 -52.71 0.0003609045    1.154    0.134
        54 -12.1693     36.6960     92.8492   7.8348296948e+01   5.3187841917e+01    0.3426583    0.2359267   7.29  0.001393901    1.798    0.444
        55 -12.1205     19.0996     86.1443   8.2950138908e+01   5.6125970444e+01    0.2582676    0.2134358 -22.27 0.0007238851    1.323    0.244
        56 -13.5610      2.3601     97.0272   9.0146645450e+01   5.4658898399e+01    0.8350475    0.3057804 -77.02  0.003672406    2.577    0.612
        57 -14.4662     24.8256     92.9285   8.2311165472e+01   5.4171962984e+01     1.180646    0.9483654 -27.55  0.006987128    1.333    0.250
        58 -12.4080    121.9750    112.0520   5.6521624060e+01   3.5784940592e+01    0.2430754    0.2309632  -5.07 0.0006435165    1.081    0.075
        59 -11.5621     63.7471    111.1225   7.3531554212e+01   4.5901531911e+01    0.3859204    0.2064537  48.15  0.001705509    2.247    0.555
        60 -12.0867    177.8122    110.1139   4.2152334853e+01   2.3559879967e+01    0.3962966    0.3459802  30.69  0.001975294    1.183    0.155
        61 -14.0942     11.4312    102.1240   8.8099226826e+01   5.2987364763e+01    0.8354914    0.5080553 -65.95   0.00416883    1.282    0.220
        62 -11.0457     46.1940    109.9830   7.8721951124e+01   4.8247277573e+01     0.232402    0.1212694 -42.60  0.001077469    1.943    0.485
        63 -12.4231    136.2031    102.8049   5.0177238496e+01   3.4742273230e+01    0.5761226    0.2728582  49.23  0.002035795    2.184    0.542
        64 -11.6027      8.4907    114.4882   9.0637568645e+01   5.0326343379e+01    0.1892697    0.1529998 -22.44  0.001063775    1.539    0.350
        65 -12.8386    120.8744    101.8935   5.4093323010e+01   3.8253911208e+01    0.4086761    0.2588122 -33.66  0.001605213    1.704    0.413
        66 -12.0321     61.6116     97.7299   7.1189605789e+01   4.9313482139e+01    0.4800917    0.3272642  85.47  0.001926504    2.304    0.566
        67 -12.4121     48.9996     93.2196   7.4308478195e+01   5.1856417834e+01    0.3924732    0.3072444  72.28  0.002200464    1.669    0.401
        68 -11.6250     46.5035     98.4985   7.6301301716e+01   5.0908734559e+01    0.2311186    0.2068758  15.09  0.001448636    1.279    0.218
        69 -12.3560     52.8492     97.5171   7.4008460232e+01   5.0432038644e+01    0.5780169    0.3256413 -14.14  0.002350819    3.102    0.678
        70 -12.8051    249.4782     97.4821   2.6201696259e+01   9.6311629715e+00    0.5632278    0.1441508 -36.63  0.001835045    3.357    0.702
        71 -11.6103    163.3708     97.2263   4.1903139231e+01   2.9545165653e+01    0.2976707     0.270186  62.75 0.0008197851    1.146    0.127
        72 -13.3226    137.0176     94.7349   4.7681247053e+01   3.6240541246e+01    0.5525177    0.4772673  72.46  0.002106707    1.336    0.251
        73 -11.9068      6.3500    118.8848   9.1762452433e+01   4.9447084744e+01    0.3380743    0.2261749 -39.17  0.002119374    1.675    0.403
        74 -11.2964     35.2008     86.3183   7.7454480830e+01   5.4810464502e+01    0.2302014    0.1437779 -49.22 0.0006823417    1.325    0.245
        75 -12.9430    188.5840     83.8252   3.2857532783e+01   2.5860844164e+01    0.7353216    0.3779566  42.21   0.00251188    2.166    0.538
        76 -13.5434    187.3490     79.1893   3.1823123504e+01   2.6972645207e+01    0.4521475    0.3333521  31.82  0.001971799    1.584    0.369
        77 -12.1010    158.4303     64.2010   3.3358706480e+01   3.6756746146e+01    0.7792925    0.3063294 -46.18  0.002582834    2.974    0.664
        78 -14.0640    163.9048     71.4334   3.4350660986e+01   3.4169854380e+01     1.582266    0.6147975  46.51  0.005377484    2.578    0.612
        79 -13.2973    160.8360     80.5508   3.7714959757e+01   3.3319378254e+01    0.9075448     0.574582  15.86  0.003206879    2.652    0.623
        80 -14.4844    169.2765     76.9332   3.4816582321e+01   3.1872337685e+01     1.340088    0.6385351  47.03  0.003958043    2.086    0.521
        81 -11.2054      1.5335    119.4845   9.3136089703e+01   4.9595686607e+01    0.2115864    0.1191815 -63.34 0.0008140114    1.386    0.279
        82 -13.2509    239.3144     81.3472   2.3877248813e+01   1.4354664596e+01    0.7287192    0.4229933 -86.48  0.002853473    3.085    0.676
        83 -13.4121     28.5979    245.9294   9.7221926204e+01   2.0430218186e+01     0.415274    0.2448096  71.50  0.002752211    1.324    0.245
        84 -13.8526     92.0663     57.4328   4.8969162688e+01   5.2900458261e+01    0.5550576    0.4866953 -18.26  0.002087988    1.075    0.070
        85 -12.8146     54.9021     81.0554   6.9273104096e+01   5.3908364851e+01     0.580494    0.4450724 -47.46   0.00333003    1.146    0.127
        86 -13.9977     61.2815     75.4957   6.5470458072e+01   5.4302659528e+01    0.7917975    0.4919305 -35.03  0.001367725    1.539    0.350
        87 -13.2028     71.1082     75.1091   6.1896575852e+01   5.3003353069e+01    0.5774252    0.3853551 -10.41  0.001710145    1.926    0.481
        88 -12.4311     77.2190     73.0904   5.9167635745e+01   5.2481374980e+01    0.7176147    0.3173437 -31.95  0.002604419    2.894    0.655
        89 -13.6785     87.4168     65.3426   5.3212381496e+01   5.2295419466e+01     0.915105    0.5719364   1.78  0.003287063    2.466    0.595
        90 -13.7908    199.3593     69.6096   2.7057400126e+01   2.5589781992e+01     0.935019    0.5786343  50.72  0.003508936    1.635    0.388
        91 -12.4869    199.8753     61.6380   2.4834000334e+01   2.6716314483e+01    0.4675219    0.4090904  41.27   0.00200508    1.239    0.193
        92 -12.8733    212.6820     77.7788   2.6997600225e+01   2.1025446908e+01     1.103871    0.6690111  89.04  0.004332629    2.627    0.619
        93 -12.8886    216.4700     72.7127   2.5107794562e+01   2.0942203614e+01     0.716263    0.4593607 -71.82   0.00312608    2.077    0.518
        94 -12.0823    114.1048     79.9468   4.9595864103e+01   4.4254253610e+01    0.4418387    0.3340055 -42.72  0.001839736    1.328    0.247
        95 -12.7167    135.2041     79.2072   4.3536655023e+01   3.9727211711e+01    0.7813808    0.3763666  51.54  0.002932299    2.122    0.529
        96 -13.5226    170.7925    243.1688   7.0545410173e+01   2.1592974485e-01    0.4519074    0.3552582  25.17  0.002915639    1.150    0.131
        97 -14.1586      4.1427     63.1631   8.3765746893e+01   6.2011166989e+01     0.649828    0.4971215 -36.86  0.001909796    1.185    0.156
        98 -13.3701     66.2098     49.0880   5.5037227249e+01   5.8786422874e+01    0.7766092    0.5627016 -34.14  0.004380386    1.270    0.213
        99 -12.7289     28.4023    122.0922   8.6030884015e+01   4.7079013850e+01    0.3223853    0.2068266 -63.34  0.001847838    1.279    0.218
       100 -14.0095     18.4643    110.6876   8.7243685902e+01   5.0538033975e+01    0.8660337    0.5545985 -56.62  0.004118335    1.295    0.228
       101 -12.1469    241.9109     70.7831   2.1043454758e+01   1.5424185846e+01    0.3762073    0.2430291 -76.97   0.00178667    1.998    0.500
       102 -13.2788    133.7489     65.7184   3.9668462484e+01   4.2521419959e+01    0.9362372    0.7038338   7.37  0.003621878    1.637    0.389
       103 -11.0861    117.9973     72.0410   4.5974548330e+01   4.4951320392e+01    0.2366045    0.2191232   0.22 0.0006544705    1.050    0.047
       104 -12.1303     38.9739     67.9502   7.1555388296e+01   5.8476852401e+01    0.4380806    0.1745958  30.21   0.00196681    2.770    0.639
       105 -11.7860     99.6897     64.6345   4.9005935383e+01   5.0126215178e+01     0.347806    0.2578552 -63.53  0.001644952    1.899    0.473
       106 -13.0799     79.0614     60.2100   5.4322696665e+01   5.4710081273e+01    0.5780451    0.4407949 -30.58  0.002831741    1.219    0.180
       107 -13.8626    177.8025     56.3704   2.7160478978e+01   3.3088125347e+01      1.03784    0.6274107 -45.10  0.003787571    1.720    0.419
       108 -12.0965     39.0941     60.1046   6.9264898075e+01   6.0090622123e+01    0.4433334    0.2651125  62.27  0.001777299    4.295    0.767
       109 -12.3334     37.2297     53.2688   6.7913962497e+01   6.1642920629e+01      0.43395    0.1788738 -38.31  0.001968981    2.177    0.541
       110 -11.1177     34.4712     61.0191   7.1355908836e+01   6.0350998497e+01    0.2636001    0.1448251 -36.17  0.000868185    1.625    0.385
       111 -11.7870     24.8709     59.0996   7.4639117467e+01   6.1566154591e+01    0.3945082    0.1795044 -52.33  0.002010883    1.734    0.423
       112 -11.3510    111.2379     58.6137   4.3459951089e+01   4.8823453054e+01    0.2476195    0.2146079  25.61 0.0002908296    1.103    0.093
       113 -14.6510    120.1553     54.3948   3.9495615612e+01   4.7562050618e+01      1.03586    0.7003828  42.65   0.00495205    1.411    0.291
       114 -12.7171    247.8851     54.2225   1.6509486273e+01   1.6549281305e+01    0.6293707    0.3373149 -46.79  0.003086046    1.664    0.399
       115 -12.1687    249.2017     48.5876   1.5097865449e+01   1.7049791606e+01    0.3421026    0.2711571 -57.84  0.001632668    1.110    0.099
       116 -11.5563     17.5899     55.5983   7.6644782825e+01   6.2814579854e+01    0.3001956    0.1617465 -54.51  0.001696888    1.491    0.330
       117 -11.7441    230.6491     54.9444   1.8727901894e+01   2.0309972918e+01    0.4068779    0.2058095  73.84  0.001743046    2.294    0.564
       118 -13.7676    103.2035     50.3207   4.2931938202e+01   5.1900536999e+01    0.9811645    0.5445496 -46.31  0.002185452    2.129    0.530
       119 -13.7621     98.0061     50.0039   4.4416686621e+01   5.3012007985e+01     0.713497    0.4449101 -41.55  0.002376676    1.705    0.414
       120 -12.3785    135.5964     49.9051   3.4013489667e+01   4.4649040346e+01    0.5141894    0.2779337  35.98  0.001998908    2.076    0.518
       121 -10.4924     23.6745     49.7254   7.2455207071e+01   6.3549502934e+01    0.1258288   0.07379619 -28.15 0.0003176061    1.583    0.368
       122 -11.9100    152.0073     47.0000   2.9372176540e+01   4.1026092105e+01    0.2967488    0.2022683  56.36 0.0009508683    1.378    0.274
       123 -13.2411    158.3956     43.3135   2.6913635306e+01   3.9930453640e+01    0.7120993    0.5813547  12.95  0.002852991    1.425    0.298
       124 -11.1897     38.9589     46.0531   6.4815514343e+01   6.2847048091e+01    0.1922509    0.1559738 -27.11 0.0004763948    1.026    0.025
       125 -14.2200     97.3381    239.2247   8.4339449795e+01   1.2656297002e+01    0.7108881    0.5507279  66.03  0.004738543    1.143    0.125
       126 -12.5782     23.7007    216.4077   9.6302620003e+01   2.6523379058e+01    0.7134406    0.2667845  58.31  0.003643195    2.371    0.578
       127 -13.8516     26.2659    226.3960   9.6472185367e+01   2.4303286925e+01    0.6572693    0.3360049 -58.44  0.003877814    2.398    0.583
       128 -13.8491     20.6445    224.0044   9.7320190514e+01   2.5356646556e+01    0.5909499     0.415484  52.27  0.004329165    1.296    0.228
       129 -11.9293     11.6998     43.4739   7.5771743848e+01   6.5611450518e+01    0.3934176    0.2075534 -10.17  0.001956942    2.186    0.543
       130 -12.6925      3.5978     42.8101   7.9152038975e+01   6.6188817824e+01    0.4354123    0.3246661 -13.86   0.00312046    1.359    0.264
       131 -10.9798     25.4028     44.2341   7.0002480340e+01   6.4473333158e+01    0.1662065    0.1043951 -57.20 0.0009525206    1.660    0.398
       132 -12.1806    135.1783     39.0890   3.0463539662e+01   4.6296652061e+01     0.511593    0.3159705  67.66  0.001611206    1.836    0.455
       133 -12.6655    109.9660     41.9055   3.7896622739e+01   5.1753350652e+01    0.4421623    0.2066572  48.44 0.0007324737    2.007    0.502
       134 -13.2445    113.6429     37.8842   3.5408511117e+01   5.1509221934e+01    0.3956687     0.335256  33.26  0.001288592    1.075    0.070
       135 -14.4178     66.2474    223.1300   8.8779184921e+01   2.0112262663e+01     1.012135     0.694207  53.24  0.006439639    1.220    0.180
       136 -13.2133    131.6543     33.2453   2.9262520668e+01   4.7915368230e+01    0.6118132     0.426113  -4.35  0.002050762    1.718    0.418
       137 -12.1462     40.4531     40.2933   6.2134039485e+01   6.3735486587e+01    0.4187081    0.2497627  20.75  0.002347586    1.764    0.433
       138 -12.7232     32.9948     40.3426   6.5371724385e+01   6.4508649042e+01    0.3151233    0.2318361  -8.17 0.0006405796    1.277    0.217
       139 -11.7443    181.9171     38.1645   2.1220791246e+01   3.4609704431e+01    0.3056943    0.2189181 -22.30  0.001524521    1.593    0.372
       140 -12.6653     75.8450     36.9461   4.6861776867e+01   5.9226284701e+01    0.4591924    0.3002694  34.35  0.001252479    1.474    0.321
       141 -11.7197     70.9490     36.2215   4.8346881809e+01   6.0169500804e+01    0.2474966    0.2293714  43.63  0.000938844    1.403    0.287
       142 -13.2364     59.3989    212.7663   8.9172459571e+01   2.3088095376e+01    0.3910059    0.2773667 -50.40  0.001474251    1.852    0.460
       143 -12.4407    245.5075     29.4962   1.1229112721e+01   2.0370579839e+01     0.372282    0.2255768 -39.41   0.00203188    1.525    0.344
       144 -12.1365    104.4903     36.4895   3.7448776428e+01   5.3710391916e+01    0.2833585    0.1357371 -30.48  0.001206766    2.151    0.535
       145 -12.9276     94.2114    218.2814   8.2673799422e+01   1.7053734522e+01    0.2865203    0.1933328  53.92  0.001478987    1.275    0.216
       146 -14.0822     64.5916    214.1622   8.8263796211e+01   2.2121765901e+01    0.5611787    0.3482443  54.54   0.00276844    1.379    0.275
       147 -10.9454    136.5997    210.8137   7.2750640514e+01   1.1510719887e+01    0.1770481    0.1303353 -71.95 0.0009471032    1.690    0.408
       148 -13.0263     45.3181     33.2815   5.7366568702e+01   6.4365931563e+01    0.6270847    0.4650467  20.72  0.003944464    1.355    0.262
       149 -12.8557     72.2486    206.7098   8.5936282828e+01   2.2610400270e+01    0.3205923    0.2328587  67.05  0.001948024    1.220    0.180
       150 -12.5820     41.5261    206.1400   9.2150357495e+01   2.6646752741e+01    0.2514548    0.1472237  66.39  0.001476779    1.523    0.343
       151 -12.5565     63.0264     25.4246   4.6859649034e+01   6.3049194938e+01    0.5001569    0.2896698  16.02  0.002146685    1.953    0.488
       152 -12.7054     57.5625    201.9704   8.8510734896e+01   2.5568150948e+01    0.7419346    0.2586053 -73.91  0.003037048    3.141    0.682
       153 -12.5173     30.8312     25.3365   6.0606964737e+01   6.7311145230e+01    0.3442086    0.1841342  10.48  0.001682061    2.108    0.526
       154 -12.2016     36.2319     23.5232   5.7351534116e+01   6.7010799779e+01    0.3259394    0.1783692 -28.33  0.001824723    1.597    0.374
       155 -13.0864     17.1291    195.6313   9.6155347946e+01   3.1421885331e+01    0.6884284    0.1623411 -62.59  0.002871356    3.656    0.727
       156 -11.8669     51.5161     20.3436   4.9254536348e+01   6.5504241867e+01    0.2777075    0.1099761  41.76  0.001246763    2.764    0.638
       157 -12.7976     40.3918    195.1828   9.1436729763e+01   2.9089623726e+01     0.450895     0.199552  89.25   0.00204893    2.618    0.618
       158 -12.5968     36.8005    194.5898   9.2125898534e+01   2.9618971433e+01    0.3468047    0.2074821  71.84  0.002027348    1.531    0.347
       159 -13.4469     30.0654    169.2825   9.1250034097e+01   3.5916164068e+01    0.7971488    0.5286489 -36.40   0.00448482    2.233    0.552
       160 -11.1765    175.9684     13.7602   1.5136752417e+01   3.8967933787e+01    0.1871624    0.1585509  79.27  0.000200598    1.063    0.059
       161 -13.5851     22.2052    180.8812   9.4010037671e+01   3.4098721174e+01    0.7549106     0.337271 -60.45   0.00396249    2.135    0.532
       162 -15.1231      8.6825    183.0646   9.6962414863e+01   3.4851232102e+01     1.155727    0.8961589  82.13  0.008458471    1.040    0.038
       163 -14.8273     15.6684    174.7756   9.4899897879e+01   3.6041834187e+01     1.708995    0.5486569  52.28  0.007616538    3.092    0.677
       164 -12.2347    163.9834    194.7159   6.4162271892e+01   9.5518776225e+00    0.3617943    0.1878181 -63.08  0.001314264    3.521    0.716
       165 -10.9636    201.1026    191.3557   5.5716698057e+01   3.1675542378e+00    0.2319461    0.1618316  22.73  0.001187162    1.414    0.293
       166 -11.9659     48.8613    181.4440   8.8274550528e+01   3.1119624005e+01    0.3609953    0.1989861 -54.29  0.001881981    1.959    0.490
       167 -12.4069    198.6427    181.3753   5.4237470587e+01   5.3528355569e+00    0.2895485    0.2734684  30.23  0.001450238    1.151    0.131
       168 -12.5346     84.4363    179.2015   7.9816617138e+01   2.6823634579e+01    0.3357856    0.1315891 -65.02  0.001309761    2.688    0.628
       169 -13.1108    124.2688    165.8907   6.7980986603e+01   2.3070636571e+01    0.6212521    0.3901535 -67.00  0.002725697    1.923    0.480
       170 -13.4208     55.8476     26.9632   5.0359832254e+01   6.3927652160e+01    0.6169106    0.3693933  34.60  0.003066173    1.674    0.402
       171 -12.2752     21.8331    166.0524   9.2800770188e+01   3.7431856916e+01     0.218534    0.1823668  26.36   0.00134904    1.548    0.354
