#   1 NUMBER                 Running object number                                     
#   2 MAG_AUTO               Kron-like elliptical aperture magnitude                    [mag]
#   3 X_IMAGE                Object position along x                                    [pixel]
#   4 Y_IMAGE                Object position along y                                    [pixel]
#   5 X_WORLD                Barycenter position along world x axis                     [deg]
#   6 Y_WORLD                Barycenter position along world y axis                     [deg]
#   7 A_WORLD                Profile RMS along major axis (world units)                 [deg]
#   8 B_WORLD                Profile RMS along minor axis (world units)                 [deg]
#   9 THETA_WORLD            Position angle (CCW/world-x)                               [deg]
#  10 FWHM_WORLD             FWHM assuming a gaussian core                              [deg]
#  11 ELONGATION             A_IMAGE/B_IMAGE                                           
#  12 ELLIPTICITY            1 - B_IMAGE/A_IMAGE                                       
         1 -14.7679     67.9895    144.1183   1.1241710485e+02   3.7501569553e+01     5.121396     2.140795  61.56   0.01626307    3.661    0.727
         2 -14.2982      5.8189     20.0926   1.1189933472e+02   7.2746126468e+01     4.229138    0.4583235 -61.29    0.0139011    4.110    0.757
         3 -14.4488    209.2383     18.6383   4.7973405854e+01   2.9982059937e+01     1.614253     1.049291  18.16  0.007666214    1.930    0.482
         4 -14.5008    197.4618     32.1497   5.3377327750e+01   3.1447407616e+01     2.276202     1.376519  26.48  0.008445757    2.125    0.529
         5  -9.7442     61.6606      8.3004   7.3963149038e+01   6.7934416428e+01    0.1299421    0.1078232 -62.98 0.0005412932    1.667    0.400
         6 -11.8139     30.3884      2.7462   8.6782248395e+01   7.3977866014e+01    0.3429842    0.2113685  35.80  0.001902067    1.832    0.454
         7 -10.7528     56.9836      2.4987   7.2355852906e+01   6.9645985245e+01    0.1970454    0.1295903  45.40 0.0008034861    1.595    0.373
         8  -9.3844     95.2665    200.2502   1.1266228710e+02   2.3084775706e+01    0.1632037    0.1101808  59.93  0.001047687    1.421    0.296
         9 -10.4313    174.3703    249.7502   1.0366638113e+02   5.8624626223e+00    0.1943139    0.1352059  50.49  0.001062778    1.722    0.419
        10 -15.6299    104.2942    248.5482   1.1525200130e+02   1.4812702710e+01     8.935118     1.998287  33.83   0.03595626    4.285    0.767
        11 -13.6232     35.7612    209.6720   1.2504910164e+02   2.8382569519e+01     1.055095    0.3475905  53.77  0.003143622    2.366    0.577
        12 -15.0495     20.4499    192.9458   1.2722412925e+02   3.2784919746e+01      1.66212     1.058589 -87.98  0.007615792    1.464    0.317
        13 -15.8908     55.7233    201.4944   1.2069070396e+02   2.7699517029e+01     8.952575     3.279518  75.72   0.03182036    6.037    0.834
        14 -10.0275    210.4824    181.4983   8.7982733341e+01   8.4236611637e+00    0.1958315    0.1424159  34.81  0.001021776    1.281    0.219
        15  -9.2040    211.4765    178.5083   8.7290788177e+01   8.6292527526e+00    0.2111159    0.1102418 -33.90  0.001148566    2.061    0.515
        16 -12.0551     70.4994    181.0534   1.1594197729e+02   2.9686932234e+01    0.3641433    0.2454801 -38.38  0.002135188    2.248    0.555
        17 -11.9027     74.8195    175.5929   1.1444751690e+02   3.0183946140e+01    0.2596182    0.2206971 -39.62  0.001229328    1.553    0.356
        18  -9.8292     99.4578    180.5280   1.0960932720e+02   2.5940503439e+01    0.2066432     0.174299  46.23 0.0008041968    1.045    0.043
        19 -11.0728    144.3787    179.4549   1.0002615172e+02   1.9307133564e+01    0.2158525    0.2001657   2.50  0.001283311    1.158    0.137
        20 -12.5868     89.6258    158.4808   1.0900592479e+02   3.1548128835e+01     1.180595    0.6558161 -68.40  0.003399115    2.003    0.501
        21 -12.1316     83.3405    165.3368   1.1135791049e+02   3.1059503127e+01    0.4295092    0.3408753  84.41  0.002744553    1.277    0.217
        22 -13.5739     71.4924    161.4837   1.1367053602e+02   3.3400807789e+01    0.6125098    0.5047325 -13.67  0.003823573    1.772    0.436
        23 -16.0065     59.0671    238.8995   1.2237887419e+02   2.1330069362e+01     7.298207     2.498761  55.92   0.01795334    2.613    0.617
        24 -10.6782    137.9275    170.6943   9.9998790115e+01   2.1791608360e+01    0.1873462    0.1504041  39.69 0.0008574069    1.097    0.088
        25 -10.2952    145.4582    168.2699   9.8027981350e+01   2.0958707686e+01    0.2153683    0.1247113 -40.86 0.0007497754    1.959    0.490
        26 -13.6644     45.7609    210.1746   1.2317897614e+02   2.7279077428e+01    0.5024529     0.409835 -73.95   0.00117599    1.466    0.318
        27 -15.3091      9.4706    206.4919   1.2983492606e+02   3.1339378008e+01     1.040281    0.7217246  58.13  0.004875979    1.040    0.038
        28 -10.4685    189.6975    154.9618   8.6804320143e+01   1.5387362578e+01    0.3066206    0.2256921  22.66  0.001505182    1.258    0.205
        29 -10.9172    133.7719    144.6851   9.6413651045e+01   2.7146501656e+01     0.891378    0.2264072 -53.09  0.002502431    5.714    0.825
        30 -10.2608    174.5653    148.8481   8.8513182369e+01   1.9030936775e+01    0.2440813    0.2119431  66.18 0.0007767925    1.491    0.329
        31 -11.3592     54.2931    147.2480   1.1627410997e+02   3.8496630707e+01    0.3259314    0.2017547 -64.48  0.001858353    1.596    0.373
        32 -10.5496     41.6820    147.9142   1.1951534080e+02   3.9736451008e+01     0.173091    0.1361467  82.98  0.000671652    1.104    0.095
        33 -10.5990     86.9722    145.7904   1.0784901440e+02   3.4539808773e+01    0.3254279    0.1951195  61.54  0.001612235    1.876    0.467
        34 -12.3631     90.7918    142.6852   1.0641675847e+02   3.4630645625e+01    0.2493553    0.2431594  10.02  0.000549493    1.188    0.158
        35 -10.8411    103.3266    142.3421   1.0323468903e+02   3.2761294692e+01    0.4892108    0.3050685 -25.85  0.002147784    2.761    0.638
        36  -9.0777     40.6557    142.2399   1.1923550602e+02   4.1081909658e+01    0.1258188   0.07489268  58.98 0.0001967271    1.562    0.360
        37 -10.2601    112.2322    131.7292   9.9091726210e+01   3.3474586786e+01    0.2960118    0.2273573  16.73 0.0008799086    1.606    0.377
        38 -10.1983    105.9620    130.5865   1.0046190682e+02   3.4778539908e+01    0.2862141    0.2468841  53.73  0.001196037    1.122    0.109
        39 -11.4915    118.5700    125.3097   9.6207968229e+01   3.3681456663e+01    0.7324452    0.3768823 -31.62  0.002754525    3.065    0.674
        40 -11.1049     99.4348    128.4766   1.0175328153e+02   3.6308059934e+01    0.3026649    0.2260943 -40.66 0.0007909589    1.506    0.336
        41 -16.1516      4.4013    246.5135   1.3172430732e+02   2.5429434003e+01      1.49368     1.171211  30.03    0.0139363    1.614    0.380
        42  -9.5969     53.5160    172.8816   1.1894690716e+02   3.3275114880e+01    0.1724334     0.134483  49.76 0.0003098639    1.137    0.121
        43 -10.4952    159.9252    128.0089   8.7138439019e+01   2.5290010290e+01    0.2930987    0.2122322 -29.17   0.00150881    1.449    0.310
        44  -9.7466    125.5141    127.0375   9.4848068170e+01   3.2065203606e+01    0.2080516    0.1387857 -50.88 0.0007001068    1.564    0.361
        45 -11.0217    135.2033    122.2381   9.1458772043e+01   3.1190976901e+01    0.5169705    0.1131638 -47.86  0.001398323    5.033    0.801
        46 -15.6513      2.1578    227.3591   1.3167846611e+02   2.8512485866e+01     6.706828          nan -75.84  0.006626562   12.239    0.918
        47  -9.7695    108.1985    120.1718   9.7799900224e+01   3.6604243827e+01    0.1907669     0.185548  -8.10 0.0003824483    1.112    0.101
        48 -11.0911    195.5966    170.0146   8.8557233987e+01   1.2274631970e+01    0.3659669    0.2856269 -47.51  0.002252013    1.738    0.425
        49 -12.3353     43.9259    114.4569   1.1511388146e+02   4.7092506248e+01    0.4502758    0.2206109  47.25   0.00217615    2.043    0.511
        50 -10.1532    167.7912    112.6531   8.1852675157e+01   2.6377210132e+01    0.3398652    0.2671931 -79.69  0.001484205    1.912    0.477
        51 -11.3784    119.5265    110.1995   9.2597193942e+01   3.6636504583e+01    0.4233082    0.2976173  74.19  0.001915255    2.020    0.505
        52 -10.0660    205.4464    110.1349   7.4050263426e+01   1.8970486780e+01    0.2891285    0.1904568  36.19  0.000875383    1.525    0.344
        53 -11.6212     45.9439    109.4729   1.1378973307e+02   4.8055740347e+01    0.3298721    0.2432184  37.62  0.001222964    1.443    0.307
        54 -10.7465     41.7261    108.9924   1.1502304976e+02   4.8619209606e+01     0.265025    0.1552382 -65.60  0.001132244    1.515    0.340
        55 -10.1783    134.4743    103.6034   8.7164165284e+01   3.5012007812e+01    0.4443848    0.1432832 -44.59  0.001443633    3.116    0.679
        56  -9.5108     95.0219    105.2180   9.8160074548e+01   4.2161285176e+01    0.1891004    0.1745427  59.06 0.0003207852    1.091    0.083
        57  -8.9281     87.6974    100.2686   9.9180324126e+01   4.4508359283e+01    0.1397135    0.1076968  75.79 0.0002086158    1.529    0.346
        58 -10.6635     33.6710    100.2069   1.1633893778e+02   5.1520886034e+01    0.2139886    0.1605004  51.50  0.001038116    1.369    0.270
        59  -9.4447    121.5079     98.5368   8.9167855015e+01   3.8675176676e+01     0.145054    0.1436747 -69.43  4.71793e-05    1.023    0.023
        60 -11.1340     56.0675     95.5139   1.0816654373e+02   5.0217059593e+01    0.4163516    0.2151743  44.16  0.001801095    2.033    0.508
        61  -9.2281     24.9867     82.4874   1.1671044178e+02   5.6583377162e+01    0.1601549     0.128198  28.85 0.0003300105    1.463    0.317
        62 -14.2676     39.6622    244.2076   1.2592822311e+02   2.2552503568e+01    0.7533311    0.3632269  53.73  0.003130174    1.480    0.324
        63 -10.8990     13.4962     59.7799   1.1750373947e+02   6.2945980445e+01    0.2274005    0.1909094 -74.85 0.0003469285    1.045    0.043
        64 -11.5025    182.5174    233.5424   1.0043981656e+02   6.5035442162e+00     0.229607    0.1532865  18.84   0.00133061    1.324    0.244
        65 -12.5627    188.6463     38.6805   5.6590514608e+01   3.2882448813e+01    0.6840682    0.4936611  44.65  0.001005105    1.461    0.316
        66 -10.5904    207.6443    183.7692   8.8858628879e+01   8.5900734411e+00    0.2817708    0.1916009 -40.36  0.001734397    1.884    0.469
        67 -11.4367     21.4692     33.7075   1.0716605686e+02   6.8572241337e+01    0.3272822    0.1688328  42.45  0.001600775    2.456    0.593
        68 -11.4432    154.4268     57.1703   6.8604332429e+01   3.8920863105e+01    0.4398968    0.3158902 -80.13  0.001298038    1.996    0.499
        69  -9.3559    170.6730     20.2930   5.2951846087e+01   3.9677047382e+01    0.1552058    0.1062375 -58.39 0.0002930085    1.623    0.384
        70 -10.6650    189.7919     15.1185   4.8867822054e+01   3.5218573732e+01    0.2250565    0.1845722 -47.45  0.000789909    1.186    0.157
        71 -11.6482    183.4308    215.2137   9.7896074464e+01   8.4388202030e+00    0.2390393    0.1875362  54.58  0.001676758    1.722    0.419
        72 -11.1286    156.7500     51.2006   6.6109033604e+01   3.9267354494e+01    0.3830304    0.2960283 -75.09  0.001040452    1.642    0.391
        73 -12.1237    193.8077    194.1024   9.2964624845e+01   9.4527888158e+00    0.6285315    0.4950427 -59.69  0.004007785    2.196    0.545
