#   1 NUMBER                 Running object number                                     
#   2 MAG_AUTO               Kron-like elliptical aperture magnitude                    [mag]
#   3 X_IMAGE                Object position along x                                    [pixel]
#   4 Y_IMAGE                Object position along y                                    [pixel]
#   5 X_WORLD                Barycenter position along world x axis                     [deg]
#   6 Y_WORLD                Barycenter position along world y axis                     [deg]
#   7 A_WORLD                Profile RMS along major axis (world units)                 [deg]
#   8 B_WORLD                Profile RMS along minor axis (world units)                 [deg]
#   9 THETA_WORLD            Position angle (CCW/world-x)                               [deg]
#  10 FWHM_WORLD             FWHM assuming a gaussian core                              [deg]
#  11 ELONGATION             A_IMAGE/B_IMAGE                                           
#  12 ELLIPTICITY            1 - B_IMAGE/A_IMAGE                                       
         1 -13.2206     54.7474    145.1095   1.2517854982e+02   3.9784055897e+01     2.058364    0.9494197 -68.76  0.008380101    2.206    0.547
         2 -12.7409    181.9391     46.1020   6.7895169151e+01   3.4236046160e+01     1.336108    0.7597265 -69.90  0.005958129    2.262    0.558
         3 -13.3131    205.2951     15.5104   5.7897902888e+01   3.2608409143e+01     1.034693    0.7490534  35.71   0.00606458    2.129    0.530
         4 -13.2854    193.4139     30.3565   6.2541053621e+01   3.3587205481e+01    0.9516485     0.630785  59.65  0.004582077    1.452    0.311
         5 -11.5461     43.2863     16.6598   9.2736748401e+01   6.6230447107e+01    0.3306962    0.1390325 -28.53  0.001733764    2.373    0.579
         6 -12.9408    185.0425     10.6185   5.8981620690e+01   3.7725975753e+01    0.8055508    0.5577335   8.19  0.004405832    2.584    0.613
         7 -10.9883    157.9953      9.4832   6.2087234964e+01   4.4075562596e+01    0.2372846    0.1623109 -55.39  0.001403376    1.618    0.382
         8 -13.4794    114.4726    228.7450   1.2352671419e+02   1.0540230428e+01     1.433976    0.3721514  42.88  0.004761515    3.324    0.699
         9 -12.8673    121.8364    248.6102   1.2464889242e+02   5.3079699102e+00     1.325968    0.5350949  27.55  0.004272456    4.531    0.779
        10 -13.9988    142.1708    249.1559   1.2051689773e+02   1.8310804263e+00     1.652327    0.7429742  32.17  0.007038925    2.325    0.570
        11 -12.5590    132.6236    247.0993   1.2221073040e+02   3.8078251177e+00    0.7944865    0.4951888  11.55  0.003407072    2.965    0.663
        12 -11.5834     71.1298    249.0703   1.3495397490e+02   1.3101373578e+01    0.4925482    0.2742125  33.12  0.001070915    2.025    0.506
        13 -14.5832     36.7363    116.8909   1.2530931186e+02   4.8646380854e+01     8.954682     3.464523 -61.95   0.03726738    2.261    0.558
        14 -13.8714     12.0614    206.8610   1.4296578211e+02   2.9562390017e+01     1.134234    0.6537669  43.27  0.005827189    1.750    0.429
        15 -13.0536     28.5640    249.0680   1.4295731376e+02   1.8687638886e+01    0.5721971    0.3736203  40.04  0.001755245    1.634    0.388
        16 -15.9408      8.3521    241.2270   1.4602865559e+02   2.2534114792e+01     2.857053     1.316481 -80.98   0.01453874    1.827    0.453
        17  -8.9098     82.6056    230.2016   1.3058479132e+02   1.5365121579e+01    0.1722319    0.1184792 -57.95 0.0005144184    1.584    0.369
        18 -10.5228     53.0551    228.1801   1.3652532645e+02   2.0032582188e+01    0.2404231    0.1649545  74.25 0.0003833409    1.292    0.226
        19 -10.4316     53.6002    222.7464   1.3587206377e+02   2.1164585727e+01    0.2929598     0.231128 -45.29  0.000928406    1.721    0.419
        20  -9.7275     45.1095    228.5352   1.3816660825e+02   2.0988008822e+01    0.2656681    0.1369621  45.53  0.001400691    1.755    0.430
        21 -12.4354     76.3846    221.7963   1.3092119939e+02   1.8159076192e+01     1.428906    0.4180765  45.24  0.005186463    3.006    0.667
        22 -10.8726     68.7107    217.4551   1.3207486564e+02   2.0266110275e+01    0.5265695    0.2775698  62.23 0.0001848555    2.022    0.505
        23 -11.1973     46.5843    199.3589   1.3489346017e+02   2.7467219463e+01    0.4815432    0.4120246  28.40  0.002982486    1.479    0.324
        24 -12.2737     50.0491    212.7071   1.3558477416e+02   2.3907985596e+01    0.9227478    0.3023308 -66.62  0.001889815    2.746    0.636
        25 -13.1350     58.9869    202.9669   1.3251680631e+02   2.4994995383e+01     1.243295    0.8382835 -74.09  0.004826922    1.358    0.264
        26  -9.2575     59.8966    219.1107   1.3416193775e+02   2.1131200947e+01    0.2029548    0.1488438  72.51            0    1.214    0.176
        27 -10.0397     73.7903    213.3694   1.3046587865e+02   2.0459886607e+01    0.2308824     0.163351 -84.14 0.0005453051    1.371    0.271
        28 -13.5121     37.1362    244.4920   1.4105363976e+02   1.8589799915e+01     0.627364    0.4105064  85.08 0.0006383581    1.301    0.231
        29  -8.4325     77.2972    207.3492   1.2890817979e+02   2.1333686577e+01    0.1329578    0.1065364 -35.92 0.0007034835    1.682    0.406
        30 -10.2786    199.1155    198.7707   9.9927415784e+01   1.4383505543e+00    0.2752078    0.1972253  16.93  0.001364119    1.592    0.372
        31  -9.7711     39.8995    195.7883   1.3600007885e+02   2.9127417058e+01    0.2654404    0.1418924  79.54 0.0009522381    2.108    0.526
        32  -9.6318     12.0531    192.5655   1.4178918227e+02   3.2831162943e+01    0.2387838    0.1341224 -62.76  0.001342652    1.625    0.385
        33 -14.0267     97.5666    179.6657   1.1982835567e+02   2.4749697533e+01     1.780151     1.625809  52.35  0.007132203    1.114    0.102
        34 -11.1687     85.5340    167.6433   1.2080580024e+02   2.9723993744e+01    0.3403113    0.3111487 -39.61 0.0004833504    1.226    0.184
        35 -10.3949     68.0879    190.6967   1.2881371676e+02   2.6669979133e+01    0.3297364       0.1819  40.18  0.001543244    1.823    0.452
        36 -12.7367    145.2031    228.8655   1.1684952811e+02   5.1983162896e+00    0.5903311    0.3197267  38.38  0.002716471    1.696    0.410
        37  -9.1147    208.3415    187.3100   9.5784974033e+01   1.9893105363e+00    0.1476777     0.108149  -2.49 0.0007044896    1.694    0.410
        38 -10.8568     73.2230    183.7525   1.2656615433e+02   2.7621627051e+01    0.4244463    0.2496014 -41.94  0.001347254    2.161    0.537
        39 -10.9210     77.4149    177.8795   1.2461389402e+02   2.8444066822e+01    0.3405755    0.2538799 -50.45 0.0007873979    1.398    0.285
        40 -11.3524     58.8115    167.4448   1.2773963681e+02   3.3692984198e+01    0.8578523    0.4594889 -54.76  0.003946241    1.738    0.424
        41 -13.2559     72.0330    163.0511   1.2356296540e+02   3.2948131109e+01     1.007034    0.7600875  65.41  0.001464072    1.418    0.295
        42 -12.0791     40.0521    165.2897   1.3224614147e+02   3.6519952443e+01     1.239595    0.6417169 -88.32  0.005331164    2.343    0.573
        43 -12.6426     45.5507    155.6057   1.2941748891e+02   3.8288902712e+01     1.472975    0.7710809 -65.16  0.006928793    1.655    0.396
        44 -14.0019     67.7121    145.0360   1.2151164733e+02   3.8073571877e+01     2.541146     1.282114 -66.21  0.008493391    2.006    0.502
        45 -10.5025     51.0396    244.1627   1.3839794423e+02   1.6883736200e+01    0.3278785    0.1709719  56.08  0.001770698    1.649    0.394
        46 -10.9278     30.6386    162.1100   1.3421639188e+02   3.8305410776e+01    0.5451829    0.2458162 -56.88  0.001724458    1.923    0.480
        47 -14.0582     25.3380    220.8347   1.4143653312e+02   2.5046761890e+01      2.37964    0.9692345 -87.62   0.01020725    2.614    0.617
        48 -10.8770     23.1316    158.0150   1.3560240984e+02   4.0031495661e+01    0.7449212    0.2103004 -62.84   0.00293067    2.635    0.621
        49 -10.8998     28.7780    156.1752   1.3391628031e+02   3.9941706875e+01    0.4620268    0.3653825 -44.14  0.002423129    1.393    0.282
        50 -11.6336     91.6786    160.0964   1.1779290805e+02   3.0599839970e+01    0.6157273    0.4003755 -29.03  0.001589418    2.224    0.550
        51 -12.7897    127.5239    109.2360   9.6271981764e+01   3.5817960661e+01     1.598991    0.8744399 -21.78  0.004933846    3.861    0.741
        52 -12.3477     93.3743    144.5688   1.1421008138e+02   3.4170366698e+01    0.7998063    0.6082796 -84.51  0.003815477    1.537    0.349
        53 -12.6376    105.3329    142.5155   1.1046147376e+02   3.2543683517e+01     1.003914    0.8122534  14.30  0.004510531    1.520    0.342
        54 -12.9443    116.2805    130.5244   1.0469172508e+02   3.3324505670e+01     2.180017    0.8676919  33.00  0.006735754    3.394    0.705
        55 -11.5982    100.7622    128.4391   1.0851397625e+02   3.6777510545e+01    0.5685134    0.3281506 -33.94  0.001349926    2.156    0.536
        56 -15.1702      2.6232    102.0936   1.3341654789e+02   5.4673920288e+01     12.36515          nan -62.18   0.02307419   13.304    0.925
        57 -14.7522      1.9254     32.2859   1.1703025371e+02   6.8288344884e+01     9.841204    0.1897351 -52.07   0.01944549   17.315    0.942
        58 -13.2602    106.9061    118.6777   1.0438051146e+02   3.7908590065e+01     1.163314     1.075374  16.57   0.00413049    1.154    0.133
        59 -13.4175    119.1652    116.4203   1.0039247622e+02   3.5988607335e+01     1.220121    0.7979571 -49.30   0.00513105    1.512    0.339
        60 -10.6891     61.1066    112.8859   1.1678468035e+02   4.6747088678e+01    0.3983468    0.3621261   9.96  0.002320622    1.197    0.164
        61 -12.3805     71.7554    111.1315   1.1301909153e+02   4.5652497493e+01    0.9841134    0.5976713  34.60  0.004149774    1.763    0.433
        62 -11.1379     75.1769    105.4929   1.1054136639e+02   4.6412856958e+01    0.5162733    0.4084161  -2.24   0.00232466    1.475    0.322
        63 -11.3213     85.3576    111.6033   1.0893364834e+02   4.3399502882e+01    0.6199611    0.4266398 -24.25  0.002854545    1.787    0.440
        64 -10.1273     86.0000    105.5075   1.0717316818e+02   4.4661420582e+01    0.4503132    0.2047807 -49.41  0.001781644    2.094    0.523
        65  -9.5368    167.9348    112.5626   8.7406983684e+01   2.6043811803e+01     0.292307    0.2084159 -62.94 0.0007543605    1.566    0.361
        66 -10.6337     96.8916    107.4001   1.0438061319e+02   4.2326826378e+01    0.4814953    0.3193206 -67.58   0.00209424    1.974    0.493
        67 -12.9965    127.9855     81.3180   8.8415470769e+01   4.1300920595e+01     1.420226    0.5702037 -32.44  0.004747309    3.242    0.692
        68 -12.2546     45.7506    144.4810   1.2759419039e+02   4.1018938366e+01     0.713442    0.6680443 -45.22  0.003669252    1.163    0.140
        69 -12.7854    115.7213     71.8034   8.8813829099e+01   4.5651134409e+01    0.7722791    0.4832037 -38.55  0.003661549    1.655    0.396
        70 -10.7827     98.7724    249.7814   1.2951607228e+02   8.7931289782e+00    0.3537515    0.1426724  48.47  0.001547678    2.168    0.539
        71  -9.9507     87.6915    241.0231   1.3077540520e+02   1.2289216393e+01     0.239665    0.1752533  64.26 0.0004613899    1.222    0.182
        72 -12.3049    185.3143     36.3860   6.5030629201e+01   3.4724499347e+01    0.4350625    0.3528222 -60.63  0.001421137    1.221    0.181
        73 -10.4178     55.7342    240.3176   1.3714150537e+02   1.7061126703e+01    0.2569618    0.1823022  57.29 0.0007163358    1.195    0.163
        74 -11.2284    193.5091    237.3222   1.0809904197e+02  -4.6212696814e+00    0.3347039    0.2316125 -59.18  0.001758849    2.029    0.507
        75  -9.7442    101.5861    233.7125   1.2697584344e+02   1.1624147741e+01    0.1759133    0.1239457 -82.06 0.0007350328    1.558    0.358
