#   1 NUMBER                 Running object number                                     
#   2 MAG_AUTO               Kron-like elliptical aperture magnitude                    [mag]
#   3 X_IMAGE                Object position along x                                    [pixel]
#   4 Y_IMAGE                Object position along y                                    [pixel]
#   5 X_WORLD                Barycenter position along world x axis                     [deg]
#   6 Y_WORLD                Barycenter position along world y axis                     [deg]
#   7 A_WORLD                Profile RMS along major axis (world units)                 [deg]
#   8 B_WORLD                Profile RMS along minor axis (world units)                 [deg]
#   9 THETA_WORLD            Position angle (CCW/world-x)                               [deg]
#  10 FWHM_WORLD             FWHM assuming a gaussian core                              [deg]
#  11 ELONGATION             A_IMAGE/B_IMAGE                                           
#  12 ELLIPTICITY            1 - B_IMAGE/A_IMAGE                                       
         1 -14.6066    247.4621     39.0715   3.5888169616e+02   2.1144761001e+01     1.833302    0.4273921 -29.99  0.006923283    3.526    0.716
         2 -11.0734     27.1130     30.4219   4.7255011626e+01   7.0965262409e+01    0.4399124    0.1221599 -40.02  0.001351819    4.302    0.768
         3 -10.6308    156.0000    247.0220   5.3833104331e+01   4.5753917599e+00    0.1562924   0.06329422 -46.77 0.0008062941    2.969    0.663
         4 -10.2953    250.0000    245.0245   3.7705434317e+01  -5.2732045701e+00    0.1476883   0.04559908 -32.88 0.0008024572    2.943    0.660
         5 -10.7740    169.5539    242.3028   5.0703602954e+01   3.6031494050e+00    0.1832631    0.1094087 -45.87  0.001146279    2.101    0.524
         6 -11.1457    161.0140    241.2926   5.2174293968e+01   4.7627618096e+00    0.1934792    0.1515217  88.06  0.001179123    2.758    0.637
         7 -10.3178    153.5931    241.2268   5.3582393619e+01   5.6722563391e+00    0.1474116   0.09967484 -27.44 0.0009568196    1.639    0.390
         8 -11.6942    188.0796    231.8741   4.5906419156e+01   2.7849209814e+00    0.1662483    0.1406476  17.78  0.001231351    1.270    0.213
         9 -10.4479    191.0000    226.9619   4.4677368329e+01   3.0854352505e+00    0.1681031   0.06012813 -40.41 0.0008033536    2.949    0.661
        10 -10.1074    126.4901    226.5145   5.7217347927e+01   1.1360693370e+01    0.1220844    0.1012606  24.98 4.667543e-05    1.001    0.001
        11 -10.1372    173.0000    221.0066   4.7133836686e+01   6.1544114671e+00    0.1758368   0.06461075 -43.54 0.0008056677    2.965    0.663
        12 -10.5548    198.2786    214.5679   4.1513453978e+01   3.8663492998e+00    0.1791632     0.140148 -29.59  0.001245928    1.371    0.271
        13 -10.4940     76.6003    212.8244   6.6750553146e+01   2.0304989938e+01    0.1675972    0.1159944  88.01 0.0009533641    1.722    0.419
        14 -11.0142     85.5440    208.2523   6.4194504139e+01   2.0080585958e+01    0.2233622    0.1290317 -73.33   0.00113964    2.123    0.529
        15 -10.9253    192.1224    207.8654   4.1561541632e+01   5.5855463883e+00    0.1722446    0.1546903   2.64 0.0008302637    1.250    0.200
        16 -11.7875     98.7647    204.4164   6.0657788611e+01   1.9085542254e+01     0.411829    0.1804558 -66.20  0.001767477    2.958    0.662
        17 -10.8861    197.6422    204.2987   3.9990924436e+01   5.3789409603e+00    0.1589096     0.151069  72.61  0.001115077    1.769    0.435
        18 -11.0900    184.1610    202.5308   4.2173730671e+01   7.4259667465e+00     0.225552     0.164602 -28.38  0.001427501    1.328    0.247
        19 -11.3584     79.8052    200.1468   6.4676103637e+01   2.2481761713e+01    0.2653486    0.1471943  81.20  0.001157521    2.781    0.640
        20 -11.2452    123.9968    197.5769   5.3915339203e+01   1.6852725346e+01    0.3833272    0.1919595 -58.01  0.001771833    2.408    0.585
        21 -10.2708    216.2914    195.6391   3.5325564578e+01   4.1934006568e+00    0.1011973   0.09222038 -46.56  0.000702806    1.697    0.411
        22 -11.4119    246.0050    192.5675   3.0153110320e+01   1.0067571869e+00    0.2843382    0.1794509 -42.13  0.001814237    1.998    0.500
        23 -10.9673    224.8750    193.0412   3.3478060225e+01   3.4670528795e+00    0.2735291    0.1422183 -41.11  0.001527367    2.078    0.519
        24 -10.8647     12.9857    194.0467   8.0622976689e+01   3.1153200576e+01    0.2125799   0.09972281 -55.63  0.001023232    2.604    0.616
        25 -11.0129    102.5482    192.2837   5.8196112638e+01   2.1004764177e+01    0.2409937    0.1360251 -65.18  0.001147493    2.109    0.526
        26 -11.7954     77.4321    190.8123   6.4205745260e+01   2.4785705220e+01    0.4610889    0.1660338 -51.04  0.001796398    3.137    0.681
        27 -11.0387    129.1934    187.6610   5.1226887062e+01   1.7986059117e+01    0.3163373    0.1871882 -60.42   0.00152275    2.101    0.524
        28 -11.1792     95.4939    188.4775   5.9405015433e+01   2.2807879630e+01    0.2314437    0.1339564 -77.49   0.00104051    2.385    0.581
        29 -11.2872     86.4985    187.5532   6.1528183620e+01   2.4269066430e+01    0.2646199    0.1340363 -63.33  0.001207664    2.153    0.536
        30 -11.8993     88.1524    196.6121   6.2241739975e+01   2.2112714692e+01    0.3444864    0.1950318 -71.22  0.001679553    2.123    0.529
        31 -11.4511     94.2709    181.8441   5.8801143142e+01   2.4412166486e+01    0.4604754    0.2017069 -43.63   0.00181726    2.861    0.650
        32 -10.8985     12.0000    183.5098   8.0361169802e+01   3.3627801030e+01    0.2714227   0.06451751 -80.55 0.0009436766    4.007    0.750
        33 -10.7117    185.0000    194.0118   4.0601789394e+01   8.6143545690e+00    0.1954553   0.06600662 -41.48  0.000805606    2.964    0.663
        34 -10.5757    147.3295    179.6702   4.5814510282e+01   1.6703328267e+01    0.1309645    0.1067348  69.59 0.0006600817    1.713    0.416
        35 -11.3314     59.1735    175.5185   6.7222904087e+01   3.0610585697e+01     0.256871    0.1909815 -76.23  0.001414807    1.368    0.269
        36 -11.2507     76.8032    173.2664   6.2185545183e+01   2.8826337459e+01    0.2953018     0.187902 -53.23  0.001461712    1.675    0.403
        37 -11.4064      2.2368    171.7200   8.2348649553e+01   3.7165587609e+01    0.3616838     0.119829  83.93  0.001422735    3.012    0.668
        38 -10.6084    120.5267    169.5416   5.0291506850e+01   2.3028533414e+01    0.2414852    0.1401106 -66.28  0.001035449    2.303    0.566
        39 -10.9517    149.9936    168.4859   4.3208978286e+01   1.8398940397e+01    0.3237149    0.1782319 -51.30  0.001478996    2.005    0.501
        40 -11.0349     54.8225    167.8410   6.7554790302e+01   3.2986023108e+01    0.4029869    0.1826281 -78.65  0.001629443    2.518    0.603
        41 -10.1331     88.0000    167.0010   5.8276673653e+01   2.8678953352e+01    0.2275304   0.08054392 -60.62 0.0008035278    2.950    0.661
        42 -11.4946    212.7914    161.8705   2.9771073642e+01   9.5629793717e+00     0.400937    0.1554952 -40.42  0.001781772    2.399    0.583
        43 -10.6992     91.6541    158.5132   5.5933636701e+01   3.0111917991e+01    0.2558678    0.1350576 -59.48  0.001090762    1.952    0.488
        44 -10.3823     81.3128    154.6361   5.8200992850e+01   3.2617414431e+01    0.1561884    0.1058103  68.53 0.0007040095    1.759    0.431
        45 -11.0112    199.0181    148.2217   2.9389863635e+01   1.3868911656e+01      0.19395    0.1404487 -51.17  0.001060255    1.639    0.390
        46 -11.6842      3.3998    147.2879   8.0817365283e+01   4.3101265981e+01    0.2598694    0.1047051 -75.67  0.001063419    2.165    0.538
        47 -11.1330    189.3118    146.9957   3.0881583892e+01   1.5691650804e+01    0.2015927    0.1621168 -29.63  0.001085691    1.124    0.110
        48 -10.9689     54.7928    144.4886   6.4586003509e+01   3.8850302556e+01    0.3647087    0.1921216  86.04  0.001403143    2.580    0.612
        49 -11.4287    194.5938    143.2284   2.9128172689e+01   1.5437849676e+01    0.1997123    0.1147599 -28.44 0.0009603289    1.695    0.410
        50 -10.3326     48.6269    137.8181   6.5596598286e+01   4.1347941027e+01    0.2122247    0.1300274 -84.24 0.0009546778    1.717    0.417
        51 -11.2681     21.8936    135.0577   7.4036157613e+01   4.4852903696e+01    0.5389963    0.1994361 -77.97  0.002066046    2.526    0.604
        52 -12.7995    188.1235    135.0163   2.8524075703e+01   1.7971293007e+01    0.3410183    0.1853405 -38.39   0.00160193    1.672    0.402
        53 -10.3840     69.0530    135.7621   5.8713645368e+01   3.9158565905e+01    0.1982332    0.1890432  59.97 0.0003505098    1.048    0.046
        54 -11.9325    179.7894    132.6296   2.9553469935e+01   1.9904644000e+01    0.4108328     0.211318 -46.11  0.001800249    1.945    0.486
        55 -10.8389    143.3913    131.1955   3.6969330638e+01   2.7102411195e+01    0.2193832    0.1368654 -55.02  0.000955696    1.770    0.435
        56 -12.8982    192.7972    129.1555   2.6381757204e+01   1.8146837658e+01    0.3506923    0.2349087 -29.27   0.00182706    1.386    0.278
        57 -11.6961    152.8343    128.4048   3.4157445999e+01   2.5837417994e+01    0.4936552    0.2067623 -49.89  0.001785488    2.587    0.613
        58 -10.2297     82.3134    130.6747   5.3594588909e+01   3.8411197878e+01    0.1579507     0.114149  71.81 0.0003550132    1.664    0.399
        59 -12.6399    169.3873    128.4998   3.0660137540e+01   2.2617453251e+01    0.5123143    0.2730028 -43.10  0.002253769    1.777    0.437
        60 -11.6022     11.7370    126.7958   7.6677987150e+01   4.7847858078e+01    0.6486329    0.1687066 -81.33  0.002050657    3.768    0.735
        61 -10.8106     98.2901    127.4686   4.8072455353e+01   3.6475848287e+01    0.4080153    0.1425649 -59.91  0.001210497    3.559    0.719
        62 -12.7003    180.0355    123.6343   2.7447491755e+01   2.1482218161e+01    0.4512424    0.2048734 -37.38  0.001861188    2.041    0.510
        63 -12.3815    172.6033    121.1079   2.8283244341e+01   2.3378394383e+01    0.4047261    0.2376587 -40.68  0.001801672    1.578    0.366
        64 -10.7221     57.6021    120.8066   5.9803377789e+01   4.4679908888e+01     0.218875    0.1382132 -79.45 0.0009540116    1.723    0.420
        65 -11.1426     41.4928    117.4878   6.4943395116e+01   4.7590382091e+01    0.2756855    0.1354416 -84.03  0.001037758    2.443    0.591
        66 -10.9134    129.7864    115.7066   3.6562124740e+01   3.3118163029e+01    0.4541763    0.1740254 -40.44  0.001507448    2.758    0.637
        67 -11.8912      1.8423    114.3743   7.9137021410e+01   5.1780265901e+01    0.6412008    0.1630438 -85.93  0.001984137    4.007    0.750
        68 -12.7321    185.8395    115.0304   2.4353151752e+01   2.1898329188e+01    0.4292043     0.179104 -40.48  0.001721243    2.152    0.535
        69 -10.9966    108.5738    113.2543   4.1700051249e+01   3.7936055974e+01    0.3034538    0.1496277 -54.48  0.001133207    2.105    0.525
        70 -11.7047     77.9794    109.5041   5.0377652620e+01   4.4493042355e+01    0.7584393    0.2637115 -63.39  0.002164068    3.836    0.739
        71 -11.2709    122.0237    109.7333   3.7052645964e+01   3.6026130134e+01    0.3976262     0.187286 -36.81  0.001406249    2.466    0.594
        72 -10.7856     13.4725    108.2306   7.4171971350e+01   5.2691816798e+01    0.4270185    0.1137431 -73.28  0.001434327    3.114    0.679
        73 -11.9922    128.3969    100.4078   3.2868903752e+01   3.6709813095e+01    0.5288026    0.2514842 -47.69  0.001989989    2.074    0.518
        74 -11.2928     43.3949    100.1931   6.1053228807e+01   5.2000539948e+01    0.2204649    0.1348814 -80.42 0.0009544251    1.784    0.440
        75 -11.1158     94.3252     96.6616   4.1613162924e+01   4.4650353273e+01    0.3199237    0.2437982  56.80  0.001434318    1.425    0.298
        76 -11.2731     94.5046     92.9938   4.0507608059e+01   4.5476800114e+01    0.4142033    0.2701567 -32.08  0.001626477    1.836    0.455
        77 -12.2817      4.7076     89.4211   7.5551080213e+01   5.8284210544e+01     0.606269    0.2575879 -77.95  0.002571224    2.057    0.514
        78 -11.9645     34.8946     86.4398   6.1674881792e+01   5.6631932183e+01    0.9117803     0.277039 -60.29  0.003147369    2.713    0.631
        79 -12.4424     86.6458     83.3990   4.0237609803e+01   4.9271187660e+01     0.962559    0.3874459 -40.65  0.003187172    2.781    0.640
        80 -11.8155     47.7403     83.1878   5.5290702005e+01   5.5900299092e+01    0.5922171    0.3203537 -89.70   0.00193883    3.679    0.728
        81 -12.0183    119.1617     79.0721   2.8954405275e+01   4.3211358951e+01    0.3982848    0.2220451 -42.66   0.00162425    1.743    0.426
        82 -11.0086     74.1690     78.6805   4.3244292113e+01   5.2760564284e+01    0.4650043    0.1992123 -58.22  0.001575624    2.722    0.633
        83 -12.2346     24.1852     76.6277   6.4421770491e+01   6.0285761736e+01    0.7986177    0.1844346 -59.10  0.002622972    3.128    0.680
        84 -12.1523    124.3439     89.3260   3.0736780629e+01   3.9934196438e+01    0.6420698    0.3287407 -37.11  0.002257111    2.041    0.510
        85 -11.3360    167.6165     77.2120   1.7790182328e+01   3.2346749763e+01    0.2103149     0.134873 -27.40 0.0009525128    1.644    0.392
        86 -12.0632     82.2043     72.6319   3.8288599639e+01   5.2600238807e+01    0.5081182    0.2757581 -64.92  0.001785341    2.811    0.644
        87 -14.7247    237.1282     67.0768   5.9878695222e+00   1.9517641996e+01    0.9998278    0.8439271  61.91  0.006792252    1.462    0.316
        88 -11.9748     62.4865     70.9916   4.5372488278e+01   5.6649058781e+01    0.5934668    0.1424034 -52.27  0.001652117    3.984    0.749
        89 -11.6547    105.9521     71.0299   3.0003940659e+01   4.7847488399e+01    0.4090445    0.2220849 -46.55  0.001499431    1.827    0.453
        90 -11.5338     94.8703     70.0884   3.3093353943e+01   5.0501238523e+01    0.6069907    0.2102741 -51.25  0.001808795    3.463    0.711
        91 -12.2759    104.3161     81.3667   3.3898458891e+01   4.6045985689e+01    0.7685646    0.2777976 -48.13  0.002484264    2.797    0.642
        92 -12.1304    127.9046     75.3154   2.5521987461e+01   4.1931248703e+01    0.3755762    0.2067677 -53.65  0.001468661    2.044    0.511
        93 -11.5849    118.7073     69.9480   2.6100655809e+01   4.5118807002e+01    0.2164835    0.1921545 -44.71 0.0003147788    1.100    0.091
        94 -11.4020     50.9125     68.4144   4.9552433443e+01   5.9126611412e+01    0.5258751    0.2216936 -67.55  0.001588919    3.959    0.747
        95 -10.5826    157.6731     69.3347   1.7304683555e+01   3.5979339927e+01    0.1579416    0.1086179 -66.51 0.0007051656    1.719    0.418
        96  -9.9253    154.4993     67.6136   1.7379064287e+01   3.7019008328e+01    0.1456603    0.1379605 -65.37 0.0001010934    1.027    0.026
        97 -11.4418    121.6763     65.4924   2.3838623469e+01   4.5256693090e+01    0.2862325    0.1387379 -38.18  0.001093395    2.027    0.507
        98 -11.2936     36.4376     62.2918   5.4513684772e+01   6.2605229555e+01    0.2903597    0.1204782 -54.05  0.001142929    2.124    0.529
        99 -11.5540     72.8550     56.2480   3.5782304567e+01   5.7990665003e+01    0.6992298    0.1950082 -41.08  0.002040104    3.788    0.736
       100 -11.7589     22.1745     53.4888   5.9421253224e+01   6.6321830876e+01    0.4402332    0.2317139 -78.68  0.001811167    2.548    0.608
       101 -10.4404    212.3317    247.3203   4.3886210104e+01  -1.8052333541e+00    0.1112709   0.06258396   0.18 0.0007048959    1.695    0.410
       102 -11.4406     62.7623     52.2931   3.8336843347e+01   6.0761134168e+01    0.6080469     0.174879 -45.86  0.001902204    3.378    0.704
       103 -10.1998     86.2916     54.6998   3.0244563599e+01   5.5477001741e+01    0.1477465    0.1188954 -79.95 0.0002142759    1.565    0.361
       104 -10.9876     53.4672     52.2103   4.2487841957e+01   6.2431877684e+01    0.3514066    0.1399605 -57.73  0.001146956    3.382    0.704
       105 -11.9027     28.0063     46.0010   5.3454537835e+01   6.7471808566e+01    0.3307556    0.2112137 -29.63  0.001149399    1.683    0.406
       106 -10.4695     28.4814     42.4858   5.1796501353e+01   6.8210980868e+01    0.1369939     0.123372 -32.76 8.310204e-05    1.000    0.000
       107 -10.5016    238.5518     42.2917   2.4349722759e-01   2.2399364131e+01    0.1607508    0.1034833 -24.44 0.0009336732    1.547    0.353
       108 -11.7125    184.7849     41.1963   5.0305389372e+00   3.3806833192e+01     0.179047    0.1641527  24.26 0.0009315736    1.349    0.259
       109 -11.1254     36.5926     39.6272   4.5840339320e+01   6.7760418721e+01    0.3670166    0.1647652 -51.73  0.001531461    2.166    0.538
       110 -11.8545    159.1795     54.8569   1.2648483821e+01   3.7945952685e+01    0.2325153    0.1865603 -61.06 0.0006781436    1.226    0.184
       111 -11.5652    176.9339     33.3088   3.6752161858e+00   3.6653178362e+01    0.1905722    0.1683291 -84.67 0.0004338728    1.109    0.099
