#   1 NUMBER                 Running object number                                     
#   2 MAG_AUTO               Kron-like elliptical aperture magnitude                    [mag]
#   3 X_IMAGE                Object position along x                                    [pixel]
#   4 Y_IMAGE                Object position along y                                    [pixel]
#   5 X_WORLD                Barycenter position along world x axis                     [deg]
#   6 Y_WORLD                Barycenter position along world y axis                     [deg]
#   7 A_WORLD                Profile RMS along major axis (world units)                 [deg]
#   8 B_WORLD                Profile RMS along minor axis (world units)                 [deg]
#   9 THETA_WORLD            Position angle (CCW/world-x)                               [deg]
#  10 FWHM_WORLD             FWHM assuming a gaussian core                              [deg]
#  11 ELONGATION             A_IMAGE/B_IMAGE                                           
#  12 ELLIPTICITY            1 - B_IMAGE/A_IMAGE                                       
         1 -12.3559     57.3830     35.2534   4.8241274979e+01   6.2253390536e+01    0.6460069    0.3584672 -21.04   0.00339415    1.916    0.478
         2 -11.2935      6.9733     29.8394   6.8579613432e+01   6.8793780695e+01    0.3052266    0.2001745 -47.56 0.0009120387    1.623    0.384
         3 -12.2380    128.7433     23.9823   2.4018021635e+01   4.9376724645e+01    0.2852962    0.2618618 -29.31 0.0003479123    1.271    0.213
         4 -12.4059    132.9853     18.8774   2.1683714230e+01   4.8914375524e+01    0.3737397    0.2698995 -43.44 0.0003656371    1.613    0.380
         5 -10.8060     19.8271     17.2313   5.7138471258e+01   6.9489764452e+01    0.3000357     0.253919   7.76  0.002302384    1.382    0.276
         6 -12.2531     28.4495     19.7113   5.4094147917e+01   6.8218792986e+01    0.2440788    0.1721939  10.46  0.000271887    1.154    0.133
         7 -11.7569      3.8952     18.3939   6.5755184770e+01   7.0747850911e+01    0.6103235    0.1757488 -37.42  0.002962189    2.765    0.638
         8 -11.8364      3.1791     13.2609   6.4004091544e+01   7.1523951356e+01    0.3304125    0.1928911 -18.84  0.001207689    1.344    0.256
         9 -11.7580    249.4116     15.3270   7.3531577635e+00   2.3451601633e+01    0.2901815    0.1742256 -61.51 0.0009523497    1.334    0.250
        10 -10.0406     99.3679     14.3082   2.7280024900e+01   5.6764185157e+01    0.2041579    0.1239113 -10.85 0.0007705879    2.007    0.502
        11 -11.2473    102.2029      9.7000   2.5027184283e+01   5.6560244322e+01    0.3643421    0.1832953 -19.74  0.001434553    2.387    0.581
        12 -12.4772    234.5390      9.6010   7.4180131787e+00   2.7068908642e+01    0.2850219     0.202858  84.21  0.001629824    1.204    0.169
        13 -12.8596    238.1956     17.7530   8.6400785323e+00   2.5396617228e+01    0.3582743    0.2802734  52.19 0.0002755174    1.797    0.444
        14 -11.9825    233.4911     14.9816   8.4986159207e+00   2.6676993277e+01    0.2634184    0.1896589 -63.69  0.001078583    1.169    0.144
        15 -11.2993    142.1692     17.1880   1.9596891335e+01   4.6959363674e+01    0.4289526    0.1810516  49.94 0.0008527037    2.112    0.527
        16 -11.2262    137.1351     14.9023   1.9791674931e+01   4.8336638244e+01    0.2195188     0.181953 -66.83 0.0003198008    1.370    0.270
        17  -9.7974     76.9544     15.1623   3.3654885659e+01   6.1172278687e+01    0.2575691    0.1593757  19.01 0.0006098624    1.677    0.404
        18 -11.4379     76.2028     10.5217   3.2078834169e+01   6.1736379597e+01    0.6363325    0.1709037  45.86  0.002636701    2.785    0.641
        19 -10.9135     11.2794     15.1213   6.0528771931e+01   7.0596236841e+01     0.324873    0.1527577  -9.68  0.001687429    2.537    0.606
        20 -10.5151     15.0507     13.3277   5.7813980721e+01   7.0475723380e+01    0.1743292    0.1200217 -13.89 0.0004138943    1.128    0.114
        21 -10.4591     60.4434     13.8995   3.8531353954e+01   6.4255874407e+01    0.1620126     0.108148 -19.16 0.0007189914    1.559    0.359
        22 -10.1139    119.3936     11.7728   2.2086914485e+01   5.2638356988e+01    0.1836786    0.1501894  66.51 0.0005241866    1.132    0.116
        23  -9.4903    120.5290      8.5114   2.0851932375e+01   5.2659244792e+01    0.1615352    0.1174843   9.14 0.0007055543    1.707    0.414
        24  -9.7318     27.2909     11.0596   5.0819718827e+01   6.9405699356e+01    0.2114733   0.08367978 -27.16  0.001085003    2.509    0.601
        25 -10.5836    176.1248     11.1396   1.3263316874e+01   3.9670827162e+01    0.2753315    0.1508058  89.45  0.001410966    1.868    0.465
        26  -9.9808    145.1178     11.0986   1.7429930390e+01   4.6842414657e+01    0.2342113    0.1646195  46.28 0.0005692733    1.404    0.288
        27 -10.9292    145.5463      6.4475   1.6093969508e+01   4.7148566068e+01    0.3723394    0.2338514 -43.08  0.002170363    1.832    0.454
        28 -11.9515    248.3817      8.0526   6.1511854135e+00   2.4485071743e+01    0.2847795    0.1957376 -82.58  0.002019158    1.122    0.109
        29 -11.1875    159.3661      8.6194   1.4739996767e+01   4.3772138001e+01    0.3351903    0.1904816  82.64  0.001356625    1.695    0.410
        30 -10.0098    154.2781      7.9903   1.5264919221e+01   4.5003482024e+01    0.2243472    0.1409843  61.47 0.0004490095    1.316    0.240
        31 -10.5212     16.7185      2.9717   5.2180130941e+01   7.1532306242e+01    0.1954781    0.1436848  -8.75   0.00133397    1.169    0.144
        32 -10.8138      9.5500      8.8235   5.8641532749e+01   7.1568682289e+01    0.2827259    0.1844048  22.83  0.001820053    1.534    0.348
        33 -11.1787     11.1675      2.4148   5.4781443248e+01   7.2177920716e+01     0.266469    0.1560641  -1.41  0.001807804    1.442    0.307
        34 -10.7929    215.3381      7.7063   8.5911191084e+00   3.1284291117e+01    0.2601419    0.1548076  69.37 0.0009115046    1.503    0.335
        35 -10.4720     36.2781      7.5789   4.5194339975e+01   6.8614786656e+01     0.281061    0.1795389  35.30  0.001863929    1.471    0.320
        36 -11.2238    164.7697      4.9513   1.3132089826e+01   4.2855454791e+01    0.2489766    0.1804315 -62.86 0.0004354962    1.447    0.309
        37 -10.9014    168.1966      1.9372   1.1991101960e+01   4.2334254058e+01    0.2107138    0.1438431  80.35 0.0003103997    1.209    0.173
        38  -9.5525     91.3956      7.2567   2.6731323657e+01   5.9012215181e+01    0.1327557   0.06942597  37.61 0.0003864851    1.699    0.412
        39  -9.7604     42.9299      7.1939   4.2242223453e+01   6.7698107274e+01    0.1425152   0.07439545  39.31 0.0004265361    1.678    0.404
        40 -10.0636     20.0165      5.7383   5.1850370191e+01   7.0859173537e+01    0.2464355    0.0939193 -32.46  0.001329462    2.516    0.602
        41 -10.6489    223.0533      5.4532   7.5243735450e+00   2.9888602296e+01    0.2084942    0.1622009 -45.24 0.0003600807    1.450    0.311
        42  -9.5563     60.7734      5.9781   3.5109488953e+01   6.4929307929e+01     0.134853   0.08913393 -13.72 0.0006516139    1.585    0.369
        43 -11.7964    229.9297      2.8132   6.5097066181e+00   2.8741822316e+01    0.3065178    0.1934059 -32.29  0.001953136    2.005    0.501
        44  -9.4200     68.5607      5.4864   3.2390206643e+01   6.3584236520e+01    0.1199443   0.09167638  29.82 0.0001345574    1.025    0.025
        45 -12.3901    243.1054      3.0049   5.6252979527e+00   2.6072788295e+01    0.3681614    0.2042759  72.98  0.001319447    1.634    0.388
        46 -11.1658    124.8044      2.3863   1.8215233938e+01   5.2185273135e+01    0.4181349    0.1945419  74.39  0.001156641    2.214    0.548
        47  -9.3813     97.9695      3.5116   2.3849871779e+01   5.7939065650e+01    0.1721452   0.09754357  56.01 0.0003511921    1.417    0.295
        48 -11.0301     91.0256      2.2167   2.5002104188e+01   5.9472407864e+01    0.1754615    0.1585725  20.03 0.0002383714    1.197    0.165
        49 -11.0206     26.7799      2.3013   4.6975283568e+01   7.0409584278e+01     0.282155    0.1583287  25.79   0.00177507    1.454    0.312
        50 -10.3701     22.6564      1.6753   4.8622935786e+01   7.0984582553e+01    0.1905329    0.1129056  11.21  0.001227373    1.416    0.294
        51 -11.0132    178.9976      3.8590   1.1239810919e+01   3.9704172520e+01    0.1808404    0.1553287 -80.22 0.0002636436    1.136    0.120
        52 -11.1261     73.8536      2.3508   2.9554756146e+01   6.2847442857e+01    0.2803722    0.2406851 -79.27  0.001917317    1.815    0.449
        53  -9.8712    140.9892      1.5314   1.5415208783e+01   4.8590948432e+01    0.1843255   0.09915029  67.57 -2.003556e-05    1.494    0.331
        54  -9.9175     34.8048      1.4728   4.2997110052e+01   6.9415335110e+01    0.2061214   0.09440693  43.75  0.001145075    2.206    0.547
        55 -10.3394     67.8055    165.9492   7.9272432676e+01   3.2652352607e+01    0.2440241    0.1594084  85.63 0.0009670762    1.911    0.477
        56 -10.8780    247.5135    249.9474   5.2918051826e+01  -1.4035857789e+01    0.1861162    0.1347026  13.33 0.0009325491    1.203    0.169
        57 -10.1589    155.6663    250.3021   7.1339670410e+01  -8.1627105162e-01    0.1317167   0.09757271  59.31 0.0007035685    1.657    0.397
        58  -9.8256    109.8424    249.8807   8.1102136481e+01   6.6100726828e+00    0.1872043    0.1395774  60.23 0.0007119564    1.310    0.237
        59 -12.5038     21.5652    248.5936   9.8757938159e+01   1.8903694550e+01    0.6568656    0.1892015  45.93   0.00304831    2.640    0.621
        60 -10.6706     12.7480    250.2333   1.0045772183e+02   1.9523190187e+01    0.1880464    0.1531655  36.01  0.001097862    1.559    0.359
        61 -10.0923     33.2319    166.2307   8.8638387970e+01   3.6760629721e+01    0.1920651    0.1830499  -8.34 0.0002652869    1.294    0.227
        62  -9.6755     36.6654    165.6823   8.7661772505e+01   3.6542065788e+01    0.1451559    0.1222663 -88.42 0.0008415481    1.086    0.079
        63 -10.8655     50.9101    161.8699   8.3271071657e+01   3.5898925063e+01     0.524254    0.2280375 -70.58  0.002055489    2.310    0.567
        64 -10.5057      7.7354    163.7490   9.4888190707e+01   3.9638497240e+01    0.2310453    0.1705559 -36.11  0.001267695    1.656    0.396
        65 -10.8597     20.2527    157.1208   9.0931267867e+01   4.0257379079e+01    0.3623451    0.2207064 -70.29  0.001417241    1.359    0.264
        66 -11.9884    247.1072    156.2673   3.5327432976e+01   1.4695430685e+00     0.366589    0.2150821 -26.09  0.001742168    1.907    0.476
        67 -10.7439     67.0129    157.9073   7.8126911159e+01   3.4822696359e+01    0.2129133    0.1954824 -74.14 0.0003012289    1.012    0.011
        68 -10.1043    216.4724    154.4795   4.0311285027e+01   7.2385245320e+00    0.1455138    0.1318811 -38.29 3.871501e-05    1.022    0.022
        69  -9.8695    158.9650    153.5296   5.2406761646e+01   1.9087669824e+01    0.2497575    0.1568832  41.35  0.001041352    1.624    0.384
        70  -9.8433     40.7784    153.0116   8.4748375414e+01   3.9308744288e+01    0.2005459    0.1495593 -67.84 0.0006076652    1.170    0.145
        71 -10.2063     10.8789    152.9698   9.2926852552e+01   4.2036527798e+01     0.275325    0.1295436  41.73  0.001129886    2.348    0.574
        72  -9.7759    222.5153    151.5138   3.8560973048e+01   6.6893467632e+00    0.1440124    0.1289586 -43.36 5.191611e-05    1.051    0.048
        73 -10.8584     13.9691    147.9965   9.1509654524e+01   4.3024783792e+01    0.1917919    0.1571903 -73.86 0.0003012616    1.012    0.012
        74 -10.1644    234.2159    146.9651   3.5549479421e+01   5.4210123697e+00      0.19552    0.1009926 -42.41 0.0007979595    1.690    0.408
        75 -10.4829      7.3678    145.6806   9.3027603481e+01   4.4072552295e+01    0.2038568    0.1301275  71.17  0.001114701    1.741    0.426
        76 -10.1024    216.8160    145.2159   3.8243246714e+01   9.0077370291e+00    0.2003867    0.1660487 -14.79 0.0006060657    1.350    0.259
        77  -9.2465    187.3642    144.2550   4.3845895775e+01   1.5159511155e+01    0.1524519     0.120237   8.02 0.0002034046    1.627    0.385
        78  -9.4878     13.9897    140.0140   9.0492047334e+01   4.4985601343e+01    0.1527256     0.130091 -68.83 0.0003224045    1.043    0.041
        79 -10.3633     65.2821    139.0285   7.5127037441e+01   3.9873513227e+01    0.2223179    0.2169252  18.38 0.0005368972    1.118    0.106
        80 -10.8260    236.0228    138.0071   3.3369968537e+01   6.7796547406e+00    0.2135407    0.1909272 -40.91 0.0006210018    1.035    0.034
        81 -10.7570      2.8062    135.7459   9.3110746730e+01   4.6778025619e+01     0.386187    0.1183132 -65.35  0.001635296    2.326    0.570
        82 -12.3483    241.5810    133.4661   3.1534738384e+01   6.6129500953e+00    0.3869767     0.231921 -30.04  0.001847292    1.809    0.447
        83 -11.3375     53.4373    131.7624   7.7334716216e+01   4.3228403592e+01    0.5421486    0.3144099  52.72  0.001886003    2.199    0.545
        84 -10.5219     58.7346    131.6198   7.5658402625e+01   4.2602754354e+01    0.2622561    0.1809782 -47.88 0.0005346214    1.331    0.249
        85 -11.7811     37.3262    129.8321   8.1985124658e+01   4.5487148898e+01    0.5850635    0.2781492 -45.34  0.001081864    1.989    0.497
        86 -10.7116      3.8980    130.6188   9.2165479327e+01   4.7945535653e+01    0.2111291    0.1399909 -58.94  0.000747176    1.218    0.179
        87 -10.8852     73.4292    129.1196   7.0552208343e+01   4.1189338165e+01    0.2843399    0.2500291  57.90 0.0006001802    1.268    0.212
        88  -9.4057    217.2690    129.3332   3.4676000722e+01   1.2036585698e+01    0.1409629    0.1113617 -13.49 0.0002081763    1.588    0.370
        89  -9.7499    234.2966    127.3072   3.1390197292e+01   9.1006105137e+00    0.1328502    0.1066715 -11.17 0.0003133545    1.589    0.371
        90 -11.1958     56.3212    126.7636   7.5427802063e+01   4.4114439429e+01    0.2914352    0.2303726  -8.98 0.0006521389    1.481    0.325
        91 -10.5781     24.6195    126.7720   8.5401817589e+01   4.7400218245e+01    0.1866846     0.113199 -75.25 0.0008588717    1.599    0.375
        92 -10.9243     15.8586    125.2246   8.7853310092e+01   4.8456056741e+01      0.29271    0.1886821  25.82  0.001388315    1.833    0.455
        93 -11.6733     10.2103    120.9571   8.8947432472e+01   4.9868425140e+01    0.4932241    0.3202474 -89.26  0.002714478    1.687    0.407
        94  -9.6983     30.4739    124.5318   8.3196145440e+01   4.7441047510e+01    0.1354298    0.1156969 -59.05 0.0001374453    1.015    0.015
        95 -10.9585     56.4927    121.1573   7.4192909550e+01   4.5468538406e+01    0.2804973     0.213727 -54.97 0.0007169142    1.186    0.157
        96 -11.3628    243.5038    122.0554   2.8876872072e+01   8.3457760837e+00    0.2186256     0.117073 -42.78  0.001036117    1.599    0.375
        97 -10.5767     69.1964    121.7402   7.0232155067e+01   4.3616577776e+01    0.3723583    0.2114928  19.57   0.00156236    2.206    0.547
        98 -10.7673     20.0114    121.9728   8.6054824134e+01   4.8933695261e+01    0.2090263    0.1638292 -60.93  0.000855817    1.056    0.053
        99 -11.7188    249.8092    118.1055   2.7156902651e+01   7.9030648551e+00    0.3928535    0.2030141 -47.30  0.001718402    1.645    0.392
       100 -12.4681    248.3820    112.2507   2.6164987872e+01   9.1969354266e+00    0.4814011    0.3124214  39.10  0.002504017    2.097    0.523
       101 -10.4660      1.3946    118.5677   9.1311661274e+01   5.0958694771e+01    0.2292604   0.09608489 -67.94 0.0002772119    1.862    0.463
       102 -10.1371      9.9149    111.0882   8.7505233681e+01   5.2224439386e+01    0.2517965    0.1284667 -31.51  0.001243418    2.156    0.536
       103 -11.7219     22.5402     99.7313   8.1157737425e+01   5.3983029187e+01    0.6155925    0.2902908  51.03  0.002481189    3.701    0.730
       104 -11.4744     16.2927    115.3337   8.6142546777e+01   5.0798471239e+01    0.3064755    0.2535395  56.50 0.0006241995    1.465    0.318
       105 -12.6914     16.4969    110.1181   8.5184393476e+01   5.2017176714e+01     0.607094     0.464397  11.29  0.003502509    1.541    0.351
       106  -9.8464     85.9188    115.6127   6.3439982715e+01   4.2477735119e+01     0.260576    0.1671776 -54.85  0.001163138    1.554    0.357
       107 -11.4806     52.4832    115.6393   7.4306086698e+01   4.7295770261e+01    0.3434393    0.2369989 -65.95  0.001730482    1.476    0.323
       108 -10.5990    182.5245    114.4450   3.7800058694e+01   2.2429159772e+01    0.2598609    0.2452373 -87.11 0.0005329924    1.061    0.058
       109 -10.1968    105.8324    114.7080   5.7106301497e+01   3.9089872148e+01    0.2775199    0.2074329 -37.04  0.000873697    1.351    0.260
       110 -10.2426     71.8348    115.3804   6.7890911581e+01   4.4760162548e+01    0.2017611    0.1406257  15.74 0.0008385594    1.677    0.404
       111 -10.2737     93.5161    111.9724   6.0130035755e+01   4.2006986077e+01    0.3453917    0.1884855  54.85  0.001291784    2.550    0.608
       112 -11.3188     31.5529    110.7586   8.0277695571e+01   5.0660597873e+01    0.5886229    0.2358022 -66.76  0.002344594    2.552    0.608
       113 -11.8447     37.6488    109.9775   7.8060763008e+01   5.0269091512e+01    0.4236031     0.292972 -28.49  0.002075019    1.503    0.335
       114 -10.8259     55.2372    109.7443   7.2051600600e+01   4.8359835739e+01    0.2630789    0.2130411 -37.43 0.0006443594    1.134    0.118
       115  -9.9611    111.6770    105.8568   5.3017015141e+01   3.9915630138e+01      0.24111    0.1723152  45.92  0.001106984    1.431    0.301
       116 -10.5908     24.0071    118.4058   8.4184819811e+01   4.9479245501e+01    0.2268973    0.1545135 -61.45 0.0009333897    1.230    0.187
       117 -10.7757     35.5153    100.5183   7.6753293907e+01   5.2679007367e+01    0.2732366    0.1990274  63.07  0.001123202    1.959    0.490
       118 -10.2378     32.2177     96.4134   7.7003678613e+01   5.3921592687e+01    0.2708938    0.2066692  85.59 0.0008144451    1.831    0.454
       119 -11.4112     62.0981     98.4376   6.6905523558e+01   5.0057999795e+01    0.4003891    0.2706381 -39.57  0.001561483    1.367    0.268
       120 -10.4349     66.9644     97.7965   6.5056789610e+01   4.9515541968e+01    0.2152454    0.1911653 -14.82 0.0004465637    1.077    0.071
       121  -9.4133     47.9995    100.4751   7.2344717528e+01   5.1373048504e+01    0.1656891    0.1124899  55.96 0.0003470337    2.092    0.522
       122  -9.7792      9.7186     99.0513   8.5500581281e+01   5.5018401540e+01    0.1722721    0.1267724 -57.48 0.0003006755    1.105    0.095
       123 -10.9272     25.1820    106.8742   8.1668294212e+01   5.2121204161e+01     0.332453    0.2009945 -26.03  0.001712001    1.836    0.455
       124 -10.2811    241.3192     96.6756   2.3930444690e+01   1.3245314590e+01    0.1401372   0.09138911 -68.70 0.0007045441    1.675    0.403
       125 -10.0997     57.1412     96.1608   6.8042960263e+01   5.1225867679e+01    0.2065203    0.1678878 -26.81  0.000306736    1.152    0.132
       126  -9.2610     20.6768     93.7167   8.0571668597e+01   5.5486380636e+01    0.1341732   0.07901845 -34.01 0.0001693297    1.595    0.373
       127  -9.7627      1.5959     93.2535   8.7290438939e+01   5.6768458708e+01    0.1743795   0.08497027 -55.16 0.0005002605    1.521    0.343
       128 -11.1311    249.6747     91.3693   2.1773197287e+01   1.2535108424e+01    0.2537772    0.1430549 -41.53 0.0005897711    1.582    0.368
       129 -10.7372    158.7409     90.1526   3.6640824739e+01   3.2660282725e+01    0.3632231    0.2380439  41.43  0.001222108    1.626    0.385
       130 -10.1462     56.5084     90.4904   6.6760199131e+01   5.2549044065e+01    0.2677715    0.1673711 -42.24 0.0007883345    1.443    0.307
       131 -10.8775     10.5492     90.8894   8.3654732434e+01   5.6802222107e+01    0.2013828    0.1653138 -17.46 0.0003612408    1.263    0.208
       132 -10.2545     95.6464     88.7994   5.3021672105e+01   4.6635614399e+01    0.4273816    0.1523675  48.79  0.001352687    3.509    0.715
       133  -9.6371     87.4561     89.4296   5.5823992874e+01   4.8003950705e+01     0.203391     0.179757  68.85 0.0001316413    1.429    0.300
       134 -10.1322     83.4041     88.7370   5.6950993393e+01   4.8852990810e+01    0.3131933    0.2074152  18.90  0.001173162    1.738    0.425
       135  -9.6830     60.4238     89.1999   6.5005476329e+01   5.2303868051e+01    0.1912517    0.1302547 -59.57 0.0009446159    1.667    0.400
       136 -10.9562     21.4947     86.4959   7.8680602620e+01   5.7020267712e+01    0.3997046     0.242224 -89.64  0.001579078    3.075    0.675
       137 -11.5159     21.6785     83.3522   7.7881318245e+01   5.7686334029e+01    0.2836227    0.1880021 -53.04 0.0009115268    1.286    0.222
       138 -10.4692    231.6256     91.7706   2.4223690045e+01   1.6019933913e+01    0.2017864    0.1086076 -50.25 0.0009497843    1.663    0.399
       139 -10.3812     65.4003     86.3760   6.2438347269e+01   5.2198007180e+01    0.2657475    0.1723034 -45.07  0.001326141    1.452    0.311
       140  -9.1043     39.2576     86.8592   7.2115508185e+01   5.5347094193e+01       0.2003     0.106311 -75.91 0.0006961877    4.163    0.760
       141 -11.5855    107.4535     84.8287   4.8248661901e+01   4.5105327456e+01    0.3393723    0.2754298  71.92 0.0004301282    1.590    0.371
       142  -9.8661     43.5315     85.4944   7.0164468182e+01   5.5182284058e+01    0.1364594    0.1138156 -29.35 0.0001137546    1.033    0.032
       143 -11.5763     30.2347     82.1682   7.4324847303e+01   5.7224743966e+01    0.4346289    0.2663459 -46.53  0.001698007    1.359    0.264
       144  -9.6538     26.7304     78.3976   7.4716005337e+01   5.8327205744e+01    0.1572869    0.1123933  -4.07 0.0003254112    1.447    0.309
       145 -10.9833    247.2320     84.5786   2.0710825158e+01   1.4123409429e+01     0.161459    0.1206523  54.63 0.0006372473    1.595    0.373
       146 -10.6762     76.6025     82.2437   5.7314263681e+01   5.1309402954e+01     0.247571    0.2135488  57.24 0.0009292299    1.461    0.316
       147 -10.6681      7.1965     81.5852   8.2991082339e+01   5.9027907365e+01    0.2819385    0.1531806 -41.16  0.001587049    1.490    0.329
       148  -9.3155    117.3140     83.6785   4.5080611360e+01   4.3266016613e+01    0.1477769    0.1202864 -87.41 0.0007010491    1.656    0.396
       149 -10.0807     41.1827     80.3701   6.9664936711e+01   5.6518073235e+01    0.1794321    0.1164417  34.03 0.0005622423    1.743    0.426
       150 -10.7513     18.1730     78.5903   7.8097055248e+01   5.8961345825e+01    0.2887683    0.1441279 -25.72 0.0007293569    2.144    0.534
       151 -10.7427     88.1395     77.3610   5.1961168518e+01   5.0261094562e+01    0.2411992    0.2184051 -47.11 0.0001600437    1.237    0.192
       152  -9.4358      3.0000     77.9988   8.3836255808e+01   6.0016024569e+01    0.1904799   0.05614893 -62.72 0.0004077806    2.787    0.641
       153  -9.5276    155.0375     77.0866   3.3916254433e+01   3.5880634713e+01    0.1658325    0.1611631  84.39  0.000370281    1.031    0.030
       154 -11.1002     99.8975     76.5002   4.7985920735e+01   4.8189599838e+01    0.2557158    0.2216622 -29.41  0.001406633    1.162    0.140
       155  -9.8770     37.0401     76.7173   7.0252040849e+01   5.7707635648e+01    0.1784873    0.1496374 -18.38  0.000403198    1.069    0.065
       156  -9.8887     56.2629     75.3881   6.2522705373e+01   5.5701880049e+01    0.1753395    0.1228762  35.37 0.0006499579    1.548    0.354
       157  -9.4725     44.8557     74.8460   6.6692083452e+01   5.7234849510e+01    0.1605533    0.1521344  29.94 0.0004823855    1.314    0.239
       158 -10.7692     21.9323     74.8440   7.5690596878e+01   5.9459221287e+01    0.2364568    0.1539456 -49.97  0.001381457    1.307    0.235
       159 -12.0086    167.7392     73.4406   3.0351411428e+01   3.3491172961e+01    0.2572153    0.2329366 -78.60 0.0002951663    1.089    0.082
       160  -9.3226     61.5188     73.4743   5.9988729473e+01   5.5345238464e+01    0.1374698    0.1191635 -12.49 -4.061502e-06    1.011    0.011
       161 -14.2208     16.7185     67.3002   7.5829483685e+01   6.1383574116e+01    0.5056527    0.3374995 -32.57  0.001210487    1.233    0.189
       162 -11.9895     29.7929     62.4773   6.9043924929e+01   6.1231862151e+01    0.5495585    0.4283516  16.63  0.003541852    1.350    0.259
       163  -9.8697      1.5212     73.0230   8.3347774524e+01   6.1132391761e+01    0.1791299    0.1274192 -46.82  0.001176885    1.075    0.070
       164  -9.9258     25.9969     72.4878   7.3451897674e+01   5.9607501140e+01    0.1803266    0.1184741  15.57  0.001042205    1.619    0.382
       165 -10.0387    250.3326     70.3315   1.7531511279e+01   1.5788048952e+01    0.1117118    0.1013069   6.96 -0.0005703751    1.725    0.420
       166  -9.9186     91.0930     69.9188   4.8660470216e+01   5.1073568401e+01    0.1911557    0.1860339  48.63  0.001136428    1.205    0.170
       167 -11.4439     50.2789     68.2535   6.2602146290e+01   5.7862108468e+01    0.2714283    0.1906515 -31.64 0.0005412845    1.276    0.216
       168  -9.1268    194.5842     69.4865   2.4671727680e+01   2.7835627899e+01     0.138262    0.1262379 -80.65 0.0001393355    1.035    0.034
       169 -10.4355      6.9832     68.5669   8.0137921085e+01   6.1757845967e+01    0.2423579    0.1799701 -63.38  0.001082833    1.409    0.290
       170 -11.1353    122.7494     67.4044   3.8730436433e+01   4.4957398001e+01    0.2438426    0.2365498 -31.99 0.0002768815    1.100    0.091
       171 -12.5255    146.9344     65.5580   3.2455715664e+01   3.9700924832e+01    0.2746268    0.2598564 -76.59 0.0003396074    1.095    0.087
       172 -10.8431      7.0613     73.6453   8.1298970880e+01   6.0711267502e+01    0.3234713    0.1479109   9.97  0.001413839    2.512    0.602
       173  -9.5479     93.5817     66.5203   4.6779547969e+01   5.1189542131e+01    0.1397395    0.1281354   9.84 0.0001009853    1.017    0.016
       174 -10.3050    110.3629     64.4442   4.1143737184e+01   4.8133341402e+01    0.2681517     0.205221 -81.24 0.0009665365    2.013    0.503
       175 -10.0447     81.5238     64.9958   5.0193986829e+01   5.3681688166e+01    0.2112184    0.1717379  27.97 -4.242568e-05    1.161    0.139
       176 -11.0243    202.0144     62.5334   2.1922979268e+01   2.7220982005e+01    0.2347726    0.1846721 -48.14 3.408024e-05    1.256    0.204
       177 -10.3376    155.4318     62.5151   2.9837281013e+01   3.8167594483e+01    0.3083134     0.196814 -25.98  0.001433888    1.916    0.478
       178 -10.3571     52.0653     62.2803   5.9995422339e+01   5.8735227593e+01     0.306069    0.1740638 -19.62  0.001451277    2.059    0.514
       179 -12.0552    230.7786     60.1971   1.7697830875e+01   2.1276646874e+01    0.5987074    0.2741561 -37.08  0.002767103    2.253    0.556
       180 -11.2670     22.1124     42.2466   6.5809580738e+01   6.5548840311e+01    0.6083966    0.4275596  -3.04  0.002298553    1.253    0.202
       181 -10.9311      5.9309     58.5103   7.8032967105e+01   6.3808773775e+01    0.4435182    0.2732042  54.30  0.002297039    3.230    0.690
       182 -13.0558     12.4897     47.3536   7.1892610385e+01   6.5455055656e+01    0.3596767    0.3365097 -56.32 0.0007836611    1.512    0.338
       183 -12.2035     11.7219     56.4056   7.4947526636e+01   6.3848293238e+01    0.6592667    0.4968453 -67.73   0.00271478    1.734    0.423
       184 -12.0762      3.2365     49.9993   7.6878337729e+01   6.5568453933e+01     1.034325    0.2201684 -45.98  0.004429236    2.893    0.654
       185 -12.7883     27.6340     37.6946   6.1659939767e+01   6.5746634510e+01    0.2453783    0.2000372 -12.08 0.0003798467    1.110    0.099
       186 -11.5145     24.4949     34.5745   6.1926277395e+01   6.6549919716e+01    0.2567293    0.1613119 -18.21  0.001033769    1.378    0.274
       187  -9.5259    150.5247     60.9332   3.0395683777e+01   3.9573115165e+01    0.1959883    0.1416512 -38.10  0.000327288    1.481    0.325
       188 -10.4506     89.8392     60.6902   4.6048320904e+01   5.2877411619e+01    0.3447876    0.2487707  80.36  0.001540679    2.719    0.632
       189  -9.9240     83.5107     61.0227   4.8212171861e+01   5.3997166550e+01    0.2982787    0.1675193  54.89  0.001288383    2.429    0.588
       190  -9.9830    120.0087     59.4127   3.6981136563e+01   4.6836249241e+01    0.2706718    0.1958954 -13.26  0.001346907    1.688    0.407
       191 -11.7077      2.9538     63.4032   8.0543544433e+01   6.3014271206e+01    0.3229001    0.2828536 -65.77  0.002341908    1.379    0.275
       192  -9.9704     97.9909     60.0118   4.3303077910e+01   5.1397464626e+01    0.1973439    0.1698637  78.88 0.0004117484    1.561    0.359
       193  -9.6918    169.0018     59.4831   2.6456530572e+01   3.5400852945e+01    0.2087615     0.130017  61.43 0.0003740853    1.499    0.333
       194 -10.7430    135.6028     58.4280   3.2908704448e+01   4.3448359285e+01    0.3744571    0.2268593  72.02  0.001520476    2.110    0.526
       195 -10.5973    127.2073     58.7255   3.4972380237e+01   4.5327435864e+01    0.2360262    0.2097691  15.39 0.0001962461    1.202    0.168
       196 -10.4604     58.2835     58.6505   5.6390234632e+01   5.8515054104e+01    0.2931437    0.2120027   1.16  0.001225987    1.378    0.274
       197 -10.6981    161.3660     57.7275   2.7385934272e+01   3.7479861863e+01    0.3940179    0.1594272  54.28  0.001470678    2.240    0.554
       198  -9.9867     93.6864     57.9363   4.3927250885e+01   5.2577049151e+01    0.1859825    0.1713344   1.70 0.0002896245    1.068    0.064
       199 -10.7166     80.2425     56.5235   4.7780150047e+01   5.5316496129e+01    0.4495922    0.2726058  -1.43  0.001778727    2.437    0.590
       200 -10.0654    177.5446     55.9651   2.4090375565e+01   3.3895130184e+01    0.3223125     0.150925  57.34  0.001393437    1.968    0.492
       201  -9.2508     50.6120     56.2785   5.8559164906e+01   5.9985623501e+01    0.1174538    0.1017627  56.24 0.0007000574    1.732    0.423
       202 -12.4822    105.0327     52.5633   3.8808092167e+01   5.1091359683e+01     0.265082    0.2401128  22.59 0.0003439222    1.033    0.032
       203 -10.5420     89.5974     52.2176   4.3267357459e+01   5.4247137858e+01    0.4095364    0.1916746 -38.68  0.001808542    2.279    0.561
       204 -12.4934     38.7307     50.3813   6.1374108211e+01   6.2466771445e+01    0.5796674    0.4370224 -13.99  0.002900079    1.122    0.109
       205 -10.1588     27.5292     53.7652   6.7280457504e+01   6.3054661896e+01    0.2081676    0.1521298   5.83 0.0007748388    1.302    0.232
       206 -11.7847    120.8487     51.1858   3.4203348424e+01   4.7861002252e+01     0.227688    0.1987126  30.77 0.0002461392    1.116    0.104
       207 -11.1274    128.4101     50.0777   3.2053340053e+01   4.6308307520e+01    0.3078473    0.2426442  23.80  0.001064997    1.415    0.293
       208 -11.4075     51.6659     47.2231   5.4959260325e+01   6.1336493771e+01    0.5260195    0.2498769 -47.86  0.002426188    2.612    0.617
       209  -9.6942    164.1706     48.4001   2.4390650590e+01   3.8140313182e+01    0.1912315    0.1220007  74.81 0.0003743306    1.603    0.376
       210 -11.4597     46.5631     60.5496   6.1594897042e+01   5.9752650706e+01    0.3369364    0.2156099 -16.05 0.0008651649    1.616    0.381
       211  -9.5966     82.4886     47.4848   4.3895204612e+01   5.6282776163e+01    0.1355429    0.1149359  15.96 -6.472538e-05    1.039    0.037
       212 -10.3527     77.6945     46.0076   4.4958001610e+01   5.7367408388e+01    0.3416607    0.2000517 -52.27  0.001100629    2.695    0.629
       213  -9.1727     62.4405     47.4519   5.0891603706e+01   5.9711457304e+01    0.1302806    0.1087338   3.61 7.487249e-05    1.009    0.009
       214 -11.2625     44.4035     43.2737   5.6461578776e+01   6.2927341587e+01    0.4278249    0.2850059 -55.11  0.002312816    2.349    0.574
       215 -11.6158     44.9806     38.1137   5.4286196518e+01   6.3631843655e+01    0.2416839    0.2201486 -10.48            0    1.320    0.242
       216 -10.4388    121.6285     43.4762   3.1596644403e+01   4.8730599252e+01    0.4050458    0.2160661 -32.07   0.00190156    2.078    0.519
       217 -12.3812    112.3098     45.5033   3.4544012900e+01   5.0524033755e+01    0.2432531    0.2177671  34.76  0.000265539    1.022    0.022
       218  -9.8544    104.3096     46.4037   3.6970610631e+01   5.2112909801e+01    0.1788106    0.1228714  56.13 0.0004210763    1.480    0.324
       219 -10.0750    152.8273     45.2381   2.5569455559e+01   4.1259897854e+01    0.2384533    0.1471021  62.06 0.0004062334    1.465    0.317
       220 -10.3005    141.9713     45.1056   2.7636474228e+01   4.3837929742e+01     0.398014    0.1683722  64.46  0.001546737    2.495    0.599
       221 -10.9000     97.3559     41.5574   3.7280421604e+01   5.4199968998e+01    0.3708473    0.2186524  21.39 0.0007736367    2.152    0.535
       222 -10.4820     72.9662     43.0197   4.5491441969e+01   5.8625875446e+01    0.1919096    0.1674836  13.07  0.001220185    1.062    0.058
       223  -9.9902     90.7549    249.0224   8.5048645337e+01   9.7159520507e+00    0.1773938    0.1559013  74.25 0.0003604002    1.099    0.090
       224  -9.5189     34.4852     43.4710   6.0741383193e+01   6.4091188598e+01    0.1249298   0.09653927 -10.66 0.0003989312    1.040    0.039
       225  -9.9251    162.9534     42.0960   2.2929192249e+01   3.9267408100e+01    0.1961156    0.1615422 -86.45  0.001135767    1.208    0.172
       226 -10.0105    130.8091     41.7703   2.8988930974e+01   4.6862259313e+01     0.181121    0.1543686  89.43 0.0004842882    1.322    0.243
       227 -10.9590     89.0048     41.0218   3.9557178913e+01   5.5937159427e+01    0.3476475     0.284863 -82.10  0.001252629    1.964    0.491
       228 -10.7223     83.6418     36.7074   3.9670272034e+01   5.7526734347e+01     0.359389    0.2285478 -18.36  0.001605985    1.730    0.422
       229 -10.4592     78.3269     41.0723   4.2967871735e+01   5.7942602232e+01    0.1783857    0.1549428  -3.64 0.0005510932    1.121    0.108
       230  -9.5904     67.4820     41.4628   4.6850967230e+01   5.9777245186e+01    0.1284424    0.1096637  11.86 0.0001511726    1.046    0.044
       231  -9.4620     60.3042     41.3094   4.9433347311e+01   6.0955180146e+01    0.1310742   0.08648919   3.70 0.0003156498    1.609    0.378
       232 -11.0390    235.9409     39.9855   1.3077068182e+01   2.3066372071e+01    0.1870696    0.1534337 -78.83 0.0005069032    1.063    0.060
       233 -10.9506    226.0397     39.8769   1.4048792925e+01   2.5154806005e+01    0.2285565    0.1609548 -50.75  0.001394673    1.321    0.243
       234 -10.6680    109.5326     38.4081   3.2931769356e+01   5.2038573526e+01    0.2412727    0.1649392 -24.24  0.000979127    1.642    0.391
       235 -11.3031    111.0920     34.8368   3.1363547080e+01   5.2131449788e+01    0.2880926    0.2164233  42.32  0.000768223    1.168    0.144
       236 -10.3533      1.3712     37.4416   7.3942758320e+01   6.7906961464e+01    0.2272181   0.07330194 -47.05 0.0002995097    2.268    0.559
       237 -10.4804      2.6655     32.7361   7.1743515863e+01   6.8617165265e+01    0.2496327    0.2112383 -89.59   0.00171956    2.311    0.567
       238 -11.0561     18.0919     31.4025   6.3734127189e+01   6.7646629240e+01     0.441956    0.2095966  11.73   0.00214236    2.224    0.550
       239 -10.6890    219.1191    247.6382   5.7864220851e+01  -1.0008667422e+01    0.2172683    0.1451635 -50.03  0.001205817    2.076    0.518
       240 -12.7512    241.5908     34.5153   1.1495690129e+01   2.2635507337e+01    0.4433354    0.2411989  66.72  0.001043113    1.809    0.447
       241 -10.9479     65.4128     36.7548   4.5832120010e+01   6.0766959873e+01    0.2653294    0.1849288  35.95 0.0002415502    1.329    0.248
       242 -10.7719     97.1622     36.0866   3.5445937768e+01   5.4930229791e+01    0.1946799    0.1718293  34.37 0.0006103909    1.048    0.046
       243 -11.2417     74.8001     35.5700   4.2117886419e+01   5.9303452840e+01    0.3237057    0.2239354   2.59  0.000988437    1.543    0.352
       244 -10.0131     73.3989     31.7647   4.1158086285e+01   6.0030151284e+01    0.2324072    0.1854989   7.93 0.0009358082    1.143    0.125
       245 -10.1025    201.9398     37.1770   1.6167827354e+01   3.0806456008e+01    0.1944799    0.1457814 -77.43 0.0004893639    1.210    0.174
       246  -9.7547    193.1600     34.0810   1.6546197712e+01   3.3199590047e+01    0.3120608    0.1033585 -54.29   0.00107297    4.029    0.752
       247  -9.8575    134.9204     34.8892   2.6062902878e+01   4.6754545525e+01     0.205062    0.1530359 -79.11 0.0006975163    1.673    0.402
       248  -9.6895    146.3498     33.8108   2.3564026188e+01   4.4213347311e+01    0.1599406    0.1281544  -9.22 0.0003694457    1.580    0.367
       249 -10.5694    122.5721     33.5651   2.8268554000e+01   4.9733437421e+01    0.2595863     0.183134  44.44 0.0008335187    1.275    0.215
       250  -9.7988     34.3010     33.4616   5.7062572102e+01   6.5650288410e+01    0.1455143    0.1031823  28.44 0.0009281061    1.472    0.321
       251  -9.5380    221.5028     31.5520   1.2815573964e+01   2.7204589949e+01    0.1272324   0.09779857 -77.87 5.514864e-05    1.068    0.063
       252 -10.8151    156.9110     28.1873   2.0217523483e+01   4.2371046289e+01    0.2322883    0.1747713  65.86 0.0003251365    1.142    0.124
       253 -10.9016    160.0903     24.9841   1.8874017943e+01   4.1976288098e+01    0.1991605    0.1908779 -39.25 0.0003596093    1.245    0.197
       254 -10.2217     50.0242     27.8329   4.8185490111e+01   6.4335766337e+01    0.3286832    0.1633491  -6.02  0.001370025    3.397    0.706
       255  -9.4651     11.8608     29.3556   6.5981846226e+01   6.8495682060e+01    0.1396357   0.08564057  -0.12 0.0001686644    1.467    0.318
       256 -11.6825    234.4213     27.2369   1.0744935009e+01   2.5023959723e+01    0.1973727    0.1732498 -73.39 0.0002120987    1.225    0.184
       257 -10.8461    198.1114     28.2045   1.4618023648e+01   3.2786386969e+01    0.3008599    0.1488965  77.92  0.001266152    1.946    0.486
       258 -10.5459    118.5110     27.8368   2.7357720481e+01   5.1283481707e+01    0.2625406    0.1549484  50.19 0.0009619412    1.433    0.302
       259 -11.1615    112.4038     27.0018   2.8475038213e+01   5.2723844184e+01    0.3118414    0.2278097   4.53  0.001538092    1.647    0.393
       260 -11.6495    239.4530     27.0323   1.0268813905e+01   2.4020297982e+01    0.2438476    0.1217634  54.95  0.001277188    2.479    0.597
       261 -10.0155    176.8057     26.8205   1.6950743967e+01   3.7854786680e+01    0.1747426    0.1316592 -77.38 0.0003224062    1.295    0.228
       262  -9.5027    144.6537     27.2590   2.2016196323e+01   4.5350531361e+01    0.1304234   0.09362053 -85.68 0.0004030124    1.597    0.374
       263 -10.8443     10.3156     34.7263   6.8696610902e+01   6.7764979130e+01     0.294569    0.1893141  19.45  0.001571257    1.618    0.382
       264 -11.5136    216.5518     25.3072   1.2030042697e+01   2.9041695399e+01    0.3380625    0.1814823  64.26 0.0005869258    1.747    0.428
       265  -9.9682     83.4425    248.3004   8.6503073104e+01   1.0949228054e+01    0.2381324     0.123031  53.19 0.0008195479    1.784    0.439
       266 -11.5800      6.1035    245.0213   1.0134700062e+02   2.1269067914e+01    0.4025409    0.1856772  72.01  0.001845863    1.920    0.479
       267 -10.4663     87.0699     20.0370   3.2544146097e+01   5.8741426840e+01    0.1873887    0.1484024  32.36            0    1.056    0.053
       268  -9.9995     79.9694     26.2141   3.6943358139e+01   5.9468383734e+01    0.2400355     0.163757   2.87 0.0005354502    1.601    0.376
       269 -10.3752     82.9077     22.0945   3.4509327763e+01   5.9348235623e+01    0.2631025    0.1529798  41.47  0.001114127    1.436    0.304
       270  -9.7826     71.2839     25.4782   3.9457670221e+01   6.1146913742e+01    0.2592374   0.07910635  36.55 0.0009473806    3.432    0.709
       271  99.0000     33.3088     15.0255   4.9843011812e+01   6.8196092571e+01    0.5803641    0.1652744  28.29  0.002151911    4.425    0.774
       272 -10.9127     22.3974     24.0007   5.8745885707e+01   6.8311968907e+01    0.2642831    0.1686189 -15.27 0.0004368439    1.317    0.241
       273 -11.5708    224.8864    247.2324   5.6679642385e+01  -1.0737887029e+01    0.4981824    0.1718533 -38.17  0.002157663    2.861    0.650
       274 -10.8242     72.8546    244.8575   8.8351825504e+01   1.3191425516e+01    0.2954113    0.2370017  49.60  0.001152399    1.134    0.118
       275 -10.2930     24.3256     20.2938   5.6278329006e+01   6.8609393237e+01    0.1880415      0.12405 -29.09 0.0005314039    1.413    0.292
       276 -10.2621     10.5857     24.7210   6.4834459242e+01   6.9300902323e+01    0.2492241    0.1220377 -21.64 0.0008440848    1.898    0.473
       277 -11.8438    247.9909     36.4325   1.1290311231e+01   2.1106200171e+01     0.248943    0.1902006 -78.10 0.0002366252    1.058    0.054
       278 -12.0706     75.0689    238.8750   8.7258623190e+01   1.4140874567e+01    0.5507801    0.4367838 -63.59  0.003076148    1.378    0.274
       279 -10.1552     45.4806    244.4802   9.3884367715e+01   1.6935192598e+01    0.2085074   0.08670969  47.07 -3.731866e-05    2.013    0.503
       280  -9.5060    197.9871     24.0288   1.3704653059e+01   3.3305069515e+01    0.1513988    0.1219783  89.02 0.0009692553    1.022    0.021
       281 -10.2973     54.3363     23.2666   4.4640981936e+01   6.4240245132e+01    0.2096053    0.1756365 -48.67  0.001048516    1.870    0.465
       282 -11.2918     63.7934     21.5757   4.0483777077e+01   6.2887489021e+01    0.3386236    0.2153256   2.76  0.001278286    1.687    0.407
       283 -10.4118     59.0636     21.0970   4.1985475628e+01   6.3731097497e+01    0.2001884     0.145336  30.28 0.0004370691    1.166    0.142
       284 -12.2768    249.0564     20.6981   8.3334018681e+00   2.2882396967e+01    0.2845092    0.2272839 -68.33   0.00035682    1.144    0.126
       285 -10.1955    195.2497    238.4796   6.1090033673e+01  -5.0334001559e+00    0.2361752    0.1771137 -34.52  0.001018122    1.381    0.276
       286  -9.3307    186.5867     22.5089   1.4681095619e+01   3.6075599245e+01    0.1271963    0.1042681 -88.06 4.972999e-05    1.043    0.042
       287  -9.7112     34.9951     21.9591   5.2083347276e+01   6.7136425634e+01    0.2600168    0.1647234  18.11  0.001649182    1.360    0.265
       288 -10.7723    101.2498     28.4206   3.1694174397e+01   5.4967938267e+01    0.2243453    0.2037144 -74.94 0.0004762382    1.425    0.298
       289  -9.3899    120.5557     21.4689   2.4899910780e+01   5.1482835165e+01    0.1286412    0.1097053  54.36 0.0003301309    1.021    0.021
       290 -10.0419    161.7991     19.9235   1.7305091571e+01   4.2111876006e+01    0.2241196    0.1485288  10.55  0.001136436    2.526    0.604
       291 -10.4811     97.5607     18.3033   2.9122033309e+01   5.6774749407e+01    0.2807695    0.2249049 -72.45  0.001696854    1.812    0.448
       292 -10.9083     18.0341    236.6617   9.8633803315e+01   2.1780988770e+01    0.3884398    0.1429244  52.71  0.001881979    2.329    0.571
       293 -10.6858     28.4816    244.5240   9.7188317495e+01   1.8966508731e+01    0.2406812    0.1023843 -75.60  0.001215496    2.183    0.542
       294 -11.1324    183.3214    234.4134   6.2890811416e+01  -2.4383308304e+00    0.2603016    0.2520193 -31.38  0.001105043    1.240    0.194
       295 -11.1233    184.9677    228.2170   6.1468385831e+01  -1.5857725900e+00    0.4374678    0.2501623 -21.73  0.001911151    2.347    0.574
       296 -11.0054    160.5049    235.1653   6.7937938398e+01   1.1785789132e+00    0.2844241    0.1693065  20.63 0.0008985582    1.936    0.483
       297 -11.8196     30.3658    233.7215   9.6022193597e+01   2.1051846153e+01    0.4007752     0.260784  86.18  0.002428004    1.337    0.252
       298 -10.5941     39.6134    229.4405   9.3798076369e+01   2.0905712376e+01    0.2682889    0.1478206  61.72  0.001320415    1.683    0.406
       299 -10.5524    169.2741     16.6749   1.5457734040e+01   4.0702193301e+01    0.2245861    0.1382207 -46.42  0.001255918    1.742    0.426
       300 -10.0422    165.4598     17.4521   1.6162229792e+01   4.1510599935e+01    0.1278935    0.1056208  80.19 5.718581e-05    1.028    0.027
       301 -10.0150    215.5886     16.2895   1.0285333761e+01   3.0297384866e+01    0.3193586   0.06899266  64.71  0.001216522    3.621    0.724
       302 -10.0940    193.2400     16.3487   1.2524053415e+01   3.5233147409e+01    0.2169048    0.1288636  82.83 0.0007067094    1.491    0.329
       303  -9.3440     24.2861    232.2973   9.7117087422e+01   2.2043124268e+01    0.1067213   0.08779837 -56.54 0.0003085128    1.549    0.355
       304 -10.6276     72.5976     15.8117   3.5253142966e+01   6.1921946340e+01    0.2507427    0.2077402  47.74  0.001475618    1.299    0.230
       305  -9.1797     59.3307    229.2971   8.9626592559e+01   1.8426645545e+01    0.1184907    0.1022543 -30.83 0.0007028201    1.640    0.390
       306  -9.6835    151.5406    228.5068   6.8837633137e+01   3.9882257480e+00    0.1403965    0.1280977  33.00 0.0001479974    1.029    0.029
       307 -10.1598    190.9969    226.7295   5.9928111868e+01  -2.2993644093e+00    0.2344286    0.1855932 -56.94  0.001291469    1.632    0.387
       308 -10.5811      3.8311    225.8703   1.0064297134e+02   2.5528864968e+01    0.1727076    0.1390837 -77.85   0.00122735    1.280    0.219
       309  -9.5983     54.1065     14.0885   4.0905969829e+01   6.5283030605e+01    0.1792398    0.1258731  19.55 0.0004729324    1.169    0.144
       310 -10.0126    211.9524    218.7306   5.4153698628e+01  -4.2162605952e+00    0.2291276    0.1689994 -49.17  0.001015938    1.608    0.378
       311 -10.8895     48.6158    218.7557   9.0886809647e+01   2.2211049379e+01    0.3966527      0.24671   5.55  0.001742415    3.298    0.697
       312  -9.6348    176.4957    218.5582   6.1581648138e+01   1.6594531467e+00    0.1413788    0.1287607  14.70  0.000177251    1.018    0.018
       313  -9.5703    135.7963    216.5816   7.0472160200e+01   9.1979014865e+00    0.2065805    0.1268468  46.60 0.0006722976    1.585    0.369
       314 -10.6385     29.3773    215.4679   9.4733834090e+01   2.5241751331e+01    0.2189233    0.2079616 -82.55 0.0009860261    1.293    0.227
       315  -9.8417     24.1133    216.1422   9.5900101560e+01   2.5658594224e+01    0.1763252    0.1180884  74.45  0.000425596    1.296    0.228
       316 -10.3524     42.3498     19.1046   4.7700820598e+01   6.6504581257e+01    0.3660536    0.1427559  39.48  0.001755627    2.414    0.586
       317 -10.5936      8.1959    216.0327   9.9149770379e+01   2.7283323419e+01    0.2233795    0.1495005  62.85  0.001344231    1.297    0.229
       318 -10.5837     14.5304    215.4703   9.7828590662e+01   2.6796274758e+01    0.1821612    0.1523198  35.97 0.0007845876    1.460    0.315
       319 -12.1086     12.1814    210.8473   9.7966562143e+01   2.8074592457e+01    0.4985728    0.2291012  87.43  0.001793051    2.103    0.525
       320 -10.5406    217.3237    209.9812   5.1439257332e+01  -3.5095503943e+00    0.4848026    0.1356674 -36.96  0.001571402    3.820    0.738
       321  -9.4000    110.2492    212.0090   7.5772720298e+01   1.4627145837e+01    0.1818272    0.1232477 -59.35 0.0008735435    1.540    0.351
       322 -11.9029      5.5923    210.2060   9.9270398863e+01   2.8836155639e+01    0.3800482    0.1904086 -59.65   0.00184041    2.009    0.502
       323 -12.1390      5.6784    206.3587   9.8980693229e+01   2.9702736572e+01    0.5368589    0.2092049  48.10  0.002649632    2.359    0.576
       324 -10.8564    175.3752    202.2912   5.8804494463e+01   5.1177914578e+00    0.2625718    0.2411633  18.64 0.0004808126    1.041    0.039
       325  -9.8314     67.2531    202.9767   8.4814447251e+01   2.3461867388e+01    0.1960447     0.165605 -86.42 0.0004280191    1.090    0.083
       326  -9.7051    238.4185    200.5284   4.5610963126e+01  -5.0853324390e+00    0.1324886    0.1110764 -19.58 0.0001240779    1.025    0.024
       327 -10.8257     20.0155    200.9945   9.5501529382e+01   2.9592587130e+01    0.5306236    0.1101986 -62.64  0.001913145    3.607    0.723
       328  -9.2730     56.3669    197.3077   8.6718578480e+01   2.6313687744e+01    0.1356149    0.1038764 -33.17 0.0007036769    1.753    0.430
       329 -11.8586     15.7976    192.1588   9.5663521706e+01   3.2092196702e+01    0.3715811    0.3317643 -58.01  0.001641522    1.322    0.244
       330  -9.1589    186.5303    193.4741   5.4613707320e+01   4.9022185760e+00    0.1472602    0.1361811  -5.75 0.0001083639    1.012    0.012
       331 -11.5786    244.8463    188.3604   4.2100405079e+01  -3.9303213933e+00    0.3013375    0.2259592 -53.35  0.001144586    1.600    0.375
       332  -9.3587    145.2595    190.3474   6.3514420118e+01   1.3324113029e+01    0.1532889    0.1179251 -17.83 0.0003762105    1.600    0.375
       333 -10.0665     61.8432    184.3573   8.3658661227e+01   2.8797747357e+01    0.2551259    0.1785542 -79.31  0.001292704    1.386    0.279
       334 -12.2627     16.6970    182.0189   9.4518177268e+01   3.4447235420e+01    0.4600054    0.3001828  55.80  0.002645892    1.538    0.350
       335 -11.1232    248.9096    182.0803   4.0169090987e+01  -3.4421773054e+00    0.4205765    0.2377635  -2.13  0.001644535    3.527    0.716
       336 -11.7971    244.3518    178.6337   4.0273101512e+01  -2.1331314289e+00    0.3752121    0.1699986 -32.18  0.001314632    2.195    0.544
       337 -10.1788      1.7539    180.2025   9.7816331048e+01   3.6135506332e+01    0.1669002    0.1229724 -59.59   0.00105779    1.360    0.265
       338 -11.2190     23.3227    180.4314   9.2778112456e+01   3.4215368492e+01    0.3994825    0.2068608  68.33  0.001856495    2.209    0.547
       339  -9.7771    172.9888    175.0000   5.3836423861e+01   1.1399940160e+01    0.2575975   0.08710553  41.09 0.0008101799    2.996    0.666
       340 -11.0144     18.1805    172.7895   9.3231341087e+01   3.6566059878e+01    0.2831297    0.1657175  57.90  0.001484627    1.807    0.446
       341 -11.2514    247.8378    168.8053   3.7725494458e+01  -9.1842118474e-01    0.1793066    0.1505277 -54.91 0.0006101223    1.340    0.254
       342 -10.8531      5.7039    168.2247   9.5825685111e+01   3.8706455127e+01    0.2358882    0.1298844 -78.87  0.001262274    1.492    0.330
