#   1 NUMBER                 Running object number                                     
#   2 MAG_AUTO               Kron-like elliptical aperture magnitude                    [mag]
#   3 X_IMAGE                Object position along x                                    [pixel]
#   4 Y_IMAGE                Object position along y                                    [pixel]
#   5 X_WORLD                Barycenter position along world x axis                     [deg]
#   6 Y_WORLD                Barycenter position along world y axis                     [deg]
#   7 A_WORLD                Profile RMS along major axis (world units)                 [deg]
#   8 B_WORLD                Profile RMS along minor axis (world units)                 [deg]
#   9 THETA_WORLD            Position angle (CCW/world-x)                               [deg]
#  10 FWHM_WORLD             FWHM assuming a gaussian core                              [deg]
#  11 ELONGATION             A_IMAGE/B_IMAGE                                           
#  12 ELLIPTICITY            1 - B_IMAGE/A_IMAGE                                       
         1 -14.7596      3.3846    134.3186   1.4291768723e+02   4.5223783553e+01     4.995332    0.7495357 -79.64   0.01691144    5.755    0.826
         2 -13.7650    197.3808     26.3641   6.7880916570e+01   3.2194704876e+01      2.11846     1.512214  13.85  0.008015912    1.527    0.345
         3 -13.5465    212.3048      7.6538   6.0177997780e+01   3.0145891589e+01     1.127679    0.9317597  43.66  0.004998796    1.213    0.176
         4 -11.7999      3.2724     18.4982   1.2779478031e+02   7.0242523483e+01    0.4385782    0.2206895 -73.40  0.002402331    1.982    0.496
         5 -10.8585      3.2613      3.4475   1.2277900648e+02   7.3313903686e+01    0.2922616    0.1690064 -38.61  0.001876655    1.340    0.254
         6 -10.8331     98.8607    248.8727   1.3306435172e+02   1.6079892853e+01    0.1816158    0.1244048  39.34 0.0009439774    1.278    0.218
         7 -12.2142    123.7387    249.9169   1.2920436888e+02   1.2807501893e+01    0.5952766    0.1807209  36.87  0.002975926    2.822    0.646
         8 -12.9580    143.8236    249.1588   1.2592121498e+02   1.0227335933e+01    0.7656596     0.329812  36.69   0.00465975    1.810    0.448
         9 -11.0216     34.0915    248.8527   1.4289489541e+02   2.3156296212e+01    0.3229401    0.1207881  52.86  0.002315269    1.784    0.440
        10 -11.3568     36.1530    243.9481   1.4239731388e+02   2.3632458351e+01    0.2606341    0.2068546  45.40  0.001870145    1.403    0.287
        11 -10.6840      2.9803    248.2047   1.4726721345e+02   2.6011816132e+01    0.2141884    0.1392966  89.16  0.002085181    1.481    0.325
        12 -10.3989     46.6867    248.9903   1.4105604280e+02   2.1900132450e+01    0.2194838   0.08275088  57.32  0.001480032    2.016    0.504
        13 -10.7894    237.6748    247.4327   1.1086301936e+02  -2.6342226086e+00    0.1653749    0.1490356  27.85  0.001283129    1.705    0.414
        14 -10.4991     50.9512    245.2507   1.4024464468e+02   2.1974838943e+01    0.1364582     0.111549 -72.62  0.001284842    1.634    0.388
        15 -11.0568     21.0484    243.9363   1.4460334315e+02   2.5043044177e+01    0.2593372    0.1068538  61.50  0.001935621    1.768    0.434
        16 -10.1691     13.3321    240.3632   1.4560051982e+02   2.6224364741e+01    0.1037002   0.09781522  84.16 0.0007008035    1.650    0.394
        17 -12.7831     48.1933    216.8608   1.3919236134e+02   2.6413971500e+01    0.6583952    0.5137882 -79.35  0.004399259    1.431    0.301
        18 -12.9817     33.3234    234.9012   1.4244599649e+02   2.5185893471e+01    0.2283058    0.1949263  72.35 0.0007772368    1.334    0.250
        19 -14.0069     38.0229    228.4827   1.4143603082e+02   2.5671003843e+01    0.7292241    0.4103643  53.75  0.002355275    1.272    0.214
        20 -10.1673     22.1012    237.2440   1.4421937916e+02   2.5891919518e+01    0.1369245    0.1130896 -77.03  0.001338318    1.610    0.379
        21 -13.0662    117.5930    231.9163   1.2862497777e+02   1.5900844274e+01      1.13607    0.1447667  41.53  0.003998008    5.021    0.801
        22 -12.9290     94.4864    228.0563   1.3218963129e+02   1.9426141284e+01     1.644084          nan  44.76  0.004382748    9.334    0.893
        23  -9.1833    177.5098    227.5008   1.1795619321e+02   7.8975770342e+00    0.1126013   0.08313581  36.39 -5.019515e-05    1.048    0.045
        24  -9.6366     54.8218    229.8366   1.3884147150e+02   2.3758061382e+01    0.1322432     0.111188  59.86 0.0006259996    1.239    0.193
        25 -10.3184     56.2815    224.1737   1.3827995795e+02   2.4443310183e+01    0.2783327    0.2130814  24.07  0.002233116    1.830    0.454
        26 -10.0618    172.4854    222.1722   1.1814131592e+02   9.2688987873e+00    0.2225645    0.1085499  26.73  0.001162132    2.284    0.562
        27 -11.4951     37.6034    196.3325   1.3982873754e+02   3.0814760029e+01     1.101459    0.2585183  61.60  0.003050206   10.401    0.904
        28 -11.4643     58.7642    213.0169   1.3717058195e+02   2.5891846236e+01     1.048042    0.1335439  51.02  0.003348776    7.260    0.862
        29  -8.9287    152.5215    213.0392   1.2050215967e+02   1.3441315436e+01    0.1286128    0.1154463 -46.80 0.0003162617    1.440    0.306
        30 -12.2424     10.0324    206.8833   1.4499661277e+02   3.1548465612e+01     0.525703    0.2847091  31.19  0.002939027    2.081    0.519
        31  -8.2150    221.7199    213.7128   1.0857655709e+02   2.6516261301e+00    0.1147982   0.06835034  18.34  0.000209694    1.520    0.342
        32  -9.9141     54.9618    205.1965   1.3731490326e+02   2.7558854417e+01    0.1667672    0.1045288  60.41 0.0008158871    1.274    0.215
        33 -11.7690     60.0826    200.4854   1.3607444665e+02   2.7774964402e+01    0.2058655     0.180467  80.64 0.0005353076    1.215    0.177
        34  -9.6584    193.2030    195.4267   1.1065573401e+02   9.2358180521e+00    0.6030141    0.3057546 -58.12  0.001774189    9.697    0.897
        35 -10.3230     15.5425    197.6072   1.4372183696e+02   3.2605896519e+01    0.2764823    0.1018434  47.64  0.001168914    2.000    0.500
        36 -12.0381     66.5738    191.9010   1.3421226560e+02   2.8489958775e+01    0.2126998     0.192293  83.12 0.0004812427    1.219    0.180
        37 -12.2284     21.9505    126.4820   1.3808601512e+02   4.5531843501e+01    0.8282902    0.2114799  45.66 0.0009344661    3.595    0.722
        38 -13.0455     10.9846    158.3230   1.4267974657e+02   3.9989379874e+01     2.464918    0.7009923  74.50  0.009088791    5.542    0.820
        39 -10.8596    244.7968    247.7960   1.0983160087e+02  -3.6188491321e+00    0.1925212    0.1699427 -62.94  0.001434503    3.012    0.668
        40 -12.0285     85.8503    152.3978   1.2604509894e+02   3.3375686927e+01    0.2497066    0.2204132 -45.89 0.0006132846    1.334    0.250
        41 -12.1509     67.4209    143.5974   1.2913515699e+02   3.7490386072e+01    0.6067864    0.3562328  61.96  0.002899633    1.810    0.448
        42 -10.0476    109.2669    137.8174   1.1837019802e+02   3.2824339137e+01    0.3753639    0.2546846 -20.55  0.001577619    2.366    0.577
        43 -10.7577     31.2311    131.4914   1.3632942935e+02   4.3726376284e+01    0.2243259    0.1674139  67.07 0.0005385615    1.227    0.185
        44 -10.4731     96.3104    135.2912   1.2104906531e+02   3.5327121866e+01    0.2184853    0.2096632 -16.76 0.0004504237    1.204    0.169
        45  -9.0212    106.4892    124.1426   1.1654210449e+02   3.6036593786e+01    0.1792563    0.1294864 -53.52 0.0003458342    1.393    0.282
        46 -10.8357     76.9921    178.6139   1.3097337851e+02   2.9579766702e+01    0.1959331    0.1667878  64.51 0.0003534724    1.033    0.032
        47  -9.3978     98.5831    175.2943   1.2621037071e+02   2.7327510651e+01     0.218567    0.1507715  63.53 0.0009514176    1.445    0.308
        48 -13.2310     63.5666    176.8944   1.3350032878e+02   3.1494131752e+01    0.3976477     0.239116 -47.30  0.001810578    2.288    0.563
        49 -11.9384     84.7718    169.2482   1.2836775789e+02   3.0299564563e+01    0.5544071    0.5236157   8.45  0.002867907    1.363    0.267
        50 -10.0403    157.8266     75.9487   9.1452031799e+01   3.5218122536e+01    0.2484269    0.2036356   6.12 0.0008058192    1.267    0.211
        51 -10.2486     22.7627    156.5553   1.4018918573e+02   3.9393578901e+01    0.1723184    0.1022613  26.58  0.001024144    2.048    0.512
        52 -11.3463     11.5286     53.6733   1.3213281813e+02   6.2221977114e+01    0.2203253    0.1953209  68.70 0.0009426446    1.344    0.256
        53 -10.3094     97.0990    153.4118   1.2365208772e+02   3.1607679090e+01    0.2689959     0.266884 -39.20 0.0008609229    1.180    0.153
        54 -10.7656    198.6942    248.2188   1.1703212322e+02   2.6923990102e+00    0.2126623    0.1310491 -33.49  0.001554605    2.209    0.547
        55 -11.1293    171.5441    247.6866   1.2130915448e+02   6.5614556385e+00    0.2247743    0.1727511   4.21  0.001786416    1.591    0.372
        56  -9.5333    100.0248    149.0197   1.2234435462e+02   3.2034354637e+01    0.1839254     0.173052  56.12 0.0003706916    1.064    0.060
        57 -10.6703     29.5682    248.7883   1.4354590274e+02   2.3592899341e+01    0.2986303    0.1646337 -66.65  0.002465022    2.304    0.566
