#   1 NUMBER                 Running object number                                     
#   2 MAG_AUTO               Kron-like elliptical aperture magnitude                    [mag]
#   3 X_IMAGE                Object position along x                                    [pixel]
#   4 Y_IMAGE                Object position along y                                    [pixel]
#   5 X_WORLD                Barycenter position along world x axis                     [deg]
#   6 Y_WORLD                Barycenter position along world y axis                     [deg]
#   7 A_WORLD                Profile RMS along major axis (world units)                 [deg]
#   8 B_WORLD                Profile RMS along minor axis (world units)                 [deg]
#   9 THETA_WORLD            Position angle (CCW/world-x)                               [deg]
#  10 FWHM_WORLD             FWHM assuming a gaussian core                              [deg]
#  11 ELONGATION             A_IMAGE/B_IMAGE                                           
#  12 ELLIPTICITY            1 - B_IMAGE/A_IMAGE                                       
         1 -14.1559    171.1253     43.2824   7.3565095514e+01   3.6614792451e+01     1.451553    0.8918608  35.99  0.004632577    2.010    0.502
         2 -14.0216    183.4123     31.3721   6.8510367331e+01   3.5123227039e+01    0.8782601    0.7770002  89.64  0.003776097    1.060    0.056
         3 -15.0020    188.4415     23.4918   6.5845777174e+01   3.4826667718e+01     2.094546     1.359558  11.22  0.001433594    2.749    0.636
         4 -12.0803     57.5670      6.4171   8.8678554996e+01   6.4588815088e+01    0.2895957    0.1869745  44.83 0.0009789254    1.585    0.369
         5  -9.2341     72.4722    237.4365   1.3729950717e+02   1.6620092177e+01    0.1206877     0.101363  67.86 0.0008052617    1.081    0.075
         6 -13.8247     66.7878    204.0443   1.3480007113e+02   2.4353375830e+01     2.157082     1.893111  -7.85    0.0133748    1.712    0.416
         7 -10.5486     93.0140    206.9057   1.2952570304e+02   1.9801081627e+01    0.2565192    0.1833297 -60.94 0.0006637414    1.444    0.307
         8 -12.1314    116.8913    206.4274   1.2423306648e+02   1.5897630661e+01    0.2775174    0.2052238  75.53 0.0007888916    1.510    0.338
         9 -10.2866     86.3017    204.3937   1.3064484272e+02   2.1401141347e+01    0.3465638    0.2321415  -3.56  0.001387632    3.805    0.737
        10 -11.8031    114.9024    210.4570   1.2527584064e+02   1.5399750583e+01      0.34044    0.2147315 -78.37 0.0004283734    2.029    0.507
        11 -10.2365     68.1847    235.1865   1.3789212183e+02   1.7669751734e+01    0.1752235    0.1464348  81.16  0.001189473    1.098    0.089
        12 -13.1405    195.6953    195.3362   1.0520201775e+02   3.2521263310e+00    0.8322839    0.6546652  70.98  0.003386382    1.767    0.434
        13 -16.3305    115.5376    240.1063   1.2919973073e+02   9.4406901717e+00     5.989584     2.157016  39.17   0.02472572    2.523    0.604
        14 -10.6909    140.6108    199.7404   1.1788580818e+02   1.2978453650e+01     0.192898    0.1377424 -65.71 0.0006402762    1.626    0.385
        15 -11.9995    112.0524    196.6387   1.2378400680e+02   1.8841816922e+01    0.4919415    0.3059759  16.76  0.001999317    2.843    0.648
        16 -10.5058    157.1985    192.1858   1.1283586160e+02   1.1346279234e+01    0.1967619    0.1696919  76.40 0.0003739707    1.321    0.243
        17 -11.5975    207.6425    184.7860   1.0067843010e+02   2.8976963336e+00    0.3841133    0.2969578 -23.51  0.001418531    1.329    0.247
        18 -11.4795    211.6586    181.0015   9.9108382725e+01   2.8174424358e+00    0.3407268    0.2549185 -12.62  0.001230234    1.495    0.331
        19 -16.1113     71.6460    149.6915   1.2572167836e+02   3.6155556437e+01     4.920623     2.807272  65.45   0.01730573    2.517    0.603
        20 -10.2445     90.2702    183.5722   1.2674141779e+02   2.5421201145e+01    0.3245539     0.192484  67.74  0.001430071    2.126    0.530
        21 -10.4274      4.8091    236.5136   1.4925591832e+02   2.4979676417e+01    0.1165988    0.0933881  55.58  0.000416087    1.371    0.270
        22 -10.9639     99.3306    180.7817   1.2415742085e+02   2.4569507693e+01    0.2780135    0.2384238  37.32 0.0008324707    1.244    0.196
        23 -10.9666     95.0239    179.4667   1.2496371015e+02   2.5587656066e+01    0.2797306    0.2059473  61.26 0.0007410387    1.378    0.274
        24 -12.3569     84.9865    178.8690   1.2725346264e+02   2.7334227585e+01    0.4571538    0.2735692 -44.60  0.002139866    1.953    0.488
        25 -12.3683     88.0048    174.0073   1.2575283436e+02   2.7982867949e+01    0.3466897     0.337077 -32.08 0.0008343424    1.211    0.174
        26 -10.6931    197.8359    175.9295   1.0084596086e+02   6.4656677041e+00     0.359103    0.2386516 -55.33  0.001650956    1.816    0.449
        27 -11.6893    181.9502    233.1104   1.1479154921e+02  -8.2371909433e-01    0.3841316    0.1799632  44.76  0.001740582    1.952    0.488
        28 -12.1088    137.4802    170.9440   1.1325543498e+02   1.9769448686e+01    0.3680534    0.3111735  64.31  0.001498628    1.228    0.186
        29 -11.0066    204.3395    168.4506   9.7944607403e+01   6.5855164380e+00    0.4213781    0.3933117 -31.25  0.002385858    1.077    0.072
        30 -10.0185     93.7480    198.8721   1.2823785109e+02   2.1431278606e+01    0.2729543    0.1543297  63.67 0.0008214895    2.078    0.519
        31 -11.2257    145.6678    168.2693   1.1078129743e+02   1.8717595301e+01     0.263892    0.2321068  83.54 0.0006406639    1.255    0.203
        32 -19.2745     26.5254    139.9358   1.3593569178e+02   4.3672455362e+01     19.54661     2.342041 -67.24   0.04300858    9.233    0.892
        33 -10.1811     10.2438    213.8101   1.4687792583e+02   2.8933545992e+01    0.1306514   0.08605652  30.74 0.0008517456    1.974    0.494
        34 -12.6700     99.4340    156.8802   1.1986796287e+02   3.0087823800e+01      0.68873    0.4181347 -38.69  0.003015037    1.971    0.493
        35 -12.0641    133.7945    144.5907   1.0857013345e+02   2.6413127424e+01     1.088975    0.2769877 -53.10  0.002669415    5.185    0.807
        36 -10.9223    174.5262    149.0158   9.9965860700e+01   1.6745491583e+01    0.2869571    0.2679341  69.05 0.0009339003    1.129    0.115
        37 -11.9879    145.1794    145.7099   1.0602401727e+02   2.3790788469e+01    0.3711043    0.3132301  80.35  0.001822562    1.371    0.271
        38 -12.0472    109.6170    141.2212   1.1401983571e+02   3.1913505219e+01    0.5453822    0.3584465 -30.89   0.00236937    1.931    0.482
        39 -12.5099     98.3802    141.6792   1.1708978973e+02   3.3821039127e+01    0.2834498     0.269116 -17.43 0.0004408771    1.154    0.133
        40 -13.3413     11.6981    206.4190   1.4607525261e+02   3.0317757320e+01    0.4017197    0.3494666  36.57  0.003060709    1.537    0.350
        41 -11.9041    116.8666    130.9287   1.0978023618e+02   3.2887241813e+01    0.4558741    0.3433023  10.38  0.001387174    1.779    0.438
        42 -11.5023    135.3598    123.0551   1.0307619489e+02   3.0850601968e+01    0.5842436    0.1458351 -45.82  0.001586929    4.023    0.751
        43 -10.7282    160.3671    127.4516   9.8090106697e+01   2.4409080566e+01    0.3130437    0.2560813 -70.44  0.001228303    1.415    0.293
        44 -10.7371    125.2524    126.8502   1.0660656063e+02   3.2127911146e+01    0.2628097    0.1731453  87.23  0.000954827    2.844    0.648
        45  -9.8258    139.8140    125.5830   1.0258109298e+02   2.9347997351e+01    0.2097979    0.1470257  56.52 0.0002354463    1.541    0.351
        46 -11.8558    105.0948    129.0213   1.1249271807e+02   3.5544264592e+01    0.5557103    0.3549658 -68.79  0.001327806    1.998    0.500
        47 -10.3500    111.2315    119.9764   1.0866637982e+02   3.6428001469e+01    0.2354041    0.2121576  41.59 0.0003106798    1.130    0.115
        48 -10.6134      4.5705    228.6891   1.4883525117e+02   2.6513123468e+01   0.09741756   0.07553608 -49.99 0.0006927909    1.955    0.489
        49 -10.5368    168.5146    113.4314   9.2744890993e+01   2.5418385097e+01      0.36528    0.2633174 -74.88  0.001027391    1.896    0.473
        50 -12.2982    108.6329    211.0127   1.2671627999e+02   1.6356408962e+01    0.5866467    0.3039844  48.25  0.002714519    1.770    0.435
        51 -10.3733    205.3498    110.1149   8.4468456108e+01   1.7516790436e+01    0.3187963    0.2034368  39.03  0.001014928    1.796    0.443
        52 -10.1564    134.4865    102.9541   9.8099647936e+01   3.5261670581e+01    0.2359257    0.1507964 -42.51  0.001029761    1.581    0.368
        53 -10.3160    150.8634    101.4739   9.3679384553e+01   3.1877275040e+01    0.2378339    0.2078489 -59.67  0.000378652    1.218    0.179
        54  -9.6896    176.3795     74.7030   8.1014533628e+01   3.0657363648e+01    0.1561016    0.1128794 -81.99 0.0007022662    1.758    0.431
        55 -12.3098    107.6759    204.7087   1.2600298775e+02   1.7853714009e+01    0.5835568    0.4230102   5.07  0.002751034    2.385    0.581
        56 -11.0366    169.9650    239.9908   1.1828305831e+02   1.3048787495e-01     0.203234    0.1738713  30.55 0.0004429901    1.051    0.048
        57  -9.5422      1.3390    238.3759   1.4992381409e+02   2.4966480099e+01    0.1001818   0.07431798  84.99 0.0002662395    1.127    0.113
