#   1 NUMBER                 Running object number                                     
#   2 MAG_AUTO               Kron-like elliptical aperture magnitude                    [mag]
#   3 X_IMAGE                Object position along x                                    [pixel]
#   4 Y_IMAGE                Object position along y                                    [pixel]
#   5 X_WORLD                Barycenter position along world x axis                     [deg]
#   6 Y_WORLD                Barycenter position along world y axis                     [deg]
#   7 A_WORLD                Profile RMS along major axis (world units)                 [deg]
#   8 B_WORLD                Profile RMS along minor axis (world units)                 [deg]
#   9 THETA_WORLD            Position angle (CCW/world-x)                               [deg]
#  10 FWHM_WORLD             FWHM assuming a gaussian core                              [deg]
#  11 ELONGATION             A_IMAGE/B_IMAGE                                           
#  12 ELLIPTICITY            1 - B_IMAGE/A_IMAGE                                       
         1 -14.3950    157.5356     50.5253   8.5163040888e+01   3.9156679611e+01     1.625908     1.282894  12.68   0.00533977    1.415    0.293
         2 -13.2472    173.0625     27.3531   7.4871453036e+01   3.8303828064e+01    0.5338006    0.4122622  21.38  0.001441501    1.448    0.310
         3 -14.3874    169.3164     34.8954   7.7888334136e+01   3.8341536255e+01     1.052828    0.9552347  22.76  0.003498784    1.120    0.107
         4 -12.0953    189.3761     14.7404   6.8670725536e+01   3.5523739422e+01    0.3501255    0.2539063 -41.26  0.001102774    1.414    0.293
         5 -13.8038    184.5007      4.1355   6.6164720209e+01   3.7781545210e+01     1.048536    0.5450035  63.49  0.004752973    1.716    0.417
         6 -11.7162    182.4034    233.5950   1.2166213056e+02   2.6840848759e+00    0.2867955     0.182205  38.22  0.001769288    1.256    0.204
         7 -19.3427     71.0061    242.9781   1.4208170451e+02   1.7818637340e+01     6.183625     4.525916  62.20   0.04207286    1.023    0.022
         8 -12.6434    204.8064    198.3810   1.1196902081e+02   3.7399291762e+00    0.4516988    0.3143891   2.64  0.002174964    1.648    0.393
         9 -10.3146     24.6317    206.0262   1.4731294459e+02   2.9524539605e+01    0.1576236    0.1439132  31.99  0.001274602    1.613    0.380
        10 -10.3111    170.1940    205.1580   1.1963690062e+02   8.8135050071e+00    0.1779796    0.1571488  22.24 0.0004093923    1.106    0.096
        11 -10.4321    211.2459    201.8472   1.1140576054e+02   2.1356831540e+00    0.1795311    0.1625413  29.87 0.0007046366    1.207    0.172
        12 -11.5093    178.0282    197.0172   1.1678986884e+02   8.7054310182e+00    0.4208935    0.2451808  53.93  0.001858326    1.923    0.480
        13 -11.8972    180.3007    193.8103   1.1579893510e+02   8.8027520402e+00     0.474586    0.2940335 -58.38    0.0020627    2.409    0.585
        14 -11.0897    177.5546    189.4922   1.1557675684e+02   9.9935813288e+00    0.2340729    0.1936832  38.58 0.0006947413    1.085    0.078
        15 -11.1881    136.3071    197.2583   1.2505158766e+02   1.5985201590e+01    0.3108293    0.2239781  78.95  0.001138682    1.805    0.446
        16 -11.0056    169.8344    195.3011   1.1809230549e+02   1.0447514070e+01    0.2016569    0.1806699 -61.84 0.0007472076    1.357    0.263
        17 -10.3208    182.2495    189.2052   1.1460802634e+02   9.1807715907e+00    0.1698195    0.1556104  73.39 0.0005349871    1.354    0.261
        18 -10.6049    220.5678    229.2527   1.1434447339e+02  -2.8650269212e+00    0.2476906    0.1375679 -39.90  0.001416396    2.294    0.564
        19 -11.2603    158.1586    193.4938   1.2009690868e+02   1.2835033629e+01    0.2335884    0.2000274 -84.54 0.0005838299    1.461    0.316
        20 -12.4778    207.5805    183.7551   1.0875596504e+02   5.3757123848e+00    0.3497904    0.3257704   7.63  0.001169011    1.140    0.123
        21 -12.5300    210.7613    181.2669   1.0768424938e+02   5.1639201285e+00     0.415727    0.2965265 -10.72  0.001485707    1.517    0.341
        22 -10.5212     28.4491    179.6502   1.4470599254e+02   3.4238269932e+01    0.3300018    0.1968516  12.63  0.001793841    3.302    0.697
        23 -10.1506     17.5058    180.6321   1.4688649820e+02   3.5073706001e+01    0.1025015    0.0846739 -87.79 0.0002366423    1.177    0.151
        24 -10.4463    145.1391    178.7310   1.2027022860e+02   1.7794224107e+01    0.2176604    0.1519631  18.01  0.001076277    1.899    0.473
        25 -11.4132    197.6973    176.1651   1.0916488104e+02   8.3825846623e+00      0.40165     0.295681 -53.57   0.00140643    1.783    0.439
        26 -11.3162      3.7615    225.5985   1.5176929051e+02   2.8017246559e+01    0.1463152    0.1046594 -79.03  0.001230125    1.436    0.304
        27 -11.3800    178.7293    173.7106   1.1242831496e+02   1.2402474357e+01    0.2929303    0.1961323 -33.44  0.001495597    1.629    0.386
        28 -11.8960    126.0065    172.7566   1.2333012326e+02   2.2332513723e+01    0.2784826    0.2090297 -56.40  0.001552822    1.410    0.291
        29 -12.3849    138.2068    171.5257   1.2048569867e+02   2.0408480782e+01    0.4764736    0.3736076  84.11   0.00250318    1.583    0.368
        30 -12.8577    144.2667    168.1531   1.1857428207e+02   1.9945749429e+01    0.7220657    0.4824407  70.30  0.003367491    2.101    0.524
        31 -12.6835     14.2192    248.7359   1.5121313034e+02   2.3237052261e+01    0.3654355    0.1723553  57.79  0.002693916    1.512    0.339
        32 -10.7330     12.5979    224.1075   1.5032436378e+02   2.7459208122e+01    0.1280491   0.07437543 -89.55 0.0005272424    1.406    0.289
        33 -10.8601    205.8399    169.8257   1.0634155528e+02   7.8358144331e+00    0.4338992    0.2533651  18.68  0.001897634    2.257    0.557
        34 -11.4092    226.3545    168.1075   1.0219605277e+02   4.2321117127e+00    0.3697928    0.2014724 -51.96  0.001521697    3.121    0.680
        35 -19.2152     55.9397     93.9834   1.2610500146e+02   5.0072911885e+01     17.42349    0.9552352 -57.83   0.02687209   16.917    0.941
        36 -11.3275    230.1607    166.1716   1.0111635998e+02   3.8114178008e+00    0.1708518    0.1659131 -29.71 0.0005254589    1.327    0.247
        37 -10.8032    200.6694    164.9104   1.0632738484e+02   9.6195349785e+00    0.3829018    0.3022657  64.07  0.002035149    1.659    0.397
        38 -10.8520    121.0376    217.5713   1.3075893689e+02   1.4962633638e+01    0.4055239    0.2361034  76.37  0.001758988    2.722    0.633
        39 -10.6545     25.2175    165.5057   1.4415950185e+02   3.7437793440e+01    0.1956396    0.1785034  21.75  0.001119292    1.533    0.348
        40 -12.2354     25.2142    156.9126   1.4337774969e+02   3.9239195319e+01    0.4944106    0.3044509  51.63  0.002382344    1.604    0.376
        41 -11.1862     28.3994    151.3198   1.4213342774e+02   4.0137288753e+01    0.2975525    0.1513525  77.61 0.0008743558    2.211    0.548
        42 -10.9247    217.2460    217.4067   1.1300068256e+02  -9.0614744368e-01    0.1711301    0.1013785  44.96 0.0009541441    1.641    0.391
        43 -12.9710    134.1068    146.0658   1.1656338910e+02   2.6242371552e+01     1.200775    0.3338259 -54.67  0.003185022    5.401    0.815
        44 -10.9925    174.2850    148.3998   1.0815485244e+02   1.7783830906e+01    0.3605366    0.2703829 -54.67  0.001231102    1.560    0.359
        45 -12.4271    144.6107    146.0891   1.1416221783e+02   2.4212437838e+01    0.4457194    0.3475368 -77.68  0.002232622    1.644    0.392
        46  -9.8454    135.8405    219.1499   1.2818448406e+02   1.2360305811e+01    0.1521971    0.1300222  27.64  0.001020687    1.271    0.213
        47 -10.4162    128.0293    143.4627   1.1744738000e+02   2.7922634739e+01    0.2139932    0.1368943  43.98 0.0005396717    1.539    0.350
        48 -12.5418    115.3943    139.2192   1.1959824840e+02   3.1118151537e+01    0.5071962    0.3246288 -39.83  0.002412461    1.724    0.420
        49 -12.9566    105.5526    139.6197   1.2207074682e+02   3.2731624315e+01    0.4731111    0.3064978  54.47 0.0007660695    1.659    0.397
        50 -11.6066      6.6584    139.2561   1.4582719856e+02   4.4509622173e+01    0.3601886    0.1339209  32.02  0.001925062    2.946    0.661
        51 -10.1680     18.2367    231.2644   1.4979801927e+02   2.5695187570e+01    0.1193773   0.09257267  74.48 0.0002852237    1.160    0.138
        52 -12.3285    106.0988    130.8191   1.2017228754e+02   3.4556055373e+01    0.4254287    0.3546039 -56.27  0.001276147    1.162    0.139
        53 -11.7329    108.5587    125.9658   1.1852281642e+02   3.5189788395e+01    0.3041395    0.2606632   5.77 0.0007666348    1.417    0.294
        54 -12.2403    119.5187    129.9379   1.1664081305e+02   3.2361354038e+01    0.4020577     0.367504 -76.23  0.001333396    1.130    0.115
        55 -12.5272      2.8882    124.8996   1.4536972033e+02   4.7846963450e+01    0.4649697    0.1713072 -78.00   0.00231575    2.226    0.551
        56 -11.5698    160.4294    128.2375   1.0657510724e+02   2.4517222158e+01     0.416398    0.3310208 -41.96  0.002104493    1.276    0.216
        57 -11.3864    136.0000    128.4895   1.1230446964e+02   2.9508159615e+01    0.3645702    0.1890906 -48.01  0.001505375    1.947    0.486
        58 -12.4895    135.7979    122.6893   1.1099784416e+02   3.0751791514e+01    0.6208635     0.351251 -57.48  0.002538297    2.121    0.529
        59 -10.6501    143.8676    128.3320   1.1040129885e+02   2.7955992630e+01    0.2265796    0.1992959 -59.76 0.0002987054    1.210    0.173
        60 -13.0085    126.0320    127.1704   1.1442151928e+02   3.1728025145e+01     0.739278     0.495894  87.80  0.003010748    2.599    0.615
        61 -11.2411    100.4810    127.0349   1.2081053117e+02   3.6333588777e+01    0.2454286    0.2043797  15.67 0.0008831869    1.457    0.314
        62 -11.3370    113.5552    118.8058   1.1564111110e+02   3.5851651831e+01    0.3115596    0.2324183  64.66 0.0002223365    1.603    0.376
        63 -11.7690    170.1943    115.9125   1.0137701079e+02   2.4759723812e+01    0.6045168     0.393393 -74.07  0.001369523    2.969    0.663
        64 -11.8693     24.8620    117.5186   1.3902243089e+02   4.7860064175e+01    0.3387805    0.1590865  60.43  0.001592452    2.902    0.655
        65 -11.7892      2.5200    112.4940   1.4418891664e+02   5.0557204435e+01     0.294788    0.1712317 -59.42  0.001728366    1.437    0.304
        66 -11.7049      8.4645    111.5055   1.4254209763e+02   5.0399518379e+01    0.3337308    0.2002825   0.78  0.001980664    2.613    0.617
        67 -12.2352     96.6848    110.4157   1.1814880779e+02   4.0628556453e+01    0.4121303    0.3491367 -19.93  0.001810821    1.349    0.258
        68 -11.6107    113.8925    110.3433   1.1353412299e+02   3.7611758358e+01    0.2497953    0.1955231 -58.82 0.0005591128    1.320    0.242
        69 -10.7570    205.4830    110.1789   9.2764855816e+01   1.7823793589e+01    0.3243476    0.2091948  40.45  0.001026223    1.586    0.369
        70 -10.1116     27.2700    209.3600   1.4707102184e+02   2.8646300845e+01    0.1254286    0.1095521  67.68 0.0008695073    1.301    0.231
        71 -11.4504    134.4521    104.5483   1.0677694690e+02   3.4766800690e+01     0.524007    0.1735691 -43.77  0.001694255    2.966    0.663
        72 -10.8450    165.7131    207.3513   1.2083866651e+02   9.2481890622e+00    0.2519932    0.2199233  49.65 0.0007246946    1.135    0.119
        73 -10.0944    124.5029     94.9541   1.0672268385e+02   3.8771012872e+01    0.2232137    0.1437698 -41.37 0.0004114101    1.507    0.337
        74 -10.0969     96.2042     80.3371   1.1041299915e+02   4.7138096412e+01    0.1943107    0.1317774  49.76 0.0005498371    1.693    0.409
        75 -10.8156    200.5094    248.9785   1.2068169199e+02  -2.0363660941e+00    0.1451077    0.1098135 -25.02  0.001033919    1.598    0.374
        76 -10.4792      2.7479    243.7717   1.5266658874e+02   2.5108761148e+01   0.07258268   0.06024462  80.65 0.0006657072    1.389    0.280
        77 -11.0469     14.0587     59.1900   1.3214487730e+02   6.1382084252e+01    0.2862718    0.1736897 -32.00  0.001333952    1.652    0.395
        78 -11.1404    164.7018    204.3567   1.2056402940e+02   9.8965460565e+00    0.3149887    0.2180284 -75.31  0.001494766    2.419    0.587
        79 -10.4229    138.6187     31.7164   8.2807845555e+01   4.6369017488e+01    0.2328248    0.1781478  85.19 0.0007081485    1.702    0.413
        80 -14.1296    194.0015    193.9332   1.1319584787e+02   6.3126712295e+00     1.139979    0.7920591 -64.25  0.004132681    2.467    0.595
