#   1 NUMBER                 Running object number                                     
#   2 MAG_AUTO               Kron-like elliptical aperture magnitude                    [mag]
#   3 X_IMAGE                Object position along x                                    [pixel]
#   4 Y_IMAGE                Object position along y                                    [pixel]
#   5 X_WORLD                Barycenter position along world x axis                     [deg]
#   6 Y_WORLD                Barycenter position along world y axis                     [deg]
#   7 A_WORLD                Profile RMS along major axis (world units)                 [deg]
#   8 B_WORLD                Profile RMS along minor axis (world units)                 [deg]
#   9 THETA_WORLD            Position angle (CCW/world-x)                               [deg]
#  10 FWHM_WORLD             FWHM assuming a gaussian core                              [deg]
#  11 ELONGATION             A_IMAGE/B_IMAGE                                           
#  12 ELLIPTICITY            1 - B_IMAGE/A_IMAGE                                       
         1 -14.5360    165.5004     45.3274   7.7832250142e+01   3.8286427788e+01      1.82807     1.137947  25.91  0.006098539    2.346    0.574
         2 -14.2885    179.1669     30.7223   7.1417198125e+01   3.6825255915e+01     0.919972    0.8611782 -47.74  0.003696553    1.160    0.138
         3 -13.6227    183.2428     24.2138   6.9061190671e+01   3.6598583103e+01    0.6054862    0.5079604 -67.70  0.001256964    1.203    0.169
         4 -12.9072    189.5475     15.0044   6.5812551705e+01   3.6085687132e+01     0.327173    0.2473098 -86.43 0.0009893286    1.260    0.207
         5 -12.9667    198.6689      2.4970   6.1659035845e+01   3.5169674422e+01     0.538866    0.2683354  58.01  0.002705368    1.842    0.457
         6 -13.7950    109.1488    208.5309   1.2904049024e+02   1.6687652170e+01    0.8313295    0.5734336  36.78  0.004443336    1.564    0.361
         7 -19.6622     43.8260    160.4862   1.3682152666e+02   3.6972942063e+01     19.89982     5.365186 -69.31   0.06890567    3.623    0.724
         8 -10.2885    157.8833    193.1085   1.1616416104e+02   1.0913835263e+01    0.2147555    0.1849469  77.53 0.0003067588    1.265    0.209
         9 -11.5051     99.0049    191.9485   1.2880842588e+02   2.1961740137e+01    0.3075714    0.2198433  80.29 0.0006651985    1.469    0.319
        10 -11.7405    207.6710    185.3286   1.0434029547e+02   2.5867060573e+00    0.3369499    0.2932371  -4.17  0.001007958    1.167    0.143
        11 -11.9032    212.0266    181.3175   1.0266656716e+02   2.4657704110e+00    0.3884829    0.2706432  -4.77  0.001188951    1.891    0.471
        12 -11.8931     99.5003    180.8788   1.2699528027e+02   2.4366582540e+01    0.2972274    0.2357549 -68.23 0.0009627488    1.210    0.173
        13 -10.7727    197.7834    176.5601   1.0452294957e+02   6.1768689829e+00    0.3942783    0.2317583 -53.85  0.001695573    2.037    0.509
        14  -9.5475    168.4562    175.5542   1.1049302501e+02   1.2387451948e+01    0.1474802    0.1417779  28.76 0.0008059312    1.054    0.052
        15 -12.0365    126.5870    173.0189   1.1941672285e+02   2.1302048924e+01    0.4436506    0.2818243  56.23  0.001362934    1.638    0.389
        16 -12.2814    136.9434    171.0570   1.1665558241e+02   1.9737143002e+01     0.505065    0.3341711  50.29  0.002087482    1.486    0.327
        17 -10.9741    145.3489    168.0867   1.1413868098e+02   1.8716006513e+01     0.211896     0.194234 -69.08 0.0005710182    1.098    0.089
        18  -9.6887    122.1549    165.3665   1.1900337838e+02   2.3879964125e+01    0.2022988    0.1310287  54.58  0.000278424    1.589    0.371
        19 -10.3714      3.8583    161.9289   1.4581556272e+02   4.0438064563e+01    0.1666866    0.1207481 -66.38 0.0005606672    1.270    0.212
        20  -9.9894    165.0493    208.2349   1.1734193565e+02   6.5780426031e+00    0.1939541    0.1703969  41.99  0.000244053    1.045    0.043
        21 -11.7994    101.3196    157.8609   1.2259015811e+02   2.9394683174e+01    0.3883241    0.3336195 -46.32 0.0005025487    1.255    0.203
        22 -11.6688    103.6160    154.2124   1.2133395467e+02   2.9854056826e+01    0.5059523    0.3016537  62.68  0.002150967    2.091    0.522
        23 -11.4626    162.7540    155.0422   1.0741491145e+02   1.7934453218e+01    0.3255291    0.2593411  71.72  0.001555959    1.447    0.309
        24 -10.5879    139.6938    156.1882   1.1299432990e+02   2.2520511233e+01     0.240189    0.1992872  61.64 0.0004112603    1.230    0.187
        25 -13.6481     11.4118    206.2713   1.4791081455e+02   3.0273764714e+01    0.4507541    0.3050393  46.77  0.003180101    1.577    0.366
        26 -11.6568    133.7973    144.9745   1.1197636004e+02   2.6270090125e+01     1.029837    0.2497092 -53.81  0.002456066    5.413    0.815
        27 -10.9183    174.7874    148.9121   1.0335899250e+02   1.6631804086e+01     0.293727    0.2182762 -64.93 0.0008703985    1.579    0.367
        28 -11.1346    146.0060    146.7335   1.0943622509e+02   2.3336773058e+01    0.2234791    0.2112577  60.42  0.001177476    1.051    0.049
        29 -10.8487     88.9921    147.0811   1.2362753457e+02   3.3993258564e+01    0.2115141    0.1913573 -78.52 0.0003307754    1.012    0.012
        30 -11.7679      5.7924    206.6062   1.4892202806e+02   3.0742641528e+01    0.2240263    0.1330661  64.55 0.0008073603    1.419    0.295
        31 -12.1752    111.7275    140.7327   1.1654641695e+02   3.1557975852e+01    0.5431406    0.3130864 -38.22  0.002237958    2.057    0.514
        32 -12.4946    100.7012    141.1712   1.1946001524e+02   3.3435774772e+01    0.2755345    0.2739598  18.86  0.000446208    1.134    0.118
        33 -11.5116     13.6610    136.5749   1.4092171838e+02   4.5342513046e+01    0.2144923    0.1652774 -66.78 0.0003201903    1.104    0.094
        34 -11.3687    117.6176    130.6999   1.1279039858e+02   3.2771414082e+01    0.3536392    0.2870709 -31.70 0.0009910024    1.375    0.273
        35 -12.3730    103.7106    201.4356   1.2917688817e+02   1.9106906514e+01    0.4424355    0.1966113  49.75   0.00174099    2.128    0.530
        36 -10.7582    160.4864    127.5040   1.0149625334e+02   2.4404368905e+01    0.2932487    0.1447795 -54.23  0.001037056    2.336    0.572
        37 -10.8785    142.2824    127.1796   1.0574094496e+02   2.8503003004e+01    0.4377069    0.2864679  84.42  0.001609882    2.682    0.627
        38 -11.8938    105.7913    128.9124   1.1546643919e+02   3.5402802769e+01    0.5965156    0.2879297 -54.81  0.002326145    2.024    0.506
        39 -11.3421    135.4316    122.6372   1.0631246380e+02   3.0978592406e+01    0.4492142    0.1452485 -51.76   0.00129975    3.505    0.715
        40 -10.1532    112.1570    119.8113   1.1162975121e+02   3.6310794240e+01     0.219694    0.1989169 -81.56 0.0003845794    1.161    0.138
        41 -13.3827    195.4111    195.1566   1.0873295735e+02   3.1772995235e+00    0.9544207    0.7286626  84.71  0.003413618    2.036    0.509
        42 -10.7090    136.6738    197.2637   1.2145766032e+02   1.4127395914e+01     0.351307    0.1962087  77.88  0.001152566    4.064    0.754
        43 -11.0598    168.7346    113.6715   9.6132687086e+01   2.5425417108e+01    0.3601335    0.2768407 -74.68 0.0008239023    1.597    0.374
        44 -10.6188    163.9686    111.1577   9.6549212049e+01   2.7056163574e+01    0.3097016    0.2296152  59.72 0.0005718013    1.426    0.299
        45 -10.5435      1.2293    250.6686   1.5215136066e+02   2.2721463306e+01    0.1042615   0.05104491  74.25 0.0005814298    1.524    0.344
        46 -10.5214    205.3518    110.2304   8.7774166119e+01   1.7499640627e+01    0.3189512    0.2145052  47.15  0.001034493    1.558    0.358
        47 -12.4435    112.4324    196.3474   1.2655291890e+02   1.8714760148e+01     0.516971    0.3594534  -2.49  0.002115457    3.337    0.700
        48 -10.5265     10.4559    213.6561   1.4858533668e+02   2.8860436851e+01    0.1423994    0.1048609  19.53 0.0009576717    2.358    0.576
        49 -10.1880    134.6027    102.7696   1.0134882167e+02   3.5456373754e+01    0.2232327    0.1431175 -52.97 0.0009519886    1.644    0.392
        50 -10.8630    180.2073    193.6773   1.1155867695e+02   6.4149839108e+00    0.3351805    0.1963682 -60.98  0.001409007    2.387    0.581
        51 -12.2181    103.8992    194.4284   1.2811201926e+02   2.0596821324e+01    0.4415399    0.2458229  31.50  0.001955993    2.276    0.561
        52 -10.4152    168.1783    248.1571   1.2299002146e+02  -8.5948168955e-01    0.1670037    0.1330182  60.55 0.0003525807    1.325    0.246
        53 -11.4763    158.1678    246.2084   1.2460116826e+02   1.1633723170e+00    0.1748061    0.1353988  63.66  0.000541887    1.358    0.264
        54 -11.7480    120.9677    217.7197   1.2790271996e+02   1.2786840734e+01    0.4138885    0.2354158  81.21  0.001275035    2.953    0.661
        55 -11.8755    183.7278    215.3573   1.1478791288e+02   1.7882864336e+00    0.2834995     0.219603  71.70  0.001331358    1.704    0.413
