#   1 NUMBER                 Running object number                                     
#   2 MAG_AUTO               Kron-like elliptical aperture magnitude                    [mag]
#   3 X_IMAGE                Object position along x                                    [pixel]
#   4 Y_IMAGE                Object position along y                                    [pixel]
#   5 X_WORLD                Barycenter position along world x axis                     [deg]
#   6 Y_WORLD                Barycenter position along world y axis                     [deg]
#   7 A_WORLD                Profile RMS along major axis (world units)                 [deg]
#   8 B_WORLD                Profile RMS along minor axis (world units)                 [deg]
#   9 THETA_WORLD            Position angle (CCW/world-x)                               [deg]
#  10 FWHM_WORLD             FWHM assuming a gaussian core                              [deg]
#  11 ELONGATION             A_IMAGE/B_IMAGE                                           
#  12 ELLIPTICITY            1 - B_IMAGE/A_IMAGE                                       
         1 -12.2486    116.8379     46.1825   3.1547037592e+01  -4.4021233650e+01   0.04900228   0.03148688  52.89  0.005168141    1.569    0.363
         2 -11.6073      5.4850     34.8696   3.3211128676e+01  -4.4839170201e+01   0.05048532   0.02800472  25.76    0.0035835    2.690    0.628
         3 -10.4678    105.4459      1.8259   3.1332507211e+01  -4.4572251693e+01   0.01393311   0.01053105 -55.63 0.0008687065    1.475    0.322
         4 -12.0732    104.7076     12.8303   3.1442159493e+01  -4.4458330783e+01   0.03106814   0.01571383  56.50  0.002912453    1.989    0.497
         5 -12.4962    105.7857     19.9166   3.1488129529e+01  -4.4375024280e+01   0.02097002   0.01613281 -61.94 0.0003578927    1.514    0.339
         6 -12.3183     58.2245     29.5404   3.2323895782e+01  -4.4570852406e+01    0.0286332    0.0151779  45.75  0.001403043    1.966    0.491
         7 -11.7424    164.2903     27.5705   3.0643172970e+01  -4.3917030107e+01   0.02012042   0.01634834 -82.93 0.0005515111    1.487    0.327
         8 -11.8495     20.1935     21.6342   3.2860899759e+01  -4.4893057461e+01   0.02624032   0.01669068  47.58  0.002329244    1.602    0.376
         9 -11.5435    134.1096     22.0923   3.1063760034e+01  -4.4170513446e+01    0.0231944   0.02052765 -85.27  0.002831915    1.275    0.216
        10 -10.7943    127.9880     11.9467   3.1068925150e+01  -4.4318955008e+01   0.01734101   0.01322664 -79.42  0.001566706    1.670    0.401
        11 -11.2553    135.7967     14.5536   3.0970112655e+01  -4.4240734310e+01   0.03142716   0.01496608 -22.61  0.002567414    2.339    0.573
        12 -11.4290     35.5335     17.4578   3.2579283754e+01  -4.4843494003e+01   0.02996652   0.01679862  50.98  0.002407487    1.788    0.441
        13 -10.8628      9.7266     19.3266   3.3008582069e+01  -4.4982710796e+01   0.02375936   0.01551757  12.69  0.001117394    2.072    0.517
        14 -10.8023     12.9927      8.5239   3.2862118733e+01  -4.5080289183e+01   0.01991064   0.01952236  11.95  0.001646277    1.028    0.027
        15 -10.4752      5.6773      8.9807   3.2983648725e+01  -4.5120402887e+01   0.02358967   0.02193614  77.23  0.002973242    1.152    0.132
        16 -12.1558     22.4986     11.0796   3.2731978461e+01  -4.4993705467e+01   0.03182743   0.02316003  38.19  0.003154115    1.462    0.316
        17 -10.5777     17.4266     10.4787   3.2808027164e+01  -4.5031619799e+01   0.01183484   0.01014312 -42.02 0.0005420822    1.165    0.141
        18 -10.9624     68.9009     19.6429   3.2067789356e+01  -4.4611265217e+01   0.01720418   0.01589402 -26.31   0.00120868    1.047    0.045
        19 -11.7290    164.9836     17.7833   3.0544684100e+01  -4.4017458478e+01   0.02640795   0.01671131  11.37  0.002443637    2.343    0.573
        20 -11.2121     86.1181     13.9748   3.1745375220e+01  -4.4564012577e+01   0.03015968   0.01336849  40.97  0.002471984    2.699    0.630
        21 -10.6397     89.0552      8.4574   3.1650076030e+01  -4.4605016375e+01   0.02497743   0.01652113 -59.72  0.002520214    1.895    0.472
        22 -11.8433    227.6767     14.7917   2.9551930068e+01  -4.3638446841e+01   0.02498171   0.01396413 -48.54  0.001440361    1.990    0.497
        23 -12.2286     48.9173     12.8857   3.2325821691e+01  -4.4809759673e+01   0.03423637   0.01395089 -28.87  0.002862663    2.374    0.579
        24 -10.3097    219.3427     12.6278   2.9659861149e+01  -4.3716573703e+01   0.01318317   0.01104324  23.39  0.001401641    1.293    0.227
        25 -10.8765    191.0000     12.0181   3.0090211473e+01  -4.3909500646e+01   0.01615777  0.009881207  62.76  0.001081265    1.765    0.433
        26 -11.8099    193.0000      7.0117   3.0014036263e+01  -4.3949836629e+01    0.0286997   0.01901525  11.89  0.002795517    2.102    0.524
        27 -11.7147    212.2567      9.7115   2.9742085805e+01  -4.3794392444e+01   0.02561105   0.01332366  47.46  0.001597689    1.969    0.492
        28 -10.7060    121.2267     11.6804   3.1172468979e+01  -4.4365185406e+01   0.01786128  0.009025135 -35.33  0.001357206    1.870    0.465
        29 -11.2112    167.9651      9.7801   3.0426434280e+01  -4.4083804409e+01   0.02661508   0.01331791 -27.16  0.002006846    2.012    0.503
        30 -11.5378     64.1821      9.3401   3.2051842150e+01  -4.4752525544e+01   0.02041799   0.01532108 -82.26  0.000269524    1.714    0.416
        31  -9.9309      1.1020      8.1473   3.3050005524e+01  -4.5157627157e+01   0.01917735  0.003244391  58.66  0.001095837    5.215    0.808
        32 -11.0957    153.2277      6.8017   3.0628710516e+01  -4.4211402934e+01   0.02408243   0.01513261  23.90  0.002294352    2.152    0.535
        33 -11.4948    185.0762      6.7102   3.0133694256e+01  -4.4004976001e+01   0.01889066   0.01387997 -74.32  0.001307942    1.787    0.440
        34 -11.0487    232.6105      6.6353   2.9402197782e+01  -4.3692438008e+01   0.01480325   0.01093297 -51.90  0.001033493    1.466    0.318
        35 -11.0552    233.9002      2.2069   2.9342037520e+01  -4.3730898181e+01   0.02000428   0.01222676 -50.20  0.001984194    1.829    0.453
        36 -10.6606    122.1612      5.7450   3.1104788260e+01  -4.4423067456e+01   0.01614204  0.004208205  56.39  0.001106669    3.614    0.723
        37  -9.6918     75.0057      3.1059   3.1824950778e+01  -4.4751778640e+01   0.02055437  0.008153623 -39.58  0.001696873    2.431    0.589
        38 -11.4991    243.5923      3.7082   2.9207751138e+01  -4.3650469088e+01   0.01884545   0.01584347 -14.91  0.002250146    1.216    0.178
        39 -10.0343    176.2218      5.7361   3.0261921944e+01  -4.4073261465e+01    0.0115962  0.007680064 -33.28 0.0006617869    1.448    0.309
        40  -9.9457    164.7917      4.4560   3.0427699837e+01  -4.4161447959e+01   0.01646346  0.008557173  28.41  0.001298374    3.110    0.678
        41 -10.3900    142.0486      2.9026   3.0768008680e+01  -4.4325560407e+01   0.01416904   0.01163792  29.61  0.001095872    1.303    0.233
        42 -10.6659    137.8017      3.8437   3.0842829456e+01  -4.4342877257e+01   0.01298763   0.01102202 -40.12 0.0003640218    1.163    0.140
        43 -11.8062    133.0475      2.4694   3.0904863849e+01  -4.4388287618e+01   0.01700753   0.01576998   5.50  0.001968338    1.096    0.088
        44 -10.8380    247.4546      5.5337   2.9165576722e+01  -4.3605365943e+01   0.01436392   0.01131732  40.65  0.001658309    1.318    0.241
        45 -10.4616     41.9401      3.5942   3.2355396471e+01  -4.4954169059e+01   0.01729274   0.01106553  14.70  0.001638205    2.183    0.542
        46 -10.5959    218.5298      3.4868   2.9589156125e+01  -4.3819214022e+01   0.01235644   0.01111709  -0.04 0.0006901384    1.148    0.129
        47 -10.7130    223.6579      2.5974   2.9502403286e+01  -4.3794721112e+01   0.01314529   0.01158887 -12.38 0.0004720685    1.147    0.129
        48 -10.7236    113.1214      1.9245   3.1212592966e+01  -4.4522118585e+01   0.01564151  0.009350749 -35.12 0.0009614341    1.596    0.373
        49 -11.3642    205.7076      2.1650   2.9774183747e+01  -4.3917951848e+01   0.02593578   0.01024183 -37.05  0.002137979    2.365    0.577
        50 -10.3143      1.9766      2.0206   3.2982537524e+01  -4.5219029771e+01   0.01329725  0.009436762  34.67  0.001025813    1.547    0.353
        51  -9.3092     33.9530      1.7867   3.2467162237e+01  -4.5023597264e+01  0.009358576  0.006508077  36.86 0.0005736286    1.564    0.361
        52  -9.4943    152.0767      1.4105   3.0598108015e+01  -4.4276655185e+01  0.009715972  0.006148374 -29.74 0.0005265304    1.530    0.346
        53 -11.4790     15.5796     15.2789   3.2879499314e+01  -4.4990755766e+01   0.02469985   0.01453993  36.68  0.001515972    1.966    0.491
        54  -9.2285     12.6475      1.7315   3.2808322418e+01  -4.5156370841e+01  0.006695936  0.004917311  15.33 0.0003710758    1.628    0.386
        55  -9.6451     77.8889      7.3152   3.1816564700e+01  -4.4688047812e+01   0.01021544  0.008480726 -53.74 0.0006568537    1.285    0.222
        56 -10.0170      2.1752    125.6681   3.4033808457e+01  -4.3864791084e+01   0.01376765   0.01005485 -73.79   0.00145982    1.753    0.429
        57  -9.7795    249.5866    250.1864   3.1282130750e+01  -4.0975716233e+01  0.009341491  0.005781155  46.10 0.0009429042    1.661    0.398
        58  -9.8509     25.9964    131.4751   3.3705804338e+01  -4.3657224918e+01    0.0114922  0.009423497  58.94 0.0004345012    1.256    0.204
        59  -9.4879     27.0093    123.6914   3.3624606143e+01  -4.3736375102e+01  0.009139083  0.008138582 -31.32 0.0004573574    1.090    0.082
        60 -10.7956    104.4739    122.3671   3.2400759702e+01  -4.3273868176e+01   0.01380919   0.01310096  57.82 0.0009356583    1.093    0.085
        61  -9.6868     49.6276    122.5093   3.3258626955e+01  -4.3611382290e+01   0.01358927  0.008644685  12.46  0.001275131    2.197    0.545
        62  -9.9861     44.6072    119.7855   3.3314539763e+01  -4.3671877259e+01   0.01179048   0.01049857  86.10 0.0005990987    1.243    0.195
        63  -9.7454     43.4128    116.2066   3.3303109788e+01  -4.3718309825e+01   0.01205993   0.01047722 -55.26 0.0007975565    1.222    0.182
        64 -10.7406      7.8772    114.8459   3.3852979680e+01  -4.3949223227e+01   0.01361633   0.01190979  17.67 0.0003734598    1.200    0.167
        65 -12.1344      2.6667    111.3993   3.3906760815e+01  -4.4018495100e+01   0.02224147   0.01894266  74.12  0.001194576    1.276    0.216
        66 -11.5535      4.5295    105.4057   3.3826887443e+01  -4.4073008318e+01   0.02446558   0.01723728 -37.27  0.002690282    1.378    0.274
        67  -9.6600     79.1103    114.8462   3.2731712684e+01  -4.3513385345e+01  0.009744698  0.008747542 -47.48 0.0007862281    1.138    0.121
        68  -9.7256     58.4921    115.0618   3.3056432931e+01  -4.3638317064e+01  0.009330973  0.006512907  62.65 0.0003545373    1.504    0.335
        69 -10.0323     35.5510    102.6368   3.3312224363e+01  -4.3914738562e+01   0.03174814    0.0151826  -8.55  0.002285573    3.681    0.728
        70 -11.8580     26.0713    106.7208   3.3496567118e+01  -4.3927914503e+01   0.03291525   0.01931297  19.03  0.002344926    2.581    0.612
        71 -11.1111     24.5267    102.4803   3.3485179338e+01  -4.3983734187e+01   0.02056099   0.01419776 -68.41  0.001803974    1.904    0.475
        72 -11.6103     22.3137    114.0374   3.3617643101e+01  -4.3870650007e+01   0.02771491   0.01552838 -10.73  0.002134137    2.286    0.563
        73 -11.3602     28.4948    112.8330   3.3509832349e+01  -4.3846252772e+01   0.01753266   0.01335537 -29.68  0.001156238    1.265    0.209
        74 -10.7243     12.8217    111.8134   3.3749174695e+01  -4.3952580271e+01   0.01969164  0.009520701  61.12  0.001388144    2.141    0.533
        75 -10.8381     16.3322    109.4277   3.3673509004e+01  -4.3957457118e+01   0.01806893   0.01027672 -35.84 0.0008740381    1.676    0.403
        76 -10.0249     49.1076    111.9824   3.3177767572e+01  -4.3729584367e+01   0.01179836  0.009087579 -30.94 0.0007029187    1.250    0.200
        77 -11.9956     79.5545    107.9874   3.2666232845e+01  -4.3585307751e+01    0.0257134   0.01466537 -22.17  0.001323267    1.824    0.452
        78 -10.0378    174.2319    108.3000   3.1202938004e+01  -4.2985212456e+01   0.01469767  0.009387567 -40.18  0.001528187    1.537    0.349
        79  -9.6347    101.9996    109.0000   3.2324718420e+01  -4.3434521670e+01   0.01089807  0.003614118 -28.84 0.0006148815    2.923    0.658
        80 -11.2705     50.4585    100.8062   3.3061601300e+01  -4.3843312420e+01   0.02864789   0.01749425  23.10  0.002524041    2.249    0.555
        81  -9.8281     85.8920    103.5638   3.2529298564e+01  -4.3594057204e+01   0.01091246  0.008682751  40.55 0.0005995967    1.300    0.231
        82 -11.7046     67.4764     95.2471   3.2746541169e+01  -4.3798891055e+01   0.02395753   0.01847889  20.51  0.002661434    1.474    0.321
        83 -10.8081     17.1054    100.5343   3.3586294796e+01  -4.4050189681e+01   0.01167962   0.01053704  64.41 0.0005419041    1.160    0.138
        84 -11.4561      9.3858     97.0339   3.3679254188e+01  -4.4135395705e+01   0.02310456   0.01913551 -38.89  0.001093535    1.189    0.159
        85  -9.9598     80.5015     98.6352   3.2571355692e+01  -4.3681190490e+01   0.01322161  0.009467183  12.81 0.0008631192    1.720    0.418
        86 -10.5280     30.9743     96.9432   3.3336278156e+01  -4.4004965607e+01   0.02178364   0.01768355 -52.31  0.002548127    1.309    0.236
        87  -9.2117    210.2882     98.0085   3.0561993758e+01  -4.2863614151e+01  0.007750708  0.005834057  57.25 0.0005429186    1.366    0.268
        88 -11.2703     79.4993     92.5199   3.2534556387e+01  -4.3753936080e+01   0.03126947   0.02723719 -36.69  0.003822638    1.124    0.110
        89 -12.3837     76.1951     79.4993   3.2474285286e+01  -4.3916070169e+01    0.0421287   0.02353022 -52.64  0.001093527    2.187    0.543
        90  -8.8853    140.7083     95.6422   3.1608796547e+01  -4.3335406807e+01  0.006880688  0.004835481  26.02 0.0007028808    1.690    0.408
        91 -10.6420    125.7484     94.2668   3.1828541898e+01  -4.3445002346e+01   0.01381282   0.01066641 -30.45 0.0003729217    1.249    0.199
        92 -10.2745    121.6378     93.2327   3.1883377064e+01  -4.3482148126e+01    0.0205157  0.009317889  73.48  0.001511052    3.580    0.721
        93 -10.2534     42.8486     94.6222   3.3128934049e+01  -4.3957582065e+01   0.01694778   0.01367238 -41.62  0.001984631    1.234    0.190
        94 -10.3815     43.5006     90.7887   3.3085975718e+01  -4.3995426736e+01   0.01088968   0.01009848  44.02 0.0008691169    1.098    0.089
        95 -11.5727     22.1327     93.6303   3.3448191948e+01  -4.4095166691e+01   0.03414612   0.01712788 -51.46  0.001332574    2.509    0.601
        96 -10.2691     18.2287     86.3720   3.3448561600e+01  -4.4198378156e+01   0.01850418   0.01411264 -33.77  0.001233974    1.265    0.209
        97  -9.8976     16.0628     94.6158   3.3552810118e+01  -4.4121336774e+01   0.01262049  0.009334616  86.37  0.001331119    1.673    0.402
        98 -10.6145     35.7702     91.1533   3.3211233562e+01  -4.4038890761e+01   0.02572334   0.01846572 -49.80  0.002815548    1.491    0.329
        99 -11.3182     27.8936     85.3159   3.3286249590e+01  -4.4150906256e+01   0.02611165   0.02123523 -12.30  0.001304096    1.263    0.208
       100  -9.9476     37.4014     85.5372   3.3137578467e+01  -4.4090221259e+01   0.01571875  0.008075297 -19.69  0.001400348    2.171    0.539
       101 -10.4249     50.3637     91.7718   3.2986082683e+01  -4.3942469697e+01   0.01596313   0.01281907 -60.05  0.001640305    1.396    0.284
       102 -10.0436     52.0659     86.9961   3.2918424742e+01  -4.3984056330e+01   0.01415221  0.009720499 -46.24  0.000346034    1.513    0.339
       103 -11.4003     44.9505     84.0936   3.3005904262e+01  -4.4059563486e+01   0.02708234   0.02111429 -54.98  0.002003824    1.405    0.288
       104 -10.1657     98.1543     90.6851   3.2226981280e+01  -4.3657403217e+01   0.01062654  0.009065507 -48.91 0.0004881826    1.210    0.174
       105 -10.9213      3.2452     82.1553   3.3651155071e+01  -4.4335655141e+01   0.01835893   0.01337914  89.16  0.001295561    1.742    0.426
       106  -9.9919      2.6465     89.3112   3.3721231191e+01  -4.4260872476e+01    0.0151179  0.009158424 -39.62  0.001516249    1.617    0.382
       107 -10.9758      6.2200     88.0382   3.3653584079e+01  -4.4253159506e+01   0.03191207   0.01442696 -47.07  0.002661871    2.552    0.608
       108  -9.6880      9.3091     86.6656   3.3592815682e+01  -4.4249442044e+01    0.0165671   0.01158356 -65.65  0.001197722    1.817    0.450
       109 -10.1965     66.8235     88.3780   3.2697921981e+01  -4.3877731324e+01   0.01376629  0.009535774  17.55 0.0006426779    1.812    0.448
       110  -9.3009    104.2296     86.9960   3.2100282294e+01  -4.3659309918e+01  0.008638059  0.005433963  59.52   0.00087695    1.641    0.390
       111 -10.2039     90.5595     85.9658   3.2304928271e+01  -4.3756161441e+01   0.01581677   0.01254343 -80.73   0.00178523    1.540    0.351
       112 -10.0744    143.1543     84.1337   3.1470652256e+01  -4.3444142412e+01  0.009401209  0.009282668 -32.43 0.0006013745    1.037    0.035
       113 -10.4308    112.8270     83.0546   3.1932095066e+01  -4.3647918758e+01   0.02077378  0.009249612 -39.79  0.001812638    2.182    0.542
       114 -10.0695     60.6119     83.3141   3.2752191148e+01  -4.3971357127e+01   0.01141454  0.009598178 -36.63 0.0005881749    1.161    0.139
       115  -9.6538    120.7420     81.3743   3.1794285524e+01  -4.3616137997e+01   0.01123899  0.006200187  79.51 0.0009336798    2.828    0.646
       116  -9.1833    118.7669     78.3331   3.1798536583e+01  -4.3661526420e+01  0.009079567  0.008318788 -27.62 0.0001222057    1.057    0.054
       117  -9.5713    103.4299     79.9460   3.2051663403e+01  -4.3740756868e+01  0.009585596  0.006388375  59.11 0.0004277785    1.546    0.353
       118  -9.5336     92.4616     71.5155   3.2150035126e+01  -4.3901047614e+01  0.009459992  0.006575247  78.00 0.0009777904    1.761    0.432
       119 -10.9054     89.2892     77.4845   3.2251486494e+01  -4.3856174486e+01   0.02007868   0.01325943 -37.81  0.001559046    1.467    0.318
       120 -10.5079     94.3462     76.1821   3.2161016598e+01  -4.3838614073e+01   0.01562022   0.01322692 -15.92 0.0009849642    1.183    0.155
       121 -10.9784     53.3538     76.2636   3.2806081541e+01  -4.4093066366e+01   0.02026268   0.01642246  78.31  0.002355727    1.396    0.284
       122 -10.3306     58.1811     77.4634   3.2740231578e+01  -4.4050122123e+01   0.01161348  0.009176147  60.84 0.0005874287    1.315    0.239
       123  -9.2839     38.4486     77.9319   3.3056021679e+01  -4.4166801083e+01  0.008780637  0.005672845 -81.29 0.0008051076    2.350    0.575
       124  -9.2062    125.6513     77.6619   3.1685598260e+01  -4.3625210871e+01  0.007031896  0.004877885  21.36 0.0007046507    1.787    0.440
       125  -9.7119     46.5541     75.6679   3.2908386868e+01  -4.4141562621e+01   0.01371252  0.008063655  40.21  0.001333814    1.872    0.466
       126 -11.1092     13.8607     74.4974   3.3417028010e+01  -4.4354910291e+01   0.01678371   0.01459887 -88.12  0.002024674    1.300    0.231
       127  -9.9011    103.5880     74.4689   3.2001621077e+01  -4.3799110635e+01   0.01395552  0.008276306 -45.56   0.00137531    1.767    0.434
       128 -10.8817     27.1999     73.2963   3.3194714434e+01  -4.4286473977e+01   0.03063684   0.01750114  -4.62  0.002680123    2.513    0.602
       129 -10.5640     34.5849     71.3932   3.3061244475e+01  -4.4261909909e+01   0.01948334  0.009107248 -39.78  0.001470209    2.085    0.520
       130 -10.6445     40.2272     72.8002   3.2983895653e+01  -4.4211836220e+01    0.0211068   0.01062531 -20.30  0.001733273    2.208    0.547
       131 -11.3131     40.6014     68.9006   3.2944496598e+01  -4.4252056012e+01   0.01853112   0.01290486 -35.09  0.001578505    1.381    0.276
       132 -10.6738      1.9257     71.6325   3.3582891455e+01  -4.4458912824e+01   0.02200311    0.0104825  53.86  0.002008228    2.066    0.516
       133 -11.4051    247.0077     72.6161   2.9779215402e+01  -4.2895195383e+01   0.01461725  0.009550439  69.91  0.001493679    1.795    0.443
       134 -10.2069     67.2142     81.5206   3.2632859444e+01  -4.3949943270e+01   0.01550547   0.01175628  29.22  0.001730551    1.460    0.315
       135 -10.5481     80.8046     71.8609   3.2335874491e+01  -4.3970293427e+01   0.02198241   0.01110608  63.72  0.002004109    2.164    0.538
       136  -9.2962    153.8655     72.3461   3.1201689418e+01  -4.3502875432e+01  0.009514316  0.006041231 -16.21  0.000909521    1.760    0.432
       137 -10.9253    122.9183     68.5383   3.1648408285e+01  -4.3741145615e+01   0.02109324   0.01188787 -23.79  0.001749988    1.827    0.453
       138  -9.9088     13.4758     67.3727   3.3362392328e+01  -4.4435171189e+01   0.02561934  0.007793288 -24.70  0.001562425    3.716    0.731
       139 -12.4922      6.5352     62.3552   3.3430246786e+01  -4.4532385866e+01    0.0401481   0.02781703  13.50  0.004142222    1.817    0.450
       140 -10.1716      9.5319     56.4941   3.3332264145e+01  -4.4578180040e+01   0.01368861   0.01118549 -68.01 0.0008221664    1.414    0.293
       141 -11.4982     93.2096     62.8163   3.2062656669e+01  -4.3990659336e+01   0.02472496     0.012933 -47.01  0.002263121    2.105    0.525
       142  -9.8839    201.1123     64.4856   3.0405336941e+01  -4.3282402905e+01   0.01011382  0.006247464 -29.94  0.001025077    1.568    0.362
       143 -10.2332    105.1576     63.2429   3.1879272377e+01  -4.3910781380e+01   0.01102612   0.01072105 -17.34   0.00077517    1.009    0.009
       144 -10.2643    158.8211     62.8333   3.1041274735e+01  -4.3573511122e+01   0.01341486  0.008853532 -10.39 0.0005477089    1.796    0.443
       145  -9.8815     84.5454     61.7940   3.2189748561e+01  -4.4056134873e+01   0.01294849   0.01076644  60.70   0.00153513    1.250    0.200
       146  -9.9052     57.9347     62.4055   3.2614302297e+01  -4.4215538520e+01   0.01273884   0.00952321  89.24  0.001376617    1.681    0.405
       147  -9.8284     50.7691     56.4570   3.2676198606e+01  -4.4324732420e+01   0.01374351   0.01072641  52.39 0.0009791823    1.301    0.232
       148 -11.8322     44.2171     60.2881   3.2813076287e+01  -4.4323591972e+01   0.04110359   0.01974643 -26.90  0.002775189    2.057    0.514
       149 -10.7118     40.7530     56.6158   3.2836329109e+01  -4.4385010144e+01   0.01605722  0.009713317 -32.61 0.0008673298    1.575    0.365
       150  -9.9591    113.8995     60.8633   3.1721857562e+01  -4.3881259300e+01   0.01162486  0.009674287  57.12  0.001271947    1.237    0.191
       151 -10.5256    124.5598     56.6317   3.1518438338e+01  -4.3859325187e+01   0.01545436  0.009246934  41.25 0.0009925925    1.811    0.448
       152 -10.0660    122.8044     44.6749   3.1440540219e+01  -4.3999538544e+01   0.01313849   0.01148285  -9.38  0.001016863    1.164    0.141
       153 -10.9523    118.2014     55.7056   3.1609477875e+01  -4.3909725639e+01   0.03600379   0.01820649 -63.37  0.002527581    4.144    0.759
       154 -10.4165    109.6105     40.3320   3.1608598143e+01  -4.4130320987e+01   0.03193084   0.01466082  43.97  0.002761011    2.380    0.580
       155  -9.2140    113.2923    249.3452   3.3327409146e+01  -4.1835662536e+01  0.006847992  0.004820955  26.57 0.0007028572    1.662    0.398
       156 -11.6275    119.3110     36.9797   3.1427169768e+01  -4.4104810187e+01   0.01970763   0.01592493  84.39  0.001486003    1.453    0.312
       157 -10.8614     31.6913     52.9435   3.2948601272e+01  -4.4480955074e+01   0.02725946   0.01036171 -25.58  0.002136717    2.736    0.634
       158  -9.4365     29.7685     59.9785   3.3039739966e+01  -4.4416072022e+01   0.01804978  0.009882243  65.20  0.001709757    2.009    0.502
       159  -9.9401     26.4909     59.4739   3.3087523313e+01  -4.4441728274e+01   0.01540134   0.01073194 -21.16  0.001662179    1.449    0.310
       160 -11.0505     25.7136     55.5679   3.3066315949e+01  -4.4489127004e+01   0.02154104   0.01199748  40.88  0.001273491    1.985    0.496
       161 -10.4030    106.6533     58.4485   3.1813971359e+01  -4.3953216156e+01   0.01172559  0.008649615 -48.06 0.0007316116    1.419    0.295
       162 -11.1554     76.3088     57.6722   3.2283455146e+01  -4.4152439247e+01   0.01337019   0.01128481 -89.66 0.0009702925    1.369    0.270
       163 -12.1737     73.5228     48.4349   3.2246934528e+01  -4.4270117350e+01   0.04429189     0.024504  83.40  0.003515884    3.085    0.676
       164  -9.1475     65.0000     58.8895   3.2472299954e+01  -4.4209820517e+01   0.01042218  0.003727409  60.11 0.0007939448    2.884    0.653
       165 -10.8559     88.4360     54.3024   3.2063343913e+01  -4.4112934200e+01   0.03543731  0.007230329  51.49  0.002240939    4.311    0.768
       166 -10.8301    157.2407     55.4120   3.1000117397e+01  -4.3663498420e+01   0.01957463   0.01530752  71.15   0.00136761    1.420    0.296
       167 -11.3641    154.9816     48.7262   3.0975877605e+01  -4.3749924386e+01   0.01713017   0.00926554  51.81 0.0006733382    1.850    0.459
       168  -8.8347     51.6540     65.7397   3.2742355974e+01  -4.4218202681e+01  0.006627544  0.004921668  14.38 0.0003022233    1.599    0.374
       169  -8.7969     33.3345     56.7166   3.2954994756e+01  -4.4429691235e+01  0.006741469  0.004822155 -57.31 0.0002528275    1.619    0.382
       170 -10.5651     60.5679     51.7911   3.2480723067e+01  -4.4314573722e+01   0.02222892    0.0118088  67.55  0.002040171    2.193    0.544
       171 -10.5717     61.1749     46.4886   3.2425033299e+01  -4.4368403137e+01    0.0208368   0.01464923  11.71  0.001993631    1.787    0.441
       172 -10.4498     47.1432     48.8173   3.2667518811e+01  -4.4430355067e+01   0.01059866   0.00882986   9.10  0.000672572    1.306    0.234
       173 -10.6452     43.5872     48.7687   3.2723520545e+01  -4.4452926473e+01   0.02532766   0.01208835  72.01   0.00205696    2.908    0.656
       174 -11.8013     42.5216     43.9886   3.2699017979e+01  -4.4511556264e+01   0.03167072   0.01495253 -31.06  0.002034594    2.002    0.501
       175 -10.5733    244.1444     51.1953   2.9630391067e+01  -4.3142230097e+01  0.009131772  0.007431212 -55.98 0.0004760175    1.338    0.252
       176 -10.0286    239.9377     50.7893   2.9690622480e+01  -4.3174320086e+01   0.01007512  0.008732646   7.50 0.0007211933    1.236    0.191
       177 -10.2163    145.0160     50.2620   3.1144055980e+01  -4.3797388010e+01   0.01371805  0.008278922  42.14 0.0005041783    1.774    0.436
       178 -11.1032    120.1847     40.6099   3.1445583452e+01  -4.4060081527e+01   0.01789361   0.01162945  -6.20 0.0005610723    1.932    0.483
       179 -10.0974     82.9134     47.1967   3.2088139108e+01  -4.4224648445e+01   0.02668267    0.0104281  39.88  0.001935835    3.467    0.712
       180  -9.7217     55.4602     50.4024   3.2549474258e+01  -4.4361457759e+01  0.009670182  0.009115055 -11.39 0.0001075882    1.038    0.037
       181  -9.7179     52.2858     48.3208   3.2581687190e+01  -4.4403827669e+01  0.009919791  0.008901633   9.07 0.0004665531    1.154    0.134
       182  -9.3514    189.2068     49.4155   3.0453733370e+01  -4.3521218806e+01  0.008862016  0.005815617 -40.40 0.0003578972    1.497    0.332
       183 -10.7486     20.6751     46.0731   3.3064843737e+01  -4.4623687877e+01   0.01624238   0.01477974 -51.66  0.001035029    1.139    0.122
       184 -10.3348     13.2367     46.5077   3.3187348397e+01  -4.4664602187e+01   0.01907548   0.01142732  24.41  0.001747627    2.302    0.566
       185  -9.0646      2.0093     48.7555   3.3386225894e+01  -4.4708703204e+01  0.008668587  0.005370788 -27.93 0.0007284878    1.562    0.360
       186  -9.6737    248.6589     45.6786   2.9512144158e+01  -4.3171075215e+01    0.0068766  0.004945494  18.68 0.0007050334    1.721    0.419
       187 -10.4751    234.4652     44.9903   2.9721639431e+01  -4.3272174663e+01   0.01292683  0.008362914 -46.05 0.0008277788    1.606    0.377
       188 -10.5034     32.0665     44.5720   3.2870337065e+01  -4.4569879536e+01   0.02022668    0.0115149 -38.75  0.001684604    1.703    0.413
       189 -10.4539     26.1767     42.7165   3.2948126131e+01  -4.4626431491e+01   0.01748444   0.01300643 -76.03  0.001644675    1.719    0.418
       190 -10.0809     24.2439     37.4119   3.2933073089e+01  -4.4696165522e+01   0.02923316   0.01071947 -41.73  0.002284412    2.772    0.639
       191 -10.2105    145.0445     42.6980   3.1076624013e+01  -4.3878617458e+01  0.009276144  0.008103495 -27.29 0.0005205294    1.108    0.098
       192 -10.1739    156.0426     41.9522   3.0899292988e+01  -4.3815912358e+01   0.01000695  0.009566161   8.68 0.0007318858    1.049    0.047
       193  -9.6062     99.2896     41.5940   3.1781566221e+01  -4.4182076599e+01   0.01046174  0.007370109 -59.23  0.001094167    1.696    0.410
       194  -9.7466     57.1225     41.7270   3.2447736176e+01  -4.4445396939e+01   0.01233556  0.007447552 -33.32  0.001248096    1.578    0.366
       195 -11.4515     78.8243     35.4771   3.2049984745e+01  -4.4377342841e+01   0.03437459   0.02098883  55.36  0.003533567    1.653    0.395
       196  -9.2936     18.4601     40.4980   3.3052099691e+01  -4.4698122935e+01   0.00645106   0.00624023 -28.11  0.000809213    1.024    0.023
       197 -11.1031     50.3365    248.9580   3.4291121255e+01  -4.2220651996e+01   0.02161611  0.008340774 -41.48   0.00173362    2.617    0.618
       198 -10.6111     61.2559     36.1697   3.2333797222e+01  -4.4479952769e+01   0.02292742   0.01195286  44.29  0.001547115    2.042    0.510
       199  -8.9206    206.6165     37.2808   3.0077744137e+01  -4.3537417624e+01  0.006921005   0.00477433 -57.66 0.0007006463    1.726    0.421
       200  -8.7940    195.2818     37.2997   3.0251944010e+01  -4.3611324685e+01  0.006524184  0.004918602  21.84 0.0002304528    1.546    0.353
       201 -10.6044    153.7232     35.5595   3.0878395570e+01  -4.3899548569e+01   0.01575573   0.01116816 -11.65  0.001144033    1.579    0.367
       202 -10.7548    177.9959     28.6211   3.0440503056e+01  -4.3816821036e+01   0.01409852   0.01100331 -21.24  0.001219369    1.285    0.222
       203 -10.4047    175.0360     34.0248   3.0534635776e+01  -4.3778162396e+01   0.01472647   0.01042131 -64.06 0.0004276693    1.779    0.438
       204 -10.8365    173.1164     30.7286   3.0534804301e+01  -4.3825946678e+01   0.02147124  0.009920835 -31.80  0.001917857    2.058    0.514
       205  -9.9606    242.6653    246.6842   3.1355481865e+01  -4.1057485173e+01  0.006853291  0.004911814  20.17 0.0004871513    1.692    0.409
       206  -9.6998    172.9744    246.7807   3.2400427497e+01  -4.1495252430e+01  0.008876116  0.005193856 -27.75  0.000720798    1.664    0.399
       207 -11.8103    125.9384    240.6755   3.3063297122e+01  -4.1852797064e+01   0.01935349   0.01448242 -31.99   0.00199674    1.285    0.222
       208 -11.4041    103.0971     32.8489   3.1644773090e+01  -4.4252484852e+01   0.01192702   0.01071381 -76.76 0.0002769588    1.238    0.192
       209 -11.6368    107.0263     31.6877   3.1572843867e+01  -4.4240083961e+01   0.02292939   0.01373193  28.86  0.001770224    2.187    0.543
       210 -12.2762    113.8433     25.2265   3.1408730954e+01  -4.4266424019e+01   0.03838707   0.02014459 -11.44  0.002769185    2.750    0.636
       211  -9.4600     70.7171     33.6235   3.2161800974e+01  -4.4448345046e+01  0.006759238  0.006433268 -39.15  0.000842598    1.052    0.050
       212  -9.6568     67.5081     32.1331   3.2199506117e+01  -4.4484624564e+01   0.01435428  0.009586752  18.41  0.001424009    1.952    0.488
       213 -10.2601    240.6745     31.9690   2.9509498726e+01  -4.3369726594e+01   0.01250938  0.009286538   5.59  0.001343658    1.644    0.392
       214 -10.0355    217.0045     32.0016   2.9871067608e+01  -4.3525581063e+01  0.009481366  0.009225684 -15.16            0    1.008    0.008
       215 -11.2320     67.7850    240.5749   3.3953964037e+01  -4.2207939682e+01   0.01794054   0.01154256   0.81  0.001404424    2.029    0.507
       216 -11.0237     49.0895     30.0690   3.2473549902e+01  -4.4622106823e+01   0.03283852   0.02255456 -35.41  0.003573677    1.400    0.286
       217  -9.9429     52.5304     26.4800   3.2387513405e+01  -4.4639635242e+01    0.0117202  0.008880967 -21.84 -2.438822e-05    1.313    0.238
       218 -11.5522    159.9951     29.2937   3.0725179298e+01  -4.3926340352e+01   0.02428386   0.01378924 -25.90  0.001732452    1.775    0.437
       219 -11.0909     74.1575    238.5104   3.3838977889e+01  -4.2192117794e+01   0.02778641   0.01515103 -41.60  0.002672815    1.834    0.455
       220  -8.9888     22.4154     31.4565   3.2910675805e+01  -4.4772340770e+01  0.006444014  0.006151715   9.70 0.0001680874    1.048    0.046
       221 -10.6783    188.9068     27.4566   3.0261683714e+01  -4.3758199381e+01   0.01991341   0.01322931  30.53  0.001850822    1.792    0.442
       222 -12.2138    126.8251     28.0581   3.1230637991e+01  -4.4152992472e+01   0.03963706   0.01609907 -39.27  0.003331797    2.362    0.577
       223 -11.7297     26.4310     27.6986   3.2813900168e+01  -4.4788482400e+01   0.02323988   0.01698752  76.60  0.001945898    1.602    0.376
       224  -9.3372    167.2909    237.6519   3.2410391638e+01  -4.1629773910e+01  0.006715319  0.004953023 -65.71 0.0007027489    1.665    0.400
       225 -10.4408    230.5374     26.9706   2.9618738584e+01  -4.3489958316e+01    0.0129376  0.009657328 -25.87 0.0009318579    1.321    0.243
       226 -10.8221    182.9160     25.2764   3.0334493521e+01  -4.3820593033e+01   0.01367825   0.01137409 -83.14   0.00114826    1.427    0.299
       227 -10.0411    150.8445     27.0950   3.0847642469e+01  -4.4009039094e+01   0.01409291  0.009303399 -13.14  0.001433028    1.738    0.425
       228 -11.7409    144.4050     24.9365   3.0928578984e+01  -4.4073730421e+01   0.02882497   0.01734464 -19.78  0.002842759    1.806    0.446
       229 -10.8784    154.9688     24.1069   3.0756841425e+01  -4.4014497015e+01   0.02056171   0.01046083 -50.59  0.001618596    2.394    0.582
       230  -9.9036    155.4729     20.5080   3.0716799449e+01  -4.4049859996e+01     0.011948  0.009624576 -27.59 0.0007811329    1.205    0.170
       231  -9.5840     98.1939     26.3605   3.1664548051e+01  -4.4353676169e+01  0.009634734  0.005542914 -38.96 0.0006801505    1.686    0.407
       232 -10.3045    201.1130     24.3136   3.0045488025e+01  -4.3711946947e+01    0.0169889   0.01005842  -1.68  0.001464622    2.649    0.622
       233  -9.8470    169.7757     23.3081   3.0519996325e+01  -4.3927148529e+01   0.01569001  0.007663666 -25.91  0.001396777    2.113    0.527
       234  -9.5353     15.4587    233.3267   3.4706400071e+01  -4.2600476197e+01    0.0120207  0.006026424  55.72  0.001000336    1.971    0.493
       235  -9.7337    122.6331    232.1777   3.3043642833e+01  -4.1965803828e+01  0.009650303  0.005631357  48.49 0.0007011553    1.738    0.425
       236 -11.0552    127.1433     16.6210   3.1123871480e+01  -4.4274085617e+01   0.01688246   0.01149525 -18.26 0.0005189764    1.557    0.358
       237  -9.2098    189.9617    229.5442   3.2000438905e+01  -4.1575820462e+01   0.00883001  0.005568718   5.43 0.0007444399    2.269    0.559
       238 -10.7636     38.9756     21.7264   3.2561678339e+01  -4.4775701962e+01   0.01567737   0.01077196  42.04 0.0009790041    1.526    0.345
       239 -11.1670    146.9241    237.9821   3.2721771613e+01  -4.1752682504e+01   0.02332846   0.01727425 -65.91  0.002177768    1.653    0.395
       240 -10.2880      5.0149     22.0874   3.3108158037e+01  -4.4981558814e+01   0.01788569   0.01097395 -33.84  0.001836659    1.553    0.356
       241 -10.8246    131.5178    240.5120   3.2976948334e+01  -4.1820253806e+01   0.01354972  0.006263499 -28.11  0.000994648    2.100    0.524
       242 -10.1897      9.9934    217.9685   3.4667949352e+01  -4.2802226508e+01  0.007889748  0.007675476  44.58 0.0006290775    1.055    0.052
       243  -9.2139    164.5073    211.4958   3.2233975734e+01  -4.1931018198e+01  0.006464663  0.006245868 -20.24  2.28299e-05    1.008    0.008
       244  -9.5065     79.1488    204.5650   3.3483653140e+01  -4.2533659870e+01   0.01759243  0.009742877  89.40  0.001372335    3.399    0.706
       245 -10.0591     17.0071    205.2089   3.4454944760e+01  -4.2901121822e+01  0.009680468  0.007353152 -75.70 0.0008997749    1.632    0.387
       246 -10.8963    243.6081     21.8171   2.9372700355e+01  -4.3458162214e+01  0.009406941  0.008882665  62.73 0.0007355553    1.108    0.097
       247 -11.0801    223.2138     21.3347   2.9679593605e+01  -4.3598322374e+01    0.0148847   0.01192548 -62.20 0.0007171266    1.427    0.299
       248 -11.0283    178.8214     20.7756   3.0357282243e+01  -4.3895434899e+01   0.02780754   0.01572338   1.22  0.002207056    3.209    0.688
       249  -9.6269     13.8921     22.5175   3.2969495822e+01  -4.4922287158e+01  0.009731041  0.006214155 -29.23 0.0004493544    1.507    0.337
       250 -11.5471      5.7964    199.3627   3.4583004631e+01  -4.3032246296e+01   0.02649307  0.009198377  52.82  0.002097786    2.739    0.635
       251  -9.7394    216.6901     20.0305   2.9767669547e+01  -4.3655244491e+01  0.009006794  0.008248555  50.31 0.0003530746    1.119    0.106
       252  -8.8880    135.3082    196.6617   3.2554452716e+01  -4.2274222113e+01  0.006789268  0.004925445 -63.53 0.0003926544    1.682    0.405
       253  -9.5594     46.7025     20.0201   3.2423658088e+01  -4.4746135511e+01  0.008799554  0.008692991  39.99 0.0005024269    1.046    0.044
       254  -9.8212     74.7692     19.2730   3.1971606911e+01  -4.4578351880e+01  0.009065795  0.007331383  21.67 0.0006550035    1.363    0.266
       255  -9.4657    199.0233     17.6747   3.0017695593e+01  -4.3796520628e+01  0.009298125  0.008337687 -22.23  0.000772421    1.088    0.081
       256 -12.2534      4.9629    185.3295   3.4481855542e+01  -4.3191825956e+01   0.03070216     0.024483   1.50  0.003536013    1.371    0.271
       257 -11.4093      3.0113    181.4925   3.4481211689e+01  -4.3245714273e+01   0.02327164   0.01460143  -7.12   0.00224719    1.939    0.484
       258 -10.1216    248.5045     16.9407   2.9253774594e+01  -4.3477379955e+01  0.009338366   0.00643529  56.92 0.0004913037    1.493    0.330
       259 -10.9571    237.5436     16.4293   2.9416111077e+01  -4.3555651820e+01   0.01566598  0.008499653 -21.44  0.001437846    2.069    0.517
       260  -9.6319     28.1575    175.8206   3.4039986827e+01  -4.3157568628e+01  0.009251423  0.007528174  26.34 0.0005784131    1.323    0.244
       261  -9.8402    211.1586     15.9305   2.9815369153e+01  -4.3735371782e+01  0.009250011  0.008530138 -67.69 -0.0006383859    1.171    0.146
       262 -10.7333    242.3431     14.9876   2.9329797360e+01  -4.3539090217e+01   0.01184299  0.009386518 -15.45 0.0002849812    1.316    0.240
       263 -10.2976    187.0202     14.9821   3.0178415930e+01  -4.3903880245e+01   0.01013337  0.009652389  -0.26   0.00128288    1.046    0.044
       264 -10.3956     16.0802    173.9208   3.4213784988e+01  -4.3250970744e+01    0.0158594   0.00980474  77.47  0.001536028    2.052    0.513
       265  -9.7397     39.2033    173.4033   3.3847168692e+01  -4.3117496903e+01   0.00962441  0.005625813 -38.47 0.0009476082    1.659    0.397
       266 -10.6916      1.5932    165.9737   3.4376451782e+01  -4.3425059455e+01   0.01430786   0.01322191  61.47  0.001056608    1.124    0.110
       267 -12.2021      9.4501    166.7805   3.4259319936e+01  -4.3369212960e+01   0.02496936   0.01772946 -22.95  0.002399875    1.392    0.282
       268 -12.4279     12.8674    160.2059   3.4151359627e+01  -4.3421029498e+01   0.03191298   0.02086457  11.38  0.003122164    2.038    0.509
       269 -10.7082     18.4584    164.8243   3.4101521550e+01  -4.3336698278e+01   0.01492485   0.01121584  30.03  0.001658209    1.466    0.318
       270 -10.0180    205.0664    163.1298   3.1208196296e+01  -4.2197352055e+01   0.01123244  0.009393515  52.33 0.0007604262    1.220    0.180
       271 -10.8207     28.3582    161.2068   3.3916141385e+01  -4.3316822996e+01   0.01405444   0.01070658  59.31  0.001597389    1.350    0.259
       272  -9.6581    214.9453    161.3413   3.1043440774e+01  -4.2153356260e+01  0.009135355  0.008239159 -23.47 0.0004706682    1.077    0.071
       273 -10.9793      9.3534    155.0903   3.4164481678e+01  -4.3498348399e+01   0.01288884   0.01198227 -86.29  0.001212092    1.167    0.143
       274  -9.7430    104.7421    154.6711   3.2671185357e+01  -4.2920876640e+01   0.01140586   0.00979655  64.77  0.001370189    1.225    0.184
       275 -12.5508     22.0404    149.4669   3.3918077337e+01  -4.3483799456e+01   0.03382083   0.01903548  25.68  0.002674633    2.576    0.612
       276 -11.0790     16.5226    147.9647   3.3992498114e+01  -4.3533551556e+01    0.0166497   0.01118522  57.61  0.001190647    1.513    0.339
       277 -11.1137      4.1092    153.2111   3.4231687638e+01  -4.3550447011e+01    0.0189063  0.008874172 -36.13   0.00170756    2.006    0.501
       278  -9.3094    142.6910    152.3256   3.2066415808e+01  -4.2709435945e+01  0.006741913  0.004930401 -62.96 0.0002778586    1.654    0.396
       279  -9.1532     55.4472    152.4962   3.3419403236e+01  -4.3247907082e+01   0.00644191  0.006240125  -7.16 8.048561e-05    1.011    0.011
       280 -11.4426     47.7096    146.8914   3.3493590330e+01  -4.3356415247e+01    0.0282224   0.01967573  23.52  0.002959732    1.723    0.420
       281 -12.2003      4.4042    142.8170   3.4141056010e+01  -4.3662962662e+01   0.04148334   0.02425828 -60.52  0.003430075    2.378    0.579
       282 -11.1575     10.1845    126.4365   3.3913392207e+01  -4.3808107300e+01   0.01721771   0.01445739  62.29  0.001285886    1.240    0.193
       283 -11.2626     15.0796    140.8440   3.3956103174e+01  -4.3620432460e+01   0.01809475   0.01202512 -36.39  0.001929839    1.451    0.311
       284 -11.9547     12.2545    135.6221   3.3957251952e+01  -4.3694791578e+01   0.03510142   0.01758645  42.46  0.003162833    2.204    0.546
       285  -9.2757    103.8980    147.1265   3.2620407839e+01  -4.3008227663e+01  0.008604807  0.007330829  19.94            0    1.254    0.202
       286 -10.6314     33.0890    144.1666   3.3700211049e+01  -4.3475114986e+01   0.01349162   0.01270627   3.45 0.0009294512    1.061    0.058
       287 -10.6121     40.5142    138.1018   3.3532870680e+01  -4.3496450532e+01   0.01774656   0.01096901  62.27  0.001645839    1.694    0.410
       288 -10.5321     80.1600    138.3786   3.2915086080e+01  -4.3250461645e+01   0.01199779   0.01007087 -38.92 0.0005202931    1.173    0.147
       289  -9.4054     31.9826    137.2311   3.3659682731e+01  -4.3557835610e+01  0.009681472   0.00904613 -54.92 0.0008312113    1.115    0.103
       290 -11.3141     23.9201    136.4548   3.3780142379e+01  -4.3615203125e+01   0.02436853   0.01635163   5.36  0.002442955    1.915    0.478
       291 -10.2784     20.6233    133.9028   3.3810816768e+01  -4.3663136078e+01    0.0150675   0.01237177  -6.87  0.001057245    1.274    0.215
       292 -10.7753     30.3788    132.4696   3.3645085428e+01  -4.3619743787e+01   0.02655841   0.01359929  36.59  0.002106256    2.432    0.589
       293  -9.2083     50.6470    129.7912   3.3304023920e+01  -4.3525547119e+01  0.008928865  0.006262439  75.72 0.0005076288    1.678    0.404
       294  -9.3091     26.5422    127.4706   3.3663667817e+01  -4.3697802721e+01   0.00644819  0.006234234 -26.06 6.580321e-05    1.020    0.020
       295  -9.8279     22.9544    125.9480   3.3707511232e+01  -4.3736247819e+01   0.01355752  0.009369968  74.39  0.001428954    1.683    0.406
