#   1 NUMBER                 Running object number                                     
#   2 MAG_AUTO               Kron-like elliptical aperture magnitude                    [mag]
#   3 X_IMAGE                Object position along x                                    [pixel]
#   4 Y_IMAGE                Object position along y                                    [pixel]
#   5 X_WORLD                Barycenter position along world x axis                     [deg]
#   6 Y_WORLD                Barycenter position along world y axis                     [deg]
#   7 A_WORLD                Profile RMS along major axis (world units)                 [deg]
#   8 B_WORLD                Profile RMS along minor axis (world units)                 [deg]
#   9 THETA_WORLD            Position angle (CCW/world-x)                               [deg]
#  10 FWHM_WORLD             FWHM assuming a gaussian core                              [deg]
#  11 ELONGATION             A_IMAGE/B_IMAGE                                           
#  12 ELLIPTICITY            1 - B_IMAGE/A_IMAGE                                       
         1  -9.9264    143.9225     25.7426   7.9595186553e+01   4.5811217916e+01    0.3909661    0.2589622  -9.94 0.0009622779    1.683    0.406
         2 -11.4069     80.3890     23.3852   9.5137956513e+01   5.9894327839e+01    0.6210233    0.3059503  29.18  0.000603754    2.341    0.573
         3  -9.0168     92.6343     20.4140   9.0073416601e+01   5.7967818707e+01    0.3518773    0.2104934 -12.61  0.001413502    1.764    0.433
         4  -8.6435     46.2463     20.5526   1.0648334220e+02   6.5590383581e+01    0.2964664    0.1589799 -26.71 0.0009935125    1.700    0.412
         5  -9.2169     71.1821      8.8662   9.1733861146e+01   6.3368315449e+01    0.3890276    0.1714651  37.21  0.001819431    2.194    0.544
         6  -9.4741     76.6710      5.2986   8.8266424139e+01   6.2775074710e+01     0.413798    0.2988393 -14.92  0.001705203    1.286    0.222
         7  -7.6880     65.0202      9.4900   9.4169556449e+01   6.4346249904e+01    0.2371734    0.1070698  38.84  0.001142064    2.147    0.534
         8  -9.5347    128.2695     16.0669   7.9325769296e+01   5.0665348703e+01    0.4466476    0.2704757  13.38  0.001076506    2.005    0.501
         9  -9.8824    134.5007     13.1271   7.6948725849e+01   4.9478869033e+01    0.5102003    0.2550809  30.84  0.001581307    2.346    0.574
        10  -9.4323     79.3882     12.7923   9.0832621408e+01   6.1431050787e+01    0.3634194    0.2469038  46.04   0.00138425    1.527    0.345
        11  -9.8243     74.4826     13.5118   9.2760667670e+01   6.2231523339e+01    0.4819614    0.2698622   4.96  0.001762724    2.304    0.566
        12  -9.1926     96.5032     13.1405   8.5890326506e+01   5.8043479853e+01    0.3968888    0.2180981   3.34  0.001406547    2.335    0.572
        13  -8.3657    112.9077     11.4251   8.0978106743e+01   5.4688861061e+01    0.2773804    0.1672998   8.11   0.00130869    1.928    0.481
        14  -8.3126    141.6721     10.3200   7.4567186393e+01   4.8005719538e+01    0.3016953    0.1592793  34.23  0.001166219    2.043    0.510
        15  -8.8503    125.1976     10.3950   7.7827362846e+01   5.1965649808e+01    0.2263453    0.1843749  -6.47 0.0003467112    1.247    0.198
        16  -9.0410    108.3880     10.2015   8.1568723982e+01   5.5817704248e+01    0.2520899    0.2010418 -53.65 0.0007944933    1.659    0.397
        17  -8.2638     33.9850      9.5089   1.0671176163e+02   6.8740635565e+01    0.2554053    0.1844787   7.50  0.001714028    1.300    0.231
        18  -9.4278     32.1971      6.0206   1.0583328259e+02   6.9445313139e+01    0.2939723    0.1846879   8.14  0.000314688    1.605    0.377
        19  -9.1647    119.1618      7.1080   7.7842562235e+01   5.3685329220e+01    0.2593498    0.1912033  29.86 0.0002671535    1.262    0.208
        20  -9.2206     40.5804      6.4349   1.0231163104e+02   6.8357694400e+01    0.3794661    0.2159879  -2.01  0.002024672    2.027    0.507
        21  -9.6158     46.7756      6.4140   9.9688677025e+01   6.7524724919e+01    0.2284535    0.1873025 -16.08  0.000284487    1.188    0.158
        22 -10.0949      7.7478      5.4078   1.1752762386e+02   7.1866090982e+01     0.462655    0.2194895  -0.44  0.002468237    2.807    0.644
        23  -9.6407    110.5797      3.6571   7.8366966665e+01   5.5953344838e+01    0.4233853     0.254506 -21.92  0.001650581    1.705    0.414
        24  -8.7513    105.4273      1.8446   7.8812284412e+01   5.7257467806e+01    0.3910402      0.18486  42.90  0.001551116    1.856    0.461
        25  -8.3639     91.3362      4.9212   8.3747787899e+01   5.9959967335e+01    0.2602206    0.1636466  40.24 0.0005641527    1.418    0.295
        26  -9.2188    130.1667      6.2791   7.5259994356e+01   5.1172309527e+01    0.3098598     0.162039  32.47  0.001360603    2.035    0.509
        27  -8.2975    143.1465      2.2588   7.1447277445e+01   4.8363598398e+01    0.2113663    0.1719047  23.61  0.000308738    1.233    0.189
        28  -8.7340    100.5151      6.3841   8.1942669363e+01   5.7902907939e+01    0.2548746     0.218648  22.27 0.0008276528    1.009    0.009
        29  -9.6380     64.3613     13.9881   9.6502903613e+01   6.3888689145e+01     0.478589    0.2600505  -1.82  0.002098997    2.493    0.599
        30  -8.4333     55.8919      3.2867   9.4521515533e+01   6.6554749701e+01    0.3126832    0.1434346  33.23  0.001560493    2.154    0.536
        31  -8.5957    156.1806      7.2125   7.1036651842e+01   4.4681435686e+01    0.1830692    0.1581644 -73.84 0.0003393764    1.295    0.228
        32  -8.1368    159.2063      1.8487   6.8802989943e+01   4.4388434580e+01    0.1953585    0.1463109  39.40 0.0005753484    1.304    0.233
        33  -8.0875      3.1393      1.5481   1.1820239277e+02   7.2806798432e+01    0.1717102   0.09577845  22.30 0.0007268757    2.056    0.514
        34  -7.4321    167.4180     99.7919   9.7745733445e+01   2.8414916117e+01    0.2134095     0.145949 -22.63 0.0005186705    1.634    0.388
        35  -7.5302    247.3255    250.3177   1.1317049292e+02  -9.0221639549e+00    0.1153259   0.06414502  15.49 0.0007045081    1.674    0.403
        36  -8.4498    220.5210    250.0011   1.1748228435e+02  -5.1505104632e+00    0.1460146    0.1046623 -21.02  0.001036054    1.603    0.376
        37  -7.3721    129.4694     97.5075   1.0614163313e+02   3.7233618470e+01    0.1520126    0.1417543  -8.78 0.0001720687    1.085    0.078
        38  -7.8092     94.1761    103.1637   1.1710884043e+02   4.2634518510e+01     0.299714      0.10783  33.41  0.001003087    3.546    0.718
        39  -9.8663     17.8089     94.2087   1.3757789238e+02   5.3576219181e+01    0.4282155    0.2390502 -46.26  0.002490385    1.681    0.405
        40 -10.1734     12.3128     93.6591   1.3910148949e+02   5.4070475206e+01    0.4354388    0.2305513 -30.37  0.002115784    2.513    0.602
        41  -7.1168    150.6851     95.6899   1.0041963884e+02   3.3003175941e+01    0.1571821    0.1199792   7.85 0.0006437247    1.633    0.388
        42  -7.2633     83.6305     93.7222   1.1777472501e+02   4.6377890067e+01    0.1404804    0.1053453 -14.25 0.0003485983    1.686    0.407
        43  -8.3005     44.0027     91.9871   1.2930531533e+02   5.1821477616e+01    0.2802942    0.1861178  26.64  0.001534745    1.803    0.445
        44  -7.7846    109.7270     91.2584   1.0966755851e+02   4.2426244492e+01     0.298335    0.1809796  18.94  0.001180278    2.554    0.608
        45  -8.3013     96.7598     90.3426   1.1307090316e+02   4.4958720295e+01    0.3627044    0.2334343  -0.78  0.001453969    2.788    0.641
        46 -10.0839     37.5536     80.9652   1.2898519669e+02   5.4879944000e+01    0.5770317    0.3210493 -18.47  0.002712335    2.846    0.649
        47  -9.7549      7.7513     77.7465   1.3795636056e+02   5.7817227191e+01    0.5396889     0.228871 -33.86  0.002628929    2.929    0.659
        48  -7.3840    127.3462     83.3337   1.0264703249e+02   4.0495125162e+01    0.1590436    0.1172241   3.97 0.0007049305    1.768    0.434
        49  -8.6049     87.3076     79.1523   1.1272930910e+02   4.8889489550e+01    0.4066885    0.2428927  10.37  0.001421709    2.972    0.664
        50  -8.6081     48.3806     77.7707   1.2471795836e+02   5.4479639133e+01     0.310737    0.1482554 -43.70  0.000966632    1.883    0.469
        51  -7.7811     51.3404     76.3142   1.2338275000e+02   5.4464923550e+01    0.2198852    0.1329954  21.33    0.0011489    2.032    0.508
        52  -7.8326    184.2356     78.2033   8.8215160252e+01   2.8214312288e+01    0.2073341    0.1807868 -70.29 0.0005698891    1.327    0.246
        53  -7.9223     66.4649     84.4852   1.2061696083e+02   5.0846097603e+01    0.2173504    0.1325894  16.79 0.0009323509    2.234    0.552
        54  -7.8698    120.2605     76.1628   1.0235611978e+02   4.3357370535e+01    0.2948968    0.1674072  31.67  0.001202215    2.103    0.525
        55  -9.1268     23.6344     74.1616   1.3209063395e+02   5.7536155667e+01    0.3365919    0.1477561 -54.53  0.001164176    1.717    0.418
        56  -9.8521     27.8715     69.7040   1.2967876967e+02   5.8159198579e+01     0.510457    0.2303795 -28.26  0.002200203    3.283    0.695
        57  -8.2626     23.4164     69.2451   1.3110407484e+02   5.8607347852e+01    0.2206526    0.1704219 -62.46 0.0003895416    1.136    0.120
        58  -8.0399    109.0582     75.2961   1.0518223778e+02   4.5770743799e+01    0.2368164    0.1110543  25.68 0.0007033733    4.231    0.764
        59  -8.0278     75.0183     74.1310   1.1509737013e+02   5.1841485055e+01    0.2044849    0.1672755 -16.86 0.0003924572    1.278    0.218
        60  -7.7309    129.0490     69.4685   9.7939236176e+01   4.2728490212e+01    0.2227492    0.1214748  27.55 0.0008095838    2.607    0.616
        61  -7.1674    116.6553     68.6659   1.0097668461e+02   4.5510230037e+01    0.1566373    0.1131108   4.58 0.0007049874    1.764    0.433
        62  -8.1569    105.7416     67.7527   1.0375331735e+02   4.7859146539e+01    0.2765874    0.1852057  18.14  0.001251714    1.907    0.476
        63  -8.5368     83.9290     63.9142   1.0912711437e+02   5.2499236854e+01    0.3563989    0.2392749  -8.66  0.001671248    1.973    0.493
        64  -8.2279     16.0184     63.7716   1.3247005597e+02   6.0293879199e+01    0.2961249    0.1301116 -57.97  0.001284668    1.696    0.410
        65  -8.6187     19.0057     61.2308   1.3082928862e+02   6.0623173041e+01    0.2741475    0.1584525  41.23  0.001580677    2.287    0.563
        66  -8.1874     57.6452     62.3048   1.1736626884e+02   5.6635802349e+01    0.2984379    0.2078346  54.49  0.001595404    2.053    0.513
        67  -9.6365     62.5641     61.0975   1.1530075613e+02   5.6240051696e+01    0.4808278    0.2518135  22.90 0.0005197588    2.447    0.591
        68 -10.0690     36.3045     59.0771   1.2401225526e+02   5.9644757177e+01     0.576441    0.3424042   9.51  0.003138884    2.190    0.543
        69  -8.7303    193.9885     60.2695   8.1288776788e+01   2.8619842721e+01    0.2486099    0.2086306 -20.96 0.0003221184    1.210    0.174
        70  -7.6136    111.0540     58.1931   9.9066597033e+01   4.8542917558e+01    0.2090091    0.1515602 -10.69 0.0004754029    1.556    0.357
        71  -8.6139     98.3630     56.3331   1.0211776066e+02   5.1361877129e+01    0.3052528    0.1653113 -20.74   0.00120722    2.475    0.596
        72  -9.8632     75.1559     50.4150   1.0744503869e+02   5.6444969095e+01    0.3903902    0.2731749  -5.99 0.0002494892    1.662    0.398
        73  -9.4886     45.4800     49.0817   1.1760681619e+02   6.0692202333e+01    0.3764482    0.2382577 -18.12  0.001463958    1.796    0.443
        74  -8.2708    118.4989     51.0514   9.4554481093e+01   4.8183982898e+01    0.2699171    0.1839956  32.36   0.00059032    1.526    0.345
        75  -9.6070    249.2621     46.4936   6.9968040146e+01   1.7338536094e+01    0.2894234    0.2662442 -39.18 0.0005774646    1.041    0.040
        76  -7.6517    106.8464     48.3919   9.6826580799e+01   5.1058242969e+01    0.1958857    0.1259423  33.03 0.0004168921    1.622    0.384
        77  -9.0700      2.3346     45.0128   1.3325684090e+02   6.4951924503e+01    0.3292696    0.1840677 -46.59   0.00210423    1.340    0.254
        78  -9.5430     11.5698     46.5782   1.3000600870e+02   6.4119643093e+01    0.5709695    0.2565494 -29.99  0.002614655    2.448    0.592
        79  -8.1812      6.9852     47.7641   1.3210194509e+02   6.4151458147e+01    0.1812727    0.1614555  29.69 0.0003825222    1.480    0.324
        80  -9.2975     56.9378     42.3169   1.1098523899e+02   6.0553692160e+01    0.4770491    0.2547884 -17.83  0.001857315    2.703    0.630
        81  -8.2291    113.1626     42.5848   9.2957015606e+01   5.0659826254e+01    0.4330338     0.236707  14.74   0.00152264    3.336    0.700
        82  -7.5351    124.1776     39.6343   8.9013604066e+01   4.8674315516e+01     0.205956    0.1237443  41.81 0.0004198411    1.620    0.383
        83  -9.5501     92.3707     38.2918   9.7360710032e+01   5.5506055893e+01    0.3266225    0.2785646  15.16  0.001271034    1.108    0.097
        84  -9.1617     87.7518     37.9890   9.8688739559e+01   5.6410706504e+01    0.3041831    0.2352554 -29.59 0.0007827307    1.222    0.181
        85  -9.0996     61.3070     36.9829   1.0737013677e+02   6.0884766259e+01    0.4176352    0.2533389  57.01  0.001897146    3.145    0.682
        86  -9.0903     67.5038     37.5393   1.0533992953e+02   5.9876759999e+01     0.264465    0.2028775  -5.98  0.001221126    1.259    0.206
        87  -9.4841     70.6801     35.6498   1.0347803932e+02   5.9695581216e+01    0.4003775    0.2112865  28.48  0.001893437    2.138    0.532
        88  -7.7027    105.8741     36.9643   9.2871857676e+01   5.3031769214e+01     0.323465    0.1621893  25.83  0.001205196    2.899    0.655
        89  -8.7943     55.9340     35.2172   1.0869401739e+02   6.1932068568e+01    0.2744044    0.1924023 -23.94 0.0008965516    1.260    0.207
        90  -9.2101     38.2476     35.4659   1.1573777136e+02   6.4024504559e+01    0.3182976    0.1906781   9.87  0.001156869    2.014    0.503
        91  -8.1875     19.0559     35.7780   1.2380535653e+02   6.5713898122e+01     0.162647    0.1412678 -50.26 0.0002921782    1.256    0.204
        92  -8.9215     22.6747     35.6913   1.2225484888e+02   6.5445227015e+01    0.2426549    0.1739907  -3.93  0.001144706    1.499    0.333
        93  -9.1318     22.0057     32.0867   1.2131837012e+02   6.6170546143e+01    0.2499457    0.2115524   9.61 0.0002972004    1.367    0.268
        94  -9.6736      6.7818     33.9692   1.2847074899e+02   6.6881701880e+01    0.3382047    0.2267625 -30.83  0.001695164    1.306    0.235
        95  -8.2259    190.1542     34.1846   7.4287460327e+01   3.3131848734e+01    0.2373059    0.1895922  -6.71 0.0004881787    1.398    0.285
        96  -7.2169    133.6858     31.7143   8.3895571637e+01   4.7547451698e+01    0.1501332    0.1024127  25.97 0.0006330913    1.582    0.368
        97  -7.9533     59.2254     30.7827   1.0569283369e+02   6.2211682049e+01    0.2764562   0.09797704 -29.40 0.0009763775    3.572    0.720
        98  -8.8290     61.8544     26.8860   1.0310300644e+02   6.2443005961e+01    0.4483056    0.1918976  39.06  0.002048574    2.484    0.597
        99  -8.8095    161.7990     27.9302   7.6965476271e+01   4.1095866277e+01    0.2471078    0.1991647  57.67 0.0005225605    1.183    0.155
       100  -9.3939    190.2119    248.9159   1.2241670997e+02  -4.5373012536e-01    0.2071731    0.1684737  68.41  0.001444576    1.788    0.441
       101  -9.1235    204.2002    248.6123   1.2000900233e+02  -2.5560500065e+00    0.1730737     0.081976  33.47 0.0009587609    1.716    0.417
       102  -9.4958     70.1472     25.1749   9.9378153193e+01   6.1400716625e+01    0.2772841    0.2241022  -4.76  0.001022932    1.067    0.063
       103  -8.4530     25.5593     24.9400   1.1715511495e+02   6.7143336491e+01    0.3102141    0.1119697 -36.35  0.001425688    2.443    0.591
       104  -8.4454     28.5022     21.4672   1.1446866686e+02   6.7456905973e+01    0.4125959    0.2947479  -7.96  0.002743636    1.329    0.248
       105  -7.9636    101.5296     25.5041   8.9607970353e+01   5.5517329648e+01    0.1391025    0.1216345  10.13 4.902706e-05    1.008    0.008
       106  -7.3363    118.3407     24.3067   8.4735145159e+01   5.2026775305e+01    0.1514018   0.09707557  24.69 0.0007042339    1.684    0.406
       107  -8.1047    129.0948     22.7545   8.1645172665e+01   4.9728894511e+01    0.2723572    0.1726833  38.88  0.001130463    1.510    0.338
       108  -8.8642      1.6890     28.4389   1.2904385219e+02   6.8214760016e+01     0.423921    0.1069272 -56.36  0.001911411    2.737    0.635
       109  -8.4885    155.2666     21.0574   7.5840667263e+01   4.3524512445e+01    0.3289391    0.1336473  40.45  0.001183869    2.758    0.637
       110  -9.3915     64.4587    247.2585   1.4345518120e+02   1.7951611548e+01    0.1788536    0.1411853  58.76 0.0003354638    1.158    0.137
       111  -8.1757    140.2074     20.0656   7.8328181553e+01   4.7365389448e+01    0.2153196    0.1727206  29.46 0.0004289462    1.211    0.174
       112  -8.4028    101.9435     18.9335   8.6821705590e+01   5.6247356616e+01    0.3449249    0.1815009  13.87  0.001364838    2.821    0.645
       113  -8.5832      9.8568     19.5977   1.2230238756e+02   6.9335191341e+01    0.2696559    0.1399754 -21.80  0.001006648    1.972    0.493
       114  -8.2245      4.9919     18.7192   1.2429201647e+02   6.9807251865e+01    0.1521005     0.114383 -31.40 0.0003818857    1.073    0.068
       115  -8.7963    152.8306    249.6479   1.2889557666e+02   5.2058265377e+00    0.3149329   0.07037138  47.75   0.00110498    4.357    0.770
       116  -9.3376    174.0375    243.9418   1.2453498138e+02   2.6695211937e+00    0.1804066    0.1421673  39.30 0.0006924443    1.047    0.045
       117  -7.9850     89.4683    243.4648   1.3905692786e+02   1.5331299233e+01    0.1096191   0.08288554  59.45 0.0001438311    1.010    0.010
       118  -9.3942    188.1606    234.0318   1.2070809369e+02   1.7020890919e+00    0.2478771    0.1855476  45.83  0.001040948    1.270    0.213
       119  -7.3568    131.4434    233.5435   1.3075859158e+02   1.0793291463e+01    0.1163878   0.09423688  48.03 3.540123e-05    1.026    0.025
       120  -6.9616     56.7055    231.7160   1.4361233448e+02   2.1432287258e+01   0.08421241   0.08268514  81.96 0.0002415557    1.540    0.351
       121  -8.3247     11.5996    207.1737   1.4960549385e+02   3.0556514234e+01     0.136689   0.07597014 -72.65 0.0009485942    1.659    0.397
       122  -9.1361    185.2767    194.2868   1.1492254247e+02   7.8300124980e+00     0.220728     0.196818  28.20 0.0002639231    1.043    0.041
       123  -7.4850    185.5954    179.5337   1.1217252971e+02   1.0124761563e+01    0.1346493    0.1211544  22.70 0.0001061261    1.016    0.016
       124  -9.1574     42.5848     27.5507   1.1092574984e+02   6.4915947814e+01    0.3981543    0.2140233 -15.08 0.0004457928    2.430    0.588
       125  -7.5866    150.0301     12.5195   7.3851984063e+01   4.5722386518e+01    0.2064451    0.1190454 -84.52 0.0008092282    2.788    0.641
       126  -7.2867    169.3086    163.6814   1.1239270422e+02   1.5991486850e+01    0.1372956    0.1125961  83.04 0.0002454508    1.638    0.389
       127  -7.4586    209.3256    148.3506   1.0111575662e+02   1.0600331975e+01    0.1525595    0.1050981   8.23 0.0007048469    1.757    0.431
       128  -7.4748    133.6447    147.6935   1.1700113283e+02   2.5995857357e+01    0.1444663    0.1134101   1.24 0.0007041586    1.720    0.418
       129  -9.1711     67.2563    144.7412   1.3228690339e+02   3.7291595675e+01     0.434815    0.2651856  67.70  0.002211366    1.956    0.489
       130  -7.6430    139.4954    138.5235   1.1372087364e+02   2.6749111475e+01     0.144338    0.1393404  11.10 0.0001807809    1.066    0.062
       131  -7.2442    108.3382    137.2788   1.2092870767e+02   3.2766699480e+01    0.1360058    0.1114326  -8.13 0.0006440829    1.618    0.382
       132  -7.2898    143.6799    126.7121   1.1006604348e+02   2.8324429833e+01    0.1485824    0.1173446   4.36  0.000389682    1.598    0.374
       133  -9.5542    240.8161    122.2173   8.9534654288e+01   8.3182304601e+00    0.2665339    0.2535684  36.39 0.0004996349    1.192    0.161
       134  -8.3670     11.9692    121.5303   1.4280359611e+02   4.7963957204e+01    0.1455678   0.08610906 -28.80 0.0008098065    2.565    0.610
       135  -7.3018    181.0329    120.4751   1.0020770877e+02   2.1496848583e+01    0.2159874    0.1238121  26.34 0.0008081577    2.405    0.584
       136  -7.5239    119.9722    118.6931   1.1397578658e+02   3.4684097427e+01    0.2328111    0.1192302  22.23 0.0007040873    4.211    0.763
       137  -8.6033      2.0720    109.7961   1.4400773905e+02   5.1170545091e+01    0.3211998   0.08517159 -51.48  0.001382829    3.348    0.701
       138  -7.5305     38.7945    110.0334   1.3415412464e+02   4.8293199935e+01    0.1708396   0.08452476 -65.30 0.0008545792    1.694    0.410
       139  -8.3543     29.5254    109.5171   1.3662869256e+02   4.9252970703e+01     0.122285   0.09933861 -70.96 3.805372e-05    1.011    0.011
       140  -7.8543    123.5838    107.4768   1.1029572594e+02   3.6364231475e+01    0.2614296    0.1403126  31.55 0.0007455574    2.317    0.568
       141  -7.2572     75.7293    107.3404   1.2325691593e+02   4.4534649397e+01    0.1346348    0.1023099 -89.71 0.0002913888    1.606    0.377
       142  -7.7465    134.0486    106.0177   1.0726440896e+02   3.4550521913e+01    0.2436167    0.1849583   3.07 0.0007601177    1.734    0.423
       143  -7.4865    108.9976    106.5265   1.1388668393e+02   3.9331229922e+01    0.2063299     0.129437  14.80 0.0008095581    2.650    0.623
       144  -9.0693     14.9949    104.9892   1.3996406824e+02   5.1392132019e+01    0.3582009     0.151054 -34.39  0.001534615    3.861    0.741
       145  -9.8954    243.8312    102.9680   8.4483304045e+01   1.0594763543e+01    0.3307467    0.2231746 -19.32  0.001652776    1.471    0.320
