#   1 NUMBER                 Running object number                                     
#   2 MAG_AUTO               Kron-like elliptical aperture magnitude                    [mag]
#   3 X_IMAGE                Object position along x                                    [pixel]
#   4 Y_IMAGE                Object position along y                                    [pixel]
#   5 X_WORLD                Barycenter position along world x axis                     [deg]
#   6 Y_WORLD                Barycenter position along world y axis                     [deg]
#   7 A_WORLD                Profile RMS along major axis (world units)                 [deg]
#   8 B_WORLD                Profile RMS along minor axis (world units)                 [deg]
#   9 THETA_WORLD            Position angle (CCW/world-x)                               [deg]
#  10 FWHM_WORLD             FWHM assuming a gaussian core                              [deg]
#  11 ELONGATION             A_IMAGE/B_IMAGE                                           
#  12 ELLIPTICITY            1 - B_IMAGE/A_IMAGE                                       
         1 -14.8545    159.4257     42.6205   2.9027712136e+02   6.3198532806e+00   0.06306765   0.04584583 -54.52  0.003913052    1.381    0.276
         2 -12.5033    189.7323     14.3737   2.8974655180e+02   6.4571822143e+00    0.0333533   0.01693214 -77.10  0.002694849    2.795    0.642
         3 -13.5168    170.1622     14.4703   2.8997817147e+02   6.5762579155e+00   0.04062278   0.01845195  35.13  0.002855785    2.065    0.516
         4 -14.6165    171.6120      8.5222   2.8992464928e+02   6.6354259898e+00   0.06941873   0.04153186  25.16   0.00476052    1.668    0.400
         5 -10.9874    150.9638    241.9942   2.9159161516e+02   4.0856083709e+00   0.01627641  0.009533054 -61.97  0.001572699    1.743    0.426
         6 -20.2257     80.2907    180.0329   2.9204876686e+02   5.2281947874e+00    0.8707658    0.3491818 -64.19    0.0690326    2.661    0.624
         7 -12.0365     28.0797    179.8630   2.9266406011e+02   5.5482522079e+00   0.01747921   0.01270077  -4.33  0.001006786    1.650    0.394
         8 -12.0831    123.5241    185.1233   2.9156959576e+02   4.9057961926e+00   0.01566423   0.01236238  59.57  0.000687716    1.400    0.286
         9 -11.1909     21.8294    239.7167   2.9310011810e+02   4.8991437043e+00   0.01038833  0.008153912 -50.95 0.0007224234    1.285    0.222
        10  -9.5347     16.5391    208.9004   2.9297614311e+02   5.2850954718e+00   0.01414087   0.00741647 -42.62  0.001255561    2.095    0.523
        11 -14.6488    177.5698    172.3373   2.9085452593e+02   4.7218208676e+00    0.0484596   0.03319074 -75.22  0.004982098    1.665    0.399
        12 -12.4462    185.7280    167.9072   2.9073138671e+02   4.7226530296e+00   0.02088626   0.01085563 -62.36  0.001902959    1.973    0.493
        13 -12.0138    167.4454    174.3061   2.9098586082e+02   4.7612333814e+00   0.01306423   0.01113541  78.83  0.000799824    1.315    0.239
        14 -13.0145     11.4143    206.0676   2.9301947953e+02   5.3487712485e+00   0.03045419   0.01627533  21.43  0.002187637    1.982    0.495
        15 -11.6006    228.5043    174.4999   2.9026764256e+02   4.3848673394e+00   0.01013104  0.006705812 -78.79 -8.226532e-05    1.817    0.450
        16 -10.8813     26.9856    173.0004   2.9263537760e+02   5.6336864485e+00  0.009893346  0.009503908 -18.39 0.0004234055    1.054    0.051
        17 -13.3130    154.3665    186.0407   2.9121146569e+02   4.7066774872e+00    0.0195126   0.01700718  33.75  0.001292377    1.121    0.108
        18 -12.8409    154.3186    195.9690   2.9127241900e+02   4.5930797183e+00   0.02724438   0.01630283  77.72  0.002309888    2.686    0.628
        19 -12.1946    230.1478    166.7988   2.9020134112e+02   4.4630569940e+00   0.01736329  0.009651385 -77.49  0.001508989    2.372    0.578
        20 -11.2246     20.1695    167.0629   2.9267987371e+02   5.7433073139e+00   0.01342616   0.01072237 -23.87 0.0009824478    1.387    0.279
        21 -12.0193    201.1117    165.1273   2.9053316290e+02   4.6602589100e+00   0.01870963   0.01229137  73.47  0.000924229    2.102    0.524
        22 -11.2417    222.6832    162.1009   2.9026059925e+02   4.5626892162e+00   0.01681087   0.01079307  82.23  0.001000675    2.247    0.555
        23 -13.8451    163.5428    157.8947   2.9093193988e+02   4.9733504327e+00   0.02501745   0.01985033  52.10  0.002808073    1.328    0.247
        24 -14.0928    152.2167    144.7154   2.9098524351e+02   5.1938418206e+00   0.03089001   0.02260466  85.67  0.003221649    1.703    0.413
        25 -11.1585    191.8911    154.0756   2.9057446319e+02   4.8434849133e+00   0.01819979  0.008518113 -41.30  0.001492263    2.499    0.600
        26 -11.0707     13.9835    155.4766   2.9268268774e+02   5.9139210162e+00  0.009762838   0.00832117  12.51  0.001126521    1.201    0.167
        27 -13.5005    157.5322    202.4143   2.9127373374e+02   4.4994859240e+00   0.03171742   0.02358438  72.77  0.002365956    1.645    0.392
        28 -14.7015    134.5432    146.7847   2.9120635783e+02   5.2782583940e+00   0.06929509   0.02969155 -73.24  0.005044114    3.373    0.704
        29 -12.9704    174.1899    148.6332   2.9074996797e+02   5.0143535791e+00   0.01984726   0.01614155  89.81  0.001407066    1.406    0.289
        30 -14.5289    143.5514    144.0036   2.9108313449e+02   5.2550428461e+00   0.05014103   0.02656748 -75.40  0.004292517    2.453    0.592
        31 -10.6142    182.0726    149.0038   2.9065928809e+02   4.9618073079e+00   0.01097164  0.007756385  62.33 0.0007367729    1.688    0.408
        32 -12.2073    163.9190    203.0632   2.9120240546e+02   4.4529697720e+00   0.01602925   0.01347095  81.25 0.0003827541    1.346    0.257
        33 -11.7833     27.4867    145.5298   2.9246282362e+02   5.9459434190e+00   0.01699813   0.01549272  -6.41  0.001188624    1.136    0.120
        34 -12.1556    175.6553    142.1169   2.9069297271e+02   5.0800958493e+00   0.01208135  0.008852183  40.14 0.0006726893    1.346    0.257
        35 -14.1476    135.8535    128.4074   2.9107896363e+02   5.4810235225e+00    0.0769986   0.01903255 -66.25  0.004146991    5.854    0.829
        36 -12.8896    161.6214    197.7262   2.9119702564e+02   4.5282455814e+00    0.0240354   0.01791331  69.06   0.00182217    1.614    0.380
        37 -11.2185      7.5266    237.4025   2.9325481448e+02   5.0126485984e+00  0.007764366  0.006144335  39.33 0.0005106142    1.244    0.196
        38 -11.8410    156.0396    132.7342   2.9086713982e+02   5.3078380917e+00  0.009568433  0.008663124  25.68  0.000334208    1.082    0.076
        39 -13.2503    160.3406    128.1934   2.9078872195e+02   5.3335653036e+00   0.02028599   0.01813812  80.90  0.001652488    1.217    0.178
        40 -12.0490    168.6286    202.1346   2.9114125487e+02   4.4348032572e+00   0.01469321    0.0101873  71.23   0.00145856    1.861    0.463
        41 -12.7083    156.0442    190.9870   2.9122177635e+02   4.6396730254e+00   0.02025412    0.0117839  49.27   0.00123934    1.900    0.474
        42 -11.6199    225.1452    202.6879   2.9047893903e+02   4.0823444251e+00   0.01722525  0.006592675  16.45  0.001092138    4.154    0.759
        43 -10.2151     22.9077    156.2850   2.9258217284e+02   5.8503629940e+00  0.009215633  0.008398014  17.31 0.0004466155    1.090    0.082
        44 -12.1691    134.6229    106.0055   2.9095695018e+02   5.7454447689e+00    0.0242905  0.006849059 -62.48  0.001618196    3.679    0.728
        45 -12.5271    138.2346    198.4097   2.9147687859e+02   4.6634378233e+00   0.03141471   0.02198186  57.72   0.00242511    1.644    0.392
        46 -11.8362     16.3567    250.1539   2.9322772494e+02   4.8125947414e+00  0.009575096  0.007986411 -54.96  0.001097178    1.211    0.174
        47 -10.9666    205.4037    110.1751   2.9014737586e+02   5.2638325133e+00   0.01484728   0.00992199  13.76   0.00125027    1.655    0.396
        48 -14.3623    207.3648    178.4145   2.9054045953e+02   4.4695931496e+00   0.04751856    0.0380839 -71.76  0.004224399    1.330    0.248
        49 -10.6425     22.3134    107.4561   2.9229272973e+02   6.4143126351e+00   0.01259287   0.00670395  18.94  0.001110258    2.084    0.520
        50 -13.7968    195.6156    171.0145   2.9063379578e+02   4.6264415949e+00   0.03859195   0.02276246 -76.23  0.002921128    2.097    0.523
        51 -10.6373     27.1947     99.7690   2.9218829013e+02   6.4727896627e+00   0.01860147   0.01015818  11.63  0.001600089    2.340    0.573
        52 -10.9872     27.4426     97.0209   2.9216865049e+02   6.5028040077e+00   0.02349119   0.01121823  11.14  0.001758108    3.141    0.682
        53 -12.1579    203.0949    172.3615   2.9055388055e+02   4.5651615983e+00   0.01629454   0.01554513  23.94  0.001544831    1.026    0.026
        54 -13.2382    198.9689    222.7012   2.9090894263e+02   4.0132283289e+00   0.02413769   0.01457244  28.40  0.001494715    1.611    0.379
        55 -12.0875     47.4694     92.6490   2.9190527252e+02   6.4309691044e+00   0.02089383   0.01336827  25.67  0.001623727    1.546    0.353
        56 -11.1220     41.8372     92.0964   2.9196849924e+02   6.4716269229e+00   0.01362698   0.01033099 -84.12 0.0006845622    1.535    0.348
        57 -10.6248     17.0925    224.8426   2.9306605651e+02   5.0987050309e+00  0.008803874     0.006308 -52.29 0.0007307562    1.400    0.286
        58 -10.5044     10.1492     87.3301   2.9231423779e+02   6.7191719384e+00   0.01327246  0.006409862  17.13  0.001076536    2.502    0.600
        59 -11.4007     33.8684    187.5563   2.9264234950e+02   5.4247109616e+00   0.02820562   0.01811213 -54.10  0.002882946    1.551    0.355
        60 -10.6682    142.9431     80.2883   2.9070183205e+02   5.9893145865e+00  0.009342714  0.008749721  20.28 0.0005481331    1.050    0.048
        61 -14.4290    148.7599     57.5787   2.9049447657e+02   6.2139041110e+00   0.05819346   0.04863463  -6.29  0.001024931    1.307    0.235
        62 -11.4353    149.5272     35.9822   2.9035344037e+02   6.4565700340e+00   0.02766137   0.01070239  45.72   0.00181335    2.958    0.662
        63 -12.1922     31.2823    182.1201   2.9263992996e+02   5.5028547964e+00   0.01644073   0.01141345  21.09 0.0003307359    1.467    0.318
        64 -13.1482    163.1975     34.2335   2.9018130578e+02   6.3927594710e+00   0.02079235   0.01788034 -52.75 0.0009228576    1.176    0.150
        65 -10.6834     13.4197     59.8783   2.9210855654e+02   7.0140714455e+00   0.01104378  0.008832221  41.84 0.0004508794    1.245    0.197
        66  -9.3738     28.8782    242.4240   2.9303336117e+02   4.8251968771e+00   0.02207947  0.008007897 -63.92  0.001653027    2.940    0.660
        67 -12.1638    168.0086    242.2990   2.9139268256e+02   3.9779097965e+00    0.0201771  0.009922627 -63.18  0.001555652    2.108    0.526
