#   1 NUMBER                 Running object number                                     
#   2 MAG_AUTO               Kron-like elliptical aperture magnitude                    [mag]
#   3 X_IMAGE                Object position along x                                    [pixel]
#   4 Y_IMAGE                Object position along y                                    [pixel]
#   5 X_WORLD                Barycenter position along world x axis                     [deg]
#   6 Y_WORLD                Barycenter position along world y axis                     [deg]
#   7 A_WORLD                Profile RMS along major axis (world units)                 [deg]
#   8 B_WORLD                Profile RMS along minor axis (world units)                 [deg]
#   9 THETA_WORLD            Position angle (CCW/world-x)                               [deg]
#  10 FWHM_WORLD             FWHM assuming a gaussian core                              [deg]
#  11 ELONGATION             A_IMAGE/B_IMAGE                                           
#  12 ELLIPTICITY            1 - B_IMAGE/A_IMAGE                                       
         1 -12.4343    126.0465    105.2098   6.5129439477e+01   3.6175598861e+01     18.95544     10.02664  58.53   0.07368889    2.370    0.578
         2 -14.4342    229.6091     80.1627   3.6765381176e+01   1.6206430454e+01     2.353522     1.248342  73.07  0.008394001    2.679    0.627
         3 -12.6521    206.4883     16.1431   2.2431034441e+01   3.1180119273e+01     2.596813     2.082378 -74.46   0.01395472    1.251    0.200
         4 -13.4181    175.3094     85.9736   4.8350841770e+01   2.8769324012e+01     1.813687     1.245726  -0.96   0.00134367    2.222    0.550
         5 -14.6410    238.2160    111.2410   4.3227406574e+01   9.2087562409e+00     4.431493     1.601427 -40.31   0.01391008    2.685    0.628
         6 -15.2928    235.0165     55.1657   2.9394327938e+01   1.8696126985e+01     5.270852     1.912505 -41.07   0.01900154    2.528    0.604
         7 -14.5335    244.4889     15.5366   1.8120915583e+01   2.1580633869e+01      3.85905     1.343163 -36.08   0.01540599    2.466    0.594
         8 -11.3290    144.0348     31.6835   3.7868334775e+01   4.5563386898e+01    0.3764842    0.2869687 -29.99  0.001908328    1.336    0.252
         9 -10.8440    125.4637     23.5169   3.9116157478e+01   5.1082450270e+01     0.502809    0.2379342 -33.60  0.002123288    2.107    0.525
        10 -14.1655    248.1293     60.6262   2.9059718580e+01   1.4734989466e+01     1.926536    0.6934518 -31.84  0.003566862    2.558    0.609
        11  -9.6644    155.3224     13.7165   2.9317603100e+01   4.4919359592e+01    0.4792188    0.2625241  -3.84  0.001709916    2.480    0.597
        12 -10.1344    183.4748      4.3918   2.1908393274e+01   3.8517480214e+01    0.4237373     0.276944  89.94   0.00202524    1.651    0.394
        13  -8.9303     70.3454      1.9077   4.5606765131e+01   6.4729420163e+01    0.1818742    0.1595125  21.81  0.000517846    1.206    0.171
        14  -8.8455    114.3089      2.6910   3.3513605779e+01   5.5959832313e+01    0.1269796    0.1037082 -60.80 0.0004127476    1.618    0.382
        15  -9.6775    248.8925    201.6138   6.0638265919e+01  -5.7515704034e+00    0.2652898    0.2293606 -84.05  0.001272192    2.125    0.529
        16  -9.0990    172.6185    250.1277   8.0889150738e+01   1.2565642367e+00    0.2163328    0.1233291  54.17  0.001101093    1.554    0.356
        17  -9.5722     14.3645    202.4931   1.0299474615e+02   3.1365952232e+01    0.1711925    0.1265692  86.55  0.001393395    1.182    0.154
        18 -10.9106    192.7890    194.1054   6.9203145150e+01   5.4317914957e+00    0.8894408    0.4735019 -63.95   0.00316523    4.819    0.793
        19  -8.4931    238.9174    196.0000   6.1299514690e+01  -3.3512537612e+00    0.2123725   0.06292515  44.96 0.0002373483    3.001    0.667
        20 -10.2536    210.7256    187.9124   6.4793388501e+01   2.9303459739e+00    0.6069173    0.3604226  66.27  0.002577593    2.981    0.665
        21 -10.7371    218.4851    186.9675   6.3212396892e+01   1.5917262976e+00    0.4383948    0.3117429  11.19  0.002406166    1.584    0.369
        22  -8.6115     17.6341    186.9755   1.0151342019e+02   3.3968425060e+01    0.1447749   0.09659114  88.47 0.0002582624    1.115    0.103
        23  -9.6500    248.9134    249.1484   6.8424381603e+01  -1.0701672269e+01      0.16382    0.1293585  36.37  0.001253126    1.317    0.241
        24  -8.7280    175.4160    177.2147   6.9531634195e+01   1.1565470283e+01    0.1770265    0.1323351 -60.16 0.0004022122    1.614    0.380
        25  -9.3840    195.0213    172.3635   6.4800186800e+01   8.4361609261e+00    0.2718432    0.1902788 -62.14  0.001334523    1.999    0.500
        26  -9.5792    236.9957    171.8405   5.6986611134e+01   2.1660776123e-01    0.2353555    0.1874624 -20.91  0.001385912    1.264    0.209
        27 -10.0144    177.5416    169.5886   6.7690113095e+01   1.2467270048e+01    0.2197575    0.1932568 -57.23 0.0008715887    1.275    0.216
        28  -8.9160    211.8589    165.9837   6.0337558378e+01   6.0427259383e+00    0.2006534    0.1820474  76.37 0.0006506384    1.362    0.266
        29 -12.3170    194.4827    157.6135   6.1941725821e+01   1.1035925059e+01    0.9362578    0.6099262 -69.28  0.001931963    2.656    0.623
        30 -10.1111    163.2348    162.0423   6.9150575265e+01   1.6768272388e+01    0.2707252     0.240486 -85.85 0.0002281362    1.229    0.186
        31 -11.6398      3.5028    157.5004   1.0211589087e+02   4.1052431182e+01    0.3657653    0.2378046  79.99  0.002281448    1.175    0.149
        32 -12.5620      5.0706    151.6378   1.0139325188e+02   4.2124612559e+01    0.7316323    0.3733584  84.95   0.00359482    1.609    0.379
        33 -10.1325    169.5369    159.3653   6.7324720846e+01   1.5969352580e+01    0.3619972    0.1253299  42.90 0.0009251761    2.798    0.643
        34  -9.1975     19.4966    247.4665   1.0444835138e+02   2.3156001609e+01   0.09780736   0.06225368  70.73 0.0008097194    1.007    0.007
        35 -11.0239    185.3809    144.3368   6.0922010488e+01   1.5366083955e+01    0.4219868    0.3055406  66.59  0.001571976    1.637    0.389
        36 -10.2727    177.9411    155.5457   6.4827702077e+01   1.4910794876e+01    0.2761013     0.207016 -19.96  0.001362873    1.676    0.403
        37  -8.2175    106.7471    155.9424   8.0207553932e+01   2.8736674237e+01     0.146084    0.1101358 -62.63 0.0002297016    1.310    0.237
        38 -12.4672     65.3086    137.3413   8.6734950428e+01   3.9055462367e+01     1.802951      1.19006  79.42   0.01000287    1.596    0.374
        39 -12.9009     35.6398    143.2122   9.4248679744e+01   4.1175745573e+01     1.390215    0.8112283  10.18  0.001193067    3.820    0.738
        40 -13.4020     43.2564    140.5980   9.2251751900e+01   4.0949276458e+01     1.879081     0.925852  36.77  0.003243109    2.284    0.562
        41  -8.6512    213.9486    155.2074   5.7699118432e+01   7.3374707714e+00    0.2009946    0.1860671  58.54 0.0004296281    1.206    0.171
        42 -11.2509    173.8937    149.2810   6.4355921358e+01   1.6939344825e+01    0.4696556    0.3180559 -27.78   0.00217792    1.820    0.450
        43 -10.5151    134.0302    145.4949   7.2221731412e+01   2.5950995622e+01     1.108075    0.3293453 -57.21  0.003052038    5.007    0.800
        44  -9.9373    202.0825    146.9720   5.8176877652e+01   1.1247044405e+01    0.4409442    0.2163594 -32.67    0.0011073    2.268    0.559
        45 -11.3489    178.4512    140.7071   6.1547163570e+01   1.7567166908e+01      0.51804    0.3796619 -78.59  0.002351142    1.948    0.487
        46  -8.2953    163.7932    148.3842   6.6293142574e+01   1.9266839610e+01    0.1979135    0.1329806  40.21 0.0005521265    1.482    0.325
        47 -10.5718    147.0881    143.3226   6.8868068892e+01   2.3774506652e+01    0.3135469    0.2857111  -5.25  0.001033723    1.335    0.251
        48  -9.9956    145.2612    148.2068   7.0266136048e+01   2.3151150671e+01    0.3122073    0.2152158 -76.41  0.001436039    1.889    0.471
        49  -9.3889    216.4291    143.4577   5.4664703005e+01   8.7367220308e+00    0.2977505    0.2182336 -79.54  0.001110588    2.289    0.563
        50 -10.7137    158.1755    143.3098   6.6432188562e+01   2.1457420421e+01    0.6600906    0.2885674  59.51  0.002156244    3.317    0.699
        51 -10.3924    152.0872    139.1594   6.6880706446e+01   2.3581795309e+01    0.3205314    0.2814001  10.90 0.0008687567    1.385    0.278
        52  -9.8579    159.0000    137.2438   6.4939290782e+01   2.2494074296e+01    0.2744422    0.2424192  46.75 0.0005734028    1.104    0.094
        53 -10.1973    155.1754    136.1855   6.5549074838e+01   2.3529580284e+01    0.3063473    0.2665037  87.19  0.001614936    1.243    0.195
        54 -11.2162    202.2009    131.9931   5.4750627939e+01   1.3847044143e+01    0.5297475     0.344083  70.84   0.00220735    2.214    0.548
        55 -10.6115    197.6589    127.1683   5.4501958416e+01   1.5746295037e+01    0.4196626     0.255973 -42.18  0.001839926    1.682    0.405
        56 -10.9088    209.2646    139.4664   5.5113727052e+01   1.0968567991e+01     0.455974      0.32111  -4.85  0.001105143    1.851    0.460
        57 -10.3420    194.2474    245.2666   7.6709434722e+01  -1.7010189931e+00    0.1910055    0.1499436  48.56 0.0002024852    1.185    0.156
        58 -12.1603    158.1320     94.3413   5.4487686210e+01   3.1339339535e+01    0.6880622    0.6397486 -11.75 0.0005628348    1.151    0.131
        59 -10.5502    224.3282    128.7429   4.9832166076e+01   9.4474664822e+00    0.5060567    0.3798292  55.76  0.002548719    1.429    0.300
        60 -10.4178    209.2669    128.1119   5.2472004572e+01   1.2929128199e+01    0.4566827    0.2682486 -48.18  0.001946986    1.914    0.477
        61 -11.3673    161.2059    128.4224   6.2456395033e+01   2.3785779253e+01    0.4534592    0.3727575 -69.12  0.001912049    1.360    0.265
        62 -11.3187    171.0048    123.5026   5.9146683889e+01   2.2562457601e+01    0.6211047    0.4245928 -80.86   0.00250676    2.340    0.573
        63  -8.0435    215.4946    125.5547   5.0691049055e+01   1.1958911571e+01    0.1481374    0.1405603  12.69 -1.876531e-05    1.014    0.014
        64  -8.8655     31.5313    124.2822   9.2949648072e+01   4.5713924444e+01    0.3402444    0.1570435 -86.32  0.001621566    2.370    0.578
        65  -8.2711     92.8577    124.2233   7.7785931902e+01   3.8009415740e+01    0.1721196    0.1595352 -34.92 0.0004389455    1.288    0.224
        66  -8.5851    214.3015    120.9740   4.9808008976e+01   1.3016467179e+01    0.2120057    0.1828985 -27.72 0.0005166478    1.151    0.132
        67 -10.7621    172.1266    115.3721   5.6905054198e+01   2.3900690931e+01    0.5141332    0.3500546 -40.66  0.001897041    1.491    0.329
        68 -11.2513    167.1802    115.1105   5.7920413719e+01   2.5099378798e+01    0.5075229    0.4025519  10.95  0.001728902    1.625    0.385
        69 -14.1809    196.9630     89.9689   4.5099590740e+01   2.2639040784e+01     3.988203     1.001613  48.66   0.01084366    3.890    0.743
        70  -9.4025     57.5841    121.1735   8.6099396701e+01   4.3643777206e+01    0.1969991    0.1713319  51.19 0.0001418742    1.298    0.230
        71  -9.2184    160.8958    244.2394   8.2124598130e+01   3.9324555065e+00    0.1706013    0.1479266  49.92 0.0005115203    1.154    0.133
        72  -9.1707    162.1882    240.0131   8.1399440293e+01   4.2846610703e+00    0.1931472    0.1323571  45.82 0.0002705121    1.124    0.110
        73 -12.1544     51.0961    139.1753   9.0290684121e+01   4.0387939211e+01    0.6607309    0.3474308 -75.94  0.001900451    1.712    0.416
        74  -9.5752    221.3536    110.0034   4.5818361448e+01   1.3257327523e+01    0.2736095    0.2382327 -64.79 0.0006567341    1.318    0.241
        75 -10.1252    176.1155    107.9509   5.4151629529e+01   2.4405317952e+01    0.3979573    0.2835643 -45.36 0.0008241702    1.425    0.298
        76 -10.7125    149.0949    104.9244   5.9436236725e+01   3.1290790280e+01    0.5195773    0.3371274 -38.22  0.001454156    1.591    0.371
        77  -8.5458    163.0937    235.4731   8.0683340671e+01   4.7528215631e+00    0.1601974    0.1421205  56.41 0.0003316445    1.160    0.138
        78 -10.3455     76.9413    104.1051   7.7825547149e+01   4.4960436455e+01    0.2106813    0.1792847 -60.74            0    1.049    0.047
        79 -10.2990    151.0093     71.2960   4.9414005527e+01   3.7446168252e+01    0.3246752     0.255664 -43.89  0.000567194    1.274    0.215
        80  -9.7281    193.3948     69.5452   4.0037341492e+01   2.7066703066e+01    0.4316781    0.3963133 -80.78   0.00187726    1.144    0.126
        81  -9.4736    126.2806     67.4681   5.4339294551e+01   4.3834491039e+01    0.2613303    0.2495515 -31.12 0.0002949877    1.018    0.018
        82  -9.4119    158.1658     64.0455   4.5533549239e+01   3.6992869721e+01    0.3331926    0.2426719 -18.95 0.0006909602    1.556    0.357
        83 -10.2666    210.7780    180.6695   6.3429361486e+01   3.9928647451e+00    0.3512904    0.1516188  51.12  0.001445161    2.372    0.578
        84  -8.8858    186.1423     60.3988   3.8701232729e+01   3.0449617873e+01     0.246205    0.2070795 -32.35 0.0007939426    1.200    0.167
        85  -9.8870    181.8712     58.3415   3.8887863717e+01   3.1893543881e+01    0.2790326    0.2569407 -50.98 0.0003899341    1.100    0.091
        86  -9.8977    143.8262     59.4009   4.7348152909e+01   4.1294741011e+01    0.2732706    0.2085164 -33.95 0.0002706913    1.303    0.233
        87  -9.0209    110.8043     59.2723   5.5886200506e+01   4.8601722291e+01    0.2381705    0.1847101 -45.39 0.0003567295    1.281    0.219
        88 -15.2768    240.3291     72.3879   3.3129749378e+01   1.4837653891e+01     5.659836    0.8337739  52.93   0.01342121    5.583    0.821
        89  -9.1476    192.4379     56.3000   3.6335803039e+01   2.9455045572e+01    0.5387303    0.1447769 -32.35   0.00155182    3.610    0.723
        90 -10.1219    177.5164     49.5197   3.7003279885e+01   3.4413959122e+01    0.4402488    0.2376179 -52.61  0.001615389    2.262    0.558
        91 -10.2768    181.9424     43.5910   3.4349452359e+01   3.4134428671e+01    0.6878639    0.3360108 -27.08   0.00230637    2.182    0.542
        92  -8.1958    186.6537     53.7270   3.6603126549e+01   3.1371677919e+01     0.159666    0.1155074  30.77 0.0006998116    1.623    0.384
        93  -8.0774     51.6541    233.6635   9.8972917092e+01   2.1743910586e+01   0.08534636   0.08063167 -76.58 0.0007048661    1.774    0.436
        94  -8.6531    113.1291     49.9336   5.2052665031e+01   4.9801228332e+01    0.2011772    0.1864626 -52.10  0.001136232    1.188    0.158
        95 -10.7721    205.6061     46.0567   3.1155033663e+01   2.7534429692e+01     0.682197    0.4952054 -72.66  0.002407421    1.598    0.374
        96  -9.6984    199.9054     45.6730   3.1941626667e+01   2.9088687095e+01    0.3526926    0.2750462 -61.65 0.0008374412    1.372    0.271
        97  -8.7043    196.9650     37.8690   3.0103808148e+01   3.0965536461e+01    0.4896188     0.264153  30.80  0.001775225    2.822    0.646
        98 -10.1499    188.1674     38.8372   3.1813823957e+01   3.3163966965e+01    0.4717866    0.3473258  65.15 0.0003786058    1.329    0.248
        99  -9.7125    190.4073     35.4733   3.0422877126e+01   3.3031216546e+01    0.3536953    0.2668225 -75.22 0.0009699698    1.511    0.338
       100 -10.7785    154.1754     38.6023   3.8096208172e+01   4.2059105603e+01    0.4378797     0.322215  -6.41  0.001463609    1.586    0.369
       101 -11.3560    122.5574     37.8496   4.5191035582e+01   4.9733899818e+01    0.4415965    0.3263631  47.36  0.002259147    1.344    0.256
       102  -9.1598     96.9545     37.5174   5.2219616603e+01   5.5079725533e+01    0.3121916    0.1761414 -31.52  0.001008214    1.693    0.409
       103 -10.0076    160.0212     37.1516   3.6413233140e+01   4.0776844348e+01    0.2946235    0.2394248  36.75   0.00119022    1.249    0.200
       104  -8.6850    203.4501     36.7602   2.8790897217e+01   2.9401790992e+01    0.2454149    0.2140739 -57.27 0.0006033669    1.144    0.126
       105 -10.2105    130.5131    227.5800   8.5354823534e+01   1.1358934022e+01    0.2146639    0.1784406  62.67 0.0005236813    1.084    0.078
       106 -10.7628    125.8233     32.3872   4.2355838576e+01   4.9799341615e+01    0.3059268    0.2335485  48.88  0.001451071    1.288    0.224
       107 -10.7893    179.0696     24.1455   2.8736611358e+01   3.7502956546e+01    0.7244031    0.4423949  62.07  0.003184826    1.536    0.349
       108  -8.6726     82.1366    220.0788   9.2947538420e+01   2.0046781756e+01    0.1534655     0.129609  71.29            0    1.216    0.178
       109  -9.4757    125.8789     17.6601   3.6779368583e+01   5.1709378603e+01    0.2799066    0.1979128 -19.27 0.0005662826    1.444    0.307
       110  -9.6770    237.3175    216.9399   6.5237216881e+01  -5.5880673617e+00    0.2371255    0.1749827  33.03  0.001059322    1.111    0.100
       111  -9.5526    133.6380     24.7906   3.7687553245e+01   4.8999870415e+01    0.2059985    0.1259476 -36.95 0.0005482926    1.700    0.412
       112  -8.6610    159.0004     21.9618   3.1482639702e+01   4.3027703258e+01    0.2175228    0.2078024  59.47 0.0004026735    1.031    0.030
       113  -9.2889    138.0000     18.9875   3.4587792858e+01   4.8662939745e+01    0.2334437    0.0810418 -25.62 0.0008089774    2.988    0.665
       114  -8.5040    194.1460     18.5403   2.4752425353e+01   3.4166895543e+01    0.2125567    0.1365052  68.68  0.000352492    1.477    0.323
       115  -7.9630     67.9711     16.9645   5.3346156833e+01   6.3192224830e+01    0.1501049    0.1231898 -10.92 0.0003603589    1.018    0.018
       116  -7.9053    167.2776     16.6515   2.8245908976e+01   4.1493931149e+01    0.1494049    0.1063842 -60.01 0.0004701712    1.638    0.389
       117  -8.8373    189.9939     14.9576   2.4250178391e+01   3.5677992481e+01     0.224564    0.2068561  87.76 0.0006792598    1.039    0.038
       118  -8.0409    153.7882    214.4260   7.9560929740e+01   9.4656566620e+00    0.1562968    0.1024395  40.73 0.0003199973    1.369    0.269
       119  -9.2085     37.5181    213.7928   9.9919692227e+01   2.6866097990e+01     0.195573    0.1219352  54.73  0.001411715    1.357    0.263
       120  -9.1317    240.4766    206.7719   6.2965478725e+01  -4.9364756496e+00    0.2284493    0.1406024  38.12 0.0006457745    1.373    0.272
