#   1 NUMBER                 Running object number                                     
#   2 MAG_AUTO               Kron-like elliptical aperture magnitude                    [mag]
#   3 X_IMAGE                Object position along x                                    [pixel]
#   4 Y_IMAGE                Object position along y                                    [pixel]
#   5 X_WORLD                Barycenter position along world x axis                     [deg]
#   6 Y_WORLD                Barycenter position along world y axis                     [deg]
#   7 A_WORLD                Profile RMS along major axis (world units)                 [deg]
#   8 B_WORLD                Profile RMS along minor axis (world units)                 [deg]
#   9 THETA_WORLD            Position angle (CCW/world-x)                               [deg]
#  10 FWHM_WORLD             FWHM assuming a gaussian core                              [deg]
#  11 ELONGATION             A_IMAGE/B_IMAGE                                           
#  12 ELLIPTICITY            1 - B_IMAGE/A_IMAGE                                       
         1 -14.4273    160.8990     52.4465   7.9538329337e+01   3.7983494856e+01     1.973754     1.403608  13.47  0.006554522    1.951    0.487
         2 -14.0292    173.2495     36.3750   7.2459462926e+01   3.6991430981e+01    0.9325899    0.8376142 -60.53  0.002955567    1.140    0.123
         3 -12.2656    189.7017     14.5673   6.3927092035e+01   3.5251716144e+01     0.326847    0.2972356 -38.68  0.001134674    1.221    0.181
         4 -13.8090    191.0110      4.5874   6.1078341264e+01   3.5915490850e+01    0.9458308    0.5884173  70.80  0.004502962    1.405    0.289
         5  -9.9013    201.5024    222.4882   1.1092328681e+02  -5.1382290886e-01    0.1276632    0.1038326  26.60 0.0001161283    1.009    0.009
         6 -18.8098     67.5265    243.5294   1.3911585028e+02   1.7648202449e+01     6.261703     4.830556  45.20   0.04401128    1.313    0.239
         7 -12.4445    139.4907    200.5256   1.1980217284e+02   1.4106637205e+01    0.3206539    0.3037437  13.34  0.001584006    1.211    0.174
         8 -12.8708    206.7169    180.0962   1.0232360212e+02   4.9278362582e+00    0.7993716    0.4232281  30.82  0.002818044    2.010    0.502
         9 -12.6669    196.2525    171.6242   1.0268282037e+02   8.3676363093e+00    0.8677129    0.4573018 -52.23   0.00292362    2.564    0.610
        10 -19.2215     48.0110     98.0085   1.2518970548e+02   5.1526146074e+01     18.07176     1.509609 -60.43   0.03308758   11.990    0.917
        11  -9.8402      3.5517    176.3046   1.4667470656e+02   3.8000115363e+01    0.1044679   0.08436516  78.93  0.000173554    1.105    0.095
        12 -10.4195    175.2214    194.0513   1.1122587570e+02   8.6009732684e+00    0.2038078    0.1586735 -80.48 0.0006216327    1.927    0.481
        13 -10.7104    180.0658    192.2992   1.0992186551e+02   7.9815213344e+00     0.228919    0.2055195 -54.98 0.0005683938    1.334    0.251
        14 -11.6290    208.5589    197.5530   1.0528426704e+02   1.8694031738e+00     0.252605    0.2299346  59.14 0.0008081737    1.400    0.286
        15 -11.8467    167.3964    191.2116   1.1234176554e+02   1.0585785160e+01    0.3923831    0.2429737  35.86  0.001602162    1.501    0.334
        16 -10.9308    122.6202    165.8320   1.1777433787e+02   2.4207254269e+01    0.2671878    0.1886851  52.70 0.0004543717    1.346    0.257
        17 -10.9568    223.9450    164.3928   9.5921189272e+01   4.1572828450e+00    0.2397508    0.1857504 -48.03 0.0005855369    1.527    0.345
        18 -12.3293     10.5829    206.4979   1.4708349958e+02   3.1226372890e+01    0.4659482    0.2842359  18.20   0.00281783    2.771    0.639
        19 -10.4001     26.1426    165.3374   1.4088965854e+02   3.8326665567e+01    0.3263305    0.1255571  22.32   0.00135489    4.067    0.754
        20 -10.9573    237.5061    159.4861   9.2510115607e+01   2.3765908190e+00    0.1334382    0.1203126  -2.94 0.0008102395    1.036    0.034
        21 -12.7810     24.6157    157.0934   1.4046429477e+02   4.0307920298e+01    0.4702089    0.3544975  36.64  0.002340886    1.504    0.335
        22 -11.3047     27.7138    151.2313   1.3911876983e+02   4.1330407765e+01    0.2988662    0.1937609  52.17  0.001082243    1.518    0.341
        23 -11.2427    139.7005    156.2551   1.1187266502e+02   2.2896237437e+01     0.276094    0.2306592  59.61 0.0003861331    1.187    0.158
        24 -13.9201    194.5571    194.1035   1.0735158218e+02   4.9599217349e+00     1.076523    0.8067253 -68.68  0.003223519    2.137    0.532
        25 -10.4383    161.4829    153.4851   1.0626635024e+02   1.8928829947e+01    0.1501772    0.1414358  37.10 0.0002164066    1.022    0.022
        26 -12.0420    134.3240    148.6536   1.1159649491e+02   2.5605960062e+01    0.6046073    0.3026553 -61.76  0.002206418    2.725    0.633
        27 -12.4525    134.0000    144.0055   1.1068957199e+02   2.6673648801e+01    0.9324799    0.2977935 -55.46  0.002613047    4.370    0.771
        28 -12.9648     11.1893    131.9711   1.4128842524e+02   4.7113637290e+01    0.4782597    0.2534515  45.27  0.002264431    1.982    0.495
        29 -12.9842      2.9370    126.0624   1.4286274419e+02   4.9020109419e+01     1.052781    0.2681166 -77.45  0.004039581    3.513    0.715
        30 -11.1213      9.3068    149.6964   1.4343015257e+02   4.3287328225e+01    0.4095349    0.2007045 -66.23  0.002310419    1.721    0.419
        31 -12.6856      4.8220    136.6784   1.4337744040e+02   4.6518717140e+01    0.6041359    0.3024766 -65.82  0.003470008    1.639    0.390
        32 -12.5983      6.9234    143.8372   1.4349603146e+02   4.4771275708e+01    0.5052671    0.3079312   4.35  0.002915342    2.654    0.623
        33 -11.5478     12.8894    142.1578   1.4187170708e+02   4.4686024711e+01    0.2606202    0.1807882  56.87 0.0003406068    1.432    0.302
        34 -10.9823    174.8352    148.9342   1.0233217845e+02   1.6957802341e+01    0.2775808     0.216543 -66.17 0.0009403115    1.599    0.375
        35 -12.1860    145.3921    146.1761   1.0840807968e+02   2.3836568482e+01    0.4935741     0.352015  71.22  0.002212336    1.786    0.440
        36 -13.0564    112.5223    139.7987   1.1522414444e+02   3.1861238752e+01    0.7897089    0.5623254   9.22  0.003434154    2.238    0.553
        37 -12.5247    103.3113    138.7745   1.1742688332e+02   3.3801147655e+01    0.2921448    0.2840987  39.64 0.0004297482    1.115    0.103
        38 -11.4909    143.0869    139.7776   1.0754852774e+02   2.5675270728e+01    0.3018501    0.2172176  25.84  0.001362972    1.664    0.399
        39 -10.8145    152.4195    139.2402   1.0520655569e+02   2.3776501584e+01    0.2720346    0.1899371  67.44  0.001158091    1.774    0.436
        40 -12.1309    106.0732    130.7950   1.1501505530e+02   3.5113964413e+01    0.4036208    0.3515591 -74.93  0.001182945    1.168    0.144
        41 -11.4454    107.3729    125.6540   1.1352525042e+02   3.6037679439e+01    0.2797389    0.2487069 -13.87  0.000406584    1.340    0.254
        42 -12.2504    118.9677    129.5911   1.1131837093e+02   3.2895258035e+01    0.3948944    0.3705767  72.25  0.001050565    1.049    0.047
        43 -12.8039    124.4397    126.6953   1.0922090696e+02   3.2426895357e+01    0.6928447    0.4338527  73.47  0.002627073    2.586    0.613
        44 -12.4386    135.4644    122.1726   1.0530843291e+02   3.1077720027e+01    0.6741598    0.2477239 -48.99  0.002139933    2.875    0.652
        45 -11.0853    160.5015    127.8000   1.0064241761e+02   2.4324489283e+01    0.4018179    0.2632728 -56.00   0.00144266    1.756    0.431
        46 -11.0743    142.6048    127.5711   1.0483732533e+02   2.8369066566e+01    0.3068998    0.2539209  84.09 0.0007236499    1.426    0.299
        47 -11.7622    135.9683    196.7248   1.1996303453e+02   1.5461953515e+01    0.3713042    0.2471171  80.49  0.001738277    2.228    0.551
        48 -12.1984      4.4938    112.3141   1.4097702192e+02   5.2007727286e+01    0.3690385    0.2660073  -4.89  0.001581677    1.911    0.477
        49 -11.2837    113.0232    118.5789   1.1033461147e+02   3.6535295858e+01    0.3348045    0.2709557  79.66  0.001167258    1.447    0.309
        50 -10.5822    116.1996    115.2143   1.0864794383e+02   3.6645753350e+01     0.207536    0.1757488  77.47 0.0003865001    1.322    0.244
        51 -11.0813    168.4001    113.3498   9.5255812432e+01   2.5370875210e+01    0.3860721    0.2944054 -85.31  0.001132087    1.767    0.434
        52 -11.3228    134.6481    105.8298   1.0133509249e+02   3.4720783938e+01    0.7559013     0.153351 -42.91  0.001837746    5.089    0.804
        53 -10.7918    205.4232    110.0895   8.6972757530e+01   1.7253756224e+01    0.3254545    0.2236122  47.39  0.000905359    1.472    0.321
        54  -9.5393    163.2962    110.3245   9.5614061132e+01   2.7170536492e+01    0.1573575    0.1244619   8.79 0.0003117156    1.624    0.384
        55 -12.8235     85.5055    110.0085   1.1614816230e+02   4.3505717455e+01    0.4228839    0.3127565  27.28  0.002135771    1.537    0.349
        56 -10.3520    176.5151    187.9580   1.0985826041e+02   9.4079135556e+00     0.197096    0.1397176 -41.07 0.0006995741    1.569    0.363
        57  -9.7305    179.1382    206.1211   1.1252406450e+02   5.8640097870e+00    0.1702676    0.1471317  56.36            0    1.280    0.219
        58  -9.7798    148.2644     79.6265   9.0537767962e+01   3.6666015640e+01    0.1589354    0.1196929 -69.47  0.000511598    1.666    0.400
        59 -11.1716     89.5132     78.3218   1.0641807704e+02   4.9719364087e+01    0.2539992    0.2476333 -19.38 0.0005147826    1.031    0.030
        60  99.0000     14.4892    248.7846   1.4849508527e+02   2.3060739950e+01    0.3698962   0.09311253  45.79  0.001986411    2.536    0.606
        61 -10.7751    184.1851    186.8315   1.0807822512e+02   8.1250732542e+00    0.2105178    0.1856053  51.86 0.0007264983    1.201    0.168
        62 -13.2803    177.5345     28.7756   6.9557547654e+01   3.6812737856e+01    0.5444852    0.4742432  15.30  0.001530173    1.381    0.276
        63 -10.3630     13.5245     59.8111   1.2912710106e+02   6.2971558812e+01    0.1759503    0.1564421 -20.36 0.0003664577    1.202    0.168
        64 -10.0756    126.1197     26.9026   7.8317427739e+01   5.0203049686e+01    0.2803062    0.1742244  89.02  0.001162606    2.527    0.604
        65  -9.4432    220.3027    227.6430   1.0833262216e+02  -4.2680251060e+00     0.107152    0.0959862  64.71 0.0006933462    1.715    0.417
