#   1 NUMBER                 Running object number                                     
#   2 MAG_AUTO               Kron-like elliptical aperture magnitude                    [mag]
#   3 X_IMAGE                Object position along x                                    [pixel]
#   4 Y_IMAGE                Object position along y                                    [pixel]
#   5 X_WORLD                Barycenter position along world x axis                     [deg]
#   6 Y_WORLD                Barycenter position along world y axis                     [deg]
#   7 A_WORLD                Profile RMS along major axis (world units)                 [deg]
#   8 B_WORLD                Profile RMS along minor axis (world units)                 [deg]
#   9 THETA_WORLD            Position angle (CCW/world-x)                               [deg]
#  10 FWHM_WORLD             FWHM assuming a gaussian core                              [deg]
#  11 ELONGATION             A_IMAGE/B_IMAGE                                           
#  12 ELLIPTICITY            1 - B_IMAGE/A_IMAGE                                       
         1 -14.8951    173.4934     46.2707   6.2324642897e+01   3.5682094784e+01      1.31444    0.9956806  12.47  0.003949214    1.605    0.377
         2 -14.9414    191.5092     16.3224   5.0141213532e+01   3.4640319391e+01    0.9959508     0.919871 -41.37  0.003896332    1.095    0.087
         3 -10.9783    138.9738    243.3522   1.1070031534e+02   9.3196574117e+00    0.1910438    0.1483339 -60.64  0.000843005    1.711    0.416
         4 -11.0508     97.8465    249.7059   1.1821107610e+02   1.4312517594e+01    0.1392754    0.0945621  60.18  0.000349606    1.187    0.157
         5 -17.4027     67.1600    220.9531   1.2125192647e+02   2.2828761186e+01     7.563061     4.505141 -70.28   0.05107144    1.833    0.454
         6 -19.0647     48.8910     98.4050   1.1108711903e+02   5.0441408944e+01     16.02771    0.8304796 -63.05   0.02510777   17.035    0.941
         7 -13.6431    153.1044    219.2969   1.0541298341e+02   1.0442016727e+01    0.3604719    0.2326065  28.39  0.001257689    1.628    0.386
         8 -11.7244    125.3156    238.4323   1.1254390625e+02   1.2022129768e+01    0.2759204    0.1320019 -56.93  0.001532356    2.711    0.631
         9 -12.7214    148.1000    228.2094   1.0741718130e+02   9.9823308872e+00    0.2481641    0.2137642 -24.57  0.001442849    1.560    0.359
        10 -14.5334    109.0069    188.6238   1.0997079182e+02   2.2598121970e+01    0.8970022    0.5535394 -43.98  0.004870891    2.174    0.540
        11 -13.1423    108.1138    203.0977   1.1190450482e+02   2.0162034709e+01    0.4165157    0.3347467  43.60  0.002483001    1.194    0.162
        12 -13.5893    113.0895    196.0094   1.1007806281e+02   2.0625160968e+01    0.5294284    0.3714983   0.78  0.002587108    3.137    0.681
        13 -10.8240     12.8841    205.9856   1.2994173554e+02   3.1454522537e+01    0.2910693    0.1405845  33.12  0.001860919    2.290    0.563
        14 -11.9522    132.9812    228.9995   1.1020074353e+02   1.2217986821e+01    0.1753916    0.1356921  48.05 0.0003546606    1.010    0.010
        15 -15.1467    193.2813    195.6138   9.4569894971e+01   6.9803743599e+00     1.007196    0.7511709  76.70  0.005506624    2.329    0.571
        16  -9.8574     10.2539    194.0110   1.2985610224e+02   3.3874306788e+01    0.1527464    0.1066901  71.52  0.001184737    1.018    0.018
        17  99.0000      7.9364    191.1841   1.3014559428e+02   3.4607076778e+01    0.1720094    0.1159613  45.27  0.001305741    1.451    0.311
        18 -11.7290    127.0135    227.9330   1.1114999014e+02   1.3285750741e+01    0.2978063    0.1914305  46.89  0.001567882    1.196    0.164
        19 -11.2655    127.4328    223.1586   1.1054907902e+02   1.3935808370e+01    0.1958253    0.1166657 -57.71  0.001116832    2.098    0.523
        20 -12.2544    133.0654    194.9957   1.0597626879e+02   1.7543605112e+01    0.1957019    0.1629678  50.87  0.000500135    1.005    0.005
        21 -11.4813     30.8768    205.1931   1.2671168887e+02   2.9809416513e+01    0.1575874    0.1262601  76.79  0.001016666    1.169    0.144
        22 -11.6199    112.4527    205.4422   1.1133510052e+02   1.9093235340e+01    0.2181507     0.169209  61.37 0.0005532859    1.122    0.108
        23 -10.4331    150.9570    239.6846   1.0824939264e+02   7.9946889367e+00    0.1583618    0.1123781  43.07 0.0003519446    1.055    0.052
        24 -12.9282    187.0912    175.6440   9.2255736401e+01   1.0993066699e+01    0.3290908    0.3170072   5.43 0.0009748234    1.150    0.131
        25 -12.3857    185.5152    169.9993   9.1515566904e+01   1.2162486469e+01    0.2776418    0.2377966 -48.61  0.001014695    1.390    0.281
        26 -12.3379     25.2712    165.7878   1.2522761022e+02   3.7977386071e+01    0.2064341    0.1795912  26.07 0.0009008449    1.589    0.371
        27 -11.4079    193.4897    170.9599   9.0173684729e+01   1.0500290927e+01    0.2060058    0.1659669  36.38 0.0005527394    1.100    0.091
        28 -15.0515    133.7780    145.2677   9.7654132538e+01   2.6626343791e+01     1.457114    0.4141848 -54.82  0.004210624    4.892    0.796
        29 -12.2037     14.7305    151.0254   1.2642915002e+02   4.1994906276e+01    0.2929251    0.2284577 -44.50    0.0020754    1.783    0.439
        30 -11.8159    174.8528    149.1116   8.9523594989e+01   1.7712538216e+01    0.2143188    0.1936155  73.82 0.0006476299    1.277    0.217
        31 -14.0999    143.9652    146.8908   9.5675027386e+01   2.4331610287e+01    0.6103185    0.3298365 -61.46  0.002509222    2.538    0.606
        32 -13.5842    142.1040    138.6139   9.4416198520e+01   2.6314238904e+01    0.3815908    0.3216833 -26.53  0.001746633    1.375    0.273
        33 -12.0484    159.0646    146.1677   9.2226156011e+01   2.1451969273e+01    0.2588968    0.1884601 -79.24  0.001048894    2.036    0.509
        34 -14.2946      3.0525    125.8512   1.2728284800e+02   4.8269532072e+01     1.190632     0.546313 -85.84  0.005886572    1.783    0.439
        35 -12.5041      2.6865    112.5594   1.2628766704e+02   5.1199699583e+01    0.2621133    0.1901573 -82.79  0.001033646    1.061    0.058
        36 -12.7265      9.6560    111.2631   1.2429292110e+02   5.1026630934e+01    0.3947099    0.2091764  -1.41  0.001999504    3.544    0.718
        37 -14.2910    135.6124    126.5876   9.3343558996e+01   3.0033023771e+01     1.501966    0.2915389 -50.69   0.00342211    6.907    0.855
        38 -12.1248    160.7249    128.3251   8.7994306171e+01   2.4437995551e+01    0.2771437     0.183818 -53.70  0.001272529    1.717    0.418
        39 -12.7744    126.9921    123.4897   9.4736230599e+01   3.2397674590e+01    0.2646419    0.2069738 -31.74  0.000376772    1.487    0.328
        40 -12.4598    113.2529    117.2508   9.6799882241e+01   3.6374917375e+01     0.266737    0.2220777  82.38 0.0002853719    1.316    0.240
        41 -10.8811    231.1467    113.8292   7.1088920401e+01   1.1512951576e+01    0.2023705     0.190647 -36.28 0.0008129738    1.171    0.146
        42 -11.9163    168.3330    113.3047   8.2741862994e+01   2.5571988375e+01     0.339247    0.2745609 -82.67 0.0007604129    1.605    0.377
        43 -12.9439    107.1112    122.7846   9.9579404587e+01   3.6304068017e+01    0.3093388    0.2765979   0.38 0.0007286629    1.401    0.286
        44 -13.8710    129.1635    140.1262   9.7710773053e+01   2.8543390405e+01    0.4171436    0.3390263 -46.48  0.001097247    1.314    0.239
        45 -11.0129    205.6904    110.0489   7.4523679404e+01   1.7643234704e+01    0.2098839    0.1842844 -19.81 0.0005923071    1.113    0.102
        46 -13.7796    162.1053    225.9270   1.0464731599e+02   8.0749698863e+00    0.4096142    0.2144485  46.96  0.002162345    1.563    0.360
        47 -13.5280    166.9769    222.8059   1.0337538261e+02   7.7111025740e+00    0.2835997    0.2626481 -60.57 0.0008943488    1.414    0.293
        48 -13.7627    160.2067     60.4043   6.9434712574e+01   3.6955753335e+01    0.5243951    0.4456343  46.79 0.0009757996    1.168    0.144
        49 -11.0835     14.3747     59.1609   1.1524506509e+02   6.2390584449e+01    0.2432732    0.1472465 -39.82  0.001453205    1.634    0.388
        50 -13.7052    102.7717    241.0104   1.1666419429e+02   1.4891239513e+01    0.6062771     0.186041 -55.69  0.002979435    4.101    0.756
        51 -12.9902    178.3314     38.9770   5.9160133257e+01   3.5416774283e+01    0.4490437    0.3654515  19.50 0.0008787753    1.396    0.284
