#   1 NUMBER                 Running object number                                     
#   2 MAG_AUTO               Kron-like elliptical aperture magnitude                    [mag]
#   3 X_IMAGE                Object position along x                                    [pixel]
#   4 Y_IMAGE                Object position along y                                    [pixel]
#   5 X_WORLD                Barycenter position along world x axis                     [deg]
#   6 Y_WORLD                Barycenter position along world y axis                     [deg]
#   7 A_WORLD                Profile RMS along major axis (world units)                 [deg]
#   8 B_WORLD                Profile RMS along minor axis (world units)                 [deg]
#   9 THETA_WORLD            Position angle (CCW/world-x)                               [deg]
#  10 FWHM_WORLD             FWHM assuming a gaussian core                              [deg]
#  11 ELONGATION             A_IMAGE/B_IMAGE                                           
#  12 ELLIPTICITY            1 - B_IMAGE/A_IMAGE                                       
         1 -12.7719     84.7340     24.2044   1.3997990080e+01   5.9745257390e+01    0.3414596    0.2095334 -65.52   0.00153721    2.176    0.540
         2 -11.1613    147.0299     11.9744   3.5910128092e+02   4.5706399901e+01    0.1903377    0.1579254 -78.82 0.0003274344    1.007    0.007
         3 -11.3269     92.6151      8.1023   5.3039175208e+00   5.9530594924e+01     0.173296    0.1687791 -64.06 0.0009384431    1.179    0.152
         4 -11.0355     72.3048      6.6795   9.2800498379e+00   6.4756572959e+01     0.134656   0.09639382 -72.44 0.0002762489    1.634    0.388
         5 -10.7294     36.7692      4.7807   2.1785856836e+01   7.3226621408e+01    0.1644675    0.1456432  72.53 0.0003259185    1.315    0.239
         6 -11.1738     24.9741      2.0213   2.7072483200e+01   7.5936270622e+01     0.199709    0.1634642  34.42 0.0007676078    1.030    0.029
         7 -10.6054    114.5017      1.5754   3.5935240842e+02   5.4589428160e+01    0.1327246    0.1076737 -86.13 0.0002143521    1.053    0.050
         8 -10.2480      4.3013      1.3006   4.5228293487e+01   7.9356610481e+01    0.1266451    0.0843773  -6.47  0.000222867    1.585    0.369
         9 -10.7935    132.4144    245.4885   5.3274908128e+01   7.0610438000e+00    0.1222073   0.09388994   4.68 0.0001104996    1.057    0.054
        10 -11.2282    237.4727    250.6263   3.4756750784e+01  -3.2602891678e+00    0.2164473   0.07659011  21.49  0.001291035    2.650    0.623
        11 -11.3955    171.5529    249.8346   4.5854266336e+01   2.4549332821e+00    0.2384458    0.1293195  -2.65  0.001386151    1.818    0.450
        12 -12.5178    139.7440    248.1298   5.2029040885e+01   5.8789201883e+00    0.3490784     0.264367 -49.54  0.002352006    1.711    0.416
        13 -12.2540    143.0458    242.3805   5.0627322075e+01   6.4302244073e+00    0.2750948    0.2261187  -6.16 0.0008485037    1.129    0.114
        14 -11.3706    125.0847    249.3515   5.5313276215e+01   7.2130184321e+00    0.1892501    0.1446557 -16.46 0.0005103122    1.291    0.225
        15 -11.6589    114.9172    249.4172   5.7560617439e+01   8.2703897526e+00    0.3137175     0.186985  48.26   0.00171049    2.208    0.547
        16 -11.5785     57.5652    248.8420   7.0833352777e+01   1.4285579570e+01    0.2325121    0.1899076 -28.46  0.001127249    1.471    0.320
        17 -15.0424     26.5577    216.7797   7.6588214789e+01   2.3767077415e+01     1.192281     1.092681  60.13  0.007873826    1.132    0.117
        18 -14.4507     36.3772    229.5445   7.4784490770e+01   2.0129001191e+01     1.420994    0.6720694 -42.54  0.006416654    2.924    0.658
        19 -14.1197     14.4048    212.2796   7.9596455606e+01   2.5800783249e+01     1.449794    0.4812184 -58.71  0.005799001    3.385    0.705
        20 -15.0925     26.7785    184.4028   7.4436211548e+01   3.1392045814e+01     1.251961    0.9298579 -32.14  0.003763571    1.597    0.374
        21 -14.5650     34.1543    247.0714   7.6311652452e+01   1.6817644340e+01     2.226823    0.3684585  28.60  0.008221101    3.266    0.694
        22 -13.7816     21.7327    196.6539   7.6745814404e+01   2.8832675388e+01    0.7505237     0.506698   0.22  0.002942901    1.690    0.408
        23 -14.5214     15.1438    165.6665   7.6770258549e+01   3.7185207214e+01     1.468541    0.6128055  70.14  0.005097135    2.855    0.650
        24 -14.4286      5.3094    166.0124   8.0002822899e+01   3.7800722412e+01     1.245044    0.6559572 -72.49  0.004471588    1.877    0.467
        25 -12.7220      1.7957    227.0628   8.3378303714e+01   2.3535126689e+01    0.3616337    0.1720328  56.43  0.001340574    1.839    0.456
        26 -14.5133      3.4778    216.8920   8.2645093158e+01   2.5609726454e+01     1.145313    0.5184628 -73.12  0.005590349    2.401    0.583
        27 -14.4288      4.9494    201.5665   8.1713068452e+01   2.8989842068e+01    0.7723535    0.5876658  -9.92  0.004495258    1.564    0.361
        28 -14.7069     15.6672    230.2264   8.0040740569e+01   2.1794130286e+01     1.061371    0.5724704  29.40  0.005800073    1.468    0.319
        29 -13.2866     13.9589    224.4125   8.0234183331e+01   2.3165000586e+01    0.3515314    0.2810713  42.07  0.002267806    1.027    0.026
        30 -13.6713     17.6921    237.6271   7.9842030110e+01   2.0104191914e+01    0.3711997    0.2251846  43.02  0.001266079    1.319    0.242
        31 -15.5212      4.5059    247.1274   8.3283722495e+01   1.9266789074e+01     1.172366    0.8168449  63.04  0.007809657    1.358    0.264
        32 -14.9224     10.2370    239.0433   8.1693807442e+01   2.0419612914e+01    0.5866814    0.4597805 -39.80  0.003849574    1.660    0.397
        33 -14.1928      6.9382    235.6395   8.2377296537e+01   2.1366113996e+01    0.3797504    0.3096344  76.35  0.001660582    1.298    0.229
        34 -10.9663    205.6778    244.3219   3.8968256784e+01   6.2594680941e-02   0.08953581   0.07887556  14.76 0.0006081773    1.676    0.403
        35 -10.7045     94.4866    243.4853   6.1614448542e+01   1.1465415323e+01    0.1803256    0.1261656 -85.57  0.001027336    2.224    0.550
        36 -12.1489    171.3864    240.9748   4.4721850439e+01   3.7266549206e+00    0.4215886    0.2256951  27.66  0.001939052    1.705    0.414
        37 -11.5328    126.7067    242.2010   5.4128539859e+01   8.2050933478e+00    0.2341084    0.1529042  39.58 0.0006914377    1.675    0.403
        38 -12.1842    117.2886    241.5129   5.6148971754e+01   9.3413483481e+00    0.2335225    0.1850262   6.55 0.0005527046    1.064    0.060
        39 -10.7295    180.7838    240.3833   4.2859721370e+01   2.8860801733e+00    0.1439017   0.08515259   8.98 0.0001115729    1.435    0.303
        40 -11.8928     68.0164    240.5295   6.7682077138e+01   1.4805871262e+01    0.3259659   0.09301578  26.63  0.001291424    2.589    0.614
        41 -11.2944     64.6585    238.3291   6.8324013267e+01   1.5575052146e+01    0.1957614    0.1422581  58.26 0.0007964334    1.530    0.347
        42 -12.8817     20.2804    203.4390   7.7549125045e+01   2.7348904961e+01    0.2649671    0.2548721  29.06 0.0003149144    1.134    0.118
        43 -10.7546    175.4984    238.0669   4.3540352141e+01   3.7358203701e+00    0.1565751    0.1018058 -36.34   0.00102033    1.563    0.360
        44 -11.1447    210.4816    236.5388   3.7084267276e+01   6.3742209753e-01    0.1712369    0.1521611 -53.36  0.001292621    2.199    0.545
        45 -11.3484    137.8334    236.2947   5.0971440326e+01   7.9672669665e+00    0.1741721    0.1616628   7.91 0.0005394634    1.300    0.231
        46 -12.0092     69.0636    235.7091   6.7019048134e+01   1.5627516809e+01    0.3003031      0.19032  30.91  0.001103661    1.271    0.214
        47 -12.1900     73.1061    231.2233   6.5614786369e+01   1.6079061360e+01    0.4069439    0.2830482 -38.24  0.001195537    1.687    0.407
        48 -11.4236     47.8275    235.8879   7.2310369848e+01   1.7741701055e+01    0.1836582    0.1590223   4.33 0.0005830153    1.220    0.180
        49 -12.2707    165.6863    234.3438   4.4937282928e+01   5.2871654140e+00    0.2108706    0.1708608   4.99 0.0002458342    1.130    0.115
        50 -12.5203    243.3773    233.2636   3.1508032397e+01  -1.7114623399e+00    0.1795612    0.1283949 -17.34 0.0003815316    1.178    0.151
        51 -12.5910    158.5192    233.4991   4.6260397731e+01   6.1734145805e+00    0.2285259    0.1807064  -7.62 0.0005657253    1.085    0.078
        52 -11.9964     57.9302    233.7511   6.9630100816e+01   1.7165622964e+01    0.3506251    0.2061224  22.28  0.001311879    1.423    0.297
        53 -11.3257     56.3092    230.3134   6.9770138138e+01   1.8025234313e+01    0.2419103    0.1858702  -5.99 0.0007323839    1.442    0.307
        54 -11.4505     61.5206    231.4723   6.8545558278e+01   1.7254480818e+01    0.2797045    0.1393716  34.04 0.0008076496    1.601    0.375
        55 -11.2868     61.5001    228.4693   6.8301257692e+01   1.7865407103e+01    0.2317729    0.1695557 -87.47 0.0007276887    1.709    0.415
        56 -11.9970    181.9365    231.1012   4.1356006541e+01   4.0945878571e+00    0.3858182    0.2762922  55.82  0.001809186    3.347    0.701
        57 -10.6725     26.2710    233.3226   7.7536714890e+01   2.0255361317e+01    0.1145513   0.09095453 -25.58 0.0002290493    1.571    0.363
        58 -11.9389    222.5947    231.7314   3.4437208839e+01   1.8790007761e-01    0.1922828   0.07708054 -33.74 0.0008396069    2.059    0.514
        59 -13.1339    149.4785    229.0010   4.7520477113e+01   7.8734299437e+00    0.4507535    0.3283886  48.28  0.001987327    2.011    0.503
        60 -12.1661    148.3619    224.2287   4.7099599815e+01   8.7844442734e+00    0.2107526    0.1749223 -53.20  0.001047437    1.618    0.382
        61 -10.8732    216.9302    231.3107   3.5284089799e+01   7.3794952853e-01    0.1486239    0.1043101  -4.67 0.0004415188    1.072    0.067
        62 -12.7632    194.1923    227.8241   3.8648637383e+01   3.3371216755e+00    0.3449919    0.2238463 -24.21  0.001297252    1.299    0.230
        63 -10.5941    211.4226    228.4235   3.5771912738e+01   1.6123763453e+00    0.1090323   0.07852792  -9.51 9.050495e-05    1.003    0.003
        64 -11.2071    174.3603    228.2066   4.2383684945e+01   5.3024701794e+00     0.141517    0.1043057 -42.37 0.0002851521    1.607    0.378
        65 -12.4828     81.3861    226.0172   6.3033077228e+01   1.6203492809e+01    0.4828212    0.3400524  40.71  0.001823986    1.339    0.253
        66 -11.2794    155.8036    227.5917   4.6005354753e+01   7.3997699435e+00    0.1653009   0.09711737  31.01 0.0006503037    1.631    0.387
        67 -11.0032    138.3620    227.1675   4.9664481683e+01   9.4316516642e+00    0.1491919    0.1201057 -57.00 0.0005126355    1.678    0.404
        68 -13.2762    117.1295    225.6875   5.4288421568e+01   1.2149373263e+01    0.4848443     0.335992  62.80  0.001375079    2.355    0.575
        69 -13.2653    116.9269    214.7704   5.2922115723e+01   1.4211495575e+01    0.5113105    0.2793313   9.48 0.0007051745    2.030    0.507
        70 -13.2024    125.7237    222.2735   5.1853180035e+01   1.1758671123e+01    0.6008888     0.224267  33.52  0.002615305    2.335    0.572
        71 -11.9477    122.5824    217.7319   5.1977759645e+01   1.2965043127e+01    0.2468673    0.1901482  32.48 0.0007772737    1.278    0.218
        72 -12.2558    106.2489    225.8381   5.6888212012e+01   1.3390089948e+01    0.2804055    0.1629971  12.16  0.001424274    1.663    0.399
        73 -11.8830     92.9337    223.6581   5.9891473789e+01   1.5355027521e+01    0.3766372    0.2140935 -16.21  0.001710039    2.447    0.591
        74 -12.9579    161.0471    222.9338   4.4270587666e+01   7.5633910361e+00    0.3418289    0.1995533  29.31   0.00105192    1.611    0.379
        75 -11.5060    100.9129    224.3620   5.8006365216e+01   1.4291728655e+01     0.195257    0.1390416  19.72 0.0006657488    1.182    0.154
        76 -14.0314     49.8880    217.2794   7.0407598150e+01   2.1428717352e+01     0.824479    0.4747884 -73.82  0.003010442    2.030    0.507
        77 -12.1803     32.8303    209.4997   7.4448848050e+01   2.4833619176e+01    0.2928926    0.2595237 -82.50 0.0008153698    1.259    0.206
        78 -13.5288     35.9923    205.0108   7.3261781177e+01   2.5565917917e+01    0.4908473    0.3357876  69.85  0.001790708    1.564    0.360
        79 -12.5199     34.0878    200.1066   7.3441667346e+01   2.6894526316e+01    0.3601494    0.1953079  20.33 0.0004785368    1.699    0.411
        80 -12.9731    173.5707    219.9731   4.1343433831e+01   6.6433540063e+00    0.3261627    0.2025659 -37.98  0.001116107    1.579    0.367
        81 -11.5261     56.9600    220.0907   6.8768169716e+01   2.0089922542e+01    0.2956337    0.1954127 -88.55   0.00114847    1.897    0.473
        82 -14.5461      5.8302    183.7789   8.0716021271e+01   3.3227423165e+01     1.172697    0.7927438 -37.85  0.005914117    1.790    0.441
        83 -11.3253    247.1228    221.1759   2.9248845927e+01  -5.7480486355e-01    0.1280151    0.1010885 -19.01  0.001081184    1.363    0.266
        84 -12.7258    190.4335    220.0810   3.8188866899e+01   4.8265829186e+00    0.2697873    0.1689121  -2.78  0.000386943    1.463    0.317
        85 -12.9502     76.6315    219.3021   6.3558342139e+01   1.8104139876e+01    0.5240061    0.2423844  32.32  0.001787128    1.764    0.433
        86 -11.9748    238.6366    220.0072   3.0297637742e+01   2.7554774085e-01    0.2007825   0.09056533  14.14  0.001188478    2.465    0.594
        87 -10.7232    197.2406    220.0133   3.6961586768e+01   4.1382066515e+00    0.1557724    0.1159477 -14.56 0.0003177056    1.066    0.062
        88 -12.7738    145.1373    216.7062   4.6729926521e+01   1.0436636329e+01    0.3072594    0.2634018  51.44   0.00189247    1.644    0.392
        89 -12.8418    141.5987    213.4083   4.7031255798e+01   1.1439691601e+01    0.3393429    0.2264977 -66.37  0.001764058    2.432    0.589
        90 -13.3985    129.2256    216.8108   5.0309385383e+01   1.2330097895e+01    0.3449886    0.2837523  49.80 0.0006306627    1.570    0.363
        91 -14.7663     10.7326    190.7832   7.9604695952e+01   3.1141832969e+01     1.148475    0.8128635 -13.49  0.005300271    1.717    0.417
        92 -11.5007     65.8577    217.1564   6.6160700940e+01   1.9759075553e+01    0.1831865    0.1482038  -7.19 0.0003321875    1.335    0.251
        93 -11.8341     61.6535    215.8906   6.7155780515e+01   2.0489812720e+01    0.3211411    0.1979543  68.28 0.0009710971    2.070    0.517
        94 -10.4701    226.3178    216.3095   3.1602942119e+01   1.8354383784e+00    0.1118898   0.06251511 -11.86 0.0004430687    1.638    0.389
        95 -12.7945    107.9005    214.0608   5.5023774910e+01   1.5456991008e+01    0.3784215     0.267002 -54.02  0.002121482    1.630    0.386
        96 -11.5492    233.2151    214.2164   3.0242296024e+01   1.4802413183e+00     0.202038    0.1154036 -16.13 0.0008958189    1.461    0.315
        97 -11.8710     84.5443    214.1916   6.0956291873e+01   1.8250755578e+01    0.4551398    0.2350654  38.49  0.001977777    1.745    0.427
        98 -11.5857    156.5461    213.2676   4.3786873571e+01   9.6692367090e+00    0.2885949    0.2172881 -66.16  0.001660378    2.186    0.543
        99 -12.1048     93.2898    217.1037   5.9050480344e+01   1.6617343103e+01    0.4311193    0.1865465  32.37  0.001920211    1.920    0.479
       100 -10.8804    250.5540    211.4541   2.7347963677e+01   3.1853319087e-01    0.1031798   0.06969484 -17.35 3.125254e-05    1.017    0.017
       101 -12.7897    161.7902    207.7476   4.1859230030e+01   9.9731340192e+00    0.4762356    0.2952043 -60.13  0.001667598    2.602    0.616
       102 -10.8434     73.4533    212.1540   6.3647776362e+01   1.9975465359e+01    0.3080979    0.1474698   8.66  0.001208748    2.669    0.625
       103 -11.1819     96.9678    209.4101   5.7177847925e+01   1.7740238289e+01    0.2888093    0.1781676 -72.32   0.00139697    2.249    0.555
       104 -12.8537     26.8103    206.6873   7.5926222406e+01   2.6027356107e+01    0.3704495    0.3104424 -49.94 0.0009373075    1.393    0.282
       105 -11.8999    180.1602    207.3956   3.8163584504e+01   7.8729373501e+00    0.2423701    0.1786933  18.29 0.0006930178    1.277    0.217
       106 -11.1307    242.6292    206.8353   2.7761717441e+01   1.5786542820e+00    0.1386848   0.07808129 -38.27 0.0006711089    1.640    0.390
       107 -11.5985    103.6829    205.5804   5.4964829094e+01   1.7687117623e+01    0.2395335    0.2074135  33.65  0.000512964    1.159    0.137
       108 -13.4585    145.2903    200.9844   4.4341177623e+01   1.3213844145e+01    0.6659341    0.4554974  56.20  0.003363334    2.396    0.583
       109 -11.4247    136.8809    200.8331   4.6218035115e+01   1.4329952380e+01    0.2453045    0.1869012  53.76 0.0009664397    1.813    0.449
       110 -11.8656    135.3403    197.6755   4.6085280497e+01   1.5130429987e+01    0.2947579    0.1886764  44.63  0.001081184    1.849    0.459
       111 -10.7589     89.1449    204.2280   5.8566416708e+01   1.9799600520e+01    0.2808551     0.235824  80.83  0.001174838    1.503    0.335
       112 -11.4279     83.0458    201.9303   5.9914777743e+01   2.1053176465e+01    0.6378908    0.4353618 -11.70  0.001871064    1.755    0.430
       113 -12.2123     82.9153    196.6344   5.9293370851e+01   2.2242207015e+01    0.4645675    0.3627462  23.51  0.001466468    1.140    0.123
       114 -12.3378     91.0912    198.9954   5.7379899301e+01   2.0684292075e+01    0.4999666    0.3987553  30.67  0.001311124    1.132    0.116
       115 -12.5001     92.2239    193.0491   5.6278277676e+01   2.1842332474e+01    0.5058736    0.3759048  41.08  0.001913172    1.320    0.242
       116 -10.4536     62.2986    205.6314   6.5997525502e+01   2.2678462028e+01    0.1473102   0.09141365  54.21 0.0007031339    1.734    0.423
       117 -13.1318     36.1480    196.1319   7.2549403449e+01   2.7641903642e+01    0.7896805    0.3579747  26.73  0.003452346    1.875    0.467
       118 -11.6167    214.6221    200.6797   3.1044992438e+01   5.1055776246e+00    0.3106341    0.1570083  22.28  0.001825303    2.069    0.517
       119 -13.3061    121.9460    197.3775   4.9232135864e+01   1.6970402985e+01    0.4880526    0.2970004 -42.69   0.00247262    1.699    0.411
       120 -12.3099    176.5829    197.4983   3.7272854847e+01   9.8891879409e+00    0.3566005    0.1420067 -46.97  0.001609506    2.653    0.623
       121 -12.8040    172.7209    195.7413   3.7741517753e+01   1.0655300344e+01    0.2513976    0.2228167 -18.57 0.0003997576    1.191    0.160
       122 -12.4208    105.3399    195.8212   5.3186780494e+01   1.9506561146e+01    0.6561363    0.3363788   8.76  0.001982853    2.654    0.623
       123 -12.8793     42.5041    211.1820   7.1922533602e+01   2.3522099724e+01    0.5251068    0.2708156  11.39  0.001788586    2.075    0.518
       124 -12.4739    149.6284    196.8885   4.2736361144e+01   1.3398553853e+01    0.2900086    0.1583176 -53.73  0.001399726    2.222    0.550
       125 -12.3819    192.6640    194.5742   3.3795520710e+01   8.4385778403e+00    0.2842669    0.2130348   7.26 0.0007841742    1.224    0.183
       126 -10.7233    188.5058    191.5831   3.4054008221e+01   9.4039375743e+00     0.153069    0.1500611 -24.69 0.0001430839    1.482    0.325
       127 -11.0266    160.4918    192.9519   3.9768797819e+01   1.2689779859e+01    0.1829423    0.1179108 -40.79 0.0005690574    1.519    0.342
       128 -12.8435    132.7692    191.8427   4.5766622002e+01   1.6604762752e+01    0.4083081    0.2547975 -24.87  0.001282573    1.789    0.441
       129 -10.7224    164.4517    192.2122   3.8825283942e+01   1.2306378676e+01    0.1574397    0.1195962 -49.14  0.000514087    1.543    0.352
       130 -13.1089    110.7381    188.8631   5.0755494062e+01   2.0250876045e+01    0.4786096    0.3182594 -77.49  0.002212905    2.326    0.570
       131 -13.0915    105.1200    182.9308   5.1316013367e+01   2.2320064030e+01    0.3196268    0.2664265 -42.56 0.0005958446    1.259    0.206
       132 -11.2978    235.4772    189.4723   2.6081590146e+01   4.5264568187e+00    0.1098618   0.07965341 -19.54  2.54176e-05    1.010    0.010
       133 -12.4475    151.4345    188.6874   4.0998180006e+01   1.4662927736e+01    0.3697506    0.2067352   0.11  0.001022299    2.629    0.620
       134 -12.3395    155.8508    185.2520   3.9460731009e+01   1.4694800380e+01     0.300765    0.1756273 -39.85  0.001549442    1.645    0.392
       135 -11.7406    198.0103    188.0952   3.1777537047e+01   8.8180097378e+00    0.1800197    0.1448524 -13.10 0.0003530249    1.024    0.024
       136 -11.7262    186.1723    187.1689   3.3742168067e+01   1.0400485604e+01    0.2037478    0.1598457 -16.27  0.000428133    1.061    0.058
       137 -12.2599    108.5597    181.4893   5.0173188156e+01   2.2147723213e+01    0.2242848    0.2008311  14.19 3.417782e-05    1.016    0.015
       138 -11.1098    227.3288    186.5955   2.6807486193e+01   5.7583495631e+00    0.1957634    0.1011782 -23.97 0.0008489907    1.746    0.427
       139 -13.7300    126.0352    185.1646   4.6308044544e+01   1.8878821509e+01    0.6965493     0.329215  43.26  0.002902845    2.374    0.579
       140 -11.1176    209.3108    186.3004   2.9571676596e+01   7.7778231694e+00    0.1189971   0.07421985 -11.76 0.0002477439    1.604    0.377
       141 -10.9546    163.7703    184.8157   3.7718185509e+01   1.3700364540e+01    0.1586967    0.1564451  28.07 0.0006997403    1.356    0.262
       142 -12.8949    134.2377    182.0435   4.3803895074e+01   1.8341308644e+01    0.3055615    0.2804313  27.18 0.0003749579    1.170    0.145
       143 -13.0241    138.2404    178.0756   4.2176230829e+01   1.8555185437e+01    0.3715437    0.3464504  59.90  0.000601689    1.358    0.263
       144 -10.9126    150.1304    183.1383   4.0344669253e+01   1.5877664436e+01     0.168443    0.1605426  48.28 0.0005894804    1.346    0.257
       145 -11.6317     50.5550    190.2353   6.7810714748e+01   2.7575285300e+01    0.3181878    0.1685584  33.47 0.0005689235    1.622    0.383
       146 -12.1907     94.7898    181.4660   5.3908085615e+01   2.4097325045e+01    0.4244635    0.3036245 -60.96  0.002135168    1.564    0.361
       147 -10.7117    249.2200    181.0358   2.2847284510e+01   4.2881377913e+00     0.135845   0.06465944 -34.59 0.0008447428    1.577    0.366
       148 -13.4676    115.6591    178.5871   4.7840273700e+01   2.1752130110e+01    0.4896352    0.3330514   0.62    0.0023409    1.732    0.422
       149 -11.7963     49.3535    178.8665   6.6998034918e+01   3.0508358712e+01    0.3265166    0.2306757  -9.31 0.0009625558    1.699    0.411
       150 -12.7785    155.2439    177.5806   3.8259028573e+01   1.6200050626e+01    0.3978959    0.3106762 -84.67  0.002064708    2.286    0.562
       151 -11.0928    171.5107    178.1128   3.4983479805e+01   1.3838146183e+01    0.1819908    0.1152792 -39.55 0.0004415479    1.475    0.322
       152 -12.4860     63.8935    176.6970   6.2271297986e+01   2.9335204834e+01    0.5125052    0.2934145   3.81  0.002009717    2.260    0.558
       153 -11.1304    214.0822    176.6377   2.7175172082e+01   8.6694830241e+00     0.155505    0.1248931  -5.82 0.0004061653    1.133    0.117
       154 -11.5341    191.3652    177.2263   3.1087869225e+01   1.1363553482e+01    0.1663117    0.1038698 -45.11 0.0004970569    1.634    0.388
       155 -13.8350    128.9925    175.6157   4.3968097179e+01   2.0415185009e+01    0.5217242    0.4675921 -47.20  0.001759276    1.225    0.183
       156 -12.5124    132.9851    169.1698   4.1846896233e+01   2.1146882117e+01     0.356305     0.284912 -33.07  0.001054213    1.228    0.185
       157 -12.3625    106.5713    175.2397   4.9692083432e+01   2.3817396638e+01    0.2797254    0.1898493  29.21 0.0008781279    1.371    0.271
       158 -11.7796    159.4502    173.1824   3.6574117587e+01   1.6417188333e+01    0.3640815    0.2471406 -83.91  0.001408046    4.238    0.764
       159 -12.2901    145.6231    173.4696   3.9656782798e+01   1.8380910163e+01    0.2384319    0.2115384   0.94 0.0005718137    1.027    0.027
       160 -11.3036    122.8330    174.1661   4.5251733799e+01   2.1637087094e+01    0.1946144    0.1557245  -8.32 0.0003043603    1.291    0.225
       161 -13.0012     80.9675    172.6649   5.6561680156e+01   2.8081356181e+01    0.6256551    0.2883182  23.72  0.002420559    2.156    0.536
       162 -13.0911     90.6616    171.3495   5.3515129759e+01   2.7029125299e+01    0.4609699     0.328043 -38.09  0.001977267    1.518    0.341
       163 -12.1647     87.7080    168.4366   5.3913912700e+01   2.8147819276e+01     0.325752    0.2046056 -17.30 0.0009182915    2.227    0.551
       164 -11.0051    209.2822    173.6740   2.7429685309e+01   9.6892465547e+00    0.1046692   0.08838692 -52.37 0.0002948219    1.599    0.374
       165 -12.2309     44.2737    172.0912   6.7865788350e+01   3.2787700197e+01    0.2736376    0.2291343  68.93 0.0003749014    1.228    0.185
       166 -12.1005     40.1865    168.8803   6.8842018496e+01   3.4053707411e+01    0.3457277    0.1996108  18.31 0.0009395079    1.717    0.418
       167 -11.9355    198.2961    170.6194   2.8713817689e+01   1.1539919046e+01    0.2316398    0.2191178   3.12  0.000831822    1.298    0.230
       168 -10.4830    178.4790    171.6067   3.2465810959e+01   1.4016548305e+01    0.1256489     0.108413 -12.14 0.0008002986    1.031    0.030
       169 -12.1982    153.1906    170.2925   3.7394478425e+01   1.7875402610e+01    0.2282345    0.2122664 -44.77 0.0005903233    1.241    0.194
       170 -12.1947    137.8164    170.7818   4.0981647599e+01   2.0082447657e+01    0.3156746    0.2038733  43.89  0.001234756    1.714    0.417
       171 -11.0860    138.7631    166.9955   4.0065807166e+01   2.0705366584e+01    0.2691024    0.1605079 -34.76 0.0004146338    1.731    0.422
       172 -12.2882     53.4322    170.6610   6.4782753895e+01   3.2119280356e+01    0.3100557    0.2342331 -42.94 0.0001190248    1.452    0.311
       173 -12.0371     62.6297    170.2710   6.1828474888e+01   3.1098272438e+01    0.2785053    0.1889247  27.66 0.0006697412    1.361    0.265
       174 -10.8246     48.1965    169.8061   6.6355438219e+01   3.2941735557e+01    0.2010795    0.1660941 -25.53 0.0004944081    1.361    0.265
       175 -11.1857    145.4025    169.2382   3.8939207768e+01   1.9244630203e+01    0.1735865    0.1300041 -53.46 0.0002434002    1.500    0.333
       176 -12.5282     23.8872    168.7206   7.4136851504e+01   3.5663265669e+01    0.3353403    0.2563252  45.60  0.001780922    1.207    0.172
       177 -12.1829    127.4230    166.2424   4.2683070342e+01   2.2617772631e+01    0.3087218    0.2159366 -15.52  0.001124379    1.689    0.408
       178 -12.7457    152.2179    164.8335   3.6596367283e+01   1.9070641974e+01    0.3044564     0.263765  47.23 0.0005195148    1.373    0.272
       179 -12.4307    199.0660    164.3624   2.7461714802e+01   1.2443614173e+01    0.2213401    0.1847429 -36.96 0.0003212503    1.220    0.180
       180 -13.1605    111.2073    163.6069   4.6428333986e+01   2.5727274189e+01    0.5187586    0.3007747 -32.31  0.002197695    2.067    0.516
       181 -12.7508     45.2749    164.2920   6.6668953381e+01   3.4700928020e+01    0.5537247    0.2325895 -34.31  0.001697414    4.055    0.753
       182 -13.2873     93.6209    163.1736   5.1309013094e+01   2.8533789288e+01    0.5839838    0.2495891  43.47   0.00213889    2.438    0.590
       183 -13.3480    120.8109    167.3137   4.4557046150e+01   2.3414183225e+01    0.5892652    0.3654604  21.73  0.002728435    1.676    0.403
       184 -12.5395    170.1667    160.6523   3.2055237374e+01   1.7144484024e+01    0.2896206    0.2316444 -49.78 0.0009178909    1.377    0.274
       185 -12.3482    191.5730    158.5511   2.7677190148e+01   1.4414504447e+01    0.4139187    0.2229855 -54.25  0.001668148    2.510    0.602
       186 -12.8106    105.1125    158.8463   4.7246011238e+01   2.7773652287e+01    0.4702666    0.2681583  53.30  0.001893701    2.272    0.560
       187 -11.8540     25.8034    159.7583   7.2732004728e+01   3.7864034525e+01    0.2473118    0.2253645  68.58 0.0002885687    1.066    0.061
       188 -11.6281     69.0382    159.0248   5.8187803085e+01   3.3112315342e+01    0.1836274    0.1739597  29.52 0.0004717827    1.004    0.004
       189 -13.1791    132.0734    155.8461   3.9561885485e+01   2.4076576104e+01    0.4746228     0.344185  50.40   0.00237487    1.602    0.376
       190 -12.2817     32.0025    157.5408   7.0397287584e+01   3.7878082983e+01    0.2664057    0.1753206 -46.37  0.001241462    1.653    0.395
       191 -11.9736    213.2232    156.9643   2.3852568841e+01   1.1757408720e+01    0.1787031    0.1569777  -7.75 0.0003935113    1.154    0.134
       192 -11.9926    141.1938    155.5281   3.7310652517e+01   2.2655645501e+01    0.2375447    0.1883197 -41.62 0.0003226987    1.237    0.192
       193 -11.2270     47.5552    155.9764   6.4884361956e+01   3.6634747994e+01    0.2206859    0.1479768 -71.34  0.001016739    1.562    0.360
       194 -14.1815     82.8796    152.0598   5.2634168920e+01   3.2873070493e+01    0.8690876    0.4707238 -28.29  0.003109111    2.830    0.647
       195 -12.6175     67.0735    153.9370   5.8036438955e+01   3.4687992105e+01    0.3396309    0.2365788 -25.53 0.0006738954    1.751    0.429
       196 -11.4207     62.0817    154.8409   5.9827528023e+01   3.5127128622e+01     0.251189    0.1916943  49.89  0.001220218    1.321    0.243
       197 -12.0591     19.8258    154.0035   7.4284746230e+01   3.9924529335e+01    0.2995583    0.2437383  65.87  0.001175392    1.200    0.166
       198 -13.4781      4.3814    151.3707   7.9491396264e+01   4.1748837517e+01    0.5821248    0.4437703 -66.08  0.002005368    1.323    0.244
       199 -13.9420     11.4177    143.3732   7.6420505855e+01   4.3460264911e+01     0.753005     0.443049 -45.66  0.001984325    1.832    0.454
       200 -10.6416    200.2928    153.6910   2.5296448978e+01   1.3999574486e+01    0.1116944   0.09298696 -60.26 0.0002039866    1.585    0.369
       201 -12.8107     20.4253    138.5468   7.2623450427e+01   4.4104062964e+01    0.3461518    0.2469536  49.69  0.000778241    1.379    0.275
       202 -10.9336    154.1762    150.8421   3.3457219641e+01   2.1477729518e+01    0.1904405    0.1854599 -76.28 0.0005000373    1.231    0.188
       203 -12.8099    118.7540    157.0748   4.3195980766e+01   2.5984071480e+01    0.3222019     0.281387  30.77  0.001762584    1.121    0.108
       204 -12.5376     27.4938    150.4028   7.1239982829e+01   4.0232737742e+01     0.366167    0.2650701  -9.94 0.0007533672    1.603    0.376
       205 -12.0216    146.9231    149.0655   3.4704550701e+01   2.3020849517e+01    0.2741908    0.1835403 -43.22 0.0007044689    1.440    0.305
       206 -11.8861    109.2241    149.3369   4.4286283631e+01   2.9304189452e+01    0.3236428    0.2638947  45.38 0.0009421546    1.266    0.210
       207 -11.5441    105.0086    145.3040   4.4682012649e+01   3.0949857813e+01    0.2636655     0.246863  38.86 0.0007624623    1.075    0.070
       208 -11.9929    101.9830    141.9810   4.4891141623e+01   3.2246626754e+01    0.3759227    0.2757225 -86.95   0.00129123    1.925    0.480
       209 -12.3521     95.7822    149.0357   4.8120691537e+01   3.1588400398e+01    0.2930969    0.2176739  24.66 0.0008594465    1.336    0.252
       210 -11.1151     43.9820    149.4678   6.5275581131e+01   3.8786919436e+01    0.2174032   0.09995762  46.53 0.0003801266    2.227    0.551
       211 -11.5911    210.0206    148.1027   2.2716682970e+01   1.3553869728e+01    0.1772348    0.1437562 -28.28 0.0003293028    1.013    0.013
       212 -10.7914    192.5235    147.4777   2.5414119041e+01   1.6127628579e+01    0.1264364    0.1070205 -25.77 6.156882e-05    1.001    0.001
       213 -10.5217    232.3213    145.3066   1.9044219686e+01   1.1072735281e+01    0.1127081   0.07500471 -13.09 0.0003171914    1.639    0.390
       214 -11.4662    157.6257    145.1439   3.1567480552e+01   2.2013487082e+01    0.2604116    0.1897545  24.99  0.000799134    1.476    0.322
       215 -13.0106    143.0133    143.5379   3.4464020586e+01   2.4798177768e+01    0.3299421    0.2671089 -19.89 0.0005311258    1.282    0.220
       216 -13.4269     75.5805    151.2254   5.4814676518e+01   3.4173605210e+01    0.5509791    0.2857254  43.44  0.001676589    1.927    0.481
       217 -12.2392      1.4976    138.9404   7.9773053576e+01   4.5294830804e+01    0.4870835    0.1625154  86.50  0.001501715    3.368    0.703
       218 -11.3872    178.8306    141.5030   2.6652169471e+01   1.9242832986e+01    0.2491012    0.1400904 -23.40  0.001133475    2.224    0.550
       219 -12.6548     47.2971    141.6643   6.3001744134e+01   4.0507925102e+01    0.5598311    0.1760538  24.60  0.001767595    3.023    0.669
       220 -12.6167     52.3326    138.7103   6.0718060467e+01   4.0680235133e+01    0.3450675    0.2719503  17.99  0.001075828    1.284    0.221
       221 -12.9728     52.7318    135.7811   6.0097050256e+01   4.1418799901e+01    0.4302767    0.3210276 -39.63  0.002032447    1.449    0.310
       222 -10.7782    150.7180    141.4547   3.2292671425e+01   2.3895861664e+01    0.1782912    0.1325137  22.47 0.0003532348    1.470    0.320
       223 -12.9411     94.5131    139.9112   4.6713966622e+01   3.4008329787e+01    0.4308225    0.3185639 -19.39  0.001969526    1.659    0.397
       224 -12.5067     59.9271    140.2475   5.8245822773e+01   3.9260880683e+01    0.3592435    0.2307451 -48.62 0.0009007329    1.617    0.382
       225 -12.2960     59.8662    135.8441   5.7511748549e+01   4.0441194993e+01    0.3004565     0.233779 -80.41 0.0005953379    1.417    0.295
       226 -11.3342     58.0070    133.0000   5.7685550873e+01   4.1458533485e+01    0.2255458    0.1840473 -17.68 0.0005438834    1.386    0.278
       227 -12.6317     72.8357    139.1919   5.3582278735e+01   3.7672003429e+01    0.2726946    0.2421136  23.98 0.0003956597    1.102    0.092
       228 -13.1190     68.1819    137.1267   5.4799408915e+01   3.8907003376e+01     0.431626    0.3040366  26.63  0.001305669    1.391    0.281
       229 -12.5981     40.6789    137.5023   6.4841137018e+01   4.2413866532e+01    0.4557123     0.246886  45.78 0.0005695999    1.862    0.463
       230 -11.5147    183.9443    137.0530   2.4836718946e+01   1.9210451188e+01    0.1906701    0.1659915 -30.00 0.0003000846    1.010    0.010
       231 -12.1042     45.5445    135.7466   6.2759138171e+01   4.2327514894e+01    0.4249051    0.2507466  84.86  0.001679949    2.219    0.549
       232 -11.5215     31.9702    136.5171   6.8000599199e+01   4.3611475120e+01    0.2824833    0.1919678 -47.77  0.000822046    1.533    0.348
       233 -13.3206    124.0183    134.5823   3.7209460942e+01   3.0049251084e+01     0.612119    0.3533107  30.20   0.00151991    1.889    0.471
       234 -11.0544    110.7215    136.3940   4.1205508705e+01   3.2031716150e+01    0.2137111    0.1427449  23.92 0.0005869535    1.646    0.393
       235 -11.3569     83.5119    136.5058   4.9509150639e+01   3.6675374964e+01    0.2779624    0.1500898  30.77  0.001103734    1.812    0.448
       236 -11.8691     86.3342    134.6917   4.8225340082e+01   3.6664335482e+01    0.2239341    0.1856744 -14.89 0.0009734256    1.369    0.270
       237 -11.0088    134.8074    135.3880   3.4673963393e+01   2.7927673838e+01    0.1880311    0.1362142  25.66 0.0001881665    1.499    0.333
       238 -10.8841    105.2755    135.6897   4.2615208043e+01   3.3160402383e+01    0.1483905    0.1201433  75.79            0    1.555    0.357
       239 -10.9263     25.7768    135.5603   7.0255220321e+01   4.4467095207e+01    0.2033772    0.1293222  35.05 0.0003812463    1.499    0.333
       240 -11.0283    210.1672    133.8046   1.9987132069e+01   1.5768724835e+01    0.1631105    0.1273394 -13.72 0.0005773829    1.321    0.243
       241 -10.6243    196.5030    134.4759   2.2211797741e+01   1.7690449419e+01     0.125584    0.1070347 -33.51 1.394765e-05    1.034    0.033
       242 -10.4399    192.6679    134.7391   2.2887582170e+01   1.8236494645e+01    0.1221975    0.0917035  -4.29 0.0002387336    1.572    0.364
       243 -11.6759    174.6608    134.0671   2.5899686797e+01   2.1242528937e+01    0.1910365    0.1523379 -34.67 0.0005565802    1.128    0.113
       244 -12.9963     77.9758    133.0446   5.0653787665e+01   3.8449410470e+01    0.3931437    0.2777959 -35.22 0.0009482497    1.596    0.373
       245 -12.4718     81.9784    130.9243   4.8877334138e+01   3.8333977219e+01    0.3193655     0.263757 -89.56  0.001331736    1.423    0.297
       246 -12.3548     83.5412    127.4732   4.7627349579e+01   3.8939922992e+01    0.2806101     0.251186 -41.35 0.0007693458    1.151    0.131
       247 -12.3690     19.9349    131.9364   7.2118787489e+01   4.5977266355e+01    0.2997578    0.2615016  84.28 0.0005894379    1.138    0.121
       248 -12.9977     15.7804    131.4256   7.3699052582e+01   4.6445365996e+01    0.6063502    0.2467579 -39.56  0.002109855    3.000    0.667
       249 -10.8269      7.2650    134.6329   7.7294695058e+01   4.6141268726e+01    0.1554962   0.09528498  59.05 0.0002918687    1.653    0.395
       250 -11.5480    102.4750    133.4735   4.2962536085e+01   3.4178107551e+01    0.1513039    0.1475115  36.55 -1.049969e-06    1.033    0.032
       251 -11.3984     31.6135    131.6564   6.7505355585e+01   4.4991494975e+01     0.300292    0.2013827  14.21  0.001014365    1.551    0.355
       252 -11.9601     97.0000    127.4914   4.3308626657e+01   3.6581432168e+01    0.5043063   0.08824045 -53.42  0.001146723    5.839    0.829
       253 -12.4600     49.7049    130.4645   6.0341419867e+01   4.3249139813e+01    0.3895092    0.2505841  20.76   0.00139975    1.580    0.367
       254 -11.2817    246.9800    130.0000   1.4525816760e+01   1.1409780396e+01    0.1421116   0.06345987  46.78 0.0008070002    2.974    0.664
       255 -11.0718    187.9585    129.3870   2.2585326416e+01   1.9882287965e+01    0.1646623    0.1547133  -5.72  0.001090792    1.124    0.110
       256 -12.1915    122.8618    127.6621   3.5968867974e+01   3.1777451170e+01    0.2984449    0.2190873 -37.19  0.001161178    1.398    0.284
       257 -11.1179    109.6077    127.7850   3.9626113654e+01   3.4214846993e+01    0.2072528    0.1467521 -61.09 0.0005476382    1.569    0.363
       258 -12.7783     58.1114    127.0462   5.6561262675e+01   4.3036890671e+01    0.4701312    0.2645216 -39.66  0.001850727    2.062    0.515
       259 -11.4426     54.1989    127.3688   5.8095167764e+01   4.3493325591e+01    0.3175937    0.1879546  32.15 0.0005826617    1.605    0.377
       260 -11.6216    183.0210    126.9427   2.2917711029e+01   2.1108584815e+01    0.1906451    0.1670779 -35.43            0    1.020    0.019
       261 -12.3581    177.5612    126.7986   2.3845591350e+01   2.2049096058e+01    0.3537282    0.2211843  31.20   0.00180161    1.940    0.485
       262 -12.0835     41.8268    126.8355   6.2787473627e+01   4.5209756145e+01    0.3344776    0.2113058 -57.97  0.001478394    1.565    0.361
       263 -11.3383     35.9924    127.2377   6.5156883283e+01   4.5758102655e+01    0.2103246    0.1972735  30.46 0.0004181728    1.053    0.050
       264 -13.0612      9.3169    125.8724   7.5749394732e+01   4.8441376309e+01     0.299889     0.234124  46.26  0.001564536    1.268    0.212
       265 -12.3434     26.9070    125.3287   6.8538817460e+01   4.7205667716e+01    0.3002053    0.2291147 -70.30 0.0004634973    1.297    0.229
       266 -13.0076     75.8975    123.3859   4.9359809843e+01   4.1257116661e+01    0.4352513    0.3081827 -36.85 0.0009464669    1.571    0.363
       267 -14.0451     82.1701    115.7563   4.5459695010e+01   4.2104489362e+01    0.6866294    0.5251513 -45.44  0.001449761    1.348    0.258
       268 -13.9336     74.2589    115.3740   4.8161055628e+01   4.3574215969e+01    0.7064793    0.5297788 -72.46  0.001832534    1.517    0.341
       269 -10.4662     49.3971    124.2179   5.9374579997e+01   4.4985709726e+01    0.1560218    0.1146681 -11.68 0.0006853791    1.633    0.388
       270 -14.2161     13.8100    119.6553   7.3272721501e+01   4.9870707608e+01    0.6785859    0.5153944  34.63  0.003112851    1.307    0.235
       271 -13.0376      9.0395    117.9769   7.5115507278e+01   5.0658907810e+01    0.3793896    0.3147705  -1.34  0.001030142    1.279    0.218
       272 -12.1179    193.2007    121.4671   2.0099692989e+01   2.0358308126e+01    0.2326245    0.1548136 -38.27 0.0002501648    1.295    0.228
       273 -10.9919    178.8649    122.1164   2.2618057451e+01   2.2648443823e+01    0.1776702    0.1464225 -13.86 0.0004207207    1.310    0.237
       274 -10.1814    164.2750    122.6735   2.5432108145e+01   2.5113213529e+01    0.1330258    0.1048049 -70.20 0.0001857787    1.586    0.370
       275 -11.1626      3.2072    122.4180   7.7945929579e+01   4.9761837350e+01    0.1964936    0.1242687  31.04 0.0006231478    1.562    0.360
       276 -11.5383    189.0109    121.3082   2.0736884975e+01   2.1073684876e+01     0.167415    0.1576623 -28.70 0.0003597825    1.089    0.082
       277 -11.5640    105.1079    121.3521   3.9451302342e+01   3.6539686364e+01    0.3216921    0.2047871  51.27   0.00127132    1.709    0.415
       278 -12.2445    100.7972    119.4192   4.0288111714e+01   3.7801942469e+01    0.3919245    0.2250662  35.26  0.001077885    1.751    0.429
       279 -12.1282     29.0816    118.8469   6.6733689965e+01   4.8800058708e+01    0.3851268    0.1989583 -60.89 0.0009314331    1.840    0.456
       280 -10.8728    211.0000    118.9644   1.6965692882e+01   1.7950532692e+01    0.2019635   0.05785283 -39.15 0.0004563385    2.871    0.652
       281 -11.7293     64.7715    118.7529   5.2403454062e+01   4.4244762073e+01    0.2264527     0.212159 -13.80 0.0008917765    1.116    0.104
       282 -12.0564    100.5102    113.5414   3.8955442363e+01   3.9230007506e+01    0.2456035     0.232145  38.85   0.00064718    1.042    0.040
       283 -12.0006     96.3630    116.2972   4.0914052030e+01   3.9372758139e+01    0.3260556     0.251316  -5.30 0.0005663711    1.686    0.407
       284 -11.8495     93.4991    116.4702   4.1864375712e+01   3.9867471452e+01    0.2736839    0.2264375 -54.02 0.0005631761    1.238    0.192
       285 -12.0684     67.9306    114.1158   5.0203097572e+01   4.4948391100e+01    0.2982036    0.2446626 -52.08 0.0007000966    1.242    0.195
       286 -13.5874     62.4022    111.1880   5.1655902515e+01   4.6592822646e+01    0.8313129    0.5555361 -48.64  0.003691724    1.528    0.345
       287 -11.4048    201.8540    114.1786   1.7289099985e+01   2.0133354655e+01    0.1791576    0.1487711 -53.20 0.0003662724    1.203    0.169
       288 -12.2285     20.5600    113.5447   6.9629461579e+01   5.1053385109e+01    0.2405218    0.2227016 -18.17 6.007852e-05    1.116    0.104
       289 -12.6190     20.3871    109.9119   6.9202524405e+01   5.2079095750e+01    0.2979519     0.277576   0.88 0.0004071363    1.101    0.091
       290 -10.3990    121.9509    114.0000   3.2983137935e+01   3.4919400825e+01    0.2379847   0.08485433  42.75 0.0005778132    2.826    0.646
       291 -13.4427     10.3315    111.7867   7.3907724496e+01   5.2302365338e+01    0.4239398    0.3025899  45.75  0.001050585    1.427    0.299
       292 -12.2526      2.7094    110.2411   7.7125580314e+01   5.3170272291e+01    0.4057605    0.1995415  55.72  0.001652593    2.224    0.550
       293 -10.7829     36.5932    110.2484   6.2117083804e+01   5.0376355472e+01    0.1651183    0.1039415  50.01 0.0006937235    1.707    0.414
       294 -10.3816     91.7943    108.0039   4.0326958730e+01   4.2206390837e+01    0.1942711    0.1247201 -51.84 -0.000430966    1.591    0.371
       295 -11.9617     76.2648    106.8938   4.5408756839e+01   4.5357502391e+01    0.4123542    0.2542094 -84.37  0.001477021    2.780    0.640
       296 -10.5090    210.3033    107.6913   1.4795887823e+01   1.9786942535e+01    0.1196186   0.08382445 -60.38 0.0004321601    1.605    0.377
       297 -10.2743    121.7876    107.0356   3.1287816041e+01   3.6436940863e+01     0.190715    0.1193388 -47.13            0    1.588    0.370
       298 -12.1169     12.5874    104.3600   7.2000120884e+01   5.4217721892e+01    0.2908214    0.2359308 -36.62 0.0005660188    1.249    0.199
       299 -11.0835    104.7917    102.5561   3.4854002272e+01   4.0880478942e+01    0.2161307    0.1436081  53.46 0.0004735623    1.594    0.373
       300 -11.6512     78.5902    101.9943   4.3318776221e+01   4.6140181840e+01    0.3261934    0.2076194  50.75  0.001374727    1.675    0.403
       301 -12.0082     56.0203    101.3648   5.1949588804e+01   5.0143637350e+01    0.3254797    0.2265834 -51.77 0.0004786316    1.448    0.309
       302 -11.9731     57.6622     97.5801   5.0338624302e+01   5.0862434455e+01    0.3319705    0.2450955  43.84 0.0009847172    1.352    0.260
       303 -10.9269     29.3986    102.3485   6.3897747758e+01   5.3326749948e+01    0.2041953    0.1448492 -84.27 0.0005467817    1.546    0.353
       304 -13.4670      5.8822    100.0599   7.4628211707e+01   5.5824639282e+01    0.6196288    0.4543198 -87.20  0.002333944    1.370    0.270
       305 -12.1714      9.0966     96.8631   7.2688112716e+01   5.6518638098e+01    0.3663469    0.2330253 -83.79 0.0002780296    1.609    0.378
       306 -11.2373    129.5925    100.4093   2.7624262010e+01   3.6193110432e+01    0.2405439    0.2149799  63.12  0.000538365    1.155    0.134
       307 -11.1290    139.6593    107.1570   2.6974830492e+01   3.2783939110e+01    0.2476148     0.200018  61.29 0.0008560155    1.351    0.260
       308 -10.7002    115.8964     99.3675   3.0855433369e+01   3.9274035521e+01    0.3749827    0.2173831 -70.30     0.001316    3.039    0.671
       309 -12.2023     94.1361     98.4885   3.7060375651e+01   4.3957182831e+01    0.3575919    0.2819975  58.85 0.0009852634    1.353    0.261
       310 -11.1120     31.2177     96.9624   6.2030170919e+01   5.4600242580e+01    0.3491116    0.1422177  46.09   0.00118495    2.827    0.646
       311 -12.6938    121.1640     91.3719   2.7303388663e+01   3.9798093627e+01    0.3980953    0.3241002 -14.14  0.001253133    1.546    0.353
       312 -11.2543      1.3867     93.9457   7.6129138466e+01   5.7733681765e+01    0.2074231    0.1314149 -79.05 0.0004409968    1.526    0.345
       313 -10.8883     90.6593     93.7278   3.6880485235e+01   4.5741821113e+01    0.1542488    0.1231678   3.69 0.0002415898    1.610    0.379
       314 -13.5523     75.1180     90.4963   4.1468796405e+01   4.9550600024e+01    0.6328223    0.4021157  69.51  0.002411242    2.462    0.594
       315 -11.2972     63.3145     92.6824   4.6722097706e+01   5.1160518919e+01    0.1600821    0.1200245  68.06 0.0005545672    1.649    0.393
       316 -11.4097     26.3671     91.5449   6.3298686251e+01   5.6572837688e+01    0.4459626    0.2392438  -5.65  0.001692467    2.489    0.598
       317 -11.0250     67.4905     91.4846   4.4706336979e+01   5.0721834388e+01    0.1548737    0.1496113  43.61 -4.372526e-05    1.020    0.019
       318 -10.8832     57.9117     91.3682   4.8625425998e+01   5.2396277126e+01    0.2223925    0.1967373  20.89 0.0009134503    1.131    0.116
       319 -10.4937     41.3410     91.7130   5.6124402465e+01   5.4776181446e+01    0.1595037    0.1120977  56.79 0.0005319642    1.641    0.391
       320 -11.5206    154.5012     90.1278   1.9631364978e+01   3.2932587950e+01    0.2211677    0.2000145  19.34  0.001279659    1.313    0.238
       321 -12.2799      3.0610     87.9715   7.4585118940e+01   5.9286632060e+01    0.3980439    0.2224212 -82.62  0.001499243    1.813    0.449
       322 -12.1994     54.7075     85.5055   4.8414548502e+01   5.4381700747e+01    0.5405802    0.4322553   3.00  0.002618226    1.422    0.297
       323 -13.0047     94.9307     83.7247   3.2575514087e+01   4.7051859528e+01    0.3324647     0.308393  82.91 0.0005377228    1.118    0.105
       324 -11.0067    144.6093     82.8247   1.9666162948e+01   3.6320194463e+01    0.1969547    0.1664415 -53.54 0.0008660248    1.129    0.114
       325 -11.8869     89.4902     79.5448   3.3070354803e+01   4.9103798369e+01    0.4182199    0.3533656  10.71  0.002082065    1.425    0.298
       326 -10.5580     79.3168     82.6765   3.7598153765e+01   5.0531690144e+01    0.1579798    0.1217421  78.56 0.0007043346    1.667    0.400
       327 -11.7009     65.3050     82.1499   4.2896838442e+01   5.3354855342e+01     0.279716    0.2113976  24.98  0.001091618    1.385    0.278
       328 -12.1253      9.5366     78.5280   6.9705532548e+01   6.1466342078e+01    0.4376202    0.2551113 -83.89  0.001952877    1.888    0.470
       329 -11.8959    112.3288     78.9371   2.6046422100e+01   4.4202753691e+01      0.37315     0.272299  82.49  0.000985302    1.752    0.429
       330 -11.2745      4.9360     79.9615   7.2487478351e+01   6.1354593509e+01    0.2316864    0.1572337  56.04  0.001123808    1.660    0.398
       331 -11.1281    230.0219     78.7166   6.7313146057e+00   2.0807596267e+01    0.1508956    0.1277946 -54.04 0.0004535502    1.115    0.103
       332 -11.3811    163.2262     78.1872   1.5072400692e+01   3.3145846593e+01     0.191581    0.1492461 -70.09 0.0008729161    1.337    0.252
       333 -11.2803     74.9745     77.7238   3.7681635159e+01   5.2510262027e+01     0.213597    0.1921756  41.53  0.000216175    1.068    0.063
       334 -10.7622     55.8646     78.4322   4.5838032372e+01   5.5910717486e+01    0.2099859    0.1450327  18.50 0.0005863266    1.629    0.386
       335 -11.3769    106.0055     73.4546   2.6103195925e+01   4.6690268555e+01    0.2844732    0.2103575 -65.08  0.001174509    1.549    0.354
       336 -12.2281      1.6061     73.4295   7.3395912836e+01   6.3257962012e+01    0.2843553    0.1583268 -59.57   0.00132067    1.617    0.382
       337 -10.8773     45.2967     73.4261   4.9291032292e+01   5.8832878552e+01    0.2066528    0.1350523  40.75 0.0009283622    1.514    0.340
       338 -11.7757     71.0273     69.6789   3.6580813895e+01   5.5062838066e+01    0.6589589    0.4053168  -5.17  0.002072313    4.129    0.758
       339 -12.4372     59.9438     67.2721   4.0407496828e+01   5.7749993814e+01    0.5415831    0.4078549 -88.20  0.001708954    1.880    0.468
       340 -11.5716     52.1743     71.7875   4.5461499750e+01   5.8110165480e+01    0.3203084    0.2447192 -24.55 0.0004373829    1.510    0.338
       341 -11.7101     55.1704     69.1498   4.3202063964e+01   5.8199733873e+01    0.2180207    0.2049737  64.19 0.0003111542    1.139    0.122
       342 -11.1918     79.7371     70.0214   3.3386345122e+01   5.3184231769e+01    0.2042441    0.2008495 -21.18 0.0003155869    1.076    0.071
       343 -12.1321      7.8651     68.2403   6.8787398199e+01   6.4278895250e+01    0.3808212    0.2444466 -79.46 0.0007638215    1.668    0.400
       344  -9.9867    154.3316     68.3240   1.4002385956e+01   3.6639978683e+01    0.1331572    0.1088294  18.52  0.000412811    1.704    0.413
       345 -10.7692    124.7663     66.7837   1.9331128105e+01   4.3590512268e+01    0.1948331    0.1599844 -80.70 0.0003245549    1.288    0.224
       346 -11.8308     49.0735     66.6101   4.5250165538e+01   5.9833066751e+01     0.292055    0.2606765   9.96 0.0007694089    1.128    0.113
       347 -11.7653     46.0869     62.7144   4.5410010610e+01   6.1219041718e+01    0.3242939    0.1605757  37.44 0.0009418845    1.908    0.476
       348 -12.5221     13.0370     60.1849   6.3773926145e+01   6.5960917235e+01    0.4226502    0.3431405 -28.46  0.001420404    1.176    0.149
       349 -11.6065     21.1149     61.0796   5.8954490771e+01   6.4992641481e+01    0.2071918    0.1959595 -17.42 0.0003980956    1.022    0.022
       350 -11.2297    183.8011     60.1017   7.6869475297e+00   3.1660389970e+01     0.190617    0.1456416 -61.08 0.0003690443    1.175    0.149
       351 -10.6827     27.4887     60.4957   5.4931668595e+01   6.4416872638e+01    0.1432657    0.1359515   3.70  0.000810374    1.031    0.030
       352 -12.9390     36.6724     54.8916   4.7679936707e+01   6.4469135320e+01    0.7396495    0.5245251 -29.97  0.003260704    1.550    0.355
       353 -11.5317     43.7689     54.0388   4.3455668415e+01   6.3525079353e+01    0.2593851    0.1970545  25.84 0.0004173116    1.276    0.217
       354 -11.3581    197.1436     58.1787   5.7241461047e+00   2.9308351154e+01    0.1671821    0.1553807 -43.77 0.0003557292    1.212    0.175
       355 -13.2800    153.3727     57.1331   1.1135348008e+01   3.8578246007e+01    0.2957508    0.2600075 -70.08 0.0006672071    1.026    0.026
       356 -10.3593     54.3613     56.7099   3.9151628411e+01   6.1071604692e+01    0.1511433    0.1144869  67.74 0.0007026617    1.694    0.410
       357 -12.0750     25.0307     54.2817   5.4422698683e+01   6.6187345922e+01    0.2082843    0.1768409  13.31 0.0007058775    1.121    0.108
       358 -10.2607    195.4657     52.4432   4.5940091393e+00   3.0397160749e+01    0.1227005    0.1005877 -57.96 9.531654e-05    1.006    0.006
       359 -12.5360    106.3518     51.2153   1.8696309232e+01   5.0557985363e+01    0.2887827    0.2380093  57.14  0.000511711    1.154    0.133
       360 -11.1681    173.9763     50.9336   6.6385086546e+00   3.4963043584e+01    0.2219063    0.1315695 -64.17   0.00113535    1.749    0.428
       361 -11.2242    150.8907     51.1040   9.8547373621e+00   4.0021668616e+01    0.2088245    0.1644672 -66.56 0.0004081246    1.197    0.164
       362 -12.3066    113.6021     51.0806   1.6899484454e+01   4.8833447978e+01    0.3118388    0.1704868  44.55  0.001329163    2.025    0.506
       363 -13.2620     29.6504     49.6989   4.9919234864e+01   6.6640837495e+01    0.3838013    0.3453737 -56.62  0.001367307    1.221    0.181
       364 -11.1151     16.2693     49.9701   5.8735893407e+01   6.8156967665e+01    0.1882281    0.1696479 -40.12  0.000325819    1.099    0.090
       365 -11.5730     99.7911     49.5754   1.9832852369e+01   5.2400181549e+01    0.2115926    0.1340925  69.42 0.0009473556    1.691    0.409
       366 -12.1098     89.3339     45.0240   2.1125965244e+01   5.5638480012e+01    0.2666817    0.2003282  56.24 0.0003441857    1.226    0.184
       367 -10.7486    194.2930     44.0423   2.7799994870e+00   3.1710428363e+01    0.1682188    0.1299042 -51.45 0.0002065828    1.083    0.076
       368 -12.0528     49.6718     44.0119   3.6295861670e+01   6.4509343960e+01    0.2595891    0.1976603  39.30 0.0003698165    1.215    0.177
       369 -12.2666    155.0282     41.1400   6.4833185180e+00   4.0450927375e+01    0.2302139    0.1871571 -89.07 0.0003797359    1.141    0.124
       370 -13.4444     33.6779     40.0782   4.3495129777e+01   6.8092544934e+01     0.487235     0.314172  46.82  0.001537765    1.678    0.404
       371 -10.8846      1.4428     40.4351   6.6762985896e+01   7.1559996425e+01    0.1306058    0.1208778 -14.97 -9.651814e-07    1.066    0.062
       372 -12.3769    120.5489     39.3739   1.1517256745e+01   4.8877646506e+01    0.2836912    0.2412352  61.50 0.0005098349    1.160    0.138
       373 -12.0095     79.9804     36.2149   2.0510771511e+01   5.9239290486e+01    0.3785374    0.2125319 -40.14  0.001144688    1.929    0.482
       374 -12.2832      9.7412     36.9210   5.9064256618e+01   7.1768184913e+01    0.2343012    0.1816021  18.68 0.0002702586    1.237    0.191
       375 -11.7242    140.5788     35.6507   6.9367588850e+00   4.4533124117e+01    0.2439304    0.1344862 -26.43  0.001131801    2.148    0.535
       376 -12.8616     86.2705     34.1540   1.7732096799e+01   5.8031178803e+01    0.4803692    0.2253982  68.85  0.001814972    2.553    0.608
       377 -12.1457     42.2752     34.0020   3.5616834172e+01   6.7766202937e+01    0.2887034    0.2453705   1.36 0.0007962232    1.248    0.199
       378 -12.6670     30.1179     31.4725   4.1740013969e+01   7.0346134434e+01    0.4584209    0.2471033  48.57  0.002015339    2.179    0.541
       379 -10.9216    127.2481     32.7492   8.1305990840e+00   4.8119441400e+01    0.1770966    0.1529802  46.69 0.0004974825    1.326    0.246
       380 -11.2234    137.0187     30.9626   6.0357890840e+00   4.5975183078e+01    0.2151061    0.1573489  37.69  0.001144969    1.790    0.441
       381 -11.4041      3.4976     30.6447   6.1930550772e+01   7.3670185750e+01    0.2728286    0.1558563  17.20  0.001376682    1.647    0.393
       382 -11.8955     96.5248     29.9568   1.3328023262e+01   5.6087286810e+01    0.1986845    0.1415755 -32.28 0.0004981227    1.570    0.363
       383 -11.7733     64.0107     30.0092   2.3440780893e+01   6.3886891720e+01    0.1763121    0.1545387  49.75 0.0004648286    1.022    0.022
       384 -11.3392     53.5210     30.4918   2.8164116303e+01   6.6116060760e+01    0.1411965    0.1276666  44.43 0.0001006292    1.038    0.036
       385 -10.7672    116.5433     26.4278   7.8548385369e+00   5.1542958009e+01    0.1377015    0.1201589  85.83 8.450603e-05    1.008    0.007
       386 -11.6966     45.3012     25.4525   2.9637754805e+01   6.8620518295e+01    0.2260043    0.1737764 -64.43 0.0009088232    1.789    0.441
       387 -11.9420      1.7093     25.6217   6.1627584391e+01   7.4898831079e+01     0.213948     0.179653 -63.64 0.0007879023    1.341    0.254
       388 -11.5451    125.0902     24.6529   5.8246494634e+00   4.9637517052e+01    0.2358006    0.1706197 -51.45 0.0006435754    1.361    0.265
       389 -11.7888    190.1113    249.0849   4.2322653629e+01   8.2978150377e-01     0.159764    0.1143138  -5.01 0.0003269961    1.026    0.025
       390 -10.7757     19.0534     23.4865   4.5599559873e+01   7.3507924892e+01    0.1903328    0.1198636  28.26 0.0003618701    1.445    0.308
       391 -11.3576     70.6516     20.9876   1.6754292514e+01   6.3578326837e+01    0.1820039    0.1802628 -29.53 0.0006171571    1.146    0.128
       392 -11.2118    138.2818     19.6950   2.3957575568e+00   4.6982103724e+01    0.2243017    0.1439078  79.08 0.0001871127    1.416    0.294
       393 -11.2068    141.3271     18.7256   1.7301153352e+00   4.6357095373e+01    0.2001633    0.1570966 -77.41 0.0003074604    1.115    0.103
       394 -10.7153     35.0260     20.6990   3.2819422007e+01   7.1377258960e+01    0.1661262    0.1110213  41.29 0.0008629189    1.340    0.254
       395 -11.3447     73.6984     24.9610   1.7615761831e+01   6.2334549527e+01    0.1878649    0.1767549  59.12  0.000371303    1.061    0.058
       396 -11.1657     96.9831     15.7064   7.5635879724e+00   5.7666606995e+01    0.1893029    0.1561878  76.94 0.0003107505    1.060    0.056
       397 -10.6848     75.3260     16.3111   1.3092629096e+01   6.3005093250e+01    0.1432461    0.0947223  37.30 0.0003932474    1.660    0.398
       398 -10.5950    127.4754     15.5267   2.4640387775e+00   5.0056833883e+01    0.1336891    0.1133207 -85.62  4.80555e-05    1.009    0.009
       399 -11.0764     72.6730     13.3081   1.2429613284e+01   6.3989826750e+01    0.1377617   0.09991729 -77.05 0.0004574209    1.655    0.396
       400 -11.4861    178.0506    247.4526   4.4316000951e+01   2.1661433054e+00     0.193604      0.12031 -16.75 0.0003559929    1.404    0.288
       401 -10.7692    105.7961    250.6619   5.9737674469e+01   9.0217900165e+00    0.1768737   0.08633088  29.73 0.0004482665    1.623    0.384
       402 -11.6147     66.9013     23.8867   1.9435026389e+01   6.4090011022e+01    0.2255709     0.166976 -80.98  0.001131713    1.789    0.441
       403 -11.6245     68.5949    247.2153   6.8083404622e+01   1.3490757978e+01    0.2918795    0.1717834  60.99  0.001559557    2.176    0.540
       404 -10.8843     64.4015    247.7588   6.9125254903e+01   1.3811691684e+01    0.1498278    0.1114283 -45.26 0.0009363071    1.633    0.388
       405 -12.2599     50.3328    245.9445   7.2368182436e+01   1.5532176026e+01    0.4532351    0.2740091 -76.85  0.002186305    2.080    0.519
       406 -11.5551     99.1911    246.9303   6.0865983428e+01   1.0356472901e+01    0.2130905    0.1521578  12.03 0.0004704581    1.184    0.155
