#   1 NUMBER                 Running object number                                     
#   2 MAG_AUTO               Kron-like elliptical aperture magnitude                    [mag]
#   3 X_IMAGE                Object position along x                                    [pixel]
#   4 Y_IMAGE                Object position along y                                    [pixel]
#   5 X_WORLD                Barycenter position along world x axis                     [deg]
#   6 Y_WORLD                Barycenter position along world y axis                     [deg]
#   7 A_WORLD                Profile RMS along major axis (world units)                 [deg]
#   8 B_WORLD                Profile RMS along minor axis (world units)                 [deg]
#   9 THETA_WORLD            Position angle (CCW/world-x)                               [deg]
#  10 FWHM_WORLD             FWHM assuming a gaussian core                              [deg]
#  11 ELONGATION             A_IMAGE/B_IMAGE                                           
#  12 ELLIPTICITY            1 - B_IMAGE/A_IMAGE                                       
         1 -12.8802    197.6624     34.2453   5.9386878908e+01   3.1433575893e+01     1.252285    0.7506109  43.40  0.005459227    1.817    0.450
         2 -13.9021    211.3884     18.4425   5.2845492510e+01   2.9682952746e+01     1.538367     1.045102  25.03  0.007247625    1.833    0.454
         3 -11.1198      2.1787      4.4490   1.0758926014e+02   7.4258250544e+01    0.4544758     0.122677 -57.92  0.001966004    3.118    0.679
         4  -8.5601    105.4573     40.4504   8.0421101691e+01   5.3509240880e+01    0.1429927    0.1336903 -34.76 0.0002354437    1.069    0.064
         5 -12.0214    163.0535    249.0257   1.1114871891e+02   6.3482640050e+00     0.327145    0.2202324  43.98  0.002460725    1.076    0.071
         6 -13.5768     68.6352    248.6373   1.2578108403e+02   1.9269722629e+01     1.560779    0.4220203  37.87  0.007194408    3.975    0.748
         7 -13.4766     98.3976    247.8792   1.2115495046e+02   1.5605736704e+01     0.951416    0.4275725  41.69  0.006005338    1.810    0.448
         8 -12.1234     88.5060    247.0944   1.2263262790e+02   1.7006525611e+01     0.462267     0.384246  20.03  0.003701356    2.016    0.504
         9 -13.6476    124.9427    247.2852   1.1695125262e+02   1.2054071548e+01     1.309754    0.3814902  39.52   0.00611089    3.086    0.676
        10 -14.6793     94.8698    230.7568   1.2035963231e+02   1.8517665728e+01     2.135965    0.6478616  43.66  0.003728148    2.490    0.598
        11 -15.3521     14.1756    244.3661   1.3362953779e+02   2.5817525168e+01     9.645925     4.177668 -87.28   0.07111234    2.073    0.518
        12 -15.0644     50.5173    207.0886   1.2605629609e+02   2.7949093582e+01     8.622074      2.47979  65.08   0.02835744    6.790    0.853
        13 -12.5847     32.7646    223.1701   1.2994467163e+02   2.7228049494e+01    0.2739204    0.2127695  61.34 0.0007433213    1.254    0.203
        14 -14.2295     40.2858    213.6828   1.2820889570e+02   2.7981991946e+01    0.9018641    0.6453605  79.89  0.007299436    1.148    0.129
        15 -11.2580    150.2552    228.6268   1.1096271765e+02   1.0757162502e+01    0.1987982    0.1740989  42.99  0.001567918    1.169    0.144
        16 -14.3445      9.5482    207.3516   1.3296193023e+02   3.2154213382e+01      1.75392    0.7354524  88.92   0.01145077    1.998    0.499
        17 -11.1990     53.8923    230.7939   1.2700107000e+02   2.3674414013e+01    0.2549304    0.1339113 -82.94  0.001790806    1.904    0.475
        18 -10.8573    224.6884    198.7152   9.4414823618e+01   2.3795307305e+00    0.2541657    0.2071115 -52.99 0.0008756503    1.887    0.470
        19 -14.7073     28.5106    184.3624   1.2849365649e+02   3.4428262718e+01     4.354224      1.30463  77.07 0.0001039967    7.917    0.874
        20  -9.9370    192.6169    194.1101   9.9020049743e+01   8.3741490503e+00    0.3623833    0.1958574 -63.12  0.001315735    5.782    0.827
        21 -11.4714     60.3112    191.2500   1.2309952395e+02   2.9587366145e+01    0.2846838    0.2163639 -51.58  0.001114265    1.889    0.471
        22 -11.4321     66.2643    184.2047   1.2134816377e+02   3.0142984293e+01    0.2158787    0.1996596 -84.95 0.0005245564    1.366    0.268
        23 -10.5383     76.3908    172.6739   1.1816977261e+02   3.1003109222e+01    0.1954451    0.1719624  75.52 0.0004727344    1.151    0.131
        24 -13.1240     63.2314    169.8723   1.2054948403e+02   3.3277369887e+01    0.4140119    0.2473005 -50.56  0.001851801    2.218    0.549
        25 -11.8086     83.5713    164.2318   1.1569006228e+02   3.1655246897e+01    0.5781704    0.4011804  62.10  0.003555984    1.287    0.223
        26 -12.0402     22.6207    155.3618   1.2764958746e+02   4.0656154860e+01    0.3221943    0.1736145 -73.90  0.002038718    1.580    0.367
        27 -10.7260     32.6780    156.1190   1.2560233919e+02   3.9525053455e+01    0.1980625     0.127212  60.22 0.0008332593    1.351    0.260
        28  -9.6700     97.3629    149.0681   1.1058769886e+02   3.2639191743e+01     0.245246    0.1747877  55.81 0.0007962584    1.308    0.235
        29 -11.7330     85.7417    147.8594   1.1300809107e+02   3.4662795406e+01    0.2425098    0.2098469 -68.04 0.0004990856    1.213    0.175
        30 -12.4083     67.5542    143.9905   1.1660227367e+02   3.8016201605e+01    0.7010913    0.4038921  68.21  0.003713525    1.852    0.460
        31 -11.9552     57.7337    132.2894   1.1734334038e+02   4.1779412785e+01     1.251769    0.4277487 -80.40  0.003298917    7.436    0.866
        32  -9.0810    100.0161    145.2184   1.0938507349e+02   3.3005690328e+01    0.1863768    0.1523273   5.40 0.0005119053    1.912    0.477
        33  -9.4330    108.9312    135.2389   1.0562702776e+02   3.3585341942e+01    0.2442722     0.175984 -27.47  0.001214323    2.114    0.527
        34 -10.3055     96.2733    131.9966   1.0801619597e+02   3.6375768229e+01    0.2240871    0.2082967 -39.88 0.0004599625    1.315    0.239
        35  -9.3425    106.5447    122.3413   1.0371584852e+02   3.6709239151e+01    0.1679834    0.1281402 -49.01 0.0004064107    1.355    0.262
        36 -10.0905    167.7803    112.7719   8.7568203388e+01   2.6292093957e+01    0.3419873     0.264091 -80.57  0.001044344    1.733    0.423
        37 -11.8023      2.2280     79.0743   1.2545447468e+02   5.8630805743e+01    0.7126637   0.05801004 -69.69  0.002292239    5.011    0.800
        38 -12.9550    141.3800    249.0764   1.1453887411e+02   9.4903380854e+00    0.7195799    0.2910234  45.80  0.004245059    1.785    0.440
        39 -12.8870    106.6409    242.7607   1.1945320837e+02   1.5197534543e+01    0.8095766    0.4105589  74.74  0.004570073    2.856    0.650
        40  -9.6762    189.5199     15.5002   5.4496432000e+01   3.5768884243e+01    0.1443586    0.1405348 -68.55 0.0001685733    1.007    0.007
        41 -11.3568     55.8411    240.4877   1.2725840056e+02   2.1971291860e+01    0.2365502    0.1044711  70.52   0.00148502    2.168    0.539
