#   1 NUMBER                 Running object number                                     
#   2 MAG_AUTO               Kron-like elliptical aperture magnitude                    [mag]
#   3 X_IMAGE                Object position along x                                    [pixel]
#   4 Y_IMAGE                Object position along y                                    [pixel]
#   5 X_WORLD                Barycenter position along world x axis                     [deg]
#   6 Y_WORLD                Barycenter position along world y axis                     [deg]
#   7 A_WORLD                Profile RMS along major axis (world units)                 [deg]
#   8 B_WORLD                Profile RMS along minor axis (world units)                 [deg]
#   9 THETA_WORLD            Position angle (CCW/world-x)                               [deg]
#  10 FWHM_WORLD             FWHM assuming a gaussian core                              [deg]
#  11 ELONGATION             A_IMAGE/B_IMAGE                                           
#  12 ELLIPTICITY            1 - B_IMAGE/A_IMAGE                                       
         1 -14.4126     68.6174    144.4002   9.8929013093e+01   3.7483135817e+01     4.574713      2.27615  65.96  0.008001025    3.679    0.728
         2 -13.4159    201.3228     42.0901   4.1930289650e+01   3.0113268749e+01     1.243477     1.093749 -30.63  0.004633384    1.364    0.267
         3 -13.5316    212.0114     31.8428   3.8342121368e+01   2.9057356187e+01    0.8981713    0.8041728  34.37  0.002345375    1.562    0.360
         4 -12.8221    237.5997      6.1912   3.0775795920e+01   2.6644629247e+01    0.8083635    0.5839429 -82.08  0.005578808    1.132    0.117
         5 -14.9287      9.1690    207.6882   1.2104335441e+02   2.8938472791e+01     1.358416     1.140991 -12.66  0.009179539    1.883    0.469
         6  -9.9079    140.2032    250.1181   9.7524377048e+01   2.7566815316e+00    0.3142097    0.1317003  44.63  0.001429068    2.160    0.537
         7 -10.3760    102.0000    248.5929   1.0516321958e+02   8.7315970862e+00    0.3022549    0.1924324 -66.92  0.001154016    1.828    0.453
         8 -11.2210    101.3773    243.3487   1.0471919687e+02   9.8085735791e+00    0.5326206    0.2683472 -70.26  0.002358261    2.517    0.603
         9 -13.4356     52.9649    186.6667   1.0924193564e+02   2.9033484377e+01     1.576819     1.127399  70.20  0.008683301    1.335    0.251
        10 -11.0245    193.3328    195.5220   7.7893293723e+01   3.9744701789e+00    0.9886867    0.5272285 -66.06  0.002847299    6.434    0.845
        11 -10.2975    107.6114    203.7953   9.8307183572e+01   1.6998871929e+01    0.2393873    0.2021666  55.33 0.0005606404    1.099    0.090
        12 -10.2543    110.9169    203.1385   9.7436138974e+01   1.6603277308e+01    0.2502372    0.2057172  79.75  0.000659996    1.302    0.232
        13 -11.0862    203.3139    199.4190   7.6641115320e+01   1.6346371180e+00    0.2940584    0.2738183  30.82    0.0018587    1.206    0.171
        14 -10.2575    122.2331    198.5243   9.4070233329e+01   1.5721959334e+01    0.3883603    0.2555287 -73.51  0.001650815    1.898    0.473
        15  -8.6856     68.0201    199.5506   1.0711270491e+02   2.3975989000e+01    0.1948365    0.1266879  36.91  0.001003618    1.523    0.344
        16  -8.9389     82.7923    194.6913   1.0295247204e+02   2.2975897493e+01    0.2051831    0.1801518  17.07 0.0007953409    1.381    0.276
        17 -15.2424     41.6512    195.9841   1.1293896268e+02   2.8193961055e+01     7.538227     2.445154  62.42   0.02031179    6.469    0.845
        18  -9.2233    118.5320    191.4844   9.3809750113e+01   1.7921791269e+01    0.1439861    0.1354386  58.56   0.00034155    1.003    0.003
        19  -8.0801    224.2544    206.3819   7.3976843777e+01  -2.7536360394e+00    0.1316819   0.08589149 -11.81 0.0006963598    1.664    0.399
        20 -10.0318    147.7206    188.1926   8.6367926733e+01   1.3467869052e+01    0.4661187    0.3053827 -83.94  0.001879591    2.717    0.632
        21  -8.9353     79.6144    182.1072   1.0198447658e+02   2.6452096513e+01    0.3683612    0.2281442  86.11  0.001635274    2.015    0.504
        22  -8.6418     82.5383    182.4573   1.0129516540e+02   2.5925504337e+01    0.1931712    0.1719859  73.88 0.0005204613    1.039    0.037
        23  -8.6134     76.2087    184.4541   1.0317601707e+02   2.6389955904e+01    0.1928906    0.1199826  50.12 0.0004199702    1.552    0.356
        24  -9.7942     99.3293    180.9132   9.6812032588e+01   2.3626910943e+01    0.2597138    0.2123757  30.36  0.000712648    1.310    0.237
        25  -8.6002     88.5178    178.5362   9.9181353186e+01   2.5946868131e+01    0.1458209    0.1328371  75.56 0.0001465344    1.022    0.022
        26 -10.3190    186.9530    175.4024   7.5316103654e+01   8.9129516583e+00    0.3963383    0.3045507 -46.86  0.001370818    1.321    0.243
        27  -8.9758     91.2932    176.6480   9.8171741572e+01   2.5962881694e+01    0.1538788    0.1069405  74.37 0.0005839914    1.680    0.405
        28 -12.3557     80.4764    159.1036   9.8143577817e+01   3.2004024270e+01     1.284699    0.6272646  62.44 0.0003888608    3.279    0.695
        29 -12.9050     68.7935    154.2536   1.0056895778e+02   3.4961866049e+01    0.6257923    0.4404032 -55.10  0.001062357    1.377    0.274
        30 -10.8684    115.6973    245.4026   1.0197790195e+02   7.2897047435e+00     0.373752    0.2227174 -46.92  0.001653343    2.048    0.512
        31  -8.9199    110.9862    167.9913   9.1603705931e+01   2.4723163366e+01    0.2421061    0.1785858  77.57 0.0006309714    1.652    0.395
        32  -8.3340    120.4798    165.5513   8.8714147652e+01   2.3587542891e+01    0.1511555    0.1438109  73.38 0.0004702512    1.031    0.030
        33 -15.5274      5.9126    175.7913   1.1959406255e+02   3.6560980260e+01     13.05448     1.084605 -75.29   0.03000551    8.815    0.887
        34 -10.1598     33.5496    156.2136   1.1064850009e+02   3.8800727866e+01    0.2882126    0.2459749  78.78  0.001205976    1.094    0.086
        35 -11.5662     87.9380    152.5063   9.4906337661e+01   3.2472760472e+01    0.6413115    0.4619699 -20.59  0.002883291    2.011    0.503
        36 -10.6154    133.7601    144.6903   8.1009663734e+01   2.5945991630e+01     1.190397     0.321887 -55.52  0.002827516    5.427    0.816
        37  -8.7276    111.6768    149.9850   8.7913957506e+01   2.8953288479e+01     0.327957    0.1798958  61.68  0.001168854    2.671    0.626
        38  -9.3510    175.0648    149.2995   7.2351147328e+01   1.6520095399e+01    0.2072967    0.2004006  55.09 0.0005309273    1.082    0.075
        39 -11.5202     67.4106    172.4900   1.0374752390e+02   3.0582632227e+01    0.4553484    0.3110165 -38.86  0.001803549    1.854    0.461
        40  -9.5413     32.3490    143.3289   1.0932938218e+02   4.2160880178e+01    0.3929805    0.2111454 -42.61  0.001805042    2.162    0.538
        41  -9.6339    111.2708    129.3619   8.3506014500e+01   3.4016632350e+01    0.3207654    0.2662343  -6.66 0.0008029439    1.520    0.342
        42 -10.3088    101.8905    138.5667   8.8198582176e+01   3.3535640695e+01    0.6069117    0.3769661 -21.03  0.002202065    2.919    0.657
        43 -10.0977    105.9906    131.0157   8.5369343599e+01   3.4622128523e+01    0.4151152    0.3199399 -57.50  0.001578118    1.277    0.217
        44 -11.5476     89.2416    138.0329   9.1699008972e+01   3.5875214242e+01    0.2982535    0.2643549 -40.29 0.0004432619    1.188    0.158
        45  -9.6943     26.3113    137.7865   1.1034488355e+02   4.4131292381e+01    0.3146181    0.1788592  34.03  0.001377953    1.910    0.476
        46 -10.1348    134.8349    128.9321   7.7105478499e+01   2.9368090475e+01    0.3412175    0.2949744  86.02  0.001596145    1.296    0.228
        47 -11.4693     71.9978    167.6554   1.0182042837e+02   3.1132027956e+01    0.4848878    0.3106577 -56.59  0.001070967    1.523    0.344
        48  -9.0745    160.5938    127.8044   7.0621622186e+01   2.4127683961e+01    0.2263872    0.1424991 -55.25  0.000951301    1.687    0.407
        49  -9.1293     28.5131    128.0217   1.0830534098e+02   4.6373366058e+01    0.2152814    0.1171824 -69.55  0.001034837    1.600    0.375
        50 -10.1960     98.3508    125.2680   8.6244091037e+01   3.7424232384e+01    0.3080133    0.2668324 -13.88 0.0008451482    1.357    0.263
        51  -9.6653     34.7551    171.6017   1.1211024231e+02   3.4848223552e+01    0.2676549    0.1837035  72.94 0.0002559746    1.404    0.288
        52 -10.3630    118.9665    122.2571   7.9682201840e+01   3.4175601682e+01    0.6767963    0.4198234  -5.35   0.00202555    4.364    0.771
        53  -8.7137    163.4698    121.5030   6.8454071867e+01   2.4845968312e+01     0.153405    0.1476882 -62.41 0.0008098968    1.007    0.007
        54  -8.7235     85.9653    119.9111   8.8708500190e+01   4.0898987664e+01    0.2404554    0.1803781  77.40  0.001110848    1.704    0.413
        55  -9.2839    107.5372    118.3860   8.1932990189e+01   3.7344528286e+01    0.2498213    0.2227152  28.84 0.0002773779    1.195    0.163
        56  -8.2604    193.3353    170.2709   7.2980982872e+01   8.7507859322e+00    0.1426223    0.1079964   1.36 0.0004592246    1.596    0.374
        57 -10.1166    231.2534    113.7757   5.4188967400e+01   1.2172257362e+01    0.2719631    0.2398301 -50.19 0.0007296563    1.024    0.024
        58 -10.0426    240.1587    169.2299   6.4214420281e+01   9.6014923432e-01    0.1698491    0.1452795 -50.40 0.0005100379    1.329    0.247
        59  -9.4037    205.2920    110.1430   5.7524345196e+01   1.8042684490e+01    0.2878253    0.2028347  37.25  0.001147799    1.727    0.421
        60 -10.5138     33.6012    108.9019   1.0345540363e+02   5.0624105779e+01    0.3445703    0.2254405 -72.25  0.001585569    1.470    0.320
        61 -11.3570    244.7573    107.7631   5.1001437480e+01   1.0677663595e+01    0.3721557    0.2329081 -61.78  0.001905825    1.793    0.442
        62  -9.7987    115.3772    107.7868   7.7001322882e+01   3.8220648276e+01    0.2302007    0.1417236 -38.62 0.0006951818    1.723    0.420
        63 -10.8701     52.9251    110.2131   9.7168819450e+01   4.8153190036e+01    0.4314836    0.2096449 -55.94  0.001581096    1.817    0.450
        64 -10.1953     37.7678    102.2562   1.0070652106e+02   5.1815554084e+01    0.2686634    0.1782256  39.78 0.0007831532    1.693    0.409
        65  -9.3991     32.7103    100.0217   1.0203799926e+02   5.2855475659e+01    0.1953853    0.1555481 -58.69 0.0007552588    1.098    0.090
        66 -10.5160    242.2693     94.9935   4.8649777364e+01   1.3266597470e+01    0.2652936    0.1584441 -84.13  0.001191208    2.679    0.627
        67 -14.0596     20.0567    220.9085   1.1963896835e+02   2.4966507679e+01    0.9405385    0.7035882  63.82  0.003807679    1.090    0.082
        68  -8.7287     75.0914     85.1190   8.3247621725e+01   5.0771959452e+01    0.2138038    0.1744832  75.37 0.0008276952    1.620    0.383
        69  -8.8755    159.1462     83.1381   5.9484435517e+01   3.3488401148e+01    0.2075063    0.1726999 -77.09 0.0003986451    1.288    0.224
        70  -9.0109    150.8571     82.9962   6.1228415830e+01   3.5458450355e+01     0.230041    0.1925903 -76.48 0.0005074371    1.297    0.229
        71  -8.7184     69.4144     81.3573   8.4135312205e+01   5.2496273868e+01    0.2161688    0.1635385  56.32 0.0003984827    1.634    0.388
        72  -8.8676    110.2626     80.3837   7.0724713802e+01   4.5096002534e+01    0.2625192     0.185664  57.54  0.001228533    1.545    0.353
        73 -10.8504     13.1826     59.8588   1.0056809051e+02   6.3478155518e+01    0.2499687    0.2353087 -25.72  0.000603477    1.180    0.152
        74  -9.9353    119.8738    244.6283   1.0101845466e+02   6.8015133041e+00    0.2319957    0.1621308 -86.49 0.0007633948    1.933    0.483
        75 -10.4478    119.9132    212.8932   9.6795215149e+01   1.3027710781e+01    0.3303748     0.150861  49.42  0.001168311    2.248    0.555
        76 -17.0843     14.6958    242.5738   1.2193876524e+02   2.1039271615e+01     5.704289      2.15166  26.56   0.02595909    3.621    0.724
        77  -8.9830    198.1958     23.4402   3.7850940140e+01   3.3217288793e+01    0.2014937    0.1353924 -46.38 0.0005984182    1.424    0.298
        78 -12.9165    191.2139     49.5089   4.5061351710e+01   3.1408793735e+01     1.040042    0.8149712  43.05  0.001152563    1.568    0.362
        79  -8.8840    189.5081     15.0114   3.6752729433e+01   3.6184371443e+01    0.1740567    0.1204799 -37.71 0.0004989363    1.533    0.348
        80  -9.2400     89.0317    210.7624   1.0357367220e+02   1.8372899406e+01    0.2174004    0.1836535 -86.49 0.0005514967    1.183    0.155
