#   1 NUMBER                 Running object number                                     
#   2 MAG_AUTO               Kron-like elliptical aperture magnitude                    [mag]
#   3 X_IMAGE                Object position along x                                    [pixel]
#   4 Y_IMAGE                Object position along y                                    [pixel]
#   5 X_WORLD                Barycenter position along world x axis                     [deg]
#   6 Y_WORLD                Barycenter position along world y axis                     [deg]
#   7 A_WORLD                Profile RMS along major axis (world units)                 [deg]
#   8 B_WORLD                Profile RMS along minor axis (world units)                 [deg]
#   9 THETA_WORLD            Position angle (CCW/world-x)                               [deg]
#  10 FWHM_WORLD             FWHM assuming a gaussian core                              [deg]
#  11 ELONGATION             A_IMAGE/B_IMAGE                                           
#  12 ELLIPTICITY            1 - B_IMAGE/A_IMAGE                                       
         1 -15.3939      9.1004     25.7161   1.0814865442e+02   7.0119794563e+01     2.727133    0.9560207 -53.57   0.01355849    1.986    0.497
         2 -13.3292     30.7141     10.7716   9.0256418798e+01   7.1083046330e+01      1.46128    0.4642313 -39.76   0.00627883    2.619    0.618
         3 -13.8864     24.8434     49.0773   1.0784914411e+02   6.4083017237e+01     1.239081    0.6554788 -36.89  0.006536423    1.874    0.466
         4 -14.8783     96.4348     71.4859   8.8284518234e+01   4.9568274764e+01     1.647084     1.235495   9.25   0.00163978    1.763    0.433
         5 -14.5445     37.0968     85.1497   1.1158741016e+02   5.4786308734e+01      2.19621     1.026443 -55.57   0.01072457    1.751    0.429
         6 -14.8854     44.2097     42.1154   9.7332365565e+01   6.3678031047e+01     2.719019     1.261186 -44.51  0.008645566    1.802    0.445
         7 -14.6959     79.5916     69.9199   9.3233610860e+01   5.2850800898e+01     2.982442     1.540283 -29.01   0.01112499    2.939    0.660
         8 -14.7264     69.8617     55.8521   9.2057211792e+01   5.7384320800e+01     1.422699     1.252581 -22.77  0.006257079    1.110    0.099
         9 -11.8089     73.2318      1.4902   6.6482958394e+01   6.5712135262e+01    0.2667269    0.1519307  50.75 0.0005059535    1.786    0.440
        10 -12.9865     83.6740     22.6492   7.3580120415e+01   6.0948355916e+01    0.5538247    0.5168353  41.88 0.0006312793    1.227    0.185
        11 -12.8333    123.9224     10.2105   5.7045555187e+01   5.3411411582e+01    0.6760997    0.3463874  40.08 0.0003780643    1.977    0.494
        12 -14.6183     86.0746      7.1518   6.5289000215e+01   6.2478474259e+01     2.602451    0.9952876  50.99   0.01075026    2.454    0.592
        13 -11.3489    150.4240     20.3357   5.5877292731e+01   4.5512568231e+01    0.4884794    0.2833768   8.94   0.00193088    2.458    0.593
        14 -12.5379    115.6760     11.5726   5.9453812418e+01   5.5287498530e+01     1.076939    0.6269621 -54.73  0.004575043    2.440    0.590
        15 -11.7345     64.7081     18.0378   7.8319113758e+01   6.5110292295e+01    0.4228738    0.2927278  24.02  0.001247539    1.505    0.336
        16 -12.4385     75.6916     13.4178   7.1879877069e+01   6.3788876589e+01    0.3351969    0.3098866 -34.40 0.0008221359    1.277    0.217
        17 -12.6553    185.8147     11.9112   4.7732873066e+01   3.7048386801e+01    0.5959799    0.4226957  72.42  0.002691662    1.370    0.270
        18 -11.5103    175.1200     14.3603   4.9904105060e+01   3.9628427011e+01    0.3682005    0.2683769   6.68  0.001800478    1.639    0.390
        19 -11.0183    150.2942      8.8063   5.1625955410e+01   4.6778186652e+01    0.3343592    0.2788136  77.34  0.001126344    1.210    0.174
        20 -12.2654    192.9718      6.1451   4.5122169904e+01   3.5741975799e+01    0.5705259     0.419798 -35.26  0.002363763    1.338    0.253
        21 -11.8617    188.5405      5.9503   4.5543141730e+01   3.6922008141e+01    0.3567512    0.2529567 -58.55  0.001098206    1.444    0.307
        22 -11.9983    137.4148      5.4061   5.2483934711e+01   5.0461046455e+01    0.5084791    0.3610392  60.79  0.001651582    1.321    0.243
        23 -11.0230    142.2108      2.3883   5.0495899419e+01   4.9491015336e+01    0.3616899    0.2530534 -81.17  0.001763173    1.707    0.414
        24 -10.5531     48.9343      5.5605   7.8414718987e+01   6.9462921775e+01    0.3952156    0.1624359 -30.75  0.001812581    2.203    0.546
        25 -11.6910    194.1053    136.7887   8.1853101281e+01   1.5767073503e+01    0.6104481    0.4066959 -10.52  0.002778625    1.925    0.480
        26 -12.2706    199.0525    128.9136   7.9070744195e+01   1.6064010574e+01    0.7889155     0.359492 -38.73  0.003158648    2.178    0.541
        27 -13.2024    204.2837    124.7358   7.7087803998e+01   1.5649743282e+01    0.8110121    0.7110912 -35.65  0.004492937    1.168    0.144
        28 -12.1575     34.5490    135.5574   1.1973666661e+02   4.3226516555e+01    0.3578716    0.2116193  32.51   0.00204876    1.926    0.481
        29 -11.7299     82.3638    133.8635   1.0720730801e+02   3.7738106149e+01    0.3366237    0.2022172 -62.19  0.001673608    1.571    0.363
        30 -11.7101    223.5344    133.0011   7.5554390237e+01   1.0339848790e+01    0.4470618    0.3999585 -50.13  0.002602171    1.351    0.260
        31 -10.5483     64.7433    129.6464   1.1112998656e+02   4.1166515297e+01    0.2696752    0.2070073 -80.99  0.001508233    1.183    0.155
        32 -11.1540    122.1629    127.4200   9.5775637361e+01   3.2409592587e+01    0.3650661    0.3431895 -75.87  0.001317323    1.047    0.045
        33 -13.2588    219.4213    121.0645   7.3475518565e+01   1.3034151846e+01     0.822215    0.6530894  72.38  0.004262708    1.702    0.412
        34  -9.8923    101.6835    114.3240   9.8215893345e+01   3.9084948891e+01    0.1492717     0.110804  83.13 0.0007043418    1.668    0.400
        35 -10.6774    189.5173    197.0000   9.4515790657e+01   7.0864621589e+00     0.289424   0.06235817  42.79  0.000942058    3.994    0.750
        36  -9.8651     20.6455    188.3224   1.2702251803e+02   3.3342034464e+01    0.1214644   0.05731053  64.01 0.0007046642    1.759    0.431
        37  -9.4572    178.3352    184.7023   9.4549901725e+01   1.0894661956e+01    0.1260549    0.1002961  68.79 0.0007031463    1.651    0.394
        38  -9.5774    246.4050    183.2153   8.2118847622e+01  -6.3696753052e-01    0.1578417    0.1065228 -32.65 0.0009436595    1.621    0.383
        39  -9.9549    144.3156    181.3204   1.0079464736e+02   1.7541868966e+01    0.1285018    0.1017439   6.95 0.0005438885    1.657    0.397
        40 -10.7175     34.4732    177.0072   1.2352686405e+02   3.4231998098e+01    0.2090513    0.1532816   4.65  0.001283886    2.475    0.596
        41 -12.1118    203.3739    172.2016   8.7500339124e+01   8.2594045864e+00    0.3989897    0.3000676  -6.22  0.001835168    1.422    0.297
        42 -14.9833     60.9092     71.1388   1.0002631910e+02   5.5338320697e+01     1.807961      1.12641  35.02  0.009260789    1.820    0.451
        43 -10.8568    114.2426     96.9798   9.0505200649e+01   4.0628089219e+01    0.3794751    0.2450176 -55.51  0.001095202    1.582    0.368
        44 -10.7474    188.1738     93.8208   7.2241863117e+01   2.4598244008e+01    0.4716287    0.3009047 -47.86  0.002052204    1.674    0.403
        45 -12.2679      8.2472     65.4893   1.1815494781e+02   6.1498551676e+01    0.4150774    0.2599088 -64.12  0.001947236    1.209    0.173
        46 -13.1039      6.0938     82.8640   1.2154538468e+02   5.7628374397e+01    0.9939288    0.3784307 -56.99  0.004998245    2.044    0.511
        47 -12.9315      2.5856     70.6346   1.2104188383e+02   6.0615953159e+01     1.162241    0.2568384 -73.17  0.004306152    3.548    0.718
        48 -10.1926    249.8947     86.4739   6.0283312626e+01   1.1779379059e+01    0.2241832    0.2141565 -66.22  0.001380953    1.207    0.172
        49 -12.0558    128.2162     81.7724   8.2370035653e+01   4.0928654288e+01    0.3636481    0.3380724 -60.26  0.001359572    1.108    0.098
        50 -13.2225    117.7818     67.6138   8.0708360777e+01   4.6038947416e+01    0.6740646    0.4709613 -22.46  0.002591104    1.640    0.390
        51 -13.4514    115.9036     77.4185   8.4388211679e+01   4.4464695774e+01    0.6784919    0.6295254  -0.35  0.003662795    1.144    0.126
        52 -11.6321     18.1065     78.2967   1.1680761943e+02   5.7942433870e+01    0.2449437     0.165979 -59.16 0.0007337925    1.205    0.170
        53 -12.2010    144.1441     74.9207   7.6220531951e+01   3.8625926969e+01    0.4690954     0.322089 -26.56  0.001057376    1.563    0.360
        54  -9.4187    234.3095     76.3180   5.9847571504e+01   1.6596218558e+01    0.1450233    0.1073918  13.85  0.000466777    1.639    0.390
        55 -12.9107    128.6370     73.9145   7.9813872605e+01   4.2405024775e+01    0.6089357    0.3923916  83.74  0.002192383    3.018    0.669
        56  -8.9388    250.3244     73.6681   5.7054019238e+01   1.3461588035e+01    0.1448657   0.09647051 -55.31 0.0007050633    1.706    0.414
        57  -9.5337    182.6066     72.1332   6.7106389029e+01   2.9660621097e+01    0.1975684    0.1465984 -18.04 0.0004423729    1.453    0.312
        58 -10.1996    153.5145     72.5427   7.3277676568e+01   3.6811997741e+01    0.1546196    0.1516695 -38.87 0.0001966143    1.026    0.025
        59 -10.4577    146.5762     66.7368   7.3022545980e+01   3.9549450572e+01    0.2773345    0.2401685 -17.55  0.001388307    1.193    0.162
        60 -10.4663    214.5082     61.3969   5.8656649129e+01   2.3402868151e+01    0.4004515    0.2406752 -10.49  0.001655146    2.134    0.531
        61 -10.2926    169.7526     63.0212   6.6808841829e+01   3.4409038239e+01     0.296978     0.219478  46.84 0.0006509604    1.375    0.273
        62  -9.3816    166.0095     63.0013   6.7557322909e+01   3.5361237236e+01     0.215161    0.2095482  51.05 0.0003978809    1.045    0.044
        63 -12.9393    124.8541     57.6966   7.5382714401e+01   4.6328775500e+01    0.3981304     0.354762  52.85 0.0007690217    1.174    0.149
        64 -10.5784    135.2071     98.4776   8.5377746415e+01   3.5957038166e+01    0.5020174    0.2913574  30.63  0.001717066    2.261    0.558
        65 -10.9958    174.7507     56.4773   6.3772710877e+01   3.4179841980e+01     0.265135    0.2531557 -34.26 0.0003523761    1.029    0.028
        66 -12.6742    133.9784     54.0390   7.1752900808e+01   4.4827052704e+01    0.4487899    0.3414511  64.31 0.0005491125    1.462    0.316
        67 -11.8871     92.7689     52.9997   8.3131720330e+01   5.3999249688e+01    0.2628412    0.2383204  -2.20 0.0002811181    1.111    0.100
        68 -11.2390    145.4041     50.6624   6.7865665489e+01   4.2585166639e+01    0.3267225    0.2996382 -36.80 0.0006887783    1.088    0.081
        69 -12.0306     98.9923     50.1907   8.0103440633e+01   5.3303580527e+01    0.5535017    0.2842794  30.79  0.002117505    2.626    0.619
        70 -10.7512      2.6427    171.3379   1.2962338132e+02   3.8300061518e+01     0.183587   0.08775382  65.19  0.001120818    1.700    0.412
        71 -11.0271    152.2797     53.9211   6.7465558571e+01   4.0329646546e+01    0.2933414     0.240481  32.93 0.0003020283    1.286    0.223
        72 -10.5427    176.2448     45.7785   6.0076000454e+01   3.5397810816e+01    0.4059344    0.3247628   4.19  0.001976067    1.443    0.307
        73 -11.2891    157.0895     43.8749   6.3022630376e+01   4.0660095713e+01    0.3183486    0.2684384  33.95 0.0005207738    1.231    0.188
        74 -11.0123    121.8554     44.1295   7.1221021157e+01   4.9358819791e+01    0.3331449    0.2607051  17.66  0.001634596    1.429    0.300
        75 -10.0550    181.9794     43.3146   5.8312686484e+01   3.4249610247e+01    0.2105089    0.1932486  61.85 0.0003252187    1.099    0.090
        76 -10.2797    138.9991     43.4377   6.6747187338e+01   4.5324256409e+01    0.4640911     0.203587  62.85  0.001278741    2.675    0.626
        77 -11.9054    216.6704     38.9918   5.2047271926e+01   2.5933603984e+01    0.5829979    0.3321187  49.66  0.001775189    1.891    0.471
        78 -10.1900    196.9360     40.8562   5.5236613129e+01   3.0696741974e+01    0.2754686    0.2060362 -46.39 0.0008229255    1.316    0.240
        79 -11.7781    141.6328     96.9245   8.3346944499e+01   3.4865755305e+01    0.4763066    0.2871361 -33.03     0.001176    1.799    0.444
        80 -10.5271    204.9309     36.8225   5.2923149405e+01   2.9170914489e+01    0.2515762    0.2401377 -65.56 0.0009653413    1.024    0.024
        81 -10.6365    160.0424     36.1520   5.9777915358e+01   4.0990997085e+01    0.2167184    0.2056952  34.49 0.0002964614    1.055    0.052
        82 -12.1311     82.5091     33.5090   7.8836820523e+01   5.9460689805e+01    0.4206675    0.3218447  17.66  0.001278071    1.400    0.286
        83 -12.8385     79.8192     30.7206   7.8569449458e+01   6.0425492636e+01    0.6025283    0.4849252 -15.59  0.002198891    1.165    0.142
        84  -9.7650    240.5943     34.2275   4.8085690182e+01   2.0771090619e+01    0.1882519     0.126678 -15.45 0.0004403716    1.618    0.382
        85 -11.0103    176.6954     33.3233   5.5943183401e+01   3.6982455472e+01    0.2632694    0.2574219  56.22  0.000313063    1.029    0.028
        86 -10.0926     96.9279     33.6562   7.4153970913e+01   5.6576486673e+01     0.196623    0.1786755  29.64 0.0005155465    1.116    0.104
        87  -9.4084    109.3058     28.3317   6.8281943125e+01   5.4675814811e+01    0.1524851    0.1065115  16.46 0.0007038516    1.661    0.398
        88 -10.6200    185.7395    167.5469   8.9966852190e+01   1.2278902100e+01    0.1938766    0.1231676  51.69 0.0009548192    1.661    0.398
        89 -12.1632    216.1912    161.0899   8.2947685145e+01   7.5370548190e+00    0.6043561    0.3336369  -8.14  0.002489658    2.830    0.647
        90 -10.6870    240.4816    158.6602   7.8257429502e+01   3.4709717281e+00    0.2444696     0.216548 -29.21  0.001560659    1.320    0.243
        91 -12.3397    199.8311    154.9399   8.4704352925e+01   1.1604687713e+01    0.4621468    0.2789061 -31.89  0.002251963    1.716    0.417
        92 -11.4995    241.8520     22.9030   4.5044993321e+01   2.1805430758e+01    0.3981987    0.2684227 -59.38  0.001345128    1.450    0.310
        93 -12.2709    233.4289    154.0859   7.8483511952e+01   5.3605654501e+00     0.388173    0.2914762  24.13  0.001919662    1.243    0.196
        94 -11.0939    190.4089    153.9323   8.6316296752e+01   1.3621385472e+01    0.3441853    0.2910127 -67.24  0.001896391    1.570    0.363
        95 -10.1937    139.6205     20.8979   5.8132111658e+01   4.8250564724e+01     0.256831    0.1883827  49.88 0.0007703843    1.303    0.233
        96 -10.4503    208.8577     18.7968   4.7173894296e+01   3.0320809386e+01    0.3038385     0.190391 -32.40  0.001076869    1.512    0.339
        97 -10.7707     29.7331    153.3815   1.2263783124e+02   3.9713020559e+01    0.2258204    0.1215508 -89.50 0.0009590842    1.650    0.394
        98 -12.0592     18.5523    152.8160   1.2512261159e+02   4.0860144475e+01    0.4329277    0.2421357  64.16  0.002623099    1.590    0.371
        99  -9.9814    138.5941    152.2702   9.6942425534e+01   2.4090005645e+01    0.1878764    0.1339099 -39.14 0.0009426935    1.571    0.364
       100 -12.7974    248.1217    144.3658   7.4004685453e+01   4.0351470490e+00     0.986969      0.59345 -29.72  0.005228996    1.538    0.350
       101  -9.7020    132.6524     14.8403   5.7145644086e+01   5.0722770988e+01    0.2077717    0.1242677 -33.97  0.000939412    1.701    0.412
       102 -11.6246     58.5470    144.2006   1.1478907606e+02   3.8610480807e+01    0.5543364    0.3231818  83.71  0.002801126    1.894    0.472
       103 -13.1248     49.5234    141.8328   1.1672289955e+02   4.0214311453e+01    0.8318526    0.5447673  39.39  0.004810645    1.615    0.381
       104 -10.1110     90.3724    145.7708   1.0717247345e+02   3.3839024792e+01    0.1915744    0.1172538 -52.88 0.0009500111    1.678    0.404
       105 -12.0151    213.6287    142.1360   7.9372856369e+01   1.0908465392e+01    0.8940866    0.3856585  53.15  0.003466857    2.753    0.637
       106 -12.4594     76.2876    139.5657   1.0969205636e+02   3.7319307154e+01    0.6668033     0.254647 -62.17  0.002735414    2.456    0.593
