#   1 NUMBER                 Running object number                                     
#   2 MAG_AUTO               Kron-like elliptical aperture magnitude                    [mag]
#   3 X_IMAGE                Object position along x                                    [pixel]
#   4 Y_IMAGE                Object position along y                                    [pixel]
#   5 X_WORLD                Barycenter position along world x axis                     [deg]
#   6 Y_WORLD                Barycenter position along world y axis                     [deg]
#   7 A_WORLD                Profile RMS along major axis (world units)                 [deg]
#   8 B_WORLD                Profile RMS along minor axis (world units)                 [deg]
#   9 THETA_WORLD            Position angle (CCW/world-x)                               [deg]
#  10 FWHM_WORLD             FWHM assuming a gaussian core                              [deg]
#  11 ELONGATION             A_IMAGE/B_IMAGE                                           
#  12 ELLIPTICITY            1 - B_IMAGE/A_IMAGE                                       
         1 -12.2474    242.3857     16.7430   6.2244753143e+01   2.1916554131e+01    0.9604238    0.5457577  -1.71  0.003306852    2.037    0.509
         2  -9.9351    143.3407     17.6961   7.6011038160e+01   4.7483305071e+01    0.3091062    0.2055863 -41.39  0.001350531    1.627    0.385
         3  -9.6979    131.9067     13.7397   7.6736806626e+01   5.0824486598e+01    0.3750573    0.3093828 -12.04  0.001978158    1.163    0.140
         4  -9.3300    212.9577     13.5375   6.4237492749e+01   2.9539204134e+01    0.2602273    0.1639401 -44.04  0.001131332    1.611    0.379
         5  -9.8969    201.3182     12.0799   6.5090722835e+01   3.2712125482e+01    0.3135605    0.2437458  11.96  0.000357675    1.362    0.266
         6  -9.8299    218.3217     10.9960   6.2902803049e+01   2.8400539937e+01    0.2001346    0.1758672 -19.17  0.000463323    1.098    0.089
         7  -9.6653    229.3441      8.9547   6.1240473103e+01   2.5811353738e+01    0.2475445    0.1972664  57.02 0.0005660059    1.299    0.230
         8  -9.7273    211.5158      8.1247   6.2726713967e+01   3.0411933555e+01    0.3504865    0.2169963 -21.67  0.001084053    1.552    0.356
         9  -9.2974    139.0975      6.6600   7.2327089922e+01   4.9743900697e+01     0.425939    0.2107619  16.85  0.001392317    2.728    0.633
        10 -10.2361    249.2424      4.4171   5.8330985152e+01   2.1418550044e+01    0.4203456    0.2687216 -27.32  0.002222822    1.398    0.285
        11  -9.6544    223.1270      5.8991   6.0923120811e+01   2.7639393527e+01    0.2204736    0.1767108 -50.94 0.0005340249    1.256    0.204
        12  -8.1663    179.6949      6.2890   6.5818882221e+01   3.9007969183e+01    0.1495234    0.1079964 -56.48 0.0003828426    1.570    0.363
        13  -8.4389    171.4967      5.5437   6.6656063587e+01   4.1277709096e+01    0.1459015    0.1408061  28.76 6.806996e-05    1.018    0.018
        14  -9.8419    241.0285      3.5760   5.8736314582e+01   2.3433414321e+01    0.3424825     0.156178 -44.95  0.001478855    2.127    0.530
        15  -8.5179    133.7745      4.0253   7.2227155310e+01   5.1359434927e+01    0.1909115     0.116533 -17.28 0.0005625413    1.607    0.378
        16  -8.8534    109.3131      2.8731   7.6998107400e+01   5.7458924552e+01     0.228341    0.1641223 -34.24  0.001166661    1.470    0.320
        17  -9.7146    186.1492    214.2332   1.1652085357e+02   8.5487316429e+00    0.2538798     0.213001 -78.32  0.001662677    1.954    0.488
        18  -9.0482    248.4657    250.1886   1.1179048161e+02  -3.7526276231e+00    0.2157502   0.08258058  30.97  0.001150354    1.950    0.487
        19  -8.7841    168.7464    216.5712   1.1972568969e+02   1.0963408891e+01    0.1577909   0.08428048  49.02 0.0005325524    1.637    0.389
        20 -10.2007    215.4575    211.5065   1.1135466034e+02   4.2763950927e+00    0.3306487    0.1637233  48.64  0.001847108    2.035    0.509
        21  -8.7915    206.5070    212.5032   1.1294232587e+02   5.5648782692e+00    0.2095777    0.0897987  49.94  0.001040174    2.487    0.598
        22  -9.1479    176.8691    211.7652   1.1773415952e+02   1.0284753857e+01    0.2181767     0.131926  52.05  0.001344603    1.641    0.390
        23  -9.1512    238.2079    209.7661   1.0751249956e+02   9.5642416944e-01    0.2969245    0.1136016  48.75   0.00140343    2.969    0.663
        24  -9.9886    197.6261    205.4468   1.1336348533e+02   7.7351357975e+00    0.4309021    0.1730656  52.85  0.001850814    3.367    0.703
        25 -10.5633    124.0029    206.0141   1.2615592610e+02   1.9104327149e+01    0.1583595    0.1264895  50.48            0    1.006    0.006
        26  -8.6646    212.9523    204.2891   1.1066366753e+02   5.4165520401e+00    0.1679007    0.1201606  32.59 0.0007138688    1.084    0.078
        27  -8.7799    244.7873    201.7922   1.0522060340e+02   6.8588054856e-01     0.148692    0.1354914  76.30  0.001058789    2.120    0.528
        28  -9.2816    164.4798    202.5381   1.1860405217e+02   1.3396898015e+01    0.1163238   0.09268649  39.71 0.0002670819    1.006    0.006
        29  -9.3010    151.0107    200.2050   1.2066183413e+02   1.5842601666e+01    0.1948991    0.1163208  60.62  0.001096448    2.006    0.502
        30  -8.6141    178.9784    199.5543   1.1566210744e+02   1.1447652014e+01    0.1836909   0.09374318  41.36 0.0007128225    1.572    0.364
        31  -8.5187    203.5181    198.5647   1.1133242722e+02   7.5636033777e+00    0.1188097   0.09160919  29.41 5.074182e-05    1.008    0.008
        32  -9.9262    232.4534    195.6369   1.0613141376e+02   3.2003960908e+00    0.3123805     0.244344  57.27  0.002057312    1.906    0.475
        33  -9.7789    225.6462    194.8564   1.0709309001e+02   4.3716745347e+00    0.3328403    0.2243167  38.37  0.002170414    1.275    0.216
        34  -9.5268    216.5860    195.7723   1.0871973356e+02   5.7433867111e+00    0.2771634    0.2257264 -70.27  0.001734799    2.442    0.590
        35  -9.3668    210.1762    195.7548   1.0977636672e+02   6.7918828357e+00     0.204631    0.1591933  -4.58 0.0009986445    1.341    0.254
        36  -9.6707    248.4457    194.3993   1.0342158603e+02   8.0551784434e-01     0.293855    0.1666994  39.38  0.001150397    1.510    0.338
        37 -10.2384    185.5372    194.0201   1.1369552951e+02   1.1066174177e+01    0.2422017    0.2111328  -5.49  0.001741237    1.272    0.214
        38  -8.6148    207.1352    192.2112   1.0971166489e+02   7.6943580403e+00    0.1523426    0.1296723  43.91 0.0007592321    1.319    0.242
        39  -9.5623    173.4974    191.9718   1.1550009650e+02   1.3328242641e+01    0.2612409    0.1309016  55.35  0.001266091    2.421    0.587
        40  -9.3500    238.4324    189.0837   1.0406951450e+02   2.8994509150e+00    0.3352306    0.1488689  26.55   0.00164333    2.285    0.562
        41  -9.4191    211.1599    190.4450   1.0874558302e+02   7.2271757642e+00    0.2287718   0.09405185  40.25  0.001124889    1.978    0.495
        42  -9.4075    219.2347    188.4082   1.0705985294e+02   6.1121993668e+00    0.2724805    0.2143851 -37.96   0.00182322    1.697    0.411
        43  -9.1934    166.1604    189.1788   1.1639536641e+02   1.4924927954e+01    0.1628377    0.1294613  56.89 0.0006841204    1.331    0.249
        44  -9.3182    232.1090    187.9997   1.0489042710e+02   4.0345666385e+00    0.2983981    0.1529745  44.66  0.001647742    1.790    0.441
        45 -10.3388    192.4762    188.2222   1.1157406661e+02   1.0630218510e+01     0.379229    0.1461318  47.76  0.001720541    2.414    0.586
        46  -9.3185    204.8000    185.5969   1.0901293794e+02   8.8616460536e+00    0.1706804     0.100778  48.32 0.0009502786    1.658    0.397
        47  -9.1951    182.4758    185.5067   1.1289814298e+02   1.2675999820e+01    0.1226764    0.1005514  32.64 4.623629e-05    1.002    0.002
        48  -9.8089    244.1941    183.3661   1.0215590877e+02   2.5411399111e+00    0.2844504    0.1859567  53.52  0.001660113    2.083    0.520
        49  -9.0340    225.6302    184.3195   1.0530255893e+02   5.4950605523e+00    0.1603199    0.1485748  68.38  0.001112661    1.692    0.409
        50  -9.2909    236.1009    182.2055   1.0323160734e+02   3.9818969977e+00    0.2045163    0.1569179  48.72 0.0009788672    1.597    0.374
        51  -8.5588     80.7619    182.0612   1.3154477178e+02   2.8939062165e+01    0.1372793   0.08720662 -72.87 0.0008835136    1.629    0.386
        52 -11.2325    147.6207    178.8661   1.1828361898e+02   1.9517463198e+01    0.4184891     0.209355 -46.61  0.002178823    2.338    0.572
        53  -9.6266    218.0594    178.0283   1.0544792788e+02   7.4843967096e+00    0.3002917    0.2052846  44.74  0.001722406    1.424    0.298
        54  -9.5481    192.7631    179.1766   1.1002216715e+02   1.1732171323e+01     0.189404    0.1380491  82.00 0.0008409111    2.839    0.648
        55  -9.1147    232.7814    176.9557   1.0281959394e+02   5.0937233318e+00    0.2902553    0.1545728  40.23  0.001601259    1.604    0.377
        56  -9.6380    212.0908    176.8643   1.0625199467e+02   8.6535699083e+00    0.1817119    0.1586934  42.60  0.001222151    1.313    0.239
        57 -10.1392    199.2480    176.1517   1.0835323851e+02   1.0986736898e+01    0.2751232    0.1452579 -26.31  0.001409485    2.246    0.555
        58  -8.6517    184.4957    177.4845   1.1121462261e+02   1.3399028219e+01    0.1256899    0.1040981  30.43 0.0008104368    1.014    0.014
        59 -10.1335    139.9224    180.1344   1.1993476652e+02   2.0584687241e+01    0.3013234    0.1446363  50.69   0.00138726    1.958    0.489
        60  -9.3336    221.9828    169.1584   1.0316160004e+02   7.8368143211e+00    0.1856875    0.1466863  67.26  0.001079924    2.022    0.506
        61 -10.7914    166.3910    167.8893   1.1294093189e+02   1.7966436970e+01    0.4185292    0.1974406  43.12  0.002012863    1.846    0.458
        62  -9.4302    249.4481    178.6695   1.0048644464e+02   2.1568543186e+00    0.2652076    0.1558099  19.64  0.001089803    1.519    0.342
        63  -9.5869    127.3104    166.0149   1.2032313629e+02   2.4957426106e+01    0.1685709    0.1560732  71.89  0.001152354    1.087    0.080
        64 -10.2616    137.1994    162.2749   1.1774035749e+02   2.3953587645e+01    0.2462782    0.1797488 -64.28   0.00144039    1.632    0.387
        65  -8.6118    106.7184    162.6565   1.2404347972e+02   2.8783026942e+01    0.1112335   0.09564546 -15.59 0.0004065726    1.635    0.388
        66 -10.3883    131.6531    157.1850   1.1804409182e+02   2.5769890471e+01    0.2245833    0.1524744 -39.76 0.0007496386    1.736    0.424
        67 -10.9579    133.8181    152.6447   1.1683169445e+02   2.6199851674e+01    0.3084284    0.1885387 -43.71  0.001414583    1.830    0.453
        68  -9.5838    218.8787    156.7794   1.0129439409e+02   9.8958970206e+00    0.3971569    0.2691416  72.81  0.001794935    3.230    0.690
        69  -8.5597    229.0014    153.7816   9.8976886512e+01   8.4032607978e+00     0.169452   0.09381701  42.87 0.0004247917    1.652    0.395
        70  -9.6711    118.0515    152.7698   1.2018214488e+02   2.8816623903e+01    0.2098612    0.1813074 -63.94 0.0007721774    1.223    0.182
        71  -8.3988     39.6880    153.7243   1.3708183052e+02   3.8948283791e+01    0.0954936    0.0807099 -50.99 0.0001853899    1.559    0.358
        72  -9.4049    241.1826    149.4165   9.6086101062e+01   6.6970419562e+00    0.2199554    0.1877594 -16.17  0.000594429    1.278    0.217
        73  -9.1994    214.6353    149.8645   1.0062974379e+02   1.1568954178e+01     0.242478    0.1575324  33.80  0.001311677    1.369    0.269
        74 -10.3009    242.4551    137.5319   9.3355330175e+01   7.8418809485e+00    0.3910824    0.1861854 -20.83  0.001568963    2.095    0.523
        75  -9.4052    235.7006    146.7015   9.6407156001e+01   8.0152543193e+00    0.3588522    0.1642633  46.89  0.001669176    2.115    0.527
        76  -8.6658    182.3213    143.3070   1.0522389807e+02   1.8743621801e+01    0.1398753   0.09856682  14.92 0.0003606242    1.640    0.390
        77 -10.4160    247.3590    143.4192   9.3846962076e+01   6.2602090472e+00    0.6318898    0.3297554   7.37  0.002809444    2.503    0.600
        78  -8.8522     83.5078    140.5386   1.2592748246e+02   3.6391676608e+01    0.1231418    0.1072201  78.94 0.0001780243    1.031    0.030
        79  -8.4635     72.6917    140.3385   1.2836733749e+02   3.7872670545e+01    0.1272095   0.08190934  73.85 0.0007043154    1.683    0.406
        80  -8.7111    207.6454    138.3285   9.9431708184e+01   1.4472311570e+01    0.1282857    0.1109503 -82.31 7.117418e-05    1.776    0.437
        81  -8.4827    181.7251    138.3234   1.0429539743e+02   1.9630643434e+01    0.1263528    0.1100562 -82.39 0.0002938152    1.580    0.367
        82  -9.0615    162.9913    136.7293   1.0771810402e+02   2.3584340625e+01    0.1999488    0.1697732  40.01  0.000573808    1.096    0.088
        83  -9.8066    113.9855    135.9942   1.1823186255e+02   3.2658186259e+01    0.3192119    0.2209334 -63.22  0.001747835    1.540    0.350
        84  -9.6155    188.4534    135.4811   1.0238118663e+02   1.8722769484e+01    0.2802912    0.1339965 -34.88  0.001215546    2.199    0.545
        85  -9.6743     97.2154    135.6642   1.2202018482e+02   3.5386644773e+01    0.2596633    0.1415936  55.90  0.001262281    1.998    0.500
        86  -9.6999    177.3232    135.3405   1.0452397228e+02   2.0977865556e+01    0.2877111    0.1669915   8.81  0.001055653    3.423    0.708
        87  -8.4346    226.4757    134.4677   9.5299629349e+01   1.1275534852e+01    0.1368615    0.1154908  12.41  0.000204347    1.003    0.003
        88  -9.7321    121.9420    133.5777   1.1598170196e+02   3.1776509028e+01    0.2017193    0.1734259 -55.82 0.0004439933    1.199    0.166
        89  -9.2573    204.7449    130.4114   9.8204255834e+01   1.6168886041e+01    0.2454796    0.1585842 -39.77 0.0009003708    1.724    0.420
        90  -8.8624    186.1741    129.9276   1.0159471935e+02   2.0039049940e+01    0.3364773    0.1833715 -11.03  0.001251464    3.199    0.687
        91  -9.2236    235.7150    130.0076   9.2773086532e+01   1.0033706792e+01    0.2298562    0.1849878  44.43 0.0005073129    1.349    0.259
        92  -9.7952    152.5984    130.2161   1.0852966035e+02   2.6736834384e+01    0.1955079    0.1302786 -29.61 0.0009565849    1.731    0.422
        93  -8.9729    211.3813    129.1665   9.6725656254e+01   1.4993635174e+01    0.1933352    0.1222138 -38.81 0.0008238538    1.751    0.429
        94  -9.4824    200.9278    126.0157   9.7902865808e+01   1.7588654782e+01    0.3695089    0.1896339 -25.05  0.001598805    2.120    0.528
        95  -9.3384    117.3407    125.1917   1.1541437912e+02   3.4208528103e+01    0.1887799    0.1752152  33.34  0.001154675    1.139    0.122
        96  -9.7569    212.6382    123.6729   9.5237179835e+01   1.5499855774e+01    0.2749677    0.1819395  16.38 0.0009548877    1.657    0.397
        97  -8.4596    240.7749    123.5792   9.0498345800e+01   9.8348833896e+00    0.1732274      0.13006  57.18 0.0009435964    1.678    0.404
        98  -9.3773    171.7056    121.6187   1.0259191053e+02   2.4366374836e+01    0.3351398    0.2260576 -16.93  0.001590309    1.793    0.442
        99  -9.5089    232.1595    121.1403   9.1319125505e+01   1.1849927420e+01    0.2153389    0.1652015   9.89 0.0006330695    1.197    0.165
       100  -8.2979    220.3034    121.6674   9.3430297460e+01   1.4194472137e+01     0.130072    0.1108603 -59.60 0.0007036593    1.658    0.397
       101  -9.8381    192.2979    118.4141   9.7742379576e+01   2.0542011922e+01    0.2805373    0.2575785  51.00 0.0007003164    1.214    0.176
       102  -8.5055    166.0051    119.0862   1.0318636756e+02   2.5979468854e+01    0.1747303    0.1461858 -31.93   0.00063661    1.227    0.185
       103  -8.9578    158.3828    119.1565   1.0482494110e+02   2.7538514985e+01    0.1970674    0.1316647 -50.76 0.0009394005    1.694    0.410
       104  -7.9480    226.6833    117.3107   9.1320160323e+01   1.3460984442e+01    0.1289504    0.1109661 -59.53 0.0002640308    1.638    0.390
       105  -8.6212    134.5482    116.4572   1.0953889129e+02   3.2770680160e+01    0.1361027    0.1338968  49.41 0.0001464887    1.006    0.006
       106  -9.0487    153.7893    114.6666   1.0477178934e+02   2.9280366826e+01    0.2544818    0.1854154  55.19   0.00127589    1.455    0.313
       107  -9.4410    110.6085    114.5852   1.1485603898e+02   3.7499926153e+01    0.2294902    0.1851978 -66.09  0.001291232    1.272    0.214
       108  -9.1726    220.1841    114.2141   9.1673294728e+01   1.5228146643e+01    0.1768039    0.1688142 -46.78  0.000450561    1.325    0.245
       109  -9.0656    209.6511    114.1300   9.3493036098e+01   1.7473318460e+01    0.2216154    0.1966036  50.38 0.0005213065    1.269    0.212
       110  -8.6788    241.4160    112.2436   8.7737979105e+01   1.1098674178e+01    0.1801527    0.1185461 -30.85 0.0004703453    1.505    0.336
       111  -9.3777     25.7541    111.4310   1.3613267492e+02   4.8958018348e+01    0.2048186    0.1479852 -45.89  0.001301531    1.649    0.394
       112  -9.2744    237.2183    107.0668   8.7140464831e+01   1.2603796934e+01    0.3005088    0.1724099  37.64  0.001431911    1.705    0.413
       113  -9.0917    197.0705    106.9836   9.4020153909e+01   2.1255908111e+01    0.2219448    0.2033703   2.73 0.0006017284    1.031    0.030
       114  -8.5938    108.4399    106.7400   1.1368875814e+02   3.9482327041e+01    0.1897388    0.1258733 -41.21  0.000941133    1.572    0.364
       115  -9.6441    228.9134    104.3816   8.7800666134e+01   1.4694190901e+01     0.318985    0.2268671  51.76   0.00110076    1.519    0.342
       116  -8.9024    214.1421    105.0369   9.0443937684e+01   1.7791950908e+01     0.224536    0.1741634  11.05  0.000486261    1.271    0.213
       117  -9.9159    247.0399    102.7181   8.4578776486e+01   1.1122070606e+01    0.2993478    0.2417767 -18.29 0.0009143834    1.152    0.132
       118  -8.7765    182.0051    104.4905   9.6301305529e+01   2.4979031395e+01    0.2196801    0.1415891  48.68  0.001014688    1.539    0.350
       119  -8.4919    195.8468    101.9073   9.2948539988e+01   2.2299664202e+01    0.1881931     0.177658 -65.00 0.0005527931    1.298    0.230
       120  -8.4699    225.3956    100.1657   8.7311745799e+01   1.6008650152e+01    0.1945895    0.1237452 -34.51 0.0004712777    1.581    0.367
       121  -9.9254    206.2464     98.7379   9.0216671476e+01   2.0440148388e+01    0.5210736    0.3124056  47.27  0.002392417    1.640    0.390
       122  -8.5920    235.0429     97.5017   8.5099648946e+01   1.4277858108e+01    0.2069917    0.1350182  48.09 0.0005632329    1.571    0.363
       123  -8.8384    171.7300     96.1985   9.6217683335e+01   2.8644997981e+01    0.2363452    0.1857599 -53.72   0.00116566    1.498    0.332
       124 -10.2464    232.7424     94.5824   8.4713819398e+01   1.5147961223e+01    0.4431131    0.1313382  53.29  0.001503437    3.383    0.704
       125  -9.4039    150.8524     92.6476   9.9815812250e+01   3.3900570592e+01    0.2388749    0.2008997 -20.03 0.0004969781    1.221    0.181
       126  -9.8671    244.8733     87.8384   8.1172793436e+01   1.3385874868e+01     0.367384    0.1778057 -21.47  0.001584669    1.924    0.480
       127 -10.1105    227.4250     88.6554   8.4007436712e+01   1.7088762419e+01     0.344394    0.1169218 -31.61  0.001229467    2.657    0.624
       128  -8.0374    174.6047     89.2719   9.3722382540e+01   2.9145114386e+01    0.1493927    0.1207435 -83.06 0.0006986532    1.734    0.423
       129  -8.8220    250.0684     88.4558   8.0593846517e+01   1.2214038239e+01    0.1987106    0.1324131  48.47  0.001022463    1.578    0.366
       130  -9.7047    236.0323     86.7345   8.2183084048e+01   1.5434157970e+01    0.2533966    0.1398402  64.11 0.0008065369    2.361    0.576
       131  -8.3813    206.8866     87.6379   8.7141246286e+01   2.1899535255e+01    0.2015676    0.1432445  66.99 0.0006280988    1.767    0.434
       132  -9.7172    218.2041     85.9963   8.4780786771e+01   1.9526085505e+01    0.2562741     0.157446   8.37  0.001079991    2.049    0.512
       133  -8.9697    185.7029     83.4797   8.9874629649e+01   2.7483498252e+01    0.5558988    0.2342907 -29.62  0.002026205    2.368    0.578
       134  -9.1772    172.1618     84.2599   9.2808221251e+01   3.0539032534e+01    0.2736587    0.2171021  76.27  0.001312392    1.633    0.388
       135  -9.1993    244.7142     80.4467   7.9289698930e+01   1.4319868539e+01    0.2886879    0.2091027 -51.30 0.0008055172    1.741    0.425
       136 -10.1512    240.7318     76.5448   7.8824409987e+01   1.5668233409e+01    0.3882799    0.2505238  30.13  0.001313475    1.639    0.390
       137  -8.6804    167.5205     78.5332   9.2108980630e+01   3.2574913099e+01    0.1531256    0.1434511   4.55 -1.170664e-05    1.014    0.013
       138  -8.5929     79.6735     78.3123   1.1478185530e+02   5.0165662669e+01    0.1349927    0.1038194  86.87 0.0003524121    1.664    0.399
       139  -8.7601    249.7077     77.1589   7.7753031126e+01   1.3635824521e+01    0.2278632    0.1572876 -35.03  0.001002134    1.428    0.300
       140  -8.9050    189.9116     76.6220   8.7100249626e+01   2.7531994311e+01    0.3194259    0.1787224 -44.34 0.0009622977    1.993    0.498
       141  -8.9925    157.8682     76.7282   9.3655472571e+01   3.5138119703e+01    0.2712537    0.2077645 -19.72   0.00130814    1.341    0.254
       142  -9.6964    139.3125     74.6663   9.7333605460e+01   3.9715953748e+01    0.2900489    0.1772963 -47.14 0.0009284996    1.727    0.421
       143  -8.6795    207.9853     74.0525   8.3164257655e+01   2.3562392891e+01    0.2453272    0.1671317  18.13 0.0005322475    1.665    0.399
       144 -10.4135    230.1712     71.4950   7.8978081107e+01   1.8682784251e+01    0.3162111    0.1746037 -29.82  0.001407306    1.663    0.399
       145  -8.9572    188.0784     70.2410   8.5556485353e+01   2.8932192472e+01    0.3796636     0.224015 -13.34  0.001543555    1.958    0.489
       146  -8.5088    107.5106     71.5691   1.0472010046e+02   4.6860216517e+01    0.1425433    0.1347571 -37.38  0.000162357    1.021    0.020
       147  -9.0839     77.4652     70.9740   1.1349033312e+02   5.2069547559e+01    0.1954548    0.1150875 -73.06  0.000531254    2.597    0.615
       148  -9.9554    234.4392     68.1713   7.7458225377e+01   1.8116529839e+01    0.4389535    0.2109906 -18.24  0.001778692    2.077    0.518
       149  -9.3135    214.9766     69.2026   8.0645120896e+01   2.2550201968e+01    0.3151827    0.1833552 -29.80 0.0009889454    1.610    0.379
       150  -9.6765    239.4923     68.1428   7.6751626857e+01   1.6969261979e+01    0.2792611    0.2271667 -12.42 0.0005970101    1.107    0.096
       151  -9.0414    219.7448     69.0111   7.9848528646e+01   2.1439963955e+01    0.2019789    0.1806296  -5.27 0.0003638678    1.020    0.020
       152 -10.2577     43.9787     68.3512   1.2372506975e+02   5.6836371311e+01    0.2768433    0.2276588 -15.95  0.001296234    1.500    0.333
       153  -9.7035    245.6138     66.1880   7.5411768900e+01   1.5829090406e+01    0.3277613    0.1994231 -42.42  0.001409521    1.751    0.429
       154  -8.2956    176.7941     67.3836   8.6840895144e+01   3.2128692457e+01    0.2123729    0.1357104  42.09 0.0003895478    1.575    0.365
       155  -8.7929    250.6141     64.7435   7.4389214097e+01   1.4891972210e+01    0.2003374    0.1138811 -31.21 0.0004575998    1.583    0.368
       156  -9.2460    220.1123     63.7011   7.8286818005e+01   2.2040084859e+01    0.3392287    0.1602091 -54.41   0.00095414    3.808    0.737
       157  -8.6799    179.3149     62.1015   8.4709349547e+01   3.2305913737e+01    0.4265627   0.08767515 -37.25  0.001110514    4.345    0.770
       158  -9.2829    214.3616     62.0090   7.8671884822e+01   2.3646433098e+01    0.2134457     0.180029 -17.57 0.0005285438    1.109    0.098
       159  -8.7480    202.2595     61.9949   8.0598272998e+01   2.6616211031e+01    0.2293817    0.1998931 -48.49 0.0004954912    1.272    0.214
       160  -8.8553    205.3243     61.7152   8.0012775798e+01   2.5897686426e+01    0.2167131    0.1330139  47.39 0.0004549817    1.624    0.384
       161  -9.8851    231.7089     58.7805   7.5240998620e+01   1.9898867299e+01    0.2850118     0.205534  11.43  0.001255943    1.483    0.326
       162  -9.8572    226.0318     57.4582   7.5651214453e+01   2.1406564823e+01    0.2528194      0.17654  32.83  0.001222856    1.502    0.334
       163  -9.0752    174.2001     59.1642   8.4763987709e+01   3.4018339901e+01    0.2298822    0.2025267  14.73 0.0007445282    1.120    0.107
       164  -8.9457     72.4848     57.4623   1.1111223648e+02   5.5659811211e+01       0.1366    0.1193003 -41.82 5.028432e-05    1.009    0.009
       165  -8.9213     20.5003     57.4808   1.2955668415e+02   6.1274404309e+01    0.1217215   0.09329234 -60.66 5.627575e-05    1.040    0.038
       166  -8.5445    209.3059     55.6930   7.7590684675e+01   2.5707169866e+01    0.1509978    0.1127547 -55.78 0.0003150892    1.607    0.378
       167  -8.7013    139.9904     55.0255   9.0774605692e+01   4.2998695506e+01    0.2813245    0.1656707  -6.04  0.001026746    2.608    0.617
       168 -10.1292    238.2525     53.5575   7.2928356877e+01   1.8986784090e+01    0.3736332    0.1728803 -15.31  0.001463924    2.264    0.558
       169  -9.8049    234.3864     52.7802   7.3206987402e+01   1.9983377579e+01    0.4136818    0.1859537  31.65   0.00144883    3.155    0.683
       170  -9.0967    154.2196     53.3851   8.6967233173e+01   3.9852413366e+01    0.2117882    0.1511161  67.82 0.0008346551    1.679    0.404
       171  -8.5635    244.6394     51.8452   7.1668638822e+01   1.7708911970e+01    0.2142864    0.1110231 -32.39  0.000744848    1.729    0.422
       172  -8.0640    191.2909     52.6786   7.9582572338e+01   3.0632803262e+01    0.1545784    0.1152987 -55.71 0.0007011531    1.607    0.378
       173  -8.7703    149.6854     52.4035   8.7629835847e+01   4.1111986511e+01    0.2079427     0.140242  42.50 0.0006305182    1.496    0.331
       174  -8.4243    105.6721     52.3542   9.8921331262e+01   5.0926055251e+01     0.147534    0.1147115 -70.99 0.0007046341    1.773    0.436
       175  -9.0761    194.9569     49.1000   7.7845145292e+01   3.0176879903e+01    0.4064996    0.1786389 -35.60  0.001520997    2.168    0.539
       176 -10.5993    235.7337     46.2596   7.1208612068e+01   2.0417892357e+01    0.6633084    0.2498703  52.67  0.002539072    2.602    0.616
       177  -9.4716    221.1500     44.6193   7.2605641031e+01   2.4138301352e+01    0.3051691    0.2006204  29.59  0.001403796    1.684    0.406
       178  -8.6497    189.9761     44.5128   7.7201272343e+01   3.2050755983e+01    0.2238227    0.1485946  56.69 0.0004005764    1.523    0.343
       179  -8.6910    132.4786     43.9377   8.8627950300e+01   4.6559212174e+01    0.2314227    0.1426223 -31.75 0.0006150097    1.548    0.354
       180  -8.6771    184.0067     43.0056   7.7709845979e+01   3.3787807118e+01    0.2466561    0.1840087 -62.36  0.001130554    1.675    0.403
       181  -8.5413    164.0000     42.9853   8.1358711630e+01   3.8942964129e+01    0.2504068   0.08560372 -27.03 0.0004611578    2.851    0.649
       182  -9.1064      4.5326     41.5127   1.3237926794e+02   6.5738925337e+01    0.1169842   0.08658767 -63.28 0.0003979688    1.003    0.003
       183 -10.7204    248.5551     37.8386   6.7414687543e+01   1.8346298816e+01    0.4577568    0.3013777  19.93   0.00117422    1.763    0.433
       184  -8.6535    173.9409     40.2898   7.8562221500e+01   3.6751435454e+01    0.2201005    0.1995365  32.28  0.001149995    1.080    0.074
       185  -9.4658    104.5740     34.6528   9.2487461405e+01   5.4242127213e+01    0.2977719    0.2394495   1.17  0.001014955    1.281    0.219
       186  -9.4778     95.6092     37.1834   9.6221041508e+01   5.5618826699e+01     0.359221    0.1378433 -32.39  0.001296267    2.611    0.617
       187  -9.2898    205.0056     38.7632   7.3067039077e+01   2.8895449559e+01    0.2287716    0.1586257   9.71 0.0005919708    1.625    0.384
       188  -8.2452    165.4450     39.5103   7.9867033887e+01   3.9050221700e+01    0.1542693    0.1448165   3.48 0.0001257621    1.006    0.006
       189  -9.9761    242.8047     37.8472   6.8039907336e+01   1.9679707294e+01    0.2102309    0.1769122   8.80 0.0005380712    1.197    0.164
       190  -9.7694    229.4052     37.2549   6.9414372599e+01   2.2950084609e+01    0.2906685    0.2399779  44.43 0.0007663264    1.253    0.202
       191  -9.6826    218.2890     34.3481   6.9928943544e+01   2.6027377449e+01    0.3402748    0.2256182 -35.05 0.0008296959    1.443    0.307
       192  -9.1579    216.0011     30.2317   6.8976122233e+01   2.7058088759e+01     0.231375    0.2157901 -15.98 0.0006778967    1.019    0.019
       193  -7.7751    149.3112     35.6802   8.1720403654e+01   4.3686267520e+01    0.1548668    0.1173929 -59.07 0.0003602781    1.646    0.393
       194  -9.0112    111.0339     35.0072   9.0784221446e+01   5.2815223936e+01    0.2344723    0.1822178 -64.75   0.00114163    1.767    0.434
       195  -8.3452    160.4578     34.4647   7.9029684329e+01   4.1007665570e+01    0.1528147    0.1450858   1.74 0.0001479198    1.023    0.022
       196  -9.5144    243.9070     33.4883   6.6717935446e+01   1.9883348034e+01    0.2890458    0.1461361  77.65  0.001201295    2.568    0.611
       197  -9.2196    164.4028     32.5639   7.7602127511e+01   4.0231509606e+01    0.2644551    0.2225952 -28.12 0.0003345195    1.176    0.150
       198  -8.4093    138.5424     32.4768   8.2854092986e+01   4.6811199858e+01    0.1524081    0.1412084   2.65 0.0008086923    1.003    0.003
       199  -9.2860    248.9455     31.0125   6.5522626128e+01   1.8967146909e+01    0.2175566    0.1931114  -5.12  0.001136181    1.082    0.076
       200  -9.0081    194.2506     29.9524   7.1810379903e+01   3.2711031088e+01    0.2142992    0.1907114 -11.90 0.0006715133    1.085    0.078
       201  -8.6642    170.4380     28.8118   7.5187844811e+01   3.9116467182e+01    0.3002566    0.1344327 -29.22   0.00112929    2.101    0.524
       202  -8.9637    212.5476    248.6587   1.1682089831e+02   1.2467595450e+00    0.2084125    0.1332701  59.47  0.001339935    2.652    0.623
       203 -10.4434    220.9651     23.9871   6.6508726912e+01   2.6461999623e+01     0.255319    0.2011574  83.32  0.000900047    1.422    0.297
       204  -9.0874    249.5379     22.9115   6.3272592965e+01   1.9641047999e+01    0.2549029    0.1755077  45.06  0.001338063    1.571    0.364
       205  -9.2344     91.0040     23.7365   9.1960315278e+01   5.8725121415e+01    0.2017177    0.1792602  -3.07  0.001170508    1.039    0.038
       206  -9.3434    191.1582     21.8031   6.9565801549e+01   3.4423602029e+01    0.2132609     0.167243  28.63 0.0006057563    1.310    0.237
       207  -9.2518    140.9797     21.2896   7.7926150044e+01   4.7661142407e+01    0.3062937    0.2124135  -7.10 0.0006301262    1.488    0.328
       208  -9.0833    242.8745    245.4215   1.1196185476e+02  -2.6598167934e+00    0.1903899    0.1051771   5.71  0.001303491    1.974    0.494
       209  -9.1182    227.4835     17.9805   6.4034510317e+01   2.5428672078e+01    0.1932899    0.1111336  16.41   0.00033253    2.240    0.554
       210  -8.4504     89.6982     18.7102   9.0075606544e+01   5.9740813928e+01    0.1421772    0.1000352   9.13 0.0001932743    1.565    0.361
       211  -7.9750    174.7047     17.7050   7.0551938131e+01   3.9235720201e+01    0.1572963    0.1064578  29.99  0.000185692    1.562    0.360
       212  -8.9511    120.6297     16.7788   8.0595479887e+01   5.3217334076e+01    0.2152577    0.1251891 -32.64 0.0009523214    1.679    0.404
       213  -8.9502    105.3434     16.3084   8.4323225556e+01   5.6789057573e+01     0.154284    0.1011755  19.20 0.0007043953    1.695    0.410
       214  -8.2801    101.2938     26.6595   9.0093360054e+01   5.6188679805e+01    0.1416744    0.1100874 -56.27 0.0005238662    1.654    0.395
       215  -9.5810    206.4652     20.3090   6.7089595914e+01   3.0556262253e+01     0.292445     0.242135   2.82 0.0008101223    1.228    0.186
       216  -9.3558    248.6710    240.6591   1.1048222390e+02  -3.0891540851e+00    0.2389818   0.08789934 -23.11  0.001380333    3.268    0.694
       217  -8.8259     63.0000     15.0521   9.7801366165e+01   6.5087645412e+01    0.2241129   0.06576489 -37.40 0.0008044284    2.956    0.662
       218  -8.9088     43.3167     15.3113   1.0627727453e+02   6.7833791542e+01    0.1303153   0.08385148 -18.65 0.0007033579    1.639    0.390
       219  -8.4627    196.2307    240.3866   1.1828098013e+02   4.3027989842e+00    0.1521445   0.07481898  46.53 0.0009484966    1.710    0.415
       220  -8.1302    178.6566     14.6910   6.8904174722e+01   3.8488886390e+01    0.1640938      0.10317  32.89 0.0006355139    1.696    0.410
       221  -8.3497    196.2009    234.3773   1.1754364046e+02   4.8917642752e+00    0.1497484   0.07691266  45.66 0.0009390262    1.606    0.377
       222  -8.4996    175.3133     12.6683   6.8672194396e+01   3.9584830429e+01    0.1571296     0.108598 -54.60 0.0005431606    1.678    0.404
       223  -8.5939    227.2306    232.1669   1.1248204392e+02   5.8534240489e-01    0.1348275    0.1011901  37.77 0.0005175335    1.305    0.234
       224  -8.4983    174.6206     28.2234   7.4273441990e+01   3.8084505808e+01    0.2199198    0.1424758  -7.36 0.0009521894    1.660    0.397
       225  -8.3506    160.4812     10.5613   7.0161291028e+01   4.3755260908e+01    0.1483516    0.1406068  24.83 0.0001620326    1.013    0.013
       226  -8.4590    201.5141    227.4579   1.1581795857e+02   4.7942552976e+00    0.1097564   0.08000049  32.97 0.0001789137    1.017    0.016
       227  -8.4442    207.9624    227.0000   1.1474328464e+02   3.8788854717e+00    0.1796758    0.0469405  42.81 0.0007484304    2.882    0.653
       228  -8.6254    218.0645    224.8765   1.1287559655e+02   2.5797230953e+00    0.1638881    0.1075957  53.54 0.0008706909    1.963    0.491
       229  -8.9351    182.5404    225.5245   1.1859554654e+02   7.8392757383e+00    0.2271397     0.082499  42.69  0.000994069    2.074    0.518
       230  -8.8114    239.9328    222.9739   1.0925589901e+02  -4.6074473285e-01    0.1466315    0.1181191  45.22 0.0006538348    1.637    0.389
       231  -9.1588    230.2428    223.6977   1.1083165719e+02   8.8906724419e-01     0.224168   0.07979104  47.07  0.001091131    2.777    0.640
       232  -8.5340    211.2068    220.4352   1.1332666055e+02   4.0351825744e+00    0.1500697   0.08510641  46.29  0.000592977    1.617    0.382
       233  -8.6254    203.9834    221.0000   1.1455291432e+02   5.0740937049e+00    0.1868439   0.04852895  43.01 0.0008025158    2.943    0.660
       234  -8.6179    249.7698    218.5545   1.0711967894e+02  -1.5109982954e+00    0.1425961   0.08572593  44.35 0.0009364881    1.707    0.414
