#   1 NUMBER                 Running object number                                     
#   2 MAG_AUTO               Kron-like elliptical aperture magnitude                    [mag]
#   3 X_IMAGE                Object position along x                                    [pixel]
#   4 Y_IMAGE                Object position along y                                    [pixel]
#   5 X_WORLD                Barycenter position along world x axis                     [deg]
#   6 Y_WORLD                Barycenter position along world y axis                     [deg]
#   7 A_WORLD                Profile RMS along major axis (world units)                 [deg]
#   8 B_WORLD                Profile RMS along minor axis (world units)                 [deg]
#   9 THETA_WORLD            Position angle (CCW/world-x)                               [deg]
#  10 FWHM_WORLD             FWHM assuming a gaussian core                              [deg]
#  11 ELONGATION             A_IMAGE/B_IMAGE                                           
#  12 ELLIPTICITY            1 - B_IMAGE/A_IMAGE                                       
         1 -14.2210     11.0873     69.5736   9.3043514169e+01   6.4066290138e+01      1.64755     1.434047 -70.64  0.009622918    1.048    0.046
         2 -14.5820     39.0835     72.3405   7.8686717322e+01   6.0558070683e+01     2.070946      1.49423 -53.87   0.01019639    1.332    0.249
         3 -13.9442     56.8152     66.7029   6.8379782618e+01   5.9295107375e+01     2.081406     0.977715 -48.70  0.007988779    2.100    0.524
         4 -13.8868     50.7123     47.0016   6.3801796103e+01   6.5032327635e+01     2.281651     1.338017 -22.64  0.008287577    3.129    0.680
         5 -12.8903     39.7924     57.3640   7.3732995692e+01   6.4326567374e+01     1.331424    0.6442704 -59.35  0.002355734    1.965    0.491
         6 -12.5182     49.6052     31.1325   5.6628061064e+01   6.8560823812e+01     1.147059    0.9443427  18.15  0.005281681    1.378    0.274
         7 -13.6174     69.1466      9.2050   3.4918534830e+01   6.7542721735e+01     2.888838     1.706002 -16.51   0.01332472    1.981    0.495
         8 -11.7379     75.8724     14.0024   3.5651859879e+01   6.5289965470e+01    0.3467514    0.2911785  -8.52  0.000277861    1.343    0.255
         9 -13.1730     73.1533     24.8092   4.2593318048e+01   6.4470475530e+01    0.6622338    0.4722704 -46.32 0.0005802974    1.450    0.310
        10 -12.2524     79.9589     21.0637   3.8286530810e+01   6.3337864049e+01    0.8826467    0.5404799  78.34  0.002934848    1.929    0.482
        11 -14.3569     13.2943     38.0268   8.4194928623e+01   7.2155240370e+01     1.849752     1.409289 -70.17  0.002846942    1.260    0.207
        12 -12.9204    198.1964     38.3639   2.4853087266e+01   3.0947092947e+01    0.9647433    0.6790484 -36.33  0.005424493    1.252    0.201
        13 -12.7084    188.4221     36.3685   2.5247172659e+01   3.3421895406e+01     1.114068    0.6350741 -54.68  0.003772184    1.577    0.366
        14 -12.2529    219.0879     30.6978   2.1173573112e+01   2.7420995564e+01     1.014315    0.5065797 -55.35  0.005213633    1.746    0.427
        15 -12.2184    225.6623     23.1670   1.8909921146e+01   2.6953296314e+01    0.5762498    0.5316616  66.39  0.004097714    1.416    0.294
        16 -13.4219      4.5056     54.9400   9.4560064250e+01   6.8371645461e+01     1.194306    0.6979569 -77.99  0.005899383    1.548    0.354
        17 -14.9665     88.5369     64.5897   5.4856454121e+01   5.3367905678e+01     5.124365     2.985428 -78.90   0.01613889    3.625    0.724
        18 -12.3841     50.8381     18.8180   4.8646527369e+01   7.0487439941e+01     1.193209    0.6907175  48.39  0.001151846    1.681    0.405
        19 -11.3661    147.3266     25.9843   2.6703890325e+01   4.4924089705e+01    0.5274301     0.392379  15.28  0.002564347    1.939    0.484
        20 -12.3384    112.4335     27.6623   3.3154300262e+01   5.3968894983e+01    0.5756853    0.4387769 -84.55  0.002870599    1.338    0.253
        21 -10.2013    120.2217     23.1821   2.9789436867e+01   5.2475789073e+01     1.410559    0.7516503  80.90  0.005835096    2.006    0.501
        22 -10.0673    169.5053     19.3632   2.2044163570e+01   4.0053313860e+01    0.3993158    0.2199789 -33.02  0.001645736    1.656    0.396
        23  -9.5006    160.4424     14.0698   2.1199825467e+01   4.2925454331e+01    0.4185933    0.1856534 -36.35  0.001052871    1.939    0.484
        24 -11.5333     30.3594     20.1859   6.2245221692e+01   7.4096574284e+01    0.5686467    0.4200137 -46.03  0.001866044    1.336    0.252
        25 -11.9393     43.1666     20.4824   5.3946684551e+01   7.1768909130e+01    0.6550614    0.5312863 -86.73  0.003504301    1.673    0.402
        26  -9.6356    152.9519     14.2316   2.1985583867e+01   4.4833373570e+01    0.4514144    0.3837885  76.09  0.001485647    1.206    0.171
        27 -12.0552    249.9943     11.7823   1.5113274601e+01   2.3535799313e+01    0.3623178    0.1401186 -42.63  0.001971831    1.702    0.412
        28 -12.7579    242.1403      7.5009   1.4475338028e+01   2.5417759794e+01     0.700803     0.305208 -61.70  0.003355952    1.987    0.497
        29 -11.3816    221.3426     11.7145   1.6368960596e+01   2.9074865493e+01    0.2431673    0.1928537 -32.70 0.0006059947    1.256    0.204
        30  -9.7506     93.2152     12.3494   3.0216629965e+01   6.0988381736e+01    0.2995195    0.1511158  19.87 0.0009574019    4.171    0.760
        31  -9.7448    230.5972     12.0009   1.5993616471e+01   2.7179156220e+01    0.1830913   0.09505299 -31.65  0.001009967    1.583    0.368
        32  -9.9730    226.7797     10.6985   1.5862513540e+01   2.8075272621e+01     0.221168    0.1382542 -39.87 0.0008148382    1.232    0.188
        33 -10.0289    171.1194     10.7896   1.9241897995e+01   4.0591105905e+01     0.208144    0.1472319 -61.72 0.0003122141    1.213    0.176
        34 -10.4905    146.1825     10.2021   2.1271432462e+01   4.7025281896e+01    0.3743677     0.249276  44.40 0.0008665724    1.854    0.461
        35 -10.1368    145.7960      5.7963   1.9739169625e+01   4.7564616696e+01    0.2848119    0.1723521  54.39  0.001366964    1.832    0.454
        36 -10.2500    128.8076     10.5187   2.3373013873e+01   5.1613671377e+01    0.4718384     0.200729 -73.89  0.001627431    3.119    0.679
        37 -12.3164    116.2922      8.2483   2.4134464091e+01   5.5217299521e+01    0.5030633    0.3454112 -16.46  0.002500459    1.669    0.401
        38 -10.4740    120.8570      9.3105   2.3939079503e+01   5.3878265506e+01    0.2251499    0.1899159 -41.26 0.0001832325    1.193    0.162
        39 -11.1145     84.5160      8.1687   3.0021904319e+01   6.3727588708e+01    0.4868087    0.3686543 -49.21  0.002159389    1.364    0.267
        40 -12.1395     85.9184      1.6566   2.6122284208e+01   6.3980873444e+01    0.4018443    0.2024096  63.81 0.0003834709    1.767    0.434
        41  -9.0843    173.6473      7.8807   1.8159118823e+01   4.0266741043e+01     0.491236    0.1130199 -41.40  0.001767297    2.949    0.661
        42 -11.2695    193.9152      7.5940   1.6771781419e+01   3.5476153152e+01    0.2836849    0.2236235  47.45  0.001630316    1.684    0.406
        43 -11.2153     48.9413      8.1408   4.2240978928e+01   7.2448253721e+01    0.3135968    0.2688287  18.73  0.001028207    1.212    0.175
        44  -9.8372     27.5333      8.9830   5.6321824133e+01   7.6585588448e+01     0.191685    0.1242673 -38.17  0.001009924    1.531    0.347
        45 -11.1647    153.4561      6.8730   1.9425511926e+01   4.5463902251e+01    0.4807175    0.2348505 -81.99  0.001139267    2.099    0.524
        46 -10.3416    233.6114      5.3784   1.4322506138e+01   2.7263840061e+01    0.3395355    0.1835525 -17.92  0.001827949    2.149    0.535
        47 -10.0015    137.4733      6.7214   2.0901549285e+01   4.9674733787e+01    0.2374991    0.1156162 -35.58  0.001042344    1.879    0.468
        48 -10.7127     98.7874      6.2629   2.6052028307e+01   6.0131207832e+01    0.4593663    0.1688028  65.23  0.001743922    2.359    0.576
        49  -9.9068      3.4522      6.1632   7.8788532173e+01   8.0251776449e+01    0.2924099    0.1564338  -5.45  0.001396321    2.352    0.575
        50 -11.0391    108.9085      4.0785   2.3359667959e+01   5.7608191613e+01    0.4144424    0.2207018  74.85 0.0008397269    1.731    0.422
        51 -10.8163    183.4563      3.9174   1.6344073635e+01   3.8288651588e+01     0.225455    0.1862178 -62.80  0.001241811    1.038    0.037
        52  -9.8228    133.4031      3.6271   2.0148255440e+01   5.1050867688e+01     0.294148    0.1508408  74.04  0.001315841    1.802    0.445
        53 -10.6598    219.0808      1.7139   1.4025344979e+01   3.0555116276e+01    0.2107757    0.1497032  56.94  0.001300093    1.874    0.466
        54  -9.9522    126.9975      1.6726   2.0051397311e+01   5.2941273648e+01    0.1954949    0.1577834 -89.33 0.0003298084    1.118    0.106
        55 -11.5550     47.5849      1.6845   3.7950680585e+01   7.3528098322e+01    0.4278188    0.1552527  55.08  0.001475695    2.427    0.588
        56  -9.4437    173.6834      1.5071   1.6214703729e+01   4.0879826297e+01    0.1304696    0.1083339 -51.68 0.0003636664    1.084    0.077
        57 -10.2476    159.8035    219.8410   7.0238947695e+01   8.4283560856e+00    0.1667908    0.1321674   5.52 0.0003539266    1.126    0.112
        58 -12.7952    243.4529    242.8929   5.9484329352e+01  -3.4016163157e+00    0.3369625    0.1779464  17.84   0.00253419    1.550    0.355
        59 -11.2084    228.9884    249.2415   6.2422494540e+01  -2.7027509013e+00    0.1926414    0.1107285 -20.52 0.0008254378    1.527    0.345
        60 -11.9665    227.5266    242.9122   6.1813025399e+01  -1.9317017116e+00    0.2371787    0.1883624 -34.27  0.001802072    1.889    0.471
        61 -11.4256     35.9190    248.9951   9.8678355757e+01   1.8314501696e+01    0.1994543    0.1634878 -82.49  0.001530655    1.518    0.341
        62  -8.9412    236.3766    146.2836   4.4974626655e+01   8.6654031760e+00    0.1182013   0.07815491  -0.11  0.000701379    1.716    0.417
        63 -12.0686    152.7669    124.1441   5.4656346465e+01   2.6452232825e+01    0.2591733    0.2431138 -51.55 0.0002995863    1.060    0.056
        64  -9.6798    225.9395    120.8413   4.1328526787e+01   1.3770864622e+01    0.1873827    0.1277023  12.35 0.0006154464    1.952    0.488
        65 -12.7538     81.2509     48.6074   5.1110189002e+01   5.8358901807e+01    0.7076438    0.4345381  48.62   0.00179612    1.633    0.388
        66 -13.5663     78.9580     41.6243   4.8854961784e+01   6.0232337821e+01     1.252551    0.6086219  49.22   0.00197666    2.041    0.510
        67 -11.4069     96.3227    100.7157   6.3583790842e+01   4.3270862021e+01    0.4105727    0.3069873 -18.25  0.001287745    1.981    0.495
        68 -12.4630     86.4643     98.2593   6.6161978831e+01   4.5846207035e+01    0.5753167      0.47641  42.93  0.002820419    1.237    0.191
        69 -13.9906     62.0966     93.7594   7.3975636785e+01   5.1425336930e+01     1.352196    0.7950172 -80.46  0.005282883    2.138    0.532
        70 -12.1549     48.2382     85.5325   7.7763818201e+01   5.5768560018e+01    0.4418437    0.3248101  59.39  0.001148314    1.431    0.301
        71 -12.7681     52.8321     89.8533   7.6824608791e+01   5.3929926648e+01    0.5795354    0.3699241  88.55  0.001617585    1.932    0.482
        72 -12.3147     52.6071     86.2878   7.6036392361e+01   5.4919345024e+01    0.5101359    0.2697162  25.93  0.001999494    2.221    0.550
        73 -11.0023    151.1575     95.9628   4.7951062859e+01   3.2356404986e+01    0.5089688    0.3131455 -63.84  0.002101575    2.096    0.523
        74 -11.2882    169.6397     97.3242   4.4686097816e+01   2.8080907738e+01    0.3507918    0.3087559 -33.49 0.0007971477    1.106    0.096
        75  -9.8859    165.7368     95.6219   4.4967032914e+01   2.9227056343e+01    0.2060803    0.1823322  59.99 0.0004616365    1.217    0.178
        76 -10.9829    228.5215     97.0698   3.5902363900e+01   1.6765127181e+01    0.4073398    0.2172167  57.42  0.002161193    2.350    0.575
        77 -10.9270    200.2192     96.4677   3.9485995088e+01   2.2003860192e+01    0.3265507    0.2313475 -50.05 0.0009373698    1.350    0.259
        78 -11.4206     12.0308     97.4711   9.6196239772e+01   5.6299177803e+01    0.2712005    0.2612889  66.68 0.0007935978    1.122    0.109
        79 -11.3289     73.5185     96.4221   7.0268398300e+01   4.8753250662e+01    0.3194034    0.2722539  41.48 0.0008746199    1.209    0.173
        80 -10.1214     74.1947     92.1654   6.8891805282e+01   4.9726079377e+01    0.2721015    0.2137286 -46.98 0.0007617699    1.331    0.249
        81 -12.0594     49.2169     95.8594   7.9726583151e+01   5.2829585127e+01    0.4823901    0.2378762  27.92  0.001878635    2.210    0.548
        82 -10.3998     27.6542     95.9289   8.9060002559e+01   5.5408258217e+01    0.2109231    0.1725471 -84.64 0.0004715915    1.117    0.105
        83 -10.3363    213.9245     94.3658   3.7109488469e+01   1.9745650661e+01    0.2326352    0.1537684 -42.54 0.0007085139    1.292    0.226
        84 -10.4745    207.1052     94.9637   3.8159061302e+01   2.0924652760e+01    0.2407432     0.172895 -44.79 0.0007162405    1.231    0.188
        85 -10.3915    204.0340     90.9669   3.7632072598e+01   2.2130436731e+01    0.2053005    0.1743627 -42.68 0.0004546962    1.032    0.031
        86  -9.3709    157.4300     95.5085   4.6544364327e+01   3.1058980615e+01    0.1486704    0.1370415 -51.44 0.0001264443    1.010    0.010
        87 -12.1246    117.1084     93.7700   5.5519193312e+01   4.0440491241e+01    0.3989188    0.3181571 -13.29  0.001286305    1.723    0.419
        88 -10.3469     68.0269     94.7086   7.1896957704e+01   5.0172009405e+01    0.2193302    0.1928217  48.59 0.0004990666    1.146    0.127
        89 -12.1644    190.2661     93.2538   4.0192112431e+01   2.4492961768e+01    0.3907868    0.2827797  45.13  0.001901924    1.593    0.372
        90 -10.9834     16.5756     91.2037   9.3400556885e+01   5.7708898397e+01     0.359961    0.1833995  63.55  0.001493777    2.120    0.528
        91 -11.0325    181.0910     82.9519   3.8992778032e+01   2.8119747021e+01    0.3144487    0.2489524  20.63  0.001083235    1.686    0.407
        92 -11.4375    184.5026     79.9501   3.7679159265e+01   2.7878950734e+01    0.3224752    0.2215666 -41.55 0.0008696116    1.275    0.216
        93 -10.6867    173.4096     90.7168   4.2300006752e+01   2.8449556506e+01    0.3267933     0.290728  39.41  0.001342819    1.277    0.217
        94 -11.5873    175.2900     86.2065   4.0793060944e+01   2.8825671959e+01    0.5429121    0.2717342  37.98  0.001117383    2.959    0.662
        95 -10.8123    213.1800     89.8309   3.6151849474e+01   2.0563130876e+01     0.180091    0.1479845 -11.47  0.001084612    1.353    0.261
        96 -10.2952    166.7211     89.3409   4.3123334020e+01   3.0150723151e+01    0.2772099    0.2081578 -63.71 0.0005035678    1.435    0.303
        97 -11.6268    162.6122     84.1189   4.2454565479e+01   3.2005536510e+01    0.4991775    0.3742096  80.36  0.001776605    1.568    0.362
        98 -10.9792     71.4466     87.2338   6.8569746400e+01   5.1493988925e+01    0.4558463    0.3364986  -8.25  0.001920607    2.144    0.534
        99 -12.9326     67.3249     82.2494   6.8758794751e+01   5.3517789352e+01    0.9213377    0.6133884 -78.98  0.001402367    1.820    0.451
       100 -11.6927    236.3418     86.0591   3.2601608263e+01   1.6968205798e+01    0.4088214    0.2558293  76.20  0.002307495    2.312    0.568
       101  -9.9209    230.5198     83.4320   3.2641592574e+01   1.8336446035e+01    0.1889987    0.1557851 -39.65 0.0001197939    1.040    0.039
       102 -12.5482    196.6897     85.1262   3.7227189832e+01   2.4500590708e+01     0.563664    0.4026131 -24.32  0.003017065    1.443    0.307
       103 -11.3655    186.8155     86.8612   3.9115690746e+01   2.6256009656e+01    0.2410707    0.2046022 -80.52 0.0005331808    1.308    0.236
       104 -11.9099    212.0358     84.3066   3.4993739237e+01   2.1602970337e+01    0.2396897    0.2071531 -58.22    0.0015125    1.168    0.144
       105 -10.6876     24.0000     85.4050   8.9013503196e+01   5.8686451197e+01    0.3195547    0.1390476 -84.81  0.001158937    2.555    0.609
       106 -12.2153    189.8769     81.0162   3.7161422313e+01   2.6562478059e+01    0.5832069    0.3183595 -13.33  0.002106682    3.523    0.716
       107 -11.5642    193.1644     75.5930   3.5300969767e+01   2.6725252079e+01     0.294448    0.2303053  63.01  0.001493861    1.445    0.308
       108 -10.7099    246.9581     80.4939   3.0330516143e+01   1.5939179796e+01    0.2936449    0.2405195 -25.23  0.002052251    1.178    0.151
       109 -12.0032    176.6239     70.7987   3.6407445437e+01   3.1107106997e+01    0.4814828    0.3846752 -82.55 0.0001749401    1.354    0.261
       110 -12.4836    168.7288     79.5829   4.0114441308e+01   3.1422234151e+01    0.9148985    0.4766364 -59.43   0.00263031    2.483    0.597
       111 -11.8489    162.9222     66.4365   3.7348901471e+01   3.5002674940e+01    0.9050734    0.4908821  49.39  0.002544374    2.089    0.521
       112  -9.3425    237.6636     81.1155   3.1376673076e+01   1.7413052509e+01    0.1687935   0.09644153 -24.57 0.0009022959    1.675    0.403
       113 -10.5774    232.9291     78.8052   3.1347061589e+01   1.8548473822e+01    0.2166529    0.1597034 -43.51 0.0004113768    1.116    0.104
       114 -13.8402    220.3598     69.2020   3.0439635574e+01   2.2182419812e+01     1.230858    0.7066597  69.46  0.006533779    2.146    0.534
       115 -12.0595    221.8455     77.0417   3.2127461754e+01   2.0803143367e+01     0.270907    0.2506047 -69.97  0.001839754    1.206    0.171
       116 -11.5416    217.0347     75.9938   3.2420226891e+01   2.1860482548e+01    0.2595904    0.2112453 -42.00            0    1.007    0.007
       117  -9.6323    247.1144    117.3602   3.7972548974e+01   1.1031046546e+01    0.1345705     0.112651  77.94 0.0009338331    1.782    0.439
       118 -12.9788    218.4624     56.0778   2.7468957331e+01   2.4343471829e+01     0.959578    0.6120248 -47.74  0.004189858    1.294    0.227
       119 -11.3817    186.4627     73.4217   3.5668644029e+01   2.8502910930e+01    0.6552262    0.2779764  47.35  0.002572278    2.934    0.659
       120 -10.9479    182.2852     61.7657   3.3088076280e+01   3.1245663376e+01    0.3888012    0.2336651  66.70 0.0009112818    1.827    0.453
       121 -11.8105    184.3276     46.2654   2.8483096962e+01   3.3041592744e+01    0.7737694    0.4584263  75.35  0.003299639    1.839    0.456
       122 -12.0914    202.6727     75.6249   3.4056315508e+01   2.4748718027e+01     0.491175    0.2575286  48.08 0.0009396257    2.334    0.572
       123 -13.3269    203.6002     70.2614   3.2595875511e+01   2.5357833820e+01    0.7749009    0.4723059 -68.55  0.002616573    2.044    0.511
       124 -12.8127    203.2145     60.7259   3.0216828480e+01   2.6820414351e+01    0.6976447    0.5304163 -69.38  0.002833191    1.345    0.257
       125 -12.0072    209.7648     58.9997   2.9064709287e+01   2.5702188476e+01    0.5510949    0.2133254 -45.02  0.001363599    2.141    0.533
       126 -11.6204    207.2200     52.0997   2.7579051808e+01   2.7177056276e+01    0.5174372     0.342929  51.69  0.002207732    1.870    0.465
       127 -10.4257    181.7034     29.9747   2.4077851986e+01   3.5811116468e+01     0.251516    0.2048941 -31.36 0.0004494854    1.257    0.205
       128 -10.1115    204.1198    116.3720   4.3486044680e+01   1.8112276655e+01    0.2226501     0.165349  71.28  0.001007775    1.884    0.469
       129  -9.9466    210.1219    112.4609   4.1728796715e+01   1.7667139335e+01    0.2731517    0.1818633 -36.12 0.0008781458    1.274    0.215
       130 -12.6421    193.6636     65.9060   3.2709425382e+01   2.8099126928e+01    0.5437675    0.4455424  14.18  0.001717093    1.656    0.396
       131 -12.9315    193.0205     58.5971   3.0848430062e+01   2.9319098441e+01    0.7770942    0.6401793  49.89  0.002938215    1.463    0.317
       132 -11.2742    201.9974     45.6761   2.6433585277e+01   2.9155362167e+01     0.331846    0.2312334 -13.93  0.001375926    1.789    0.441
       133 -11.5319    208.5961     45.1659   2.5671217001e+01   2.7809716989e+01    0.5791377    0.3384291 -83.06  0.001820304    2.036    0.509
       134 -10.8283    155.1231     76.7386   4.1761155608e+01   3.5058967746e+01    0.3808571      0.27117  48.97   0.00121881    1.542    0.351
       135 -10.4167    250.5924     73.8461   2.8576205334e+01   1.6201001971e+01    0.2112134   0.09307045 -30.35 0.0004051956    1.827    0.453
       136 -10.8573    240.0786     73.0965   2.9368892442e+01   1.8065703942e+01    0.3044355    0.1618924  77.85  0.001285549    2.807    0.644
       137  -9.6071    151.0903     72.7342   4.1350462690e+01   3.6733678596e+01    0.2008568    0.1868922 -63.94 0.0003686458    1.022    0.021
       138 -11.0891    182.8477     68.2041   3.4779747978e+01   3.0122076697e+01    0.4724154       0.2071 -50.35  0.001621663    2.288    0.563
       139 -13.0043    234.0453     60.4001   2.7059389457e+01   2.0800082674e+01     1.232986    0.7299948 -68.65  0.006738418    2.020    0.505
       140 -10.8468    247.2889     57.3373   2.5274718491e+01   1.8832681159e+01    0.2629985    0.2167622  75.27   0.00125179    1.523    0.343
       141 -11.5938    237.1905     53.2620   2.5161878944e+01   2.1136031322e+01    0.4600753    0.2485134 -25.91  0.002458956    1.746    0.427
       142  -9.1944    177.6682    114.6922   4.7496492103e+01   2.3324030359e+01    0.1401327    0.1077268   1.89 0.0006523735    1.666    0.400
       143 -11.8197    132.4253    111.5896   5.6320554192e+01   3.3210981807e+01    0.4262705    0.3142976  67.35  0.001022007    1.588    0.370
       144 -11.3460    215.2342     41.8382   2.4242630509e+01   2.6851523354e+01    0.6377559    0.3595367  68.90  0.003405429    2.018    0.504
       145 -11.9066    232.2874     47.1649   2.4144833226e+01   2.2811000189e+01     0.554988    0.4345621   7.50  0.002235108    1.846    0.458
       146 -10.7510    226.5029     45.5186   2.4214784949e+01   2.4127663971e+01    0.2301622     0.185005 -39.16 0.0005441059    1.103    0.093
       147 -11.5793    223.2303     42.8474   2.3834972668e+01   2.5105873424e+01    0.4361084    0.3217171 -32.84  0.002225838    1.221    0.181
       148 -11.5225    228.6822     40.8246   2.2929318294e+01   2.4284418066e+01    0.3921126    0.2880201 -67.39  0.001779901    1.319    0.242
       149 -12.0742      5.5044     85.8732   9.8024305757e+01   5.9922079011e+01     0.509895    0.3178437 -56.72  0.001682312    1.545    0.353
       150 -12.7695    194.5464     47.9987   2.7820722430e+01   3.0479754850e+01    0.7281976    0.7149214  66.81  0.004695063    1.248    0.199
       151  -9.7644    175.1085     62.1073   3.4193035016e+01   3.2839905662e+01    0.2032151    0.1890294 -13.83 0.0004201642    1.255    0.203
       152 -11.9629    162.4068     57.8223   3.4860059037e+01   3.6530270222e+01    0.7569969    0.3479239 -40.89  0.002898773    1.923    0.480
       153 -10.7833    159.9879     50.7551   3.3064844536e+01   3.8225422131e+01    0.3887974    0.2496433 -23.32 0.0003663709    1.793    0.442
       154 -11.0718    100.4432     54.5721   4.7238497409e+01   5.2611146291e+01    0.6181742      0.54255 -36.49  0.003161713    1.209    0.173
       155 -10.2107    170.1057     56.8432   3.3397815009e+01   3.4834414155e+01    0.2437194    0.2010935  86.58 0.0004953229    1.248    0.199
       156 -11.1638    173.9264     53.6958   3.1934549082e+01   3.4406214815e+01    0.3812516    0.2817725 -27.28  0.001232654    1.416    0.294
       157 -11.5336    178.8845     53.8412   3.1311447399e+01   3.3219665195e+01    0.3896324    0.3760976 -76.16  0.002365907    1.152    0.132
       158 -11.1102    109.4024     56.5719   4.5460558949e+01   5.0014617152e+01    0.3289936    0.2648084 -58.63  0.001604267    1.227    0.185
       159 -10.6278    174.3752     39.1605   2.7579932187e+01   3.6375558030e+01     0.300037    0.2614766  37.97   0.00100821    1.456    0.313
       160 -11.1521    168.1163     51.1597   3.1993053571e+01   3.6177010435e+01    0.3613982    0.2635483 -27.39  0.001236748    1.443    0.307
       161 -10.9683    162.6139     29.9625   2.6123256016e+01   4.0494768558e+01    0.9217743    0.4452325  87.83  0.003705249    2.439    0.590
       162 -12.6899    161.2272     38.1583   2.8915388508e+01   3.9752095413e+01    0.7879536    0.5158156  53.25  0.001687569    1.725    0.420
       163 -11.7096    150.8667     44.2872   3.2407030057e+01   4.1490635614e+01    0.6843621    0.5205147  61.64  0.003502285    1.375    0.273
       164 -11.0090    147.4185     37.9975   3.0834737654e+01   4.3291069796e+01     0.383924    0.3329891  79.57  0.001016297    1.148    0.129
       165 -13.1566    173.1363     46.0991   2.9801542401e+01   3.5707548788e+01    0.5363247    0.4614525   4.00  0.001316033    1.520    0.342
       166 -10.7534    167.4630     42.3065   2.9391019283e+01   3.7624750378e+01    0.4016512    0.2803646 -40.86  0.001504269    1.287    0.223
       167  -9.6302    124.7568     53.6151   4.0582403087e+01   4.6672471410e+01    0.2103886    0.1440222  76.30 0.0005058029    1.586    0.369
       168 -10.5575    118.0783    110.7029   5.9803883413e+01   3.6416808906e+01    0.2193993    0.2033821  53.76 0.0006126439    1.088    0.081
       169 -10.1398     38.3299    111.3145   8.7005237397e+01   4.9967966363e+01    0.1518555    0.1096113 -38.10 0.0003431694    1.677    0.404
       170 -10.9798    249.3983     50.1359   2.3540423428e+01   1.9347436504e+01    0.1888506    0.1669151 -50.78 0.0003988727    1.197    0.164
       171  -9.7719    241.0028     47.6145   2.3587195608e+01   2.1141093223e+01    0.1853457    0.1220695 -37.79 0.0005427522    1.163    0.140
       172 -10.5363     99.2111     47.5150   4.4790073871e+01   5.4235951198e+01    0.3942151    0.3009831  31.60  0.001471132    1.634    0.388
       173  -9.5167    103.8530     46.3529   4.3006218037e+01   5.3276881689e+01    0.2508518    0.1954381  22.08  0.000716602    1.740    0.425
       174  -9.4738    105.5488     43.3824   4.1343372005e+01   5.3358934462e+01    0.2102967    0.1820631  70.54 3.552267e-05    1.126    0.112
       175  -9.5044    142.7720     45.9615   3.4313989829e+01   4.3305663378e+01    0.4254752    0.1953443  43.94  0.001498628    3.003    0.667
       176 -10.7314     95.0059     43.4266   4.4326470750e+01   5.6017162815e+01    0.5811448    0.2706358  43.57  0.002096873    2.519    0.603
       177 -11.4909    247.9094     42.6654   2.2002040974e+01   2.0498425787e+01    0.2990804    0.1656381 -49.84 0.0008684975    1.441    0.306
       178 -11.1026     34.0536     43.2491   7.1730097730e+01   6.8566996098e+01    0.4441503    0.2756104  28.98  0.002107258    1.711    0.416
       179 -10.1610    100.8012     40.7129   4.1507882118e+01   5.5022936466e+01    0.2768745    0.2207071  59.38  0.001374876    1.235    0.190
       180 -10.9989    240.9941     40.0187   2.1870902521e+01   2.2056308342e+01    0.1824336    0.1339656 -45.10            0    1.020    0.019
       181  -9.3251    111.7266     40.7330   3.8718295210e+01   5.2203050363e+01    0.1421063     0.118377  29.59 0.0006867138    1.475    0.322
       182  -9.6755    217.0775    109.3703   4.0070847268e+01   1.6928951073e+01    0.1670219     0.150611 -36.67 0.0004901446    1.105    0.095
       183 -11.2885    233.6272     36.5010   2.1560620230e+01   2.3852304297e+01    0.4493512      0.17707 -58.35   0.00170521    2.621    0.618
       184  -9.8567    119.4302     39.0740   3.6315473186e+01   5.0451610636e+01    0.2779701    0.1861516  51.00 0.0005369291    1.576    0.366
       185 -10.5635    122.7566     34.5220   3.3853131713e+01   5.0257824106e+01    0.5885124    0.2201987 -47.61  0.001670039    2.760    0.638
       186 -10.4580    109.2155     36.7190   3.7676238071e+01   5.3493833257e+01    0.4255397    0.3145755  11.77  0.001049438    1.995    0.499
       187  -9.7207    112.3468     32.9705   3.5399469479e+01   5.3238119592e+01    0.3458991    0.1957421 -10.38  0.001253043    2.981    0.664
       188 -12.2882     91.9717     33.5741   4.0853956656e+01   5.8437609492e+01    0.4590151    0.3653963  31.70  0.001342907    1.491    0.329
       189  -9.8763    212.1833     34.1148   2.2543465610e+01   2.8447848374e+01    0.1844926    0.1141231 -50.69 0.0003281993    1.317    0.241
       190 -10.9564    131.3564     33.2369   3.1765402479e+01   4.8165498257e+01    0.3421977    0.2099272 -54.20 0.0008544404    1.613    0.380
       191 -10.4333    206.0432     31.6641   2.2397494273e+01   3.0059995550e+01    0.2633774    0.1824672 -36.95 0.0008466627    1.239    0.193
       192 -10.5997    237.4858     30.2875   1.9875616085e+01   2.3843145187e+01    0.1927802    0.1522919 -59.36 0.0004963434    1.146    0.127
       193  -9.6755     81.4086     30.7869   4.2820684181e+01   6.1523051389e+01    0.2327736    0.1879619  38.96 0.0006110801    1.338    0.253
       194 -11.4852     86.6412     28.5877   4.0073014534e+01   6.0561958704e+01     0.339071    0.2606195  58.43 0.0006704971    1.258    0.205
       195 -10.5539     38.6885     28.8499   6.1753567946e+01   7.1007603433e+01    0.5953878    0.2486325 -44.12   0.00208101    2.369    0.578
       196 -10.4820     42.0120     27.4993   5.8924454426e+01   7.0690322447e+01     0.319411    0.2386498  79.13  0.000903357    1.972    0.493
       197 -10.2651     34.8223     26.8058   6.3121972302e+01   7.2065815760e+01    0.2528043    0.1922463 -53.74 0.0005669048    1.351    0.260
       198 -10.4257     36.6881     23.6421   5.9997489076e+01   7.2377430454e+01    0.2651021    0.2316987 -12.89 0.0007065761    1.191    0.161
       199  -9.8372    154.5523     25.2483   2.5540086138e+01   4.3141824081e+01    0.4457753     0.230758  51.79  0.001905269    2.230    0.552
       200 -10.8294    196.6405    107.9538   4.2728273915e+01   2.0833651587e+01    0.5695213    0.3740559 -88.86  0.002540381    2.859    0.650
       201 -10.9447    151.0361     22.0744   2.4884631682e+01   4.4436820226e+01    0.2004371    0.1697374 -58.16 0.0004245519    1.053    0.050
       202 -10.3144     97.2136    109.5937   6.5581161905e+01   4.0924917007e+01    0.2122031    0.1520464  30.59 0.0003207471    1.597    0.374
       203 -10.1774    183.6081    105.5025   4.4265176853e+01   2.3764202712e+01     0.285226     0.202546 -40.41  0.001374154    1.263    0.208
       204 -10.6103    139.1552     17.9426   2.4885149764e+01   4.8041879318e+01    0.2826597    0.2064367 -16.64 0.0006074852    1.601    0.376
       205 -10.6416    136.0537     25.7229   2.8198404082e+01   4.7925414260e+01     0.446589    0.2601984 -59.95   0.00180036    1.756    0.430
       206 -10.4654    138.5547     22.6672   2.6706615877e+01   4.7642696627e+01    0.3816519    0.2325381  76.54  0.001258324    1.597    0.374
       207 -11.0295    130.4715     19.4613   2.6651548859e+01   5.0180828037e+01     0.487498    0.3147327  86.49  0.001085925    1.533    0.348
       208 -10.3556    127.6331     15.8092   2.5630149361e+01   5.1361652820e+01    0.2872045    0.2152591 -61.98 0.0008563934    1.259    0.205
       209 -10.6041    104.6121     28.7781   3.5365644329e+01   5.5885384988e+01    0.2925622    0.2051619 -46.36  0.001211638    1.411    0.291
       210 -11.2481    197.1703     26.7187   2.1790040993e+01   3.2619201963e+01    0.6185748    0.2778059 -77.48  0.002571851    2.756    0.637
       211 -10.4199    198.1499     22.6883   2.0619478891e+01   3.2870588954e+01    0.2603444    0.2334417 -76.68 0.0009102183    1.174    0.148
       212 -10.0303    201.5228     19.9853   1.9649702236e+01   3.2423134361e+01    0.2478299    0.1635104 -56.23 0.0007272128    1.254    0.203
       213 -10.8056    234.8494     24.2330   1.8631667105e+01   2.5029133619e+01    0.2921289    0.2358361  45.35  0.001643005    1.766    0.434
       214 -10.6315    243.7823     21.1987   1.7468255961e+01   2.3678385297e+01    0.3588894    0.2989878  49.96  0.001900802    1.709    0.415
       215 -11.4001    176.2311     24.1622   2.2881602821e+01   3.7837603007e+01    0.3428499    0.1974313 -33.59 0.0006966557    1.572    0.364
       216  -9.4629    202.1224    103.8677   4.0948369102e+01   2.0464776948e+01    0.1711063    0.1435287 -13.90 0.0002974022    1.253    0.202
       217 -10.5447    144.3809    103.2152   5.1352077115e+01   3.2402604608e+01    0.3568205    0.2995696   5.60  0.001360129    1.519    0.342
       218 -10.4787    160.2657     22.6266   2.4017582214e+01   4.1996984871e+01    0.4702626    0.1283925 -40.00  0.001649122    2.819    0.645
       219 -10.9085    163.6777     20.7285   2.3044120151e+01   4.1355831451e+01    0.4026071    0.2479154  72.77  0.001261279    1.618    0.382
       220  -9.9566    237.9418    102.6401   3.6002148357e+01   1.4427773593e+01    0.1849834    0.1313293 -32.94 0.0003471665    1.110    0.099
       221 -11.1192    208.6760     22.5896   1.9843875408e+01   3.0558391484e+01    0.3175191    0.2258544  75.53    0.0018964    1.553    0.356
       222 -10.7409     97.7639     21.9637   3.3872962339e+01   5.8621970716e+01    0.2909296    0.2073611 -28.98  0.000951009    1.482    0.325
       223 -10.2329     14.6868     19.7906   7.5062903932e+01   7.6283021768e+01    0.2415602    0.1760722 -72.09 0.0009724601    1.581    0.368
       224  -9.3247    237.7041     99.2727   3.5313581311e+01   1.4929809451e+01      0.11662   0.08049348 -52.85            0    1.523    0.343
       225  -9.3920    193.9944     19.5243   2.0061443471e+01   3.4176494152e+01    0.1808446   0.09257793  50.48 0.0008098893    2.625    0.619
       226  -9.4121    230.6062    103.1998   3.6987325460e+01   1.5543913698e+01    0.1752067    0.1005071 -24.80 0.0005341822    1.652    0.395
       227  -9.2741    211.0652     15.2768   1.7812574208e+01   3.0855885825e+01    0.1757737   0.09692553 -81.38 0.0009188768    1.850    0.459
       228  -9.3922    102.6236     14.7754   2.9414933648e+01   5.8209410737e+01    0.1870432    0.1289271 -40.85 0.0003883095    1.443    0.307
       229  -9.0641     10.6914     15.7688   7.6636233866e+01   7.7561882297e+01    0.1255151   0.08878297 -21.41 0.0002332758    1.485    0.327
       230 -12.7226    113.5312     82.3329   5.3101573287e+01   4.3762362970e+01     0.880721    0.6014416 -20.44  0.003536386    2.231    0.552
       231 -14.2391    128.5079     91.4597   5.1880693233e+01   3.8371974819e+01     1.272891     1.148212  72.07  0.001398717    1.122    0.109
       232 -13.8292    122.2362     85.4308   5.1705839807e+01   4.1085879232e+01     1.484909     1.065446 -11.94  0.006107466    2.240    0.554
       233  -9.8940    134.0153     13.2027   2.3757979406e+01   4.9936359079e+01    0.2422975    0.1365728 -71.08  0.001055816    1.857    0.462
       234 -12.1138    147.4838     83.0383   4.5110904687e+01   3.5679704510e+01     1.202233    0.5560343 -33.95  0.004295962    2.349    0.574
       235 -12.7786    136.3887     81.8680   4.7185161926e+01   3.8506149381e+01     1.049449    0.8127133 -86.61  0.004982545    1.499    0.333
       236 -10.8228    127.9822     76.0086   4.7360715238e+01   4.1668550259e+01    0.3035826     0.239039 -52.81 0.0003332448    1.219    0.180
       237  -9.4330    179.5973     11.7980   1.8907134396e+01   3.8412472732e+01     0.125895   0.09160542  57.50 0.0006788972    1.625    0.385
       238 -10.6192    146.1253     52.7400   3.5991618081e+01   4.1378815693e+01    0.8626971    0.4271845  47.47  0.003364071    2.391    0.582
       239 -12.5431    146.2890     62.6224   3.9154818078e+01   3.9683767039e+01     1.249567    0.7406011  81.32  0.003896926    2.199    0.545
       240 -12.3552    137.7858     72.1834   4.3908920301e+01   4.0041705048e+01     1.083217    0.6715053  69.54  0.004603663    1.850    0.460
       241 -11.5267    144.5503     68.3585   4.1299627681e+01   3.9099093710e+01    0.5527949    0.3750157  85.35  0.002443218    1.810    0.448
       242 -11.5444    127.4598     58.5829   4.1721502516e+01   4.5106470331e+01    0.5527301    0.3237834  42.26  0.002223091    2.085    0.520
       243 -12.3478    134.3962     52.8441   3.8254726430e+01   4.4342293775e+01     0.743441    0.5763928 -66.40  0.003665112    1.289    0.224
       244 -12.0331    134.2201     45.0714   3.5563869270e+01   4.5652079258e+01    0.6860696    0.4821768  10.85  0.002905917    2.348    0.574
       245 -12.3856    128.2992     43.7114   3.6230756503e+01   4.7405758670e+01     1.248546    0.6450432  42.32  0.003782378    2.560    0.609
       246 -11.7514    155.6172     62.1816   3.7316421110e+01   3.7469635133e+01    0.8117384    0.3452241 -29.71  0.002323477    2.655    0.623
       247 -10.9138    151.9654     59.9390   3.7262941309e+01   3.8738525569e+01    0.2926205    0.2672896 -49.82 0.0004190635    1.076    0.071
       248 -11.0421    109.6444    102.9845   6.0161164337e+01   3.9964092209e+01    0.2312322     0.201638 -58.82 0.0007099188    1.122    0.109
       249 -11.1695    112.8109    247.0690   8.2660115744e+01   1.0146520450e+01    0.3002709    0.1238492 -40.52  0.001463501    3.576    0.720
       250 -13.5617    116.4670     63.9645   4.6252463022e+01   4.6845724521e+01     1.395985     1.104464  70.69  0.006687071    1.294    0.227
       251 -14.1145     84.6784     73.4701   5.9342321545e+01   5.2219967282e+01     2.395826     1.013855  48.11  0.008400449    2.408    0.585
       252 -12.4090     90.5652     50.8109   4.8816718357e+01   5.5733948340e+01    0.3957311    0.2871459  41.66 0.0005382387    1.504    0.335
       253 -11.0542      3.1358    247.9957   1.0537225590e+02   2.1512156221e+01    0.2365243    0.1425095  80.98  0.001647443    1.677    0.404
       254 -10.9519     13.1544    248.1353   1.0334028560e+02   2.0612632333e+01    0.1591287    0.1328345  38.51  0.001249023    1.253    0.202
       255 -11.6496    248.7318    249.7562   5.9646780610e+01  -4.5086373104e+00    0.2446473    0.1377877   4.14  0.001943962    1.370    0.270
       256 -13.3153     29.5968     58.9432   8.0005224681e+01   6.5244754753e+01     1.032969    0.9299265  23.44  0.002199714    1.194    0.162
       257 -10.5532    218.9679    239.9996   6.2730468695e+01  -7.9642054966e-01    0.1606613    0.1149872   3.47 0.0008707753    1.014    0.014
       258 -12.1676     24.8002     43.8180   7.7983811658e+01   6.9606303776e+01    0.6894381    0.5409188 -80.96  0.002508356    1.379    0.275
       259 -12.0171     26.5902     36.1972   7.3644997817e+01   7.1209552475e+01     0.369284    0.3167423 -30.85 0.0006921316    1.166    0.142
       260 -10.5838     15.9052    238.5909   1.0252417267e+02   2.2068390737e+01    0.1688633    0.1409886  84.22 0.0006283128    1.379    0.275
