#   1 NUMBER                 Running object number                                     
#   2 MAG_AUTO               Kron-like elliptical aperture magnitude                    [mag]
#   3 X_IMAGE                Object position along x                                    [pixel]
#   4 Y_IMAGE                Object position along y                                    [pixel]
#   5 X_WORLD                Barycenter position along world x axis                     [deg]
#   6 Y_WORLD                Barycenter position along world y axis                     [deg]
#   7 A_WORLD                Profile RMS along major axis (world units)                 [deg]
#   8 B_WORLD                Profile RMS along minor axis (world units)                 [deg]
#   9 THETA_WORLD            Position angle (CCW/world-x)                               [deg]
#  10 FWHM_WORLD             FWHM assuming a gaussian core                              [deg]
#  11 ELONGATION             A_IMAGE/B_IMAGE                                           
#  12 ELLIPTICITY            1 - B_IMAGE/A_IMAGE                                       
         1  -8.7615    189.8039     14.6329   6.5183611492e+01   3.5970790368e+01    0.3893581    0.2576963 -77.01  0.001313118    1.587    0.370
         2  -9.7441    234.2015      8.4667   5.9235292130e+01   2.5581029965e+01    0.3637942    0.2490755 -36.81 0.0008882516    1.426    0.299
         3  -8.0282    206.1887      3.8111   6.0484899926e+01   3.2896429761e+01    0.1942154    0.1574538 -72.14 0.0002630702    1.110    0.099
         4  -6.8776     77.3372    245.6797   1.3899287452e+02   1.5895865093e+01    0.1227935   0.06411199  63.88 0.0007049909    1.709    0.415
         5  -9.0677     52.2560    249.6312   1.4356602874e+02   1.8501755088e+01    0.1732606    0.1282054  79.10  0.001251593    1.186    0.157
         6  -9.3833     42.9684    250.4986   1.4515227405e+02   1.9482217830e+01    0.2381108    0.1733855  58.34  0.001733718    1.163    0.140
         7 -10.0210     48.1640    244.6445   1.4394121081e+02   1.9858689633e+01    0.3343267   0.09016281  46.66  0.001653285    2.538    0.606
         8  -7.3829     63.3037    243.3168   1.4126219048e+02   1.8179165072e+01   0.08939566   0.08796342  50.97 0.0003308266    1.623    0.384
         9  -7.5377    134.3101    241.0497   1.2822648899e+02   8.1119056117e+00    0.1589949     0.134053  59.31 0.0004456951    1.122    0.109
        10  -7.0778    120.6661    241.7120   1.3081605974e+02   1.0167135850e+01    0.1100172   0.08740186  23.03 0.0003092388    1.627    0.385
        11  -6.7753     85.3674    240.3146   1.3711856802e+02   1.5689614024e+01    0.1017669    0.0899068  15.50 0.0007037843    1.773    0.436
        12  -6.9622    125.4174    237.4694   1.2946690919e+02   1.0104371140e+01    0.1206096   0.09713484  50.68 0.0002028211    1.042    0.040
        13  -7.4322     74.0231    237.1718   1.3889617243e+02   1.7821364926e+01     0.157773    0.1260024  23.25 0.0005998252    1.905    0.475
        14 -11.6788     57.6000    229.5805   1.4126376924e+02   2.1368343551e+01    0.8444956    0.5656509  69.18  0.005775835    1.175    0.149
        15  -7.2251    101.4521    233.4772   1.3351850245e+02   1.4509449381e+01    0.1222574   0.09394638  59.41 9.685855e-05    1.026    0.026
        16  -8.0614     80.0030    232.4609   1.3740713097e+02   1.7828663504e+01    0.1681764    0.1506428 -88.20 0.0003405489    1.327    0.247
        17  -8.1878     30.9062    229.3384   1.4596936136e+02   2.4612079062e+01    0.1671573    0.1078647  75.05 0.0003085721    1.173    0.147
        18  -7.3266    104.4265    228.5112   1.3243992612e+02   1.4925031027e+01    0.1227506   0.09743103  59.49 8.461774e-05    1.011    0.011
        19  -6.9754    124.7049    231.7232   1.2893908597e+02   1.1167443166e+01    0.1102877   0.09072819  22.48 0.0002814541    1.529    0.346
        20  -7.3304    106.9546    236.3105   1.3278206054e+02   1.3184508647e+01    0.1679524    0.1221514  53.56 0.0004133615    1.074    0.069
        21  -7.2760    130.5175    224.4077   1.2693364754e+02   1.1455759361e+01    0.1274976    0.1019329  51.67 7.398397e-05    1.020    0.020
        22  -7.2673     88.4890    224.0578   1.3502638924e+02   1.8134020617e+01     0.157494    0.1118987 -74.67 0.0005551687    1.494    0.331
        23  -7.6660    158.2617    223.0602   1.2137506523e+02   6.9791478864e+00    0.1663479    0.1473017  48.25  0.000202773    1.087    0.080
        24  -7.2453    106.6642    223.0804   1.3141535314e+02   1.5547269573e+01    0.1485517    0.1096735 -52.42 0.0005049296    1.706    0.414
        25  -7.1750     81.3658    223.4490   1.3632797047e+02   1.9280776239e+01    0.1188481   0.09307535  67.60 1.110766e-06    1.033    0.032
        26  -7.8067    137.8387    222.1319   1.2521350988e+02   1.0618190111e+01    0.1871167    0.1466326  58.65 0.0002816582    1.171    0.146
        27  -7.5576     94.9820    221.6839   1.3353248121e+02   1.7603234536e+01    0.1711529    0.1260419  56.51 0.0004294593    1.092    0.085
        28  -7.4076    117.4864    219.9759   1.2893501098e+02   1.4376261179e+01    0.1592933    0.1225352 -69.92 0.0004216931    1.467    0.318
        29  -7.0905    111.3540    219.2379   1.3005532231e+02   1.5500459534e+01    0.1153219   0.09234793  25.70 0.0003054012    1.578    0.366
        30  -7.6214     84.8603    218.5017   1.3517252304e+02   1.9703987867e+01    0.1731834     0.138672  81.11 0.0004072173    1.146    0.128
        31  -7.6010     78.1621    217.6583   1.3639143477e+02   2.0829465035e+01    0.1708715    0.1262042  73.92  0.000648434    1.161    0.139
        32  -7.7640     73.2352    216.4117   1.3722884590e+02   2.1761094454e+01    0.1679911   0.08919936  51.94 0.0004274637    1.545    0.353
        33  -7.7227     68.3343    216.1693   1.3815451422e+02   2.2481442961e+01    0.1595749   0.09606665 -87.64 0.0005976557    1.649    0.394
        34  -7.4029    146.9604    214.7058   1.2239361289e+02   1.0320501764e+01    0.1849004    0.1423604  45.52 0.0005714952    1.094    0.086
        35  -7.2786    122.1776    214.6277   1.2733422697e+02   1.4570798322e+01    0.1675784    0.1079728  37.63 0.0002654362    1.485    0.327
        36  -7.8815     87.2546    213.1121   1.3414562360e+02   2.0381925247e+01    0.1714631    0.1547846  77.89  0.000631107    1.198    0.165
        37  -7.4519    114.9921    212.3062   1.2848429233e+02   1.6188024034e+01    0.1783985    0.1351707  51.97  0.000200051    1.107    0.096
        38  -8.5624     71.1398    211.8652   1.3721000136e+02   2.2935496379e+01    0.2033439    0.1409264  85.96  0.000499144    1.333    0.250
        39  -9.8589     73.0517    206.5098   1.3630771635e+02   2.3731161841e+01    0.3982888    0.2725313 -81.81  0.002454312    1.411    0.291
        40  -9.1833     67.5122    206.0438   1.3737440021e+02   2.4588773793e+01    0.2630821    0.1558894  48.68 0.0009289078    1.450    0.311
        41  -8.6962     64.0001    203.3009   1.3781794209e+02   2.5616111424e+01    0.1898419    0.1433017  87.22 0.0008026028    1.168    0.144
        42  -7.2686    109.7663    233.3719   1.3194795459e+02   1.3252476177e+01     0.160738   0.09862763  37.68  0.000328497    1.560    0.359
        43  -8.9585     65.0632    210.7776   1.3830267158e+02   2.3976322891e+01    0.2037491    0.1725109  70.09 0.0008295433    1.142    0.124
        44  -6.9107    127.6303    210.2718   1.2565823062e+02   1.4447778431e+01    0.1369944   0.08726098  63.62 0.0006999796    1.673    0.402
        45  -7.7304    110.2532    208.7958   1.2900501951e+02   1.7625956235e+01     0.155204    0.1430778  39.91 0.0003757234    1.269    0.212
        46  -6.9499     38.4749    209.5254   1.4332740327e+02   2.7536345573e+01    0.1141986   0.08858889  75.06 0.0002429479    1.067    0.062
        47  -8.0117     96.2155    207.9527   1.3176773317e+02   2.0023542575e+01    0.1900605     0.143242  70.70 0.0004261642    1.194    0.163
        48  -7.6779    136.0381    207.3137   1.2353294372e+02   1.3536587344e+01    0.1825207    0.1495907  49.45 0.0003321755    1.044    0.042
        49 -10.6194    124.0056    206.0056   1.2581704342e+02   1.5859124313e+01    0.1875075    0.1593504  56.48  0.001163526    1.007    0.007
        50  -7.0367    106.7577    204.9776   1.2924205805e+02   1.8930761333e+01    0.1448464    0.1064858 -67.59 0.0004509294    1.466    0.318
        51  -7.5689    159.6883    204.5358   1.1830763660e+02   9.8079131136e+00     0.181188    0.1131503  50.56 0.0009243285    1.487    0.328
        52  -7.4037    153.0495    203.7411   1.1952706040e+02   1.1149646574e+01    0.1789962    0.1555393  42.68 0.0003895656    1.035    0.034
        53  -8.3135     79.6772    203.5293   1.3465332627e+02   2.3386334384e+01    0.2575954    0.1650827  70.83 0.0005730602    1.479    0.324
        54  -7.3794     57.3391    202.8622   1.3911573517e+02   2.6578285799e+01    0.1734222    0.1048211 -77.19 0.0004009487    1.558    0.358
        55  -7.7126     59.9704    199.5481   1.3827824019e+02   2.6915537903e+01    0.1702157    0.1521164  37.34 0.0006544053    1.459    0.315
        56  -7.7351    175.0246    201.9785   1.1481977238e+02   7.4429545378e+00    0.1598327    0.1394562  36.52 0.0003452581    1.004    0.004
        57  -7.7607    118.3395    205.8575   1.2696464112e+02   1.6847165555e+01    0.1704463    0.1540605  78.36 0.0006198337    1.119    0.106
        58  -9.1173     69.7855    200.2000   1.3633435002e+02   2.5463368651e+01    0.2443405    0.2190418  70.02 0.0007598188    1.205    0.170
        59  -7.5936     67.5286    197.4828   1.3652243231e+02   2.6332971137e+01    0.1786506   0.09689544  51.80 0.0006320422    1.595    0.373
        60  -6.5954     49.6414    201.2821   1.4051453940e+02   2.7867848096e+01    0.1289805   0.06902229  64.63 0.0007016668    1.670    0.401
        61  -7.2159    135.2043    199.2794   1.2252475054e+02   1.5173947244e+01    0.1924956    0.1060756 -65.66 0.0008700393    2.372    0.578
        62  -7.9434     75.7498    198.9768   1.3497371808e+02   2.4877634298e+01    0.1717762    0.1389374  80.56            0    1.077    0.072
        63  -7.9188     91.6762    197.1082   1.3141870219e+02   2.2894684675e+01    0.2060433    0.1494603  57.31 0.0003292604    1.187    0.157
        64  -6.8021    141.6841    196.3017   1.2070957714e+02   1.4569050109e+01    0.1375291   0.09852421  69.76 0.0003087026    1.617    0.382
        65  -7.3351     63.9419    196.4667   1.3716271510e+02   2.7028244189e+01    0.1777184    0.1073575  44.55 0.0003754406    1.531    0.347
        66  -7.3141     57.2775    195.0066   1.3839872502e+02   2.8206108683e+01    0.1496424   0.09521704 -77.63 0.0006485937    1.457    0.313
        67  -8.1494    190.5984    190.4119   1.0970430511e+02   6.4686212977e+00    0.3286386    0.1976732 -66.52  0.001295741    3.527    0.717
        68  -7.9922    107.1119    197.7376   1.2822919139e+02   2.0303264165e+01    0.2043648    0.1629607  86.13 0.0003650626    1.250    0.200
        69  -7.1886    136.3977    192.5009   1.2122888363e+02   1.6253712429e+01     0.135243    0.1209269  58.07 0.0001736337    1.023    0.022
        70  -6.6909     87.7041    192.3069   1.3167766547e+02   2.4496272816e+01    0.1349891   0.08603287  70.26 0.0002455088    1.587    0.370
        71  -6.6553    127.6599    191.2722   1.2290858626e+02   1.8066544714e+01     0.140648   0.09578773  66.81 0.0006992969    1.609    0.378
        72  -7.8534     82.0290    189.5312   1.3256342821e+02   2.5933372192e+01    0.1854877    0.1531829  79.91 0.0003688597    1.058    0.055
        73  -7.8274     16.7770    188.4979   1.4607396486e+02   3.4106301871e+01    0.1987395    0.1223186 -88.55 0.0005027024    1.294    0.227
        74  -7.4590     74.8470    187.5963   1.3389062245e+02   2.7390821201e+01    0.1792262    0.1006922  52.26 0.0004164795    1.594    0.373
        75  -7.4881     89.2338    185.9500   1.3054076305e+02   2.5601348763e+01    0.1787903    0.1499351  86.15 0.0004068281    1.094    0.086
        76  -7.4672    141.9142    189.3510   1.1954489137e+02   1.5850188030e+01    0.1909936    0.1590773  45.83 0.0006239304    1.085    0.078
        77  -7.1302    144.0258    183.0028   1.1802425418e+02   1.6689775076e+01    0.1619775     0.150552  58.41 0.0003277073    1.035    0.034
        78  -7.3972     76.9913    181.6372   1.3270435024e+02   2.8365636997e+01    0.1761452    0.1479462  62.63 0.0003950853    1.096    0.088
        79  -6.9421    140.7148    177.6676   1.1782146665e+02   1.8377295005e+01    0.1355375    0.1127253  -2.65 0.0004273324    1.618    0.382
        80 -10.2520    100.9983    175.9943   1.2650552061e+02   2.5856300082e+01    0.1968654    0.1712791  72.03            0    1.015    0.015
        81  -6.6237     82.7042    176.3030   1.3073064193e+02   2.8687516475e+01    0.1377484   0.08987726  71.91 0.0002039905    1.579    0.367
        82  -7.6987     49.7584    175.1658   1.3803038096e+02   3.3413380351e+01     0.154272     0.141493 -67.49  0.001051962    1.345    0.256
        83  -7.0894     33.4055    174.5583   1.4156441599e+02   3.5403284464e+01    0.1189227   0.09506747  88.25 4.199333e-05    1.071    0.066
        84  -7.4027     45.4499    170.7513   1.3853540613e+02   3.4903889336e+01     0.165808     0.100911 -64.29 0.0009339016    1.568    0.362
        85  -7.2138    121.6259    169.7847   1.2075668845e+02   2.3590217878e+01    0.1866026    0.1315005 -71.56 0.0003778701    1.578    0.366
        86  -6.9048     97.6675    170.3057   1.2641286217e+02   2.7653106337e+01    0.1459657   0.09661813  71.47 0.0007038819    1.663    0.399
        87  -7.7995     50.8478    166.1942   1.3680915834e+02   3.5285434657e+01    0.2209793    0.1381378 -50.30 0.0007946524    1.919    0.479
        88  -7.6833     39.1369    164.1503   1.3928931311e+02   3.7095627398e+01     0.175751    0.1481384 -75.82 0.0004449717    1.203    0.169
        89  -6.8424     50.5282    157.5477   1.3587155755e+02   3.7293109410e+01    0.1287264    0.1070912  87.95 0.0008080386    1.012    0.012
        90  -7.4077    191.2345    151.9933   1.0183706004e+02   1.3087888477e+01    0.1881496    0.1223625 -39.27 0.0004905568    1.575    0.365
        91  -7.1415    114.2627    151.9870   1.1929087167e+02   2.8857645987e+01    0.1800594    0.1240203 -58.07 0.0003281607    1.462    0.316
        92  -7.0278     55.7196    151.3185   1.3380719936e+02   3.8099832207e+01    0.1346406   0.08738648  75.50 0.0002092993    1.580    0.367
        93  -9.1530    121.7516    147.9513   1.1666420930e+02   2.8355215099e+01    0.2446327    0.2168021  51.50  0.000233006    1.105    0.095
        94  -8.2547    133.2777    139.2638   1.1201003143e+02   2.8001395807e+01    0.3610292    0.2322131  -4.71  0.001164773    4.041    0.753
        95  -7.0335     64.2997    134.3175   1.2904171488e+02   4.0997718374e+01    0.1323211   0.09969736 -39.04 0.0007020781    1.617    0.381
        96  -8.8607    119.2346    132.9681   1.1414962355e+02   3.2222842644e+01    0.2462125    0.2143455  38.29 0.0002205561    1.212    0.175
        97  -7.4159     71.5054    131.4831   1.2659485765e+02   4.0679532174e+01    0.1389706    0.1231527 -82.10 4.095633e-05    1.007    0.007
        98  -7.2513     44.0087    117.0000   1.3185245591e+02   4.7554108132e+01    0.1812061   0.07530414  29.54 0.0007821433    2.804    0.643
        99  -8.2682    250.6243    113.4878   8.2476736608e+01   7.1943596376e+00    0.2401166    0.1200472 -33.54 2.907406e-05    1.797    0.444
       100  -8.1739    183.9951    112.0591   9.3791017515e+01   2.2283436963e+01    0.1825674    0.1805318 -39.13 0.0004115288    1.005    0.005
       101  -8.6058    134.5999    106.8095   1.0379630141e+02   3.4838041332e+01    0.2991934    0.2677056 -15.28  0.001516607    1.261    0.207
       102  -8.8147    142.0269     93.9875   9.8364970117e+01   3.5839498259e+01    0.2552129    0.1979296  11.18  0.001138452    1.712    0.416
       103  -7.1491    214.7611     92.9964   8.3111017624e+01   1.8397017022e+01    0.1939352     0.120956 -35.31 0.0004713312    1.534    0.348
       104  -9.8717    146.6002     85.3656   9.4727756035e+01   3.6476046183e+01    0.4099048     0.324029  51.67  0.001963945    1.264    0.209
       105  -8.3928    184.9590     78.0333   8.4354155757e+01   2.8280939213e+01    0.2515667    0.1903796  21.02  0.001133876    1.709    0.415
       106  -8.6336    163.2434     70.8664   8.6584524673e+01   3.5034673448e+01    0.3189696    0.1949414  32.35  0.001252001    2.142    0.533
       107  -7.8107    139.3858     70.7642   9.1992989786e+01   4.0964029017e+01    0.2158777    0.1477938 -24.48 0.0009394042    1.660    0.397
       108  -9.4951    157.3604     67.0611   8.6673278125e+01   3.7180256117e+01    0.3157909    0.2099193  40.90  0.001379695    1.608    0.378
       109  -8.1886    148.7620     64.0004   8.7614748564e+01   3.9862471048e+01    0.2033542     0.129463 -35.05  0.000584653    1.595    0.373
       110  -9.8682    243.7662     57.2178   7.0021837512e+01   1.7202506077e+01    0.3055213    0.2608847 -38.83 0.0004558474    1.122    0.109
       111  -8.5931    248.1059     52.9483   6.8510384139e+01   1.6823270983e+01    0.2748258    0.2358711  42.95 0.0007781856    1.413    0.292
       112  -7.0121     15.4526     56.4972   1.2945676209e+02   6.3701852865e+01    0.1197848    0.0940577 -51.45 0.0008087394    1.010    0.010
       113  -9.5011    152.3471     54.5747   8.3780191234e+01   4.0511194186e+01    0.3143226    0.2486583 -64.59 0.0009151815    1.442    0.307
       114 -10.4337    167.3682     48.8450   7.8946823161e+01   3.7518436370e+01    0.5868427    0.5262017  31.12  0.002347589    1.205    0.170
       115  -7.8538    244.2827     46.3577   6.7348814130e+01   1.8591566648e+01    0.2431665    0.1707703  88.97  0.001297156    1.511    0.338
       116  -7.7610    115.4923     41.9632   8.8200758080e+01   5.1395775374e+01    0.2134658    0.1412719 -28.81 0.0005816675    1.544    0.352
       117  -7.4970    228.7959     39.6201   6.7384235588e+01   2.3129039566e+01    0.1932384    0.1246552  87.25 0.0006331871    1.657    0.397
       118  -9.6550    139.7800     33.7459   7.9398809723e+01   4.6710104319e+01    0.2578499    0.2314176  46.28 0.0002550663    1.059    0.056
       119  -8.1429    173.2024     26.1873   7.0872067212e+01   3.9006824582e+01     0.206747    0.1620257 -69.11 0.0009033713    1.344    0.256
       120  -8.8043    183.8290     24.2841   6.8761887399e+01   3.6447304939e+01    0.3315166    0.2454429  86.69 0.0009446013    1.338    0.253
       121  -8.3753    165.8249     23.9785   7.1320298443e+01   4.1198736468e+01    0.3805352    0.1932768 -23.50  0.001602889    2.199    0.545
       122 -10.5113     37.8719    245.5558   1.4571147192e+02   2.0926277665e+01    0.3624128    0.2546279  77.12  0.002796159    1.142    0.124
       123  -6.8525     77.6889    248.7150   1.3917044973e+02   1.5337203018e+01   0.09401445   0.08424264  34.72 0.0003388008    1.574    0.365
