#   1 NUMBER                 Running object number                                     
#   2 MAG_AUTO               Kron-like elliptical aperture magnitude                    [mag]
#   3 X_IMAGE                Object position along x                                    [pixel]
#   4 Y_IMAGE                Object position along y                                    [pixel]
#   5 X_WORLD                Barycenter position along world x axis                     [deg]
#   6 Y_WORLD                Barycenter position along world y axis                     [deg]
#   7 A_WORLD                Profile RMS along major axis (world units)                 [deg]
#   8 B_WORLD                Profile RMS along minor axis (world units)                 [deg]
#   9 THETA_WORLD            Position angle (CCW/world-x)                               [deg]
#  10 FWHM_WORLD             FWHM assuming a gaussian core                              [deg]
#  11 ELONGATION             A_IMAGE/B_IMAGE                                           
#  12 ELLIPTICITY            1 - B_IMAGE/A_IMAGE                                       
         1 -13.3340      3.8032    139.4240   1.2076473896e+02   4.4683821242e+01     4.219053    0.8308671 -77.38   0.01232265    5.419    0.815
         2 -13.4720     38.3241    195.5867   1.1816288913e+02   2.8666130178e+01     3.883542     1.563214  75.17   0.01406189    4.230    0.764
         3 -12.0668    204.2990     38.7003   4.4203641603e+01   2.9997460007e+01    0.9641964    0.7044111  70.19  0.005017754    1.375    0.273
         4 -11.4692    218.8095     26.7003   3.9565222859e+01   2.8151295996e+01    0.7264193    0.5497121 -16.19  0.002278003    1.585    0.369
         5 -11.9079    210.9371     33.4658   4.2075561884e+01   2.9121906582e+01    0.9236484    0.6029221 -39.17  0.005008101    1.431    0.301
         6 -10.2060      2.2423     25.4211   9.8612388905e+01   7.0151364447e+01    0.5360907   0.03958184 -52.45  0.001618321    5.950    0.832
         7 -11.7069    230.8980     14.6574   3.5655669990e+01   2.6853616851e+01    0.6859561    0.5457225 -63.54  0.002676412    1.082    0.076
         8 -10.4056      2.1903      6.6252   9.0382192272e+01   7.3280775318e+01    0.6390533    0.1467836 -42.43  0.002782616    3.173    0.685
         9  -9.6215     37.9481    230.6565   1.2106324443e+02   2.1427279711e+01    0.2080951    0.1401771 -80.83 0.0003556449    1.369    0.270
        10  -9.6612     76.4865    247.5031   1.1532486092e+02   1.3671849060e+01    0.2862781    0.1992857  36.83  0.001550357    1.405    0.288
        11  -9.9670     81.8218    244.8241   1.1409444074e+02   1.3458890272e+01    0.2568261     0.164775 -43.65  0.001516507    2.214    0.548
        12  -9.5555     85.8722    249.3988   1.1376751594e+02   1.2114667585e+01     0.208744     0.178665  53.47 0.0008501124    1.084    0.077
        13  -9.4744     81.1424    250.2862   1.1471791105e+02   1.2578739322e+01    0.4235091    0.1433662  36.36  0.001959337    2.651    0.623
        14 -10.2465     59.7450    249.6263   1.1852604784e+02   1.5374823062e+01    0.6785844    0.2889022  33.77  0.003042621    2.386    0.581
        15  -9.8508     69.9886    247.2552   1.1649237817e+02   1.4540770547e+01    0.3308576    0.2782793   7.37  0.002313011    1.774    0.436
        16 -10.0721     32.1347    248.5246   1.2324829144e+02   1.8706726679e+01    0.4357423    0.3460535 -62.27  0.003311772    1.615    0.381
        17  -8.7024     28.4711    245.9799   1.2371963823e+02   1.9554834861e+01    0.3547123    0.1425304 -62.51  0.001981518    2.670    0.625
        18 -11.7577     17.9262    218.8496   1.2394778801e+02   2.5822485788e+01    0.6352273    0.4572242  62.13  0.002110022    1.167    0.143
        19 -12.6575      8.9833    207.0388   1.2488248083e+02   2.9062414525e+01    0.8794236     0.816601  24.07  0.003685967    1.540    0.351
        20 -11.6478      9.6663    233.7067   1.2624264280e+02   2.3701991866e+01    0.7743614    0.5884188  85.57  0.006097428    1.140    0.123
        21 -12.1157      3.2634    245.1718   1.2783858377e+02   2.2171737893e+01     1.304327    0.7084232  43.06  0.009237384    1.659    0.397
        22 -11.2889      3.5537    229.8107   1.2708722217e+02   2.5002308527e+01    0.8377516    0.4033429 -77.02  0.005332062    1.799    0.444
        23 -11.8074    124.9504    230.0142   1.0402380954e+02   1.0029192023e+01     1.107234    0.4126854  28.23  0.003910109    3.956    0.747
        24  -9.9881     27.0328    230.2493   1.2301379024e+02   2.2663150288e+01    0.3229203    0.1945477  47.75 0.0008476554    1.455    0.313
        25  -8.3304     90.0784    231.0516   1.1113018649e+02   1.4892675121e+01    0.1944055      0.12453  64.99  0.000461746    1.628    0.386
        26  -8.0960     33.2910    226.9713   1.2165944036e+02   2.2649870198e+01    0.1589995    0.1161192  87.59 0.0006126203    1.168    0.144
        27 -10.3989     83.6725    226.6280   1.1193040329e+02   1.6617312392e+01    0.6043583     0.229517 -63.17  0.002757323    2.761    0.638
        28  -9.3783     87.9942    226.8307   1.1108829597e+02   1.5988475656e+01    0.2703738    0.1795122  59.04 0.0004361204    1.432    0.302
        29  -9.0208    167.9751    225.0410   9.4618989129e+01   4.1885756173e+00    0.2079482    0.1463496   0.90 0.0008248584    1.717    0.418
        30  -8.1946    164.6763    222.3360   9.4852514894e+01   5.1665122754e+00    0.1254819    0.1005739  67.22 0.0007050979    1.714    0.417
        31  -9.9382     30.0515    218.7691   1.2168663340e+02   2.4629160547e+01    0.3633006    0.2352301 -82.69  0.002335478    1.356    0.262
        32 -10.9212     95.5976    247.2097   1.1174388619e+02   1.1192438384e+01    0.5395342    0.2387766  38.64  0.002803052    1.933    0.483
        33 -10.9527      6.9085    185.1894   1.2386700307e+02   3.3918679656e+01    0.4539791     0.246937  84.61  0.001416716    1.585    0.369
        34 -11.2490      2.5168    183.0284   1.2461899797e+02   3.4744317086e+01    0.8238096    0.2004152 -76.75  0.003324367    3.302    0.697
        35 -10.0825     58.4109    180.6327   1.1212299318e+02   2.9758803492e+01    0.4129471    0.2537329 -40.90  0.001608593    2.123    0.529
        36 -10.1265     64.0916    174.8391   1.1004400516e+02   3.0404374776e+01    0.3212318    0.2375277 -44.50 0.0008287162    1.539    0.350
        37  -9.8184     74.3662    164.9319   1.0609871577e+02   3.1403863987e+01    0.2988786    0.2333676 -46.48 0.0004876758    1.350    0.259
        38 -11.0798     81.8725    158.7232   1.0318308784e+02   3.1841555976e+01    0.7867324    0.6100582 -63.44  0.001414316    1.200    0.166
        39 -10.8077     73.6666    154.5413   1.0460260255e+02   3.4007349895e+01    0.7395929    0.4121699  66.19  0.003002255    2.661    0.624
        40 -11.3801     68.1656    144.2376   1.0430092206e+02   3.7267760493e+01    0.7405357    0.5229567  82.25  0.002755396    1.708    0.415
        41 -11.6722     61.2504    161.1629   1.0883090682e+02   3.4018992764e+01    0.5175601    0.2816855 -43.65  0.001322458    2.130    0.530
        42  -9.2520     20.4898    194.4240   1.2176522256e+02   3.0704596618e+01    0.2382457   0.09678409 -75.08 0.0008019326    2.088    0.521
        43  -9.5424     96.6204    143.7360   9.6488186282e+01   3.3206303808e+01    0.3130199     0.274907 -30.86  0.001447561    1.210    0.174
        44 -10.5327     84.5371    142.3310   9.9479429460e+01   3.5431376233e+01    0.3268279    0.2756074 -43.76 0.0005189066    1.177    0.150
        45  -8.0461    193.3967    192.7673   8.3780441334e+01   5.5227062837e+00    0.1969731    0.1215499 -28.06 0.0009537366    1.662    0.398
        46 -10.3548     59.3564    135.6301   1.0521672714e+02   4.0509707569e+01    0.5703648    0.2321864 -74.36  0.001844323    3.725    0.732
        47 -11.4583     29.8144    208.5656   1.2098080339e+02   2.6760615239e+01    0.5195265    0.3442785 -43.60  0.002031809    2.182    0.542
        48  -9.2528    107.6390    131.7380   9.0877392304e+01   3.4215647093e+01    0.4498838    0.3606783  26.51  0.002157872    1.373    0.272
        49 -10.2000     74.9418    135.9961   1.0089550450e+02   3.8375891298e+01    0.4703773    0.2922382  68.02  0.001540948    2.359    0.576
        50  -8.9427     95.7787    128.0212   9.3312982112e+01   3.7134231370e+01    0.3262861     0.249387  -7.55  0.001552042    1.697    0.411
        51  -8.1498    106.0597    120.1674   8.8530875394e+01   3.7226901861e+01    0.2260305    0.1952891 -13.91 0.0002592904    1.259    0.206
        52  -7.8613    168.3954    113.2484   7.0908834896e+01   2.5979824595e+01     0.227727    0.1394835 -48.70 0.0009422405    1.688    0.408
        53  -8.0890    205.8408    110.7895   6.2762219784e+01   1.8285093032e+01    0.2031322    0.1727492 -61.62  0.000765633    1.330    0.248
        54  -8.0787     40.5668    246.9994   1.2170839406e+02   1.8066376117e+01    0.1546647   0.09286556 -81.36 0.0004181429    1.590    0.371
        55 -10.7868      1.7707     86.8654   1.1457264548e+02   5.7255177455e+01     1.036859   0.09466618 -67.27  0.002818878    5.993    0.833
        56  -7.8962    161.2462     81.9600   6.3688907981e+01   3.3604219269e+01    0.2084045    0.1259072 -36.69 0.0008837355    1.590    0.371
        57  -9.6826      1.8986     63.7497   1.1004519812e+02   6.2462865837e+01    0.3499883    0.1218856 -69.06  0.001469517    2.829    0.647
        58 -10.3969      2.5142     50.8420   1.0663071246e+02   6.5186693882e+01    0.5311815    0.1413095 -61.32  0.002148612    3.025    0.669
        59  -9.8692     13.1404     59.8903   1.0452328295e+02   6.2667422583e+01    0.2099186    0.1847793 -58.22   0.00085803    1.244    0.196
        60 -10.4815    195.2632     48.5278   4.8025153615e+01   3.0815062271e+01    0.4443128    0.1612127 -35.78  0.001698573    2.499    0.600
        61  -9.8263    114.2360    243.0787   1.0774575736e+02   9.2994278253e+00    0.3045742    0.1638927 -60.52  0.001382302    2.176    0.541
        62  -9.4029    118.8005    241.0685   1.0662553075e+02   8.9869278572e+00     0.229233    0.1573759  10.35  0.001253309    2.128    0.530
        63  -8.6497    134.2199     41.1147   5.6555126620e+01   4.6435707525e+01    0.2504508    0.1832515 -51.07 0.0009780574    1.593    0.372
        64  -7.4166     34.3241    238.3041   1.2223433194e+02   2.0356604834e+01   0.09403723   0.08347864 -48.45  0.000703211    1.640    0.390
        65  -8.4656     61.7428    235.4285   1.1701901857e+02   1.7749242762e+01    0.1890277    0.1404566 -86.71 0.0005481651    1.289    0.224
        66 -10.0964     40.7693    235.3622   1.2088263002e+02   2.0210697525e+01    0.2255514    0.1548327  78.06 0.0004801936    1.244    0.196
        67  -7.8646    189.5210     15.4632   3.9811590481e+01   3.6120135323e+01    0.1281783     0.116888 -86.38  0.000416763    1.003    0.003
