#   1 NUMBER                 Running object number                                     
#   2 MAG_AUTO               Kron-like elliptical aperture magnitude                    [mag]
#   3 X_IMAGE                Object position along x                                    [pixel]
#   4 Y_IMAGE                Object position along y                                    [pixel]
#   5 X_WORLD                Barycenter position along world x axis                     [deg]
#   6 Y_WORLD                Barycenter position along world y axis                     [deg]
#   7 A_WORLD                Profile RMS along major axis (world units)                 [deg]
#   8 B_WORLD                Profile RMS along minor axis (world units)                 [deg]
#   9 THETA_WORLD            Position angle (CCW/world-x)                               [deg]
#  10 FWHM_WORLD             FWHM assuming a gaussian core                              [deg]
#  11 ELONGATION             A_IMAGE/B_IMAGE                                           
#  12 ELLIPTICITY            1 - B_IMAGE/A_IMAGE                                       
         1 -12.9434    185.1157     38.5151   5.6287131392e+01   3.4084761492e+01     1.435254     1.074006  16.20  0.004508101    1.632    0.387
         2 -12.6454    207.9277      6.8192   4.3813269822e+01   3.1813693213e+01    0.9732538    0.9072846  67.21   0.00434726    1.120    0.107
         3  -8.0502     84.1934    245.9564   1.1948457422e+02   1.5884399751e+01    0.1094087   0.07620017 -81.69 0.0003702243    1.604    0.376
         4 -11.0861    248.9910    242.3323   9.1556789041e+01  -7.1796670705e+00    0.2785381    0.1842365 -12.37  0.002074442    1.514    0.340
         5 -10.3335     70.8539    210.1049   1.1902295851e+02   2.3547477935e+01    0.1696966    0.1256754  60.00 0.0003063439    1.059    0.056
         6  -9.9186     63.3686    206.4057   1.2012934967e+02   2.5170140949e+01    0.2155735    0.1430942  60.91 0.0005771984    1.205    0.170
         7  -9.5990    138.6019    206.2009   1.0557404905e+02   1.4253260410e+01    0.1509136     0.117023 -38.37 0.0006574036    1.630    0.386
         8  -9.2022    167.8993    232.7496   1.0364187954e+02   5.7053042491e+00    0.2089352    0.1478919  42.93 0.0007465668    1.145    0.126
         9 -10.4169    140.3306    201.1384   1.0455104360e+02   1.4803777225e+01    0.2718933    0.1464678  39.83  0.001420038    1.608    0.378
        10  -9.5309    192.4609    193.9372   9.3458868367e+01   7.0181968829e+00    0.4967046    0.2592666 -61.90  0.001495973    7.599    0.868
        11 -10.4032     65.1639    197.5704   1.1903511095e+02   2.6599324902e+01    0.3040928    0.2061055 -45.94  0.001639908    2.206    0.547
        12  -8.8207     81.4017    196.5028   1.1571388321e+02   2.4658350756e+01    0.1930778    0.1504223 -37.08 6.263905e-05    1.979    0.495
        13  -9.0835    151.4736    196.4839   1.0169832920e+02   1.3704356063e+01    0.1275896    0.1090457  43.56  -1.1531e-05    1.008    0.008
        14  -7.7715    161.2318    199.9430   1.0032288956e+02   1.1489607629e+01    0.1414933    0.1071123 -47.43 0.0006992549    1.567    0.362
        15  -9.1951     96.9612    194.9848   1.1241952049e+02   2.2726256730e+01    0.2004995    0.1240588  65.63 0.0006854374    1.637    0.389
        16  -8.3893     72.0667    231.3446   1.2047707716e+02   1.9736550891e+01      0.13539   0.09666509  65.39 0.0005144295    1.108    0.098
        17  -8.6414     94.4484    189.4798   1.1229320214e+02   2.4139737893e+01    0.1244725    0.1034775  65.00 0.0001137241    1.014    0.013
        18 -11.0901     74.8926    183.8788   1.1573201201e+02   2.8001640059e+01    0.6412629     0.511663 -82.56  0.004286976    1.211    0.174
        19 -19.4565     28.0252    144.1975   1.2220821442e+02   4.1901523149e+01     18.39645      3.24753 -74.56   0.05672072    5.390    0.814
        20  -8.2401    154.2757    185.6467   9.9460843874e+01   1.5031178958e+01    0.1267187   0.09891859  77.12 0.0007005855    1.644    0.392
        21  -8.9266    147.7639    184.3777   1.0057582144e+02   1.6395965964e+01     0.190934    0.1122169  35.21 0.0009518514    1.647    0.393
        22 -10.5054    108.8607    183.9992   1.0859937103e+02   2.2991410838e+01    0.2691601    0.2149291  19.97   0.00159996    1.632    0.387
        23  -9.7164    128.3954    182.8119   1.0433237199e+02   2.0018624218e+01    0.1747152    0.1214767 -42.84 0.0009585241    1.729    0.422
        24  -9.8008     99.2947    180.7909   1.1020354299e+02   2.5102869850e+01    0.2209173    0.1846494  52.86 0.0005876269    1.099    0.090
        25  -9.0372    204.2075    175.7554   8.8024356864e+01   7.5806635379e+00    0.2669203    0.1980314 -15.90 0.0008362171    1.422    0.297
        26  -8.5304    196.9953    176.5204   8.9511740111e+01   8.7772881872e+00    0.2071157    0.1177032  41.06  0.001031529    1.589    0.371
        27 -11.1564    116.7781    173.5151   1.0541602386e+02   2.3744128288e+01    0.5182846    0.1670822  39.71  0.001945714    2.915    0.657
        28 -10.5731    103.8269    172.0850   1.0804001938e+02   2.6135763071e+01    0.3482759    0.3160437  -3.85  0.002182723    1.488    0.328
        29  -7.7103    117.6744    162.2901   1.0345174909e+02   2.5839849468e+01    0.1390841   0.09822715  70.91  0.000333866    1.614    0.380
        30  -8.8811     59.2986    228.7297   1.2251027001e+02   2.1744713121e+01     0.109991    0.0587424  61.88 0.0006934722    1.524    0.344
        31 -10.0777     93.7567    158.8097   1.0838785099e+02   3.0475177861e+01    0.2514843    0.2123982 -65.03 0.0005151259    1.218    0.179
        32 -10.9810     99.1186    152.0537   1.0607913612e+02   3.1082846052e+01    0.5592929    0.4115562 -36.46  0.002967385    1.779    0.438
        33  -9.8300    133.9199    145.8037   9.6754319563e+01   2.6283349200e+01    0.9607003    0.2271225 -54.42  0.002368438    6.360    0.843
        34 -10.2349     55.7231    211.6879   1.2196241817e+02   2.5140047279e+01     0.180529    0.1315942  62.94 0.0004352454    1.045    0.043
        35  -8.6498    144.0000    147.0070   9.4690733703e+01   2.4103131950e+01    0.2356831   0.08175443 -47.48  0.000813696    3.021    0.669
        36  -9.7703    109.4324    138.0491   1.0110936112e+02   3.2409044050e+01    0.4257023    0.2517068 -34.44  0.001807884    2.432    0.589
        37 -10.8594     98.0620    137.7583   1.0389039918e+02   3.4399574139e+01    0.2742929    0.2597822 -76.02 0.0004422434    1.089    0.081
        38  -9.5750    105.8713    130.9125   1.0061411499e+02   3.4609681791e+01    0.3466747    0.2791763 -80.83  0.001121162    1.302    0.232
        39  -9.2102    116.1203    129.2168   9.7672447511e+01   3.3149110125e+01    0.2861829    0.2465718 -14.00 0.0009489488    1.462    0.316
        40  -9.6467    103.9160    125.0364   9.9927007565e+01   3.6268065941e+01     0.285495    0.2370271 -28.80 0.0008147403    1.465    0.317
        41  -8.4207    110.9500    118.3284   9.6638349212e+01   3.6515140635e+01    0.1990433     0.181764  54.54 0.0003499752    1.108    0.097
        42  -9.1777    205.3126    110.1320   7.3303738071e+01   1.7860600838e+01    0.3350081    0.1959271  36.60  0.001439918    1.871    0.466
        43  -8.9039    168.0381    113.0097   8.1511638842e+01   2.5749050470e+01    0.3644148    0.2536239 -79.89  0.001472156    2.401    0.584
        44  -7.8265    134.6356    106.3171   8.7611227523e+01   3.4435932521e+01    0.1588508    0.1210219  88.85  0.000504776    1.772    0.436
        45 -12.0767     49.9394    218.0327   1.2344677070e+02   2.4688281121e+01    0.3430475     0.146247  54.53  0.001827786    1.841    0.457
        46  -8.5540     60.5042    217.9003   1.2154292443e+02   2.3456687743e+01    0.1463356   0.08983128  85.79  0.000961509    1.558    0.358
        47  -7.9878     60.1739    213.7205   1.2129483120e+02   2.4237384205e+01    0.1002101   0.06304172  74.65 0.0002853324    1.405    0.288
        48 -10.5561    166.7423     66.8880   6.8634933232e+01   3.4524055001e+01    0.4143452    0.3409804 -75.21 0.0005592583    1.446    0.308
        49 -11.7305    170.5629     53.3430   6.3558363251e+01   3.5744845032e+01     0.743408    0.5260804 -28.78  0.001485853    1.405    0.288
        50  -9.3904    239.4936    248.9928   9.3980199045e+01  -6.5110208108e+00    0.1377131   0.09394576 -17.64  0.001036835    1.605    0.377
        51 -11.7315    189.9416     32.2268   5.3589447565e+01   3.3636095063e+01    0.5694293     0.548085 -13.51  0.001329276    1.078    0.072
        52  -9.7848    189.9738     15.1850   4.8257710737e+01   3.5609874770e+01    0.2547809    0.2110476 -27.60 0.0009842768    1.226    0.185
