#   1 NUMBER                 Running object number                                     
#   2 MAG_AUTO               Kron-like elliptical aperture magnitude                    [mag]
#   3 X_IMAGE                Object position along x                                    [pixel]
#   4 Y_IMAGE                Object position along y                                    [pixel]
#   5 X_WORLD                Barycenter position along world x axis                     [deg]
#   6 Y_WORLD                Barycenter position along world y axis                     [deg]
#   7 A_WORLD                Profile RMS along major axis (world units)                 [deg]
#   8 B_WORLD                Profile RMS along minor axis (world units)                 [deg]
#   9 THETA_WORLD            Position angle (CCW/world-x)                               [deg]
#  10 FWHM_WORLD             FWHM assuming a gaussian core                              [deg]
#  11 ELONGATION             A_IMAGE/B_IMAGE                                           
#  12 ELLIPTICITY            1 - B_IMAGE/A_IMAGE                                       
         1 -11.9187    119.9019     37.5662   3.5376221952e+00   4.9966507760e+01    0.6951004    0.3774041 -54.64  0.001727274    2.010    0.502
         2 -12.7152    249.3644     35.9475   3.4934239697e+02   2.3376003403e+01    0.9076226     0.203124 -32.66  0.003669513    3.835    0.739
         3 -13.3978    245.7087     21.9051   3.4681535433e+02   2.5544746284e+01    0.6839908    0.5672445 -64.95  0.005616284    1.225    0.183
         4 -13.0879    239.5108     14.9809   3.4575199266e+02   2.7321901874e+01    0.8553572    0.4012298  60.32  0.004656876    2.866    0.651
         5 -12.4607    245.8797      4.4827   3.4345443421e+02   2.7326723267e+01    0.6590692    0.3430976 -66.89  0.004513614    1.589    0.371
         6 -12.3489    236.5132      4.6045   3.4382758404e+02   2.8895939103e+01    0.4693036    0.2695136 -42.13  0.003265463    1.313    0.238
         7 -12.0512    227.1760     14.4101   3.4622485204e+02   2.9532268074e+01    0.4276668    0.1638353 -61.31  0.002244332    2.298    0.565
         8 -10.6039     47.1210     21.6352   1.8461555485e+01   6.8949926014e+01    0.4579714    0.2786636 -33.00  0.002124241    1.759    0.432
         9 -11.6943     58.3397     29.0967   1.7417928531e+01   6.5531641629e+01    0.6192283     0.393314 -10.42  0.001207978    2.334    0.572
        10 -11.8592     26.5949     27.9239   3.3524333877e+01   7.1572335931e+01    0.5096078    0.4144474 -46.69  0.001949297    1.328    0.247
        11 -11.3565     20.8665     21.5471   3.3947309182e+01   7.3563411027e+01     0.574253    0.3676026 -24.86  0.002412933    1.725    0.420
        12 -10.6051    135.1055     21.6816   3.5572812181e+02   4.8272078181e+01    0.4740898    0.2125841 -25.81  0.002068846    2.510    0.602
        13 -11.1789    127.2733     15.1541   3.5460660858e+02   5.0864501362e+01    0.4704338    0.2933543 -19.17  0.001782803    1.948    0.487
        14 -10.8156    134.5218     14.7179   3.5353688243e+02   4.9160835965e+01     0.619575    0.2074212  64.86  0.002535423    2.609    0.617
        15 -10.8563     69.0625     20.1246   9.0022543716e+00   6.4390981775e+01    0.3999602     0.295267 -23.24  0.002011155    1.516    0.340
        16 -11.9137     35.8755     18.0918   2.2232431806e+01   7.1643017310e+01    0.5935242    0.4892588 -31.34  0.002547988    1.282    0.220
        17 -11.9588      9.0754     19.5191   4.2069299910e+01   7.5436662706e+01    0.4241019    0.2546026  -6.05 0.0003659135    1.992    0.498
        18 -11.9932     23.9175     10.8800   2.5062975627e+01   7.4815559189e+01    0.5861613    0.4113773  39.53  0.003000527    1.337    0.252
        19 -11.5256     16.0193     15.0034   3.3652095665e+01   7.5382756927e+01    0.7570901    0.3854382 -31.11  0.003611796    2.223    0.550
        20 -11.5309     14.9950      9.3683   3.0704453751e+01   7.6448367106e+01    0.6504475     0.326563  40.07  0.002557754    1.951    0.488
        21 -11.9521    164.0127     18.5036   3.5153313153e+02   4.1886860777e+01    0.3272985    0.2533005  36.97  0.001125225    1.798    0.444
        22 -10.6890     88.6852      8.2205   3.5826576487e+02   6.0991354440e+01    0.3949281    0.3169626 -89.57  0.001822634    1.215    0.177
        23 -11.0688     85.8856     14.0902   1.4974836556e+00   6.1093982227e+01    0.4517299    0.3811363 -57.16  0.001921671    1.257    0.205
        24  -9.2794     84.7168      9.6811   3.5976739362e+02   6.1819273958e+01    0.1729624    0.1653916  28.76  0.000401904    1.160    0.138
        25 -11.7738    104.5996     11.6236   3.5672911565e+02   5.6765754695e+01    0.4784456    0.3034812 -25.06  0.001597381    1.764    0.433
        26 -12.1936     48.8228     12.7491   1.2598190480e+01   6.9775362598e+01    0.7233928    0.2543426  52.80  0.002921036    2.496    0.599
        27 -10.0737    190.8855     12.3960   3.4784231501e+02   3.6735548864e+01    0.2791529    0.1078882 -40.37 0.0006493407    2.003    0.501
        28 -11.2047    211.7218     10.0484   3.4608141257e+02   3.2842808746e+01    0.3265465    0.2139305 -22.89  0.001263131    1.819    0.450
        29  -9.9132    121.3697     11.3548   3.5408265457e+02   5.2680925107e+01    0.3052639    0.1781821 -83.22  0.001513415    1.778    0.438
        30 -12.4553     63.4425      9.3986   5.2773872211e+00   6.6898354499e+01    0.4225653    0.3568693 -50.54  0.002588641    1.336    0.251
        31 -10.3006      5.3854      9.2147   3.9132319260e+01   7.7728156538e+01    0.5201451    0.2001345 -49.68  0.002351318    2.660    0.624
        32 -10.3480    168.6488      9.5855   3.4869993355e+02   4.1780106512e+01    0.2926112     0.175315  62.13  0.001083971    1.799    0.444
        33 -10.2133      1.3085      7.6577   4.2151156362e+01   7.8441786975e+01    0.2882639   0.08914167 -47.73  0.001213316    2.951    0.661
        34  -9.5436    185.5296      6.9874   3.4686071480e+02   3.8397549744e+01    0.1698811    0.1034786 -34.46 0.0008860453    1.547    0.354
        35  -9.6505     77.9402      7.1676   1.4518953205e-01   6.3693351985e+01     0.202578    0.1617734 -84.32 0.0008240566    1.315    0.239
        36 -11.0088     40.5077      4.2652   1.1007854496e+01   7.2491388207e+01    0.3163838    0.2571678  25.28  0.001350822    1.191    0.161
        37  -9.1265    148.5108      5.4698   3.4918806268e+02   4.6753090583e+01    0.1255395    0.1059719 -76.75 9.860026e-05    1.026    0.025
        38  -9.6441    128.8933      4.8751   3.5092753672e+02   5.1458971165e+01    0.1703221    0.1533224  75.79  0.001112408    1.150    0.131
        39  -9.6776     70.5285      4.9902   9.0794787352e-01   6.5662734600e+01    0.2443654    0.1421685  46.29  0.001046836    1.633    0.388
        40  -9.8347     74.5827      2.6796   3.5873120659e+02   6.4895839304e+01    0.3227054    0.1652133  77.42  0.001500432    2.005    0.501
        41 -11.0851    218.7699      2.7899   3.4417863846e+02   3.2245175448e+01    0.2433135    0.1955239 -56.27   0.00187188    1.138    0.121
        42 -10.9293    223.6851      2.2339   3.4385666770e+02   3.1398262065e+01    0.1945833    0.1769692 -55.66 0.0006740171    1.339    0.253
        43 -10.9745    113.8087      2.2932   3.5179296778e+02   5.5346251402e+01    0.3282852    0.2288849 -82.60  0.001280083    1.337    0.252
        44  -9.1946     30.4894      4.5103   1.6399693673e+01   7.4474015759e+01    0.1249731    0.1106739  30.70 8.516198e-05    1.042    0.040
        45 -10.9557    207.2515      2.1412   3.4455223591e+02   3.4489651828e+01    0.3709582    0.1686977 -88.85  0.002072964    2.149    0.535
        46 -10.8430    134.1355      2.2354   3.4951171619e+02   5.0432599194e+01    0.3322996    0.1963699  72.63  0.001064908    1.527    0.345
        47 -10.1022      1.8431      2.0961   3.7574290269e+01   7.9335275751e+01    0.2298485    0.1467937 -29.31   0.00136032    1.524    0.344
        48  -9.2789    141.5076      2.5177   3.4891075926e+02   4.8659532919e+01    0.1260322    0.1062998 -78.76 0.0008072573    1.018    0.018
        49 -10.0411    105.4847      1.7786   3.5270852314e+02   5.7428343666e+01     0.259573    0.1476922 -81.15 0.0009581398    1.846    0.458
        50  -9.2248     33.6117      2.1359   1.2960949736e+01   7.4130995709e+01    0.1629056     0.113634  -3.78   0.00046228    1.646    0.393
        51  -9.7984     11.8132      2.0809   2.7896549343e+01   7.8011052211e+01    0.2235216    0.1555407  30.54  0.001363618    1.294    0.227
        52  -8.9543    167.2327      1.2360   3.4655235865e+02   4.2889243972e+01   0.09758235   0.08688098  62.87            0    1.372    0.271
        53  -9.5967    152.5692      1.3119   3.4762404764e+02   4.6190893477e+01    0.1961678   0.09970383  80.34 0.0005557449    1.786    0.440
        54  -9.2274    128.6686      1.3211   3.4975592098e+02   5.1820470651e+01    0.1385626   0.07898378 -63.02 0.0007049223    1.696    0.410
        55  -9.4949    105.0462    142.2485   3.7254518301e+01   3.1805156796e+01    0.2035355    0.2012127  65.12 0.0004676251    1.038    0.037
        56  -9.2909    197.6829    250.6824   3.4961347290e+01  -7.4285766274e-01    0.1132981   0.06375513  -9.20 0.0004990575    1.654    0.396
        57  -9.6587    227.7617    139.5878   1.1851884657e+01   1.2269797799e+01    0.1354732    0.1174364  63.82 0.0009469624    1.650    0.394
        58 -11.0783     40.2053    137.5567   5.7372858309e+01   4.2538453793e+01    0.3149031    0.2493563  87.69 0.0002654132    1.278    0.218
        59 -10.0727     40.0699    133.0951   5.6764281363e+01   4.3786876540e+01    0.2973298    0.2177077  11.05  0.000459097    1.548    0.354
        60 -11.1257     25.1717    135.5630   6.2536782295e+01   4.4619894784e+01    0.3396012    0.2809671 -11.11   0.00179055    1.398    0.285
        61 -11.1678     30.1620    132.7238   6.0347609216e+01   4.4937100171e+01    0.4888697    0.3362124 -85.51  0.001797529    1.456    0.313
        62 -10.4934     20.6169    133.8499   6.4007533870e+01   4.5497716732e+01    0.2401214    0.2067974 -10.28  0.001089724    1.324    0.245
        63 -10.0164     62.7641    130.6437   4.8234108662e+01   4.1540486894e+01    0.3398186    0.2647753 -59.72  0.001655953    1.250    0.200
        64  -9.8662    104.3684    130.1456   3.4836792882e+01   3.4842694519e+01    0.2477034    0.2091079  19.54 0.0005570753    1.299    0.230
        65 -10.9896     11.2750    125.2870   6.6605046662e+01   4.8612559523e+01    0.5705078     0.239349 -50.11  0.002218476    2.373    0.579
        66 -10.2565     93.4184    131.0190   3.8276884896e+01   3.6556812607e+01    0.5860213    0.2262433 -45.39  0.001955471    2.725    0.633
        67  -9.3759     33.2901    125.6265   5.8170651908e+01   4.6597376548e+01    0.1619735    0.1052192  65.34 0.0007022057    1.724    0.420
        68 -10.8741    104.2058    122.3992   3.3096633766e+01   3.6732136536e+01    0.3429933    0.3057882  41.62  0.001265029    1.149    0.130
        69  -9.4863     79.1243    123.1478   4.1101534613e+01   4.0977924465e+01    0.2215375    0.1845845  74.10  0.001075922    1.345    0.256
        70  -9.4563     49.5019    122.4983   5.1495582120e+01   4.5565257973e+01    0.1520737    0.1455744 -88.78 0.0008106241    1.018    0.018
        71 -10.6986     43.7572    116.8487   5.2645296982e+01   4.7840301498e+01    0.5591943    0.2851671 -74.66  0.002152748    2.148    0.534
        72 -10.2489     79.1708    114.6428   3.9132301442e+01   4.3148402536e+01     0.318285    0.2820542   4.36  0.001131955    1.271    0.213
        73  -9.8115     58.5176    115.0028   4.6611604107e+01   4.6351941913e+01    0.2373851    0.1495603 -63.57 0.0004343693    1.564    0.361
        74 -10.8861     35.5779    102.7327   5.3268281828e+01   5.2677289278e+01    0.5625079    0.2925774   9.74 0.0005391427    2.512    0.602
        75 -11.4579     15.8391    108.2782   6.2712065496e+01   5.3028137460e+01    0.4964859    0.3490566 -36.86  0.002403058    1.510    0.338
        76 -12.6110     17.9487    100.9086   6.0692385725e+01   5.4904195173e+01     1.497465    0.6542146  43.24  0.004381865    2.455    0.593
        77 -12.0177     22.7625     94.6545   5.7417696404e+01   5.6202242069e+01     0.921589    0.4196811  26.92  0.002807474    2.200    0.545
        78 -12.3158     25.1724    113.3629   5.9532267758e+01   5.0818179956e+01     1.036859    0.4103033   7.67  0.003348692    3.690    0.729
        79 -12.5267     26.0374    106.8019   5.8114002310e+01   5.2558928353e+01     0.747949    0.3799693 -51.71 0.0003711223    1.857    0.461
        80  -9.8501      7.6711    114.3696   6.6890876659e+01   5.1900861604e+01    0.2855519    0.2246898 -37.06   0.00095304    1.347    0.258
        81 -11.9941      2.8176    111.3303   6.8586694238e+01   5.3032596384e+01    0.4692724    0.3646789 -84.97  0.001567772    1.182    0.154
        82 -11.2833      4.1398    105.0523   6.7365277397e+01   5.4701571992e+01    0.4620597    0.3697959  32.00   0.00194506    1.333    0.250
        83  -9.9515     66.8676    113.5306   4.3201151283e+01   4.5470136455e+01    0.3657733    0.2135334 -75.02  0.001413063    2.165    0.538
        84  -9.1771    170.7364    112.3603   1.5084204524e+01   2.6094305297e+01    0.1409255    0.1004237 -63.97 0.0006983898    1.635    0.388
        85 -11.2921    104.8198    108.7309   2.9525907963e+01   3.9839384375e+01    0.5715843    0.4996759 -59.41  0.002945927    1.130    0.115
        86 -10.3079     49.1143    111.8234   4.9555585764e+01   4.8524409492e+01    0.2555089    0.2438244  57.99 0.0005971561    1.066    0.062
        87 -11.8217     79.0297    108.5622   3.7695616544e+01   4.4710881043e+01     0.632696    0.4324495  16.11  0.001415215    1.893    0.472
        88  -9.9630     58.7038    109.9041   4.5418438363e+01   4.7682355525e+01    0.2352498    0.1961241  77.33 0.0009108953    1.326    0.246
        89  -9.7876    120.3795    108.8216   2.5247217257e+01   3.6722366194e+01    0.2225216     0.137018 -37.88 0.0008411171    1.708    0.414
        90 -10.0805    181.0911    104.8605   1.1547318887e+01   2.5517875034e+01    0.3557558    0.1759064 -26.64  0.001396654    2.816    0.645
        91  -9.6314    175.7858    106.5956   1.2844051324e+01   2.6200442401e+01    0.1741245    0.1327709  69.38 0.0006407996    1.606    0.377
        92 -10.1404    143.4777    105.9513   1.8972148456e+01   3.2651582531e+01    0.2866398    0.1989607  71.58  0.001313585    1.913    0.477
        93 -10.5660     91.4587    102.4031   3.1944732288e+01   4.3926025072e+01    0.4982193    0.3785335  10.39  0.002256059    1.748    0.428
        94  -9.9537     85.9826    103.3104   3.3979876914e+01   4.4746420723e+01    0.2733428     0.220117 -49.59 0.0006019558    1.219    0.180
        95 -11.0406     50.1983    100.5978   4.6644097629e+01   5.1383979691e+01    0.6618944    0.4103742 -28.20  0.002705101    2.117    0.528
        96  -9.6175    120.6920    101.0293   2.3111313964e+01   3.8352954058e+01    0.2213433    0.1883053 -43.99 0.0007665691    1.145    0.126
        97  -9.3161    167.3452     98.7320   1.2440388096e+01   2.9246394307e+01    0.1999441    0.1205016 -34.62 0.0007434063    1.632    0.387
        98 -10.1241    156.7818     98.9700   1.4462493864e+01   3.1315274885e+01    0.2218378    0.2073513  76.32 0.0004997142    1.149    0.130
        99 -10.2056     81.3685     83.5791   2.9904656292e+01   5.0280426470e+01    0.4880874    0.3014895  24.70  0.001967393    2.168    0.539
       100 -11.7211     68.7442     95.2063   3.7917905508e+01   4.9850345304e+01     0.614325    0.3906639  31.26   0.00163201    1.663    0.399
       101 -11.7379     79.1100     93.5697   3.3663841675e+01   4.8381854409e+01    0.8333088    0.7807038 -21.04  0.004430723    1.139    0.122
       102 -11.4964     74.5994     78.8061   3.0847573199e+01   5.2682919393e+01    0.6178807     0.380537  57.76  0.001354305    1.974    0.493
       103 -10.2378     76.0161     74.9620   2.9072810632e+01   5.3264358159e+01    0.3026199    0.2435193 -39.97 0.0007896585    1.273    0.214
       104 -11.7340     43.6953     91.4320   4.7200037263e+01   5.4691648860e+01    0.5366625    0.2661881 -55.52  0.001986495    1.876    0.467
       105 -10.7340    121.8260     93.5087   2.0758249396e+01   3.9703300818e+01    0.2887236    0.2039772 -46.39 0.0007489467    1.361    0.265
       106 -10.8048     36.1780     92.0735   5.0716213642e+01   5.5477805700e+01    0.3894721    0.3756168  35.31  0.001973565    1.080    0.074
       107 -11.5057     44.6017     84.5069   4.4999434495e+01   5.6354963380e+01    0.5016646    0.4524435  20.62  0.001784285    1.145    0.127
       108 -10.4098     18.4850     86.1027   5.7824844344e+01   5.8892240116e+01    0.5584622    0.2223056   5.61   0.00187132    3.558    0.719
       109 -11.3748     28.3319     85.1982   5.2813006033e+01   5.8188039192e+01    0.6396654    0.5518103  43.35  0.001462052    1.228    0.186
       110 -10.0412     36.7703     85.5759   4.8884913510e+01   5.7114991071e+01     0.359187    0.1921542  14.36  0.001427731    2.295    0.564
       111  -9.9551    154.5680     90.4524   1.2706180465e+01   3.3353477459e+01    0.3153823     0.223246   7.46  0.001385109    2.491    0.598
       112 -10.9621     98.3760     90.6484   2.6465666145e+01   4.5252868317e+01    0.3358803    0.2598333  46.97 0.0005770464    1.314    0.239
       113 -10.0638     49.5316     91.4784   4.4674484119e+01   5.3863728635e+01    0.3824286    0.2029572  20.95  0.001489819    2.243    0.554
       114 -10.5767     52.1637     87.3647   4.2447527116e+01   5.4522932122e+01    0.3414632     0.210993 -55.75  0.000537121    1.564    0.361
       115 -11.1666      2.1348     71.2296   6.3656728038e+01   6.3956137131e+01    0.6320661    0.2332294 -72.79  0.002447382    2.479    0.597
       116 -11.7477      6.5731     87.8535   6.4011755672e+01   5.9282171947e+01    0.6968083     0.453654  18.16  0.003480093    1.645    0.392
       117 -10.9554      2.1760     79.4350   6.4971370137e+01   6.1788417528e+01    0.6244373    0.3141258 -88.05  0.002603856    2.154    0.536
       118 -13.1894      5.5521     61.4720   5.9728381178e+01   6.6269500479e+01    0.7499703    0.4505123  -1.32  0.003672012    1.818    0.450
       119 -10.6154      9.4589     55.4950   5.5827063911e+01   6.7485889790e+01    0.2644291    0.2316769  40.63 0.0007729037    1.275    0.215
       120 -10.1504     66.8730     88.4648   3.6740131331e+01   5.1834998922e+01     0.291184    0.2295613 -25.72 0.0005852831    1.468    0.319
       121 -11.2436    119.4609     84.9509   1.8909211350e+01   4.1962631698e+01    0.5406458    0.2990681 -31.73  0.002141193    2.228    0.551
       122 -10.1434    104.0481     86.9833   2.3692658580e+01   4.4865211714e+01    0.2340762    0.2311887 -65.98  0.001101508    1.040    0.038
       123 -10.4347     90.1458     85.5033   2.7526568395e+01   4.8086236453e+01    0.4194865    0.3025343 -74.02  0.001870091    1.757    0.431
       124 -10.2765    142.8265     83.0888   1.3050947504e+01   3.7212041263e+01    0.4550781    0.1994797 -50.01  0.001737999    2.326    0.570
       125 -10.6032    112.9316     82.8388   1.9978443352e+01   4.3815720660e+01     0.441871    0.3077464  70.02  0.001977932    1.738    0.424
       126  -9.4524     72.1567     83.8292   3.3334333228e+01   5.1988408353e+01    0.1993677    0.1770824 -13.81 0.0003295205    1.260    0.207
       127 -12.2732     61.0167     83.4178   3.7595806694e+01   5.4071930175e+01    0.2994761    0.2689908 -59.89 0.0003769006    1.112    0.101
       128 -10.5574     58.1713     78.0984   3.7158783636e+01   5.5832276628e+01    0.2729105     0.195868 -42.95 0.0007833024    1.405    0.288
       129  -9.0216    127.6867     83.2842   1.6422023581e+01   4.0488932900e+01    0.1487874    0.1132412 -80.51  0.000198649    1.577    0.366
       130 -10.2501     67.3651     81.5310   3.4472600775e+01   5.3407492573e+01    0.3514374    0.2939644 -12.64  0.001755458    1.407    0.289
       131 -10.9411     89.3591     77.0448   2.5128540978e+01   5.0091608391e+01    0.4971317    0.2913072  50.77  0.001607469    1.753    0.430
       132 -10.4643     94.1718     75.8568   2.3208330610e+01   4.9321223629e+01    0.3999348    0.3183766 -63.30  0.001555442    1.341    0.254
       133 -11.1661     52.9453     76.1111   3.8803023328e+01   5.7172161040e+01    0.4736915    0.4184488  72.84  0.002068468    1.277    0.217
       134 -11.9286    247.9357     75.1929   3.5708113110e+02   1.8705950101e+01    0.3341213    0.1912159 -49.48  0.002141866    1.374    0.272
       135  -9.2757    158.9286     76.0240   8.1024086163e+00   3.4978326659e+01    0.1614105    0.1482492 -76.41 0.0004276016    1.070    0.065
       136 -11.2453     14.0984     73.8976   5.7572600098e+01   6.2478836083e+01    0.5753713    0.3494732 -89.19  0.002320135    1.976    0.494
       137  -9.9964     11.8057     67.3929   5.7390778694e+01   6.4333750456e+01    0.3386417    0.1915774   6.03 0.0009773993    1.966    0.491
       138 -10.0875     15.7589     66.9418   5.5027521923e+01   6.4128433405e+01    0.2091969    0.1927836 -33.09 0.0004244387    1.033    0.032
       139  -9.9403    103.7029     74.4922   1.9929631977e+01   4.7524279890e+01    0.3246455    0.2330826  87.50  0.001440202    1.899    0.473
       140 -11.5629     27.6635     73.2659   5.0188469168e+01   6.1350313330e+01    0.4144163    0.3031519   8.31 0.0002688185    1.488    0.328
       141 -10.7068     34.3601     71.1909   4.6149333927e+01   6.1070125260e+01     0.440219     0.238647  35.68  0.001164608    1.865    0.464
       142 -10.5882     40.7750     72.9401   4.3478497364e+01   5.9780783011e+01    0.3318477    0.2649944  13.94 0.0008042136    1.336    0.252
       143 -10.2798     40.1154     68.6418   4.2465136517e+01   6.0914404104e+01     0.290771    0.2620927  24.97 0.0008279259    1.124    0.110
       144 -12.4194     44.7145     60.8614   3.7538168844e+01   6.2032560906e+01     0.847157    0.5315369  22.51  0.002901008    1.785    0.440
       145 -11.3959     40.0273     56.5933   3.8354133125e+01   6.3712591643e+01    0.3828525    0.2402113  35.80 0.0009741529    1.588    0.370
       146 -10.7869    238.6483     74.3320   3.5772488103e+02   2.0258392967e+01    0.1887651    0.1048737 -56.65  0.001111199    1.700    0.412
       147  -9.8437     46.9596     75.3177   4.1268567148e+01   5.8300017960e+01    0.4912002    0.2606177 -33.29  0.001869572    2.480    0.597
       148  -9.8723    152.8212     72.6284   8.2476645166e+00   3.6877918636e+01    0.3531081    0.1498874  46.21  0.001348624    2.879    0.653
       149 -12.4817    123.2513     68.5751   1.3042699981e+01   4.4236830560e+01    0.4331472    0.3696101  52.75  0.002342311    1.217    0.179
       150  -9.9556     81.2454     70.6828   2.5757069039e+01   5.3127130200e+01    0.6219838    0.4164312  77.51  0.002496273    2.338    0.572
       151 -10.3799    219.6602     67.1749   3.5802022126e+02   2.4409508642e+01    0.3518665    0.1533643  67.83  0.001752615    2.863    0.651
       152 -10.5320    101.9968     66.8349   1.7902258670e+01   4.9395353308e+01    0.2524809    0.2339479 -23.86 0.0003164167    1.188    0.158
       153 -10.9348    105.4475     63.2629   1.5747924449e+01   4.9278116430e+01    0.4217755    0.2819415  39.54  0.001893374    1.689    0.408
       154 -11.0128    106.3927     58.2616   1.3790740405e+01   4.9953957602e+01    0.3600159    0.2745457  84.70 0.0009944031    1.508    0.337
       155 -10.0808    201.5739     63.7509   3.5913202889e+02   2.8201461469e+01    0.2221817    0.1929254 -13.76  0.001031284    1.471    0.320
       156 -10.6031     92.6578     62.5282   1.9169557960e+01   5.2302711409e+01    0.3604816    0.2562339  73.12 0.0009794137    1.711    0.416
       157 -10.2506     58.3020     62.4119   3.1789084834e+01   5.9374277727e+01    0.3420537    0.2650985 -70.51  0.001693439    1.559    0.359
       158  -9.9499    159.1471     62.4993   4.3979966253e+00   3.7137192093e+01    0.2917217    0.1188266  54.00   0.00118228    2.608    0.617
       159 -11.3400     82.4908     47.9749   1.6942202056e+01   5.7206141980e+01    0.9048198    0.6417795   4.23  0.004058898    2.215    0.549
       160 -11.7375     75.7360     55.2842   2.2130817277e+01   5.7362723264e+01    0.8865678    0.2258304 -46.69  0.002532201    4.310    0.768
       161 -11.0474     72.6376     46.8667   1.9898045094e+01   5.9565237366e+01     1.043926    0.4598373 -54.84  0.002138965    3.437    0.709
       162 -10.0361    150.8900     60.7285   5.2426333303e+00   3.9255016966e+01    0.2210296    0.1848703 -31.41 0.0005285331    1.292    0.226
       163 -10.9038    109.9764     39.9989   6.4505487725e+00   5.2018443588e+01    0.6439298    0.3694021 -14.79  0.002614319    2.800    0.643
       164 -11.2609    125.8762     53.6778   7.7411455398e+00   4.6151043291e+01    0.7607563    0.3201263 -25.75  0.001341687    3.760    0.734
       165 -11.9207    126.9147     28.1377   3.5907109355e+02   4.9491076877e+01    0.6766306    0.3818042  78.35  0.003222156    1.799    0.444
       166 -11.5245    118.7819     56.6692   1.0247299654e+01   4.7333189077e+01    0.8784019     0.467497 -65.78  0.003216496    2.983    0.665
       167 -12.1106    115.9088     46.5187   7.4557247693e+00   4.9629833102e+01    0.8303623    0.6556401  14.28  0.004259269    1.763    0.433
       168  -9.6655    217.3082    249.6763   3.1550858609e+01  -2.3574970131e+00   0.08596972   0.07696404   3.17 0.0004743034    1.648    0.393
       169  -9.7568     84.4518     60.9994   2.1246029133e+01   5.4398630448e+01    0.2425992    0.1944493  51.61  0.000968841    1.229    0.187
       170 -11.7889     25.3124     57.1716   4.6683163250e+01   6.5558297294e+01    0.6958531    0.4944342  40.50  0.002502427    1.516    0.341
       171 -10.6668     88.1855     54.9068   1.7790497018e+01   5.4710383587e+01    0.5845865    0.2129686 -33.47  0.001857308    3.623    0.724
       172 -10.0823     88.4552     49.0563   1.5484892193e+01   5.5672722291e+01    0.3181497    0.2131727 -32.09  0.001285502    1.639    0.390
       173 -10.1284    157.1626     54.2032   2.3970829864e+00   3.8845082628e+01     0.319092    0.1930529 -57.40  0.001565761    1.638    0.389
       174 -10.3935    155.1996     48.8107   1.1600583491e+00   4.0075258232e+01    0.4948775    0.2255989 -21.01   0.00173749    3.842    0.740
       175  -9.5481     66.2501     51.6432   2.4298842496e+01   6.0027546265e+01    0.2174664    0.1819668 -44.28 0.0005330554    1.228    0.186
       176  -9.9429      2.4740     54.7133   6.0106847544e+01   6.8140047787e+01    0.2474641    0.1542612 -44.30 0.0005913646    1.438    0.305
       177  -9.1289    187.4483     54.5218   3.5850961196e+02   3.2298572558e+01    0.1283874    0.1085272 -55.10 5.723635e-05    1.038    0.037
       178 -10.0319     51.8414     48.3824   2.9201798160e+01   6.3451520967e+01    0.2605145    0.2102885 -21.34  0.000916996    1.358    0.264
       179 -10.2482     52.1720     52.7648   3.0851404715e+01   6.2511661563e+01    0.3080954    0.2281308  -5.22 0.0007043323    1.765    0.433
       180 -10.4159     60.0893     50.9022   2.6547240171e+01   6.1397720938e+01    0.6129853    0.3384059 -56.53  0.002557229    2.259    0.557
       181 -10.3771     55.5314     50.0077   2.8182164960e+01   6.2446133932e+01    0.2473011    0.1966146  43.60 0.0001674602    1.240    0.194
       182 -10.7040     61.5314     46.9595   2.4292003935e+01   6.1860840351e+01    0.4691553    0.2338427 -30.47  0.001809373    2.671    0.626
       183 -11.0389     32.1787     52.5640   4.1108714062e+01   6.5744704063e+01    0.4806733    0.2862252  10.02  0.001304454    2.164    0.538
       184 -11.4440    243.9871     51.0190   3.5263733192e+02   2.2435328353e+01    0.1845231    0.1339106 -72.14 0.0005097911    1.373    0.272
       185  -9.7266    201.9506     52.9540   3.5658555253e+02   2.9631443565e+01    0.1773699    0.1510716  12.51  0.001127418    1.745    0.427
       186 -12.4914     41.1496     44.5288   3.2897320264e+01   6.6085476227e+01      1.48402    0.5259711  37.91  0.003325067    2.753    0.637
       187 -10.6134     23.1623     37.1278   4.0282020460e+01   7.0259756152e+01    0.4744302    0.1956118  39.61  0.001947721    2.557    0.609
       188 -10.9071     26.4549     42.7083   4.0591351271e+01   6.8661507947e+01     0.361978    0.2949438  39.23  0.000512129    1.310    0.236
       189 -10.8899     14.0314     45.7168   4.9819549468e+01   6.9414555351e+01    0.6218697    0.2148593 -38.55  0.002171587    3.369    0.703
       190 -11.6332     18.9463     41.3091   4.4864620969e+01   6.9886779081e+01    0.5421847    0.4008697 -80.69   0.00285555    1.836    0.455
       191  -9.8873    146.0002     48.5036   2.4769318270e+00   4.2227610890e+01    0.2603122    0.1664374  15.79  0.001028254    3.398    0.706
       192  -9.9394    113.5743     60.3228   1.2680327245e+01   4.7928231614e+01    0.2637497    0.2002289 -60.51  0.001001388    1.371    0.271
       193  -9.5687      2.2127     48.5991   5.8759533770e+01   6.9646466856e+01    0.1780166    0.1183879  -9.32 0.0006365994    1.549    0.355
       194  -9.9414    155.8955     42.2850   3.5919313606e+02   4.0827883480e+01     0.251937    0.1901569 -30.06  0.001084689    1.433    0.302
       195  -9.9731    145.2896     41.5390   4.9599495979e-01   4.3376619073e+01    0.3691997   0.08682103 -37.96   0.00123274    3.480    0.713
       196 -10.7152     56.7671     41.7290   2.4060112256e+01   6.3764150664e+01    0.2586899    0.2232323  53.56 0.0004010728    1.189    0.159
       197  -9.3859     91.3518     56.6974   1.7473604002e+01   5.3675517875e+01    0.1516929    0.1141487 -85.53 0.0007039593    1.701    0.412
       198 -12.3963    231.3681     26.7551   3.4854961258e+02   2.7441507910e+01    0.4367096    0.3045519  74.50  0.002871394    1.669    0.401
       199 -12.2978    240.2687     32.1989   3.4913350685e+02   2.5297387106e+01    0.3021857    0.2263938 -21.32  0.001581578    1.693    0.409
       200 -10.2143    142.8638    249.1262   4.5054727981e+01   4.9415548779e+00    0.1727889    0.1441973  26.58  0.001041848    1.272    0.214
       201 -10.1565    213.5171    248.4681   3.2001364753e+01  -1.8789087040e+00    0.1066597   0.07557858  -7.12 0.0002602451    1.002    0.002
       202 -11.5655    125.6653    240.5542   4.7608128577e+01   8.2137498004e+00    0.4100004    0.2267424  27.54  0.002295404    1.531    0.347
       203 -10.8031    167.3082    237.8297   3.8760617130e+01   4.0758626447e+00    0.2802526    0.1060391 -30.66   0.00121926    3.237    0.691
       204 -11.2354    147.1712    237.8292   4.2760342920e+01   6.2646732243e+00     0.244409    0.1770865   9.82  0.001583548    1.175    0.149
       205 -10.5901    177.4374    236.2726   3.6624020919e+01   3.2419425435e+00    0.2047444   0.09526011 -37.96 0.0008374868    2.044    0.511
       206  -9.9822     81.6415     38.7250   1.3436996974e+01   5.8908218358e+01    0.2428865    0.1858664  42.30 0.0007382446    1.317    0.241
       207 -11.3766     78.5749     34.7844   1.2724126330e+01   6.0208881196e+01    0.5846823    0.4631939 -20.64  0.002238882    1.444    0.308
       208 -10.2057      1.5076     38.5505   5.6360415737e+01   7.2053288910e+01    0.3594082     0.190631  30.39   0.00154133    1.989    0.497
       209 -10.4633      3.0882     35.1541   5.4002448512e+01   7.2717169351e+01    0.4199403    0.3362364  52.34  0.001744486    1.551    0.355
       210 -10.1397     60.5737     36.7591   2.0168295963e+01   6.3849001014e+01    0.2850328    0.2313964 -53.92 0.0008318148    1.385    0.278
       211 -11.2323     63.4970     33.3415   1.7397545289e+01   6.3781253895e+01     0.908147    0.2359497  47.10  0.002732363    3.573    0.720
       212 -11.4091    228.7489     36.7175   3.5078172598e+02   2.6744263280e+01    0.4016189    0.1776402  61.01  0.002210082    2.755    0.637
       213 -10.6204    153.2269     35.6458   3.5762706916e+02   4.2317477876e+01    0.2266601    0.2073163  88.45 0.0007124045    1.125    0.111
       214  -9.6865     99.8028     36.1937   7.3853926457e+00   5.5007633782e+01    0.2123131    0.1835606 -81.40 0.0006379331    1.173    0.148
       215 -10.2879    175.9007     34.4725   3.5466811436e+02   3.7393830339e+01    0.3125909    0.1677384 -67.15  0.001059736    1.949    0.487
       216 -12.6846    105.6762     20.0129   3.5982224626e+02   5.5623871510e+01    0.3433296    0.2829158 -70.73 0.0006344677    1.204    0.169
       217 -11.4812    107.3323     31.1051   3.7352701473e+00   5.3878045438e+01    0.5007538    0.3219784  17.04  0.001750195    2.648    0.622
       218 -12.1771    113.0299     24.9610   3.2569308294e-01   5.3253037374e+01    0.7111929    0.3045218  61.30  0.003047945    2.102    0.524
       219  -9.2557    217.0023     31.9806   3.5057606468e+02   2.9427092006e+01    0.1419001    0.1056461 -52.76  0.000309513    1.028    0.027
       220  -9.1104    233.3120    235.6690   2.7078515352e+01  -1.9971297734e+00   0.08599196    0.0766273 -18.92 0.0007043579    1.674    0.403
       221  -9.4729    199.6673    234.6474   3.2394724198e+01   1.2245330813e+00     0.120655   0.06715333 -11.21 0.0007046121    1.783    0.439
       222 -11.6162     47.5506     30.1872   2.2809871565e+01   6.7548010880e+01    0.7452787     0.378723  43.63  0.002371269    1.857    0.461
       223 -12.2957    164.9067     27.4098   3.5391166795e+02   4.0675398389e+01    0.4015263    0.2596103  67.57  0.001066913    1.567    0.362
       224 -10.6920    157.3610     29.2086   3.5525191729e+02   4.2170115211e+01    0.3388237    0.2454098 -55.28 0.0008602397    1.224    0.183
       225  -9.5020     15.4817    233.9214   7.2422220184e+01   2.1004852405e+01    0.1643647    0.1125772 -88.91 0.0005507943    1.537    0.349
       226 -10.2431    193.7932    232.4095   3.3100626990e+01   2.1225653510e+00    0.1568685   0.08909325  10.98 0.0009468698    1.662    0.398
       227 -10.6699      9.0533     29.8426   4.7199546401e+01   7.3372148867e+01    0.4412045     0.276964  11.65  0.002359337    1.604    0.377
       228 -10.5068    188.9719     27.7666   3.5174408431e+02   3.5433114696e+01    0.2997897    0.2332361   4.20  0.001800526    2.028    0.507
       229  -9.8646    177.4519     28.7026   3.5300807516e+02   3.7760901254e+01    0.2399285   0.09981478 -37.61  0.001129852    2.036    0.509
       230 -10.1773    200.5643     26.4433   3.5050926921e+02   3.3232202802e+01     0.287725    0.1079661 -29.64  0.001304069    2.646    0.622
       231 -10.1796    183.0104     25.4925   3.5168249152e+02   3.6948146198e+01    0.2664666    0.1455553 -45.83  0.001282112    1.513    0.339
       232 -10.1579    150.0743     27.4333   3.5560087270e+02   4.4065239475e+01    0.4153607    0.1048715  58.27  0.001464219    3.672    0.728
       233  -9.8571     97.0032     25.9376   3.9831280365e+00   5.7043854381e+01    0.2149596    0.1940055  73.23  0.001283098    1.021    0.021
       234 -10.0112    206.1652     25.2338   3.4982593299e+02   3.2269526528e+01    0.1615015    0.1353679 -61.21 0.0004068309    1.109    0.099
       235  -9.4675    142.9400     25.4520   3.5589464604e+02   4.5973651517e+01    0.1978793    0.1199388  72.66 0.0007619399    1.568    0.362
       236 -10.7981    149.7203     22.6411   3.5421098917e+02   4.4704402627e+01    0.4335161    0.1906922  78.98  0.001271414    2.338    0.572
       237  -9.7552     23.8036    231.6237   7.0366019593e+01   2.0758725725e+01    0.1815709   0.08832022  35.08 0.0006578258    1.621    0.383
       238  -9.5731    189.8204    229.2596   3.3353071676e+01   2.9829165739e+00    0.1627186    0.1065258 -12.42 0.0007818754    1.344    0.256
       239  -9.9959    233.7014    226.2155   2.5641336606e+01  -8.4247496644e-01    0.1540051    0.1146273 -30.94 0.0009397413    1.416    0.294
       240 -10.1895    177.0556     21.9934   3.5129795134e+02   3.8622241658e+01    0.2282683    0.1989888  47.96 0.0008096751    1.501    0.334
       241 -10.3239    181.3710     18.9842   3.5016546578e+02   3.8029099131e+01      0.31905    0.1516655  65.26  0.001299439    2.174    0.540
       242 -10.4332    169.3163     23.0593   3.5228166336e+02   4.0196379599e+01    0.2127208    0.1605416 -87.54 0.0003254229    1.225    0.183
       243  -9.9562    233.4882    219.4861   2.4666588275e+01   4.6022139241e-02       0.1086   0.07709696 -15.09 0.0002699112    1.005    0.005
       244 -10.0415     53.4365     21.8304   1.5727067889e+01   6.7619766471e+01    0.2773929    0.1554473  37.58 0.0009877093    1.842    0.457
       245  -9.2735    153.4890    219.4541   3.8932859708e+01   8.5947339752e+00    0.1234176    0.1044945   2.04 7.557116e-05    1.034    0.032
       246  -9.8882     32.3034     20.7133   2.5881512623e+01   7.1881390871e+01    0.2120026     0.183031  -0.45 0.0005132934    1.132    0.116
       247 -10.0164     10.0496    217.9806   7.3056737244e+01   2.4881453059e+01    0.1801755    0.1427864 -39.45 0.0006175516    1.616    0.381
       248  -8.9749     61.3024    206.6880   5.9159774461e+01   2.2440112348e+01    0.1414375   0.09027001  55.19 0.0003973697    1.610    0.379
       249 -10.8897    238.2371    204.3965   2.1628087281e+01   1.5986391255e+00     0.218797    0.1987196 -40.91  0.001748566    1.743    0.426
       250 -11.4219      6.0042    199.0128   7.3277656099e+01   2.9569879933e+01    0.4138809    0.1320245 -69.11  0.001660123    3.009    0.668
       251  -9.4601    216.7977     19.8132   3.4793525429e+02   3.0848732433e+01    0.1661889   0.09744879 -56.09 0.0004759322    1.321    0.243
       252  -9.8877     17.3169    204.6859   7.0582917968e+01   2.7310045842e+01    0.1430996   0.07742593  53.65 0.0003367078    1.646    0.393
       253  -9.5200     74.9688     19.1994   6.7253232123e+00   6.3131801816e+01    0.2331546    0.1315944  38.21  0.001038461    2.000    0.500
       254  -8.7317    213.6747    203.6942   2.5312921558e+01   4.2054889041e+00    0.1192765   0.07165934 -11.70 0.0007034822    1.647    0.393
       255  -8.9936    190.7099    203.3228   2.9203786603e+01   6.8428866627e+00     0.101229   0.09683672 -62.57 0.0003487944    1.608    0.378
       256 -10.4651    245.7893    200.4002   1.9914513587e+01   1.4070445036e+00     0.137292    0.0861425   8.27 0.0009529125    1.646    0.393
       257  -9.5600    186.8631     15.1231   3.4878387540e+02   3.7284915853e+01    0.1958084    0.1296934 -59.09 0.0008902492    1.229    0.186
       258 -10.3534    233.8766    196.7535   2.1046515566e+01   3.0774906564e+00    0.2336381    0.1278377 -37.63 0.0009135376    1.538    0.350
       259 -10.7146    247.5089    194.8463   1.8789835931e+01   1.9803622907e+00    0.2700835    0.1584888 -52.60  0.001524668    2.985    0.665
       260 -10.0173     79.2757    189.9996   5.2464188104e+01   2.4121230556e+01    0.1912487    0.1891962  56.24 0.0007528231    1.056    0.053
       261 -11.5512      5.4320    185.6663   7.2819496722e+01   3.2866873561e+01    0.5242656     0.169108  35.45  0.002144603    2.452    0.592
       262 -10.2674    250.3987    176.7387   1.5433615139e+01   4.1429066139e+00    0.1591451   0.07659818 -30.27 0.0009475883    1.610    0.379
       263 -10.4215     52.1822    173.4019   5.8125857625e+01   3.1559832959e+01    0.3530923    0.2006304  48.88  0.001573074    1.751    0.429
       264 -10.2806     39.4519    173.3000   6.1950246814e+01   3.2996820924e+01    0.2657406    0.1289894 -67.32  0.001000738    2.005    0.501
       265 -10.4107    248.5054    173.1767   1.5085054396e+01   4.8337387252e+00    0.1883369    0.1105266   4.42 0.0008283959    2.280    0.561
       266  -9.5687    227.5204    171.4847   1.7720363018e+01   7.4332801087e+00    0.1177805   0.08962041 -24.84 0.0008101433    1.001    0.001
       267 -11.5454      9.6937    166.4609   7.0496725149e+01   3.7476623462e+01    0.3921166    0.2852752 -32.41  0.002016325    1.673    0.402
       268 -12.0364     13.3482    160.1406   6.8914692023e+01   3.8877268247e+01     0.479562    0.3311198 -20.79  0.002392029    1.834    0.455
       269 -10.3567     18.4616    165.0057   6.7669195912e+01   3.7166532903e+01    0.2595411    0.1989244 -13.26  0.001368373    1.600    0.375
       270 -10.0312    205.0313    163.1167   1.9700595941e+01   1.1588943165e+01    0.2185253    0.1509869 -34.56 0.0007339972    1.199    0.166
       271 -11.0803     28.4452    161.0455   6.4158141527e+01   3.7333083481e+01     0.430972    0.2399007 -80.60  0.001925397    1.784    0.440
       272 -10.4096    214.9354    161.0879   1.7747950128e+01   1.0603865018e+01     0.190043    0.1473564 -26.70 0.0006448598    1.030    0.029
       273 -10.3775    223.2492    156.4097   1.5636188095e+01   1.0261366096e+01    0.1385788    0.1161387  47.82 0.0009276932    1.647    0.393
       274 -10.9518    104.5255    154.1474   3.9763446366e+01   2.9031530756e+01    0.3517509    0.3015893 -36.02   0.00153214    1.187    0.158
       275 -12.0985     22.5508    149.0311   6.4924664229e+01   4.1130564598e+01    0.7478115    0.3898817 -29.72   0.00293743    2.699    0.630
       276 -10.4475     16.7034    147.7569   6.6795493880e+01   4.1970983014e+01    0.3146386    0.1811352 -71.01  0.000925934    1.614    0.380
       277 -10.4261      4.2379    153.4005   7.1393213140e+01   4.1345024008e+01    0.1991611    0.1153421  34.31 0.0009539897    1.658    0.397
       278  -9.2830     70.7885    151.3671   4.9264264250e+01   3.4895176675e+01    0.2139531    0.1450326  17.01 0.0009539744    1.667    0.400
       279 -10.3376     64.4242    150.0244   5.1070853917e+01   3.6132646728e+01    0.4939267     0.270728  -9.46  0.001586114    3.784    0.736
       280 -11.2507     46.9265    147.0733   5.6400404592e+01   3.9156181345e+01      0.72742    0.3494296 -49.62  0.002866265    2.156    0.536
       281 -11.2576    249.3695    144.1848   9.9240832536e+00   8.8290539824e+00     0.399741    0.1154026 -38.91  0.001824089    2.559    0.609
       282 -10.5229    239.8719    146.1767   1.1473427557e+01   9.7025134719e+00    0.1610001    0.1122084 -20.71 0.0007468289    1.327    0.246
       283 -11.8358      4.1785    142.2182   7.0660372442e+01   4.4391142154e+01    0.6526756    0.3875581  36.46  0.002860143    1.645    0.392
       284 -10.8820     14.1736    141.0212   6.7061973185e+01   4.4023938153e+01    0.2782281    0.2453292  43.34  0.001042353    1.145    0.127
       285 -11.5510     10.5142    137.7198   6.8067928697e+01   4.5206509148e+01    0.4535768    0.1965034 -58.07  0.001840342    2.156    0.536
       286 -11.1943     33.0063    143.8175   6.0746488072e+01   4.1577492240e+01    0.3047508     0.295415 -89.48 0.0006984889    1.048    0.046
