#   1 NUMBER                 Running object number                                     
#   2 MAG_AUTO               Kron-like elliptical aperture magnitude                    [mag]
#   3 X_IMAGE                Object position along x                                    [pixel]
#   4 Y_IMAGE                Object position along y                                    [pixel]
#   5 X_WORLD                Barycenter position along world x axis                     [deg]
#   6 Y_WORLD                Barycenter position along world y axis                     [deg]
#   7 A_WORLD                Profile RMS along major axis (world units)                 [deg]
#   8 B_WORLD                Profile RMS along minor axis (world units)                 [deg]
#   9 THETA_WORLD            Position angle (CCW/world-x)                               [deg]
#  10 FWHM_WORLD             FWHM assuming a gaussian core                              [deg]
#  11 ELONGATION             A_IMAGE/B_IMAGE                                           
#  12 ELLIPTICITY            1 - B_IMAGE/A_IMAGE                                       
         1 -10.6364     35.0409     22.1745   8.6099545305e+01   6.8045691669e+01    0.3187773    0.1424275 -35.04  0.001172646    1.964    0.491
         2 -10.9877     44.1454     16.1864   7.9119219401e+01   6.7790848503e+01     0.300071    0.1909444 -45.26  0.001189109    1.980    0.495
         3 -11.2431     75.3985     20.2107   6.8571400259e+01   6.2200454792e+01    0.4447626    0.2474743 -22.16  0.002238646    1.829    0.453
         4 -10.9850     14.0163     16.2371   9.4132683267e+01   7.1069269889e+01    0.2682765    0.2263148  20.82 0.0009662276    1.500    0.334
         5 -11.4484    234.8756     15.0467   3.8112719260e+01   2.5067480224e+01    0.2392698    0.2108564 -81.53 0.0002969159    1.107    0.096
         6 -10.9929     89.5351     13.5103   6.1102896354e+01   6.0205947007e+01    0.4293207    0.2334161 -41.81  0.002050223    2.299    0.565
         7 -11.2129     65.9441     13.5156   6.8903020209e+01   6.4726424579e+01    0.2849285    0.2570056 -88.40 0.0006193093    1.796    0.443
         8 -11.4846     34.6504     12.7730   8.1906020011e+01   6.9504994937e+01    0.2972968    0.2416724 -23.05 0.0008870069    1.226    0.185
         9 -11.5673     30.4990      7.3712   8.1252004647e+01   7.0757204875e+01    0.4198709    0.2856407  15.11  0.002776221    1.348    0.258
        10 -10.5952     37.0508      6.4542   7.7568454465e+01   7.0051977855e+01    0.3466618    0.1858826 -43.66  0.001848224    2.435    0.589
        11 -10.2291    134.9969     11.5397   4.9666696108e+01   4.9986268663e+01    0.1876309    0.1795755  30.32  0.000132727    1.096    0.088
        12 -10.5428    125.9704     11.0117   5.1215975821e+01   5.2233159740e+01    0.2023908    0.1750939  44.32  0.001208688    1.048    0.045
        13  -9.7137      3.7618     10.9224   9.7529527661e+01   7.2691310540e+01    0.1306569   0.07101605 -42.45 0.0003436804    1.424    0.298
        14 -10.1724     92.9174     10.0720   5.8657243051e+01   5.9853005854e+01    0.2063648    0.1313767  27.09 0.0003712254    1.554    0.356
        15  -9.9580     56.3208     10.3551   7.1095838229e+01   6.6726937125e+01    0.2424009    0.1358685   8.41 0.0009100662    2.210    0.547
        16 -11.8391     57.0751      3.2550   6.7250823658e+01   6.7401465090e+01    0.4304324    0.2926092   3.76  0.001535923    1.368    0.269
        17 -10.4162     22.6621      9.3190   8.6286546364e+01   7.1355092006e+01    0.3244952     0.186617  -5.67   0.00189135    1.835    0.455
        18  -9.8820     45.6940      9.4234   7.5115562025e+01   6.8474973963e+01     0.155104    0.1503164 -51.35 0.0007495531    1.665    0.399
        19  -9.5233     15.4132      8.7704   8.9949253586e+01   7.2134222039e+01     0.150155   0.08158446 -30.82 0.0002792114    1.481    0.325
        20  -9.9514     85.9921     12.2067   6.1588605799e+01   6.1072166296e+01    0.2018861    0.1720725  20.21 0.0004776687    1.018    0.018
        21 -10.4945     71.6681      7.3109   6.3939693554e+01   6.4383148445e+01    0.3251747    0.1827113  51.95  0.001335714    1.825    0.452
        22 -10.5965     70.3212      4.6597   6.3132949726e+01   6.4904647846e+01     0.362462    0.1911535  59.61  0.001749456    2.443    0.591
        23  -9.8702     65.1436      7.1436   6.6152179197e+01   6.5591180408e+01    0.1542589     0.145214 -11.81  0.000449366    1.329    0.248
        24 -10.2318      1.6312      5.5176   9.6362918411e+01   7.3704484772e+01    0.3479359    0.1446299 -52.57  0.001868631    2.443    0.591
        25  -9.5525    211.5515      5.9590   3.8015664271e+01   3.1489389766e+01     0.165168    0.1101838  16.36 0.0008079794    2.520    0.603
        26  -9.6810    107.7271      4.9420   5.2792776503e+01   5.7067700371e+01    0.1703296    0.1518013  25.55  0.001071314    1.079    0.073
        27 -11.3377    101.9447      2.5907   5.3180863948e+01   5.8573648729e+01    0.3839836    0.2788378  89.66  0.002084482    1.904    0.475
        28  -9.9193     41.9788      4.9286   7.4478450492e+01   6.9563795496e+01    0.1900073    0.1169954   3.91 0.0007772781    1.635    0.389
        29  -9.7339      8.0698      5.3511   9.2471060836e+01   7.3269819490e+01    0.1308102   0.09141981  22.50 0.0006392258    1.641    0.391
        30 -11.0894     20.6377      2.0090   8.3616606526e+01   7.2594436426e+01    0.1966882    0.1428341   1.92 0.0003904619    1.155    0.135
        31 -11.0727    243.7543      1.9046   3.4545193420e+01   2.4553432500e+01    0.3006139     0.111771  57.89  0.001335287    2.998    0.666
        32 -11.4044     80.4959      1.6640   5.8482279442e+01   6.3212858960e+01    0.3171518    0.1494565  50.70 0.0007434121    1.851    0.460
        33  -9.9080     10.9695      1.5713   8.8868538658e+01   7.3590719779e+01     0.174876    0.1206473  29.15  0.001092484    1.786    0.440
        34  -9.9905    153.7725      1.2769   4.3219486077e+01   4.6244996294e+01    0.1862642   0.09915391  62.73 0.0003507794    1.593    0.372
        35 -10.7676      5.4511    167.8545   1.2531653707e+02   3.8419997651e+01     0.292907    0.1337983  69.52  0.001518139    2.118    0.528
        36 -11.5225      3.1620    249.2540   1.2994795546e+02   2.2277429881e+01    0.4910734    0.2225716  44.24  0.003300684    1.798    0.444
        37 -11.7547     17.9171    248.8056   1.2757613992e+02   2.0868885872e+01    0.3182275    0.2056783  20.61  0.002025561    2.808    0.644
        38 -12.7183      4.9887    240.7481   1.2932176885e+02   2.3616001320e+01    0.4926527    0.3441748  43.77  0.003839639    1.516    0.340
        39  -9.9438    226.6427    163.9728   7.4128065826e+01   3.4587262835e+00    0.2005778    0.1644361 -24.34 0.0007505125    1.130    0.115
        40  -9.8737     14.6534    163.6684   1.2295158003e+02   3.8609010908e+01    0.1185361   0.07915677 -50.81  0.000704959    1.763    0.433
        41  -9.2889    247.4861    155.4791   6.8695088753e+01   1.1213389172e+00    0.1352071    0.1160778 -14.92  0.000358882    1.003    0.003
        42  -9.7529     43.9347    153.3052   1.1484458196e+02   3.8182059069e+01    0.1711829    0.1532653  80.27 0.0003354815    1.103    0.094
        43 -11.0195      3.2336    153.5389   1.2476140340e+02   4.1821277247e+01     0.296008    0.1072135  27.32  0.001446652    3.159    0.683
        44 -10.8301     16.0223    150.4875   1.2147002870e+02   4.1537639248e+01    0.1587488    0.1207756  32.06   0.00101845    1.588    0.370
        45  -9.9043    238.0048    149.7391   6.9064111834e+01   3.7448969242e+00      0.16487    0.1184237  41.16 0.0004280023    1.493    0.330
        46  -9.4530    236.6360    138.7089   6.6871379893e+01   5.8446888710e+00    0.1438581    0.1034675   6.64  0.000702701    1.703    0.413
        47  -9.3716     24.6671    138.6876   1.1805250277e+02   4.3592385962e+01    0.1266036   0.08333505 -46.81 0.0007044583    1.679    0.404
        48  -9.6823      9.2514    135.6378   1.2173350508e+02   4.5534557486e+01    0.1251383   0.07493444  77.53 0.0003416445    1.616    0.381
        49 -10.3798    212.6405    133.9135   7.0049668828e+01   1.1482801704e+01    0.2649637    0.2181403  59.80 0.0006643122    1.403    0.287
        50  -9.2859     96.2441    133.9786   9.7591989178e+01   3.5573720908e+01    0.1920245    0.1212501 -57.30 0.0005155664    1.520    0.342
        51  -9.7743     23.8861    133.8580   1.1768976476e+02   4.4814519763e+01    0.1763819     0.143554 -67.04            0    1.129    0.114
        52 -10.7793      2.4829    133.1041   1.2322873995e+02   4.6583218734e+01    0.2881764    0.1761972  63.19  0.001734945    1.667    0.400
        53 -10.0307    238.6406    132.3197   6.5106261197e+01   6.5376483513e+00    0.1395484    0.1081937 -67.98 0.0007043736    1.765    0.433
        54 -11.0018     11.5729    129.4545   1.2048816661e+02   4.6824578650e+01    0.2906195    0.1837932  76.32   0.00169393    1.570    0.363
        55  -9.5115     28.6788    128.2826   1.1567054546e+02   4.5736690136e+01    0.1282453   0.08618249  70.97 0.0002461481    1.590    0.371
        56  -9.1346    233.9820    127.7573   6.4845025059e+01   8.2229106455e+00    0.1725739     0.121102  46.99 0.0005310904    1.559    0.359
        57 -11.8633      8.1428    121.5712   1.2055832875e+02   4.8917734962e+01    0.3339226    0.1929644  65.38 0.0007787823    1.910    0.476
        58  -9.3243     17.4007    122.2544   1.1805470108e+02   4.8106952928e+01    0.1230463   0.08099984 -41.36 0.0003005501    1.706    0.414
        59 -11.8288     23.6509    120.9863   1.1611172280e+02   4.7920833816e+01    0.4331927      0.24746  75.54  0.001033634    2.077    0.518
        60  -9.6482     41.9897    117.0362   1.1010801935e+02   4.7187656746e+01     0.160175    0.1367925 -69.17 0.0004144687    1.003    0.003
        61 -10.7627     65.7285    110.9470   1.0165773188e+02   4.5849951683e+01    0.3129587    0.2308435  85.21  0.001110594    1.664    0.399
        62 -11.0976     22.9521    110.2377   1.1478601826e+02   5.0550560416e+01    0.2187761    0.1509207 -69.18 0.0003951301    1.180    0.153
        63 -12.1805      3.7869    108.4737   1.2029183151e+02   5.2254714501e+01    0.4363624    0.2641572 -36.31  0.001829844    1.909    0.476
        64  -9.8569     35.5242    109.0400   1.1071842778e+02   4.9757533222e+01      0.20284    0.1121261 -66.84 0.0004042282    1.540    0.351
        65 -11.1532     57.9480    107.5736   1.0337870658e+02   4.7672536098e+01     0.303212    0.2414905 -17.16 0.0008147348    1.527    0.345
        66 -10.2254    186.9373    103.0230   6.7400889703e+01   2.3031988658e+01    0.2311063    0.2258025 -46.67 0.0005403039    1.009    0.008
        67  -9.5750    135.7797    102.2052   7.8972774102e+01   3.5117608057e+01    0.2069345    0.1828116   0.71 0.0002550931    1.281    0.220
        68 -10.9299     20.0598     99.2863   1.1398178162e+02   5.3367741397e+01    0.1729008    0.1481166 -64.92 0.0005178148    1.060    0.057
        69 -10.4531     77.6453     94.3508   9.3909626958e+01   4.8054410150e+01     0.460704    0.2464861  20.59  0.001807591    2.729    0.634
        70 -11.0007     24.2057     88.1411   1.1062415420e+02   5.5666506100e+01    0.3695263    0.2138271 -56.43  0.001241885    1.374    0.272
        71 -12.4697     20.9378     92.8087   1.1259636076e+02   5.4823991923e+01    0.3521842    0.2837349 -35.57  0.000471484    1.297    0.229
        72 -11.0542     19.0901     86.7892   1.1213992302e+02   5.6353399140e+01    0.3482432    0.1849038 -68.48 0.0008652513    1.604    0.376
        73 -10.5597      3.7933     94.9002   1.1854290393e+02   5.5407497458e+01     0.227497    0.1681466  86.54  0.001478063    1.359    0.264
        74 -11.6549    125.1907     93.3100   7.9286134061e+01   3.9345722834e+01    0.2677446    0.2528646 -57.52 0.0002178287    1.082    0.075
        75  -9.9991     29.3376     92.4983   1.0970696698e+02   5.4238941313e+01    0.2272023    0.1704048 -56.94 0.0006764213    1.097    0.089
        76  -9.3325    113.0903     92.0130   8.2319682252e+01   4.2174014818e+01    0.1798123    0.1734057  30.04 0.0002996098    1.062    0.058
        77 -10.9042     57.8595     91.7730   9.9829637751e+01   5.1431022980e+01    0.2658097    0.2058501 -29.78 0.0006515181    1.354    0.261
        78 -10.5238     10.1647     91.7640   1.1600977090e+02   5.5776918594e+01    0.2667602    0.1897545  21.97  0.001699512    1.748    0.428
        79 -11.9143     11.3950     86.1045   1.1467267223e+02   5.7008395642e+01     0.391845    0.1826231 -81.96  0.001805939    2.442    0.590
        80 -10.1747     43.1546     88.9338   1.0421125039e+02   5.3777391894e+01    0.2662539    0.1451126  53.60  0.001185717    2.656    0.624
        81 -11.4367     55.5865     85.7973   9.9123926795e+01   5.3092146807e+01    0.2610352    0.2287395  29.45 0.0005033066    1.284    0.221
        82  -9.9807     76.8723     82.8975   9.1015716969e+01   5.0760800397e+01    0.2057408    0.1913226 -44.35  0.000403195    1.055    0.052
        83 -10.9700      3.1954     82.1614   1.1684918815e+02   5.8353084114e+01    0.2877465    0.2051894 -82.29  0.001209754    1.332    0.249
        84  -9.6195    250.2561     81.0062   5.1641301176e+01   1.2611795792e+01    0.1791369    0.1043759 -36.60 0.0004660318    1.507    0.336
        85  -9.5627     89.5885     80.8297   8.6203391577e+01   4.9082219423e+01    0.2046725    0.1353748 -57.93 0.0005449058    1.687    0.407
        86  -9.1517     42.2721     81.7565   1.0284160725e+02   5.5519734417e+01    0.1156514   0.09856002  80.45 0.0006785163    1.439    0.305
        87  -9.6154     64.8629     80.3704   9.4423419621e+01   5.3100033149e+01    0.1921681    0.1314342  14.49 0.0009494324    1.781    0.439
        88  -9.5891    124.4796     78.9940   7.5186412481e+01   4.2444582724e+01    0.2284468    0.1494531 -42.19 0.0005196962    1.516    0.340
        89  -9.1655     48.3218     79.2441   1.0002422263e+02   5.5435137248e+01    0.1308532   0.09266537 -25.44  0.000259218    1.526    0.345
        90 -10.3364     28.0542     77.0942   1.0694063966e+02   5.7890897096e+01    0.1853684    0.1537151 -48.17 0.0003626922    1.034    0.032
        91  -9.6687    176.7886     76.5992   6.2196398293e+01   3.0364351470e+01     0.217349    0.1481815  69.76 0.0009480922    1.658    0.397
        92  -9.2286    161.4233     76.5187   6.5362189477e+01   3.4178852580e+01    0.1541519    0.1485596 -68.80 0.0002307593    1.047    0.045
        93 -10.3700     55.4058     76.0628   9.6593377727e+01   5.5301060261e+01     0.220726    0.1826174  -6.90  0.000545986    1.306    0.234
        94 -10.4247     42.0105     75.7890   1.0144625494e+02   5.6891426028e+01    0.2280826    0.1630676 -53.21            0    1.199    0.166
        95 -11.2348     15.2080     75.8526   1.1142303749e+02   5.9104560089e+01    0.2376808    0.1628392  28.55  0.001466643    1.776    0.437
        96 -10.4492     20.7511     72.7925   1.0870894573e+02   5.9415697652e+01    0.2744205    0.1583755 -55.96  0.001101053    1.361    0.265
        97 -11.2130     35.9376     74.1060   1.0328710178e+02   5.7866759732e+01    0.4202597    0.2969838  44.11  0.001688423    1.761    0.432
        98  -9.6014     38.6875     70.2858   1.0125628292e+02   5.8444036346e+01    0.1836569     0.129339 -33.42 0.0003978146    1.336    0.251
        99  -9.8104    216.9393     72.2501   5.4108565139e+01   2.1345657828e+01    0.1905224    0.1826113 -82.53  0.000405208    1.066    0.062
       100 -10.3294    106.2447     71.6822   7.8102146073e+01   4.7780847240e+01    0.3235448     0.263244  74.43  0.001600249    1.607    0.378
       101  -9.6340    100.0094     70.8633   7.9747426798e+01   4.9190738322e+01    0.1726427    0.1551395 -31.01 0.0005477004    1.070    0.065
       102 -11.5716     10.7813     68.6442   1.1161715830e+02   6.0977154388e+01    0.3545926     0.185819 -55.92  0.001310234    1.435    0.303
       103 -11.0288      6.7635     63.7895   1.1216597621e+02   6.2258691201e+01    0.2906202    0.2270872  22.57  0.002003634    1.594    0.373
       104 -11.3908      5.3432     68.7937   1.1372358734e+02   6.1236175352e+01    0.3194584    0.2086702  78.36  0.001398174    2.053    0.513
       105 -10.4331      1.3668     66.7011   1.1483960914e+02   6.1883957769e+01    0.1965983    0.1130072 -62.34 0.0004417012    1.318    0.241
       106 -10.5259     46.3455     69.2592   9.8049060459e+01   5.7858824665e+01    0.2161678    0.1795943  20.34 0.0006749771    1.342    0.255
       107 -10.4139     78.5748     67.3893   8.5669097925e+01   5.3772877810e+01    0.3498043    0.2513661  44.92  0.001797278    1.559    0.359
       108 -10.5415      4.5056     57.5192   1.1172255242e+02   6.3721153426e+01    0.4257596    0.1712258 -27.67  0.001995906    2.922    0.658
       109 -10.2939      8.5810     56.5075   1.0980881513e+02   6.3725137655e+01    0.1987981    0.1563868  44.20 0.0009426868    1.690    0.408
       110 -11.1668     11.3258     59.8954   1.0947545170e+02   6.2847714240e+01    0.2718536    0.1625011  22.54  0.001192787    2.007    0.502
       111 -10.0622     15.8457     67.2443   1.0935623488e+02   6.0976301250e+01     0.242516    0.1720553  78.10  0.001414999    1.958    0.489
       112 -10.0881     14.4334     63.5124   1.0906363165e+02   6.1879872128e+01    0.3454331    0.1708736  18.57  0.001855329    2.406    0.584
       113  -9.5521     96.8561     64.1392   7.8500046973e+01   5.1111837983e+01    0.1923371    0.1609242   4.01            0    1.265    0.210
       114 -10.0734     62.9778     62.2042   8.9587208764e+01   5.7225146253e+01    0.2547328     0.151693 -34.23  0.001061292    1.622    0.384
       115 -10.4188     39.8211     60.8520   9.8151976932e+01   6.0349748595e+01    0.3457486    0.2323731 -27.39   0.00194445    1.465    0.317
       116 -13.6216     20.2893     57.9928   1.0531981598e+02   6.2667188939e+01    0.3553962    0.2941186 -57.27  0.001237749    1.165    0.142
       117 -10.7015     49.2061     59.6607   9.4053799433e+01   5.9548137647e+01    0.2519122    0.2109161  76.80 0.0008723675    1.766    0.434
       118 -10.4258    194.2961     58.9317   5.4096445173e+01   2.8928526856e+01    0.2934868    0.1974654  59.36  0.000853886    1.478    0.323
       119 -10.8523     84.0583     56.8895   8.0196174786e+01   5.4865018219e+01    0.3346393    0.2399026 -52.07  0.001641343    1.590    0.371
       120 -11.1433     88.3527     52.6700   7.7228963994e+01   5.4841813722e+01     0.340324    0.2710404  -5.94   0.00130489    1.305    0.233
       121  -9.6531     71.5748     56.3279   8.4408116766e+01   5.7083147409e+01    0.2374069    0.1261594 -46.61 0.0008085671    1.847    0.458
       122 -10.3902     32.2792     56.4819   9.9923557570e+01   6.1997632451e+01    0.3771611    0.2526161 -10.03  0.002162872    1.679    0.404
       123 -11.8069    114.5875     53.9057   6.9638650188e+01   4.9245389042e+01    0.3059688    0.2734467  18.34 0.0004262719    1.104    0.094
       124 -10.1896    232.3821     52.1622   4.7065788210e+01   2.0829907109e+01    0.2082959    0.1069188 -44.95 0.0009492401    1.740    0.425
       125 -12.2098     65.6184     52.5444   8.5275727441e+01   5.8722872446e+01    0.4634949    0.2321608  37.16  0.001852829    2.114    0.527
       126  -9.3677    121.6009     51.4926   6.6885020860e+01   4.8061144741e+01    0.1444456    0.1390228   7.88 0.0001370501    1.024    0.024
       127 -10.0298      4.4916     50.6595   1.1013875095e+02   6.5165525528e+01    0.2486689     0.150235  20.16  0.001549654    2.001    0.500
       128 -10.2663     13.5549     48.5059   1.0562880221e+02   6.5097459919e+01    0.2282816    0.1640834 -62.12 0.0006466934    1.345    0.256
       129 -11.6057      8.9022     46.1993   1.0705647303e+02   6.5848247728e+01    0.4645628    0.2787544 -58.22  0.002158595    1.391    0.281
       130  -9.7982     19.6994     44.6667   1.0176630641e+02   6.5444631619e+01    0.1873352    0.1311235 -35.00 0.0005149622    1.167    0.143
       131 -11.0557     15.2236     42.7268   1.0319827085e+02   6.6149863346e+01    0.4522419     0.315346  83.23  0.002494785    2.656    0.623
       132 -11.6047     77.3705     46.2777   7.8630740911e+01   5.7940348958e+01    0.4655475    0.3617934  -5.75  0.002588905    1.306    0.234
       133 -10.2546     38.4890     48.6061   9.4815055761e+01   6.2969027431e+01    0.2253132     0.168976   6.80  0.001140643    1.406    0.289
       134  -9.8549    154.7348     47.7404   5.7930428138e+01   4.0608178693e+01    0.2078981    0.1889981  39.23 0.0004759518    1.116    0.104
       135 -11.6903     56.7505     46.0576   8.6351704300e+01   6.1212035514e+01    0.3186396    0.2809156 -39.75 0.0008327774    1.227    0.185
       136 -11.0545     27.3265     43.7749   9.8058686539e+01   6.4996059968e+01    0.4886709    0.1898487 -43.22  0.002311681    2.066    0.516
       137 -10.3124     30.9932     45.9950   9.7174954478e+01   6.4228652229e+01    0.2165178    0.1587252 -76.17 0.0008771348    2.061    0.515
       138  -9.3486    135.5632     46.4752   6.1682617412e+01   4.5542675910e+01     0.144297    0.1409862  74.88 0.0003376178    1.071    0.066
       139  -9.5888     67.8481     46.7038   8.2283436446e+01   5.9445629395e+01    0.2769306    0.1148729  31.77  0.001103991    2.747    0.636
       140 -10.2268     35.6920     41.6366   9.3597527804e+01   6.4597958063e+01    0.3257124    0.2638269  40.96  0.002084755    1.628    0.386
       141  -9.6997    184.4573     42.5066   5.1053273630e+01   3.3813478012e+01    0.3133469    0.1374799  63.94  0.001222773    2.206    0.547
       142 -10.9144     69.2998     41.9989   7.9929112113e+01   6.0028956795e+01    0.2303837    0.1858373  24.78 0.0001490383    1.227    0.185
       143 -10.7335      4.1586     41.2967   1.0786556835e+02   6.7091434420e+01    0.3931206    0.1212166 -38.08  0.001772996    2.773    0.639
       144 -11.0431      2.7626     35.5569   1.0688826546e+02   6.8294330514e+01    0.3397293    0.2012414 -65.81  0.002066914    1.713    0.416
       145 -10.6821    140.4428     40.5486   5.8575098876e+01   4.5208309456e+01    0.2769713    0.2358737 -71.22 0.0007513051    1.348    0.258
       146 -10.1342     42.9168     40.4461   9.0000831109e+01   6.4014882977e+01    0.1972064    0.1578551 -38.64 0.0007827982    1.187    0.158
       147 -10.6080    128.1487     38.8203   6.0779923121e+01   4.8435239699e+01    0.2200978    0.2121114  55.52 0.0003523338    1.069    0.064
       148 -11.5813    121.4473     37.4058   6.1910485022e+01   5.0214552795e+01     0.377791    0.3650497  -1.35  0.001121715    1.070    0.065
       149 -10.0107     22.3140     38.0676   9.8411693236e+01   6.6520297362e+01    0.1734442    0.1424915 -10.55 0.0005337016    1.186    0.157
       150 -11.4481     26.8671     35.5166   9.5380496532e+01   6.6600635772e+01    0.4001031    0.1863121 -38.11  0.001779393    1.797    0.443
       151  -8.9999    185.4540     35.4537   4.8893955971e+01   3.4510525287e+01    0.1437411    0.1292028 -80.88 1.293388e-06    1.055    0.052
       152 -10.4921     96.9953     35.0399   6.7759687963e+01   5.5957508365e+01    0.2078342    0.1829021  14.64            0    1.045    0.043
       153  -9.8659     90.4888     35.4634   6.9953605191e+01   5.7218122249e+01    0.1383109    0.1232765  10.52 9.966047e-05    1.005    0.005
       154 -11.4575     39.1605     32.7762   8.8674056497e+01   6.5813995276e+01    0.4737015    0.3097203 -45.66  0.002215579    1.513    0.339
       155  -9.5743    212.4922     34.0528   4.4945103504e+01   2.7985865164e+01    0.1937269    0.1294358 -36.01 0.0003490491    1.480    0.324
       156  -9.5071    133.9876     34.4726   5.7910379862e+01   4.7616857648e+01    0.2041776    0.1033524  37.68 0.0007803972    2.258    0.557
       157 -10.3710      7.3129     34.1524   1.0425961992e+02   6.8319868868e+01    0.1912952    0.1371857  47.81  0.001221926    2.145    0.534
       158 -10.4158     72.7722     32.4263   7.4770498441e+01   6.0976443520e+01    0.2778701     0.196618   2.09 0.0006821816    1.507    0.336
       159  -9.9997     16.3904     33.2623   9.9555634372e+01   6.7888220535e+01     0.224217    0.1368275 -16.81 0.0007335021    1.637    0.389
       160 -10.5634     20.8196     31.3737   9.6727828477e+01   6.7887689368e+01    0.2918136    0.1685028  -6.81  0.001098784    1.951    0.487
       161 -10.5459    128.7400     31.1281   5.7908761144e+01   4.9321099700e+01    0.3527401    0.2492936 -43.01  0.001255751    1.559    0.359
       162  -9.8426     77.0359     30.7616   7.2546824192e+01   6.0464561269e+01    0.1829781    0.1516986  22.10  0.001091405    1.115    0.103
       163 -10.4631     77.2681     26.6723   7.0735242039e+01   6.1000867846e+01    0.2894834    0.1519237 -25.75  0.001373932    1.939    0.484
       164 -10.1510     44.2315     30.0341   8.5282866303e+01   6.5661679618e+01    0.2461172    0.2173128 -57.24  0.001511922    1.613    0.380
       165 -10.3171     47.0475     27.0394   8.2767044852e+01   6.5777803502e+01    0.2690833    0.2294207  48.54  0.001727629    1.686    0.407
       166 -10.5469     43.4914     25.9921   8.3884227094e+01   6.6409873346e+01    0.2609623    0.2036161 -51.15  0.001100859    1.704    0.413
       167  -9.1436     83.9697     30.0000   6.9857797722e+01   5.9276893006e+01    0.2050783   0.07264351  47.71 0.0003580275    2.766    0.639
       168 -10.6323     68.9557     26.8969   7.3827599257e+01   6.2447435371e+01    0.3496244    0.2341148 -44.83  0.001101715    1.813    0.448
       169 -10.8505      7.6316     28.2845   1.0215960251e+02   6.9406371662e+01    0.3421012    0.2350632  54.11  0.002046615    2.643    0.622
       170 -10.9513    113.7415     26.1562   5.9660569469e+01   5.3467875529e+01    0.2922122    0.2225321 -41.90  0.001575707    1.481    0.325
       171 -10.1838    101.1822     26.4789   6.3136820423e+01   5.6225368386e+01    0.2935278    0.1860446  43.03  0.001485763    1.451    0.311
       172 -10.8777    247.1662     26.1761   3.9550440986e+01   2.1011175829e+01    0.1885797    0.1247589 -61.87 0.0007074792    1.339    0.253
       173  -9.5832    146.9910     26.3094   5.2469970020e+01   4.5416309348e+01    0.1935638    0.1595717  59.56 0.0001646624    1.117    0.105
       174  -9.0505    139.0117     27.0000   5.4257831418e+01   4.7322699420e+01    0.2442451   0.07568694  60.99 0.0008096304    2.993    0.666
       175  -9.3481     18.5281     25.9430   9.5787232933e+01   6.9048489136e+01    0.1681642   0.06875604 -32.87 0.0008036104    2.271    0.560
       176 -10.0581     59.1679     23.7683   7.6236306857e+01   6.4504046692e+01    0.2521903    0.1597057 -17.33 0.0009932391    1.558    0.358
       177  -9.7926     58.7955     19.8254   7.4598745489e+01   6.5114995724e+01    0.1562265    0.1433293 -24.98 0.0004285964    1.340    0.254
       178 -10.4142     82.9058     16.0259   6.4225702351e+01   6.1268416122e+01    0.2119326    0.1757825 -12.80 0.0003905952    1.194    0.162
       179  -9.4669     80.7054     23.6363   6.8258753867e+01   6.0762950132e+01    0.2677597    0.1374119  16.98 0.0006543482    3.202    0.688
       180  -9.7291     83.5450     21.4985   6.6403487582e+01   6.0486530304e+01    0.2303142    0.1211582  47.70   0.00110601    1.815    0.449
       181 -10.1475     86.3919     18.8056   6.4339384222e+01   6.0249304255e+01    0.2138176     0.178748  33.95 0.0001994672    1.103    0.093
       182  -9.7705    229.6592    247.9936   8.8960306895e+01  -9.0739590644e+00    0.1539669     0.122708   2.69 0.0005915227    1.139    0.122
       183 -11.4877     41.1866     20.0766   8.2283424093e+01   6.7618560323e+01    0.4566629    0.2592773  30.80  0.002591811    1.787    0.440
       184  -9.5830    225.1572    247.1162   8.9614897551e+01  -8.3387314196e+00    0.1981077    0.1240503 -18.20  0.001236394    1.689    0.408
       185 -10.8964      2.0184     21.8863   1.0282052283e+02   7.0899823557e+01    0.2471666    0.1489293 -52.86 0.0009666535    1.434    0.303
       186  -9.3485    170.8232    247.1637   9.9579077000e+01  -1.6353501868e-01     0.168062    0.1233195  20.29 0.0005714421    1.344    0.256
       187 -10.5984     30.1304     21.1314   8.8003476427e+01   6.8759379144e+01    0.2571259    0.1702257  18.65  0.001258641    1.522    0.343
       188 -10.9244     14.2525     21.7550   9.6311872676e+01   7.0118894718e+01    0.4079123    0.2023377  19.01  0.002350562    2.177    0.541
       189 -10.2287     20.3938     17.3666   9.1251694536e+01   7.0335156282e+01    0.2123207    0.1472705 -25.78 0.0006700816    1.129    0.114
       190 -10.7087     12.2986    249.3201   1.2850476515e+02   2.1358197552e+01    0.1640996    0.1155974  58.52  0.001004869    1.176    0.150
       191  -9.9370    114.9124     17.4540   5.6040640465e+01   5.4196703508e+01    0.2048369    0.1237054  56.97 0.0003488625    1.524    0.344
       192  -9.4795    202.4548    240.4596   9.2689967212e+01  -4.1508919578e+00    0.1223366   0.09708226  22.08 8.535982e-05    1.002    0.002
       193 -12.0261      9.1128    245.1749   1.2883987832e+02   2.2414602840e+01    0.3864604    0.2147682  31.59  0.002554999    2.258    0.557
       194  -9.3841    154.2117     15.1764   4.7577346022e+01   4.4829413497e+01      0.18136    0.1500409 -80.15 0.0002985233    1.272    0.214
       195 -11.5915     14.1499    238.8804   1.2773399110e+02   2.3047436116e+01     0.236122    0.1204471  74.72 0.0007566885    1.563    0.360
       196 -11.5456     25.8147    235.7910   1.2559336825e+02   2.2395593008e+01    0.2304595    0.1923491  31.40  0.001046584    1.696    0.410
       197  -9.1529    204.4803    235.4583   9.1538693186e+01  -3.7870235560e+00    0.1235719   0.09945051  21.91 0.0005365284    1.018    0.017
       198  -9.7541    249.3380    233.9958   8.3302889928e+01  -1.0135559638e+01    0.1575613     0.119487  -1.12 0.0004126874    1.094    0.086
       199  -9.9950     71.9281     13.1515   6.6583041691e+01   6.3694742611e+01    0.2570586    0.1524404  27.74  0.001355461    1.642    0.391
       200 -12.1324      4.0182    232.6543   1.2914237147e+02   2.5195622100e+01     0.245261    0.1592388  63.83    0.0018484    1.126    0.112
       201 -10.2840    243.3151     11.3126   3.6603989681e+01   2.3616541899e+01    0.1130802   0.09419715  42.41  0.000703348    1.639    0.390
       202 -12.5747      9.7403    227.7086   1.2795162029e+02   2.5576190431e+01     0.381876    0.2727557 -85.46  0.001752648    1.301    0.231
       203  -9.0616    243.3304    230.2733   8.3707365063e+01  -8.8633146522e+00    0.1213881   0.07408093   9.21 0.0006987427    1.591    0.371
       204  -9.9446    209.5232    229.5319   8.9652878886e+01  -3.7569942357e+00    0.1247401    0.1013377  19.01 6.380551e-05    1.015    0.015
       205  -8.9699     81.3123     10.3092   6.2181043674e+01   6.2212149571e+01     0.136096   0.08485056  22.47 0.0003143476    1.625    0.385
       206  -9.6881    140.6802    228.8491   1.0295930220e+02   7.5899063279e+00    0.2319615    0.1104126 -43.54  0.001007305    2.660    0.624
       207 -10.0309    223.4193    226.5903   8.6613360351e+01  -5.4926015623e+00    0.2383642    0.1395079   6.04 0.0009824337    2.082    0.520
       208 -10.9724      1.5382    225.2153   1.2923948781e+02   2.6829363210e+01    0.2261891   0.08206934 -82.36 0.0009121356    2.326    0.570
       209 -11.1874      2.3048    220.4381   1.2889666700e+02   2.7676793947e+01    0.2597105    0.1217501  81.26  0.001586678    1.730    0.422
       210 -10.1137      9.3026    218.1318   1.2755732309e+02   2.7471865612e+01     0.164301    0.1424465  48.80  0.001027215    1.455    0.313
       211 -10.0537    205.6606    212.6819   8.7540261864e+01  -6.9820810672e-01    0.2251261    0.1721239   7.18 0.0006850362    1.270    0.212
       212  -9.6261     15.4356    213.4726   1.2619749637e+02   2.7802152182e+01    0.1145158   0.08109858  73.99 4.711891e-05    1.040    0.038
       213  -9.1744    249.3201    211.3524   7.9368753526e+01  -7.3214286221e+00    0.1304302   0.07928092   2.26 0.0007047409    1.748    0.428
       214  -9.2285    209.6768    211.3045   8.6532601911e+01  -1.1543461127e+00    0.1169925    0.1028787  64.74 0.0007031814    1.639    0.390
       215 -10.2305      3.2125    211.4073   1.2831230849e+02   2.9370106492e+01    0.1471245   0.07621508  51.25  0.000361486    1.598    0.374
       216 -10.2029     20.1875    209.8452   1.2509708338e+02   2.8061593124e+01    0.1835936    0.1126258  66.92 0.0009161075    1.297    0.229
       217  -9.8316      3.0009    206.0000   1.2808221851e+02   3.0476800754e+01    0.1578157   0.05666694  32.04 0.0008086652    2.986    0.665
       218  -9.4466    123.3679    198.2325   1.0224413130e+02   1.6270278968e+01    0.1824141    0.1291167 -71.39 0.0009447244    1.630    0.386
       219 -10.2213     23.5273    196.8621   1.2358940752e+02   3.0431782567e+01    0.1996616    0.1699875 -60.57  0.001327815    1.502    0.334
       220 -10.8345     13.9225    192.6858   1.2522777419e+02   3.2255237834e+01    0.2091865    0.1316257  73.93 0.0005122805    1.281    0.219
       221  -9.8386     99.6860     11.4284   5.7407737815e+01   5.8257806006e+01    0.2398014    0.1220528  59.03   0.00111318    1.925    0.481
       222 -10.3424      6.2010    191.7513   1.2669768762e+02   3.3149735799e+01     0.177289    0.1177508  72.16  0.001204819    1.180    0.153
       223  -9.6164     22.4954    179.9701   1.2253796027e+02   3.4216225402e+01    0.1741852   0.09787683 -78.53  0.000465419    1.489    0.328
       224  -9.2895     13.3334    180.6362   1.2453380189e+02   3.4920180233e+01    0.1309844    0.0658845  67.92 0.0007036325    1.817    0.450
       225  -9.4951      2.3255    173.6436   1.2637314348e+02   3.7383385725e+01    0.1268918   0.06391512  68.24 0.0007045366    1.773    0.436
