#   1 NUMBER                 Running object number                                     
#   2 MAG_AUTO               Kron-like elliptical aperture magnitude                    [mag]
#   3 X_IMAGE                Object position along x                                    [pixel]
#   4 Y_IMAGE                Object position along y                                    [pixel]
#   5 X_WORLD                Barycenter position along world x axis                     [deg]
#   6 Y_WORLD                Barycenter position along world y axis                     [deg]
#   7 A_WORLD                Profile RMS along major axis (world units)                 [deg]
#   8 B_WORLD                Profile RMS along minor axis (world units)                 [deg]
#   9 THETA_WORLD            Position angle (CCW/world-x)                               [deg]
#  10 FWHM_WORLD             FWHM assuming a gaussian core                              [deg]
#  11 ELONGATION             A_IMAGE/B_IMAGE                                           
#  12 ELLIPTICITY            1 - B_IMAGE/A_IMAGE                                       
         1 -14.4306    123.0737     12.8281   7.5216382008e+01   5.3128298197e+01     8.066994     3.673994 -51.05   0.02658391    3.797    0.737
         2 -14.7745    248.0090     23.9032   6.0616332654e+01   2.0222611868e+01     2.443278     1.332692  -2.72   0.01078848    2.264    0.558
         3 -16.2586    242.0276     14.6333   5.8684404737e+01   2.2520161957e+01      4.78962     1.071806  59.15   0.01628414    3.833    0.739
         4 -16.0836    205.4285     58.3817   7.5719408770e+01   2.6395492578e+01     9.158814     5.345245 -39.19   0.03998879    1.713    0.416
         5 -14.6178    248.7496      2.8724   5.5043020134e+01   2.2048678205e+01     1.712372    0.4994165  72.50  0.006351864    3.556    0.719
         6 -14.2318    169.9724     65.6888   8.4420401350e+01   3.4081214632e+01     4.973121     2.161516 -27.63   0.01561759    2.364    0.577
         7 -11.1175    143.1884      9.0074   6.9460404824e+01   4.8473564420e+01     1.204717    0.3507024 -14.15  0.003350706    4.549    0.780
         8 -10.8183    151.0663      7.9710   6.7656263423e+01   4.6522605646e+01    0.5186169    0.2094029 -20.97  0.001385155    2.441    0.590
         9  -9.3194     52.2424      7.9592   9.5935269210e+01   6.7993289436e+01    0.3064023    0.1536955 -35.46  0.001305449    1.718    0.418
        10  -9.9648      8.8464      8.9973   1.1884087508e+02   7.2409639457e+01    0.1704015    0.1029618 -25.20 0.0007225563    1.615    0.381
        11 -11.5649    215.8207      2.8889   5.7752515764e+01   2.9980566745e+01    0.4818155    0.2139895 -16.78  0.001975622    2.294    0.564
        12  -9.1998    199.8669      6.5681   6.0480445181e+01   3.3746977448e+01    0.2721134     0.169681 -25.57  0.001290982    1.554    0.357
        13  -8.8642    207.5147      4.6594   5.9084825774e+01   3.1939529939e+01    0.3119589    0.1509686 -30.69  0.001343615    1.919    0.479
        14  -9.8235    209.0596      1.3618   5.7935074268e+01   3.1829341313e+01    0.2262221    0.1251531  69.13 0.0002636474    1.780    0.438
        15  -8.6909    171.8457      2.6675   6.2561583765e+01   4.1494673157e+01    0.2876624    0.1467285 -44.83 0.0007750237    2.175    0.540
        16  -8.6163    183.8414      3.6634   6.1384386138e+01   3.8218478751e+01     0.223401    0.1566373 -25.71 0.0004856147    1.419    0.295
        17  -8.3907    154.0235    158.4738   1.1084679562e+02   2.1269069544e+01    0.1935347      0.11861  44.23 0.0003639685    1.486    0.327
        18  -8.5931     52.9997    250.6657   1.3911712803e+02   2.0793337832e+01    0.1279122   0.06359939  43.41 0.0009505902    1.522    0.343
        19  -9.3154    243.5075    156.0866   9.3754415432e+01   5.2411939429e+00    0.1841533    0.1132731 -20.69 0.0007346578    1.546    0.353
        20  -8.6426     78.2731    248.6180   1.3515739668e+02   1.8273409791e+01   0.09986059   0.05323287  63.85 0.0006997663    1.705    0.413
        21 -11.3544    228.3584    121.2564   8.8625438635e+01   1.2477808758e+01    0.5100929    0.2784356 -39.25  0.002345016    2.014    0.503
        22  -8.1479     30.9299    229.0006   1.4146889231e+02   2.6162518662e+01    0.1106026   0.07689154  64.27 0.0009513177    1.015    0.015
        23 -13.5627     15.1043    195.0539   1.4254890027e+02   3.3132037592e+01    0.8808196     0.582532 -79.99  0.004637576    1.441    0.306
        24 -10.5550    221.1869    119.8484   8.9518084483e+01   1.4124885465e+01    0.2499018    0.2378825 -22.53 0.0007734193    1.248    0.199
        25 -12.4429    213.8282    115.4658   8.9757564132e+01   1.6274261295e+01    0.7629537    0.5819654 -67.92  0.002604665    2.152    0.535
        26 -12.2562    205.4619    110.5549   9.0062829638e+01   1.8780317315e+01    0.6671968      0.53026 -13.17   0.00277559    1.208    0.172
        27 -11.2443    206.2690    123.4109   9.3037277562e+01   1.6683627714e+01    0.4133446    0.3139845  12.56  0.002188716    1.317    0.241
        28  -9.3589    119.0637    132.1578   1.1364220052e+02   3.2347596120e+01    0.2646779    0.1971946 -69.88 0.0006673113    1.535    0.349
        29 -11.4575    168.4077    114.1814   9.8365909019e+01   2.6172685763e+01    0.5658621    0.4281898 -51.42 0.0008668847    1.528    0.346
        30 -10.9897    140.2093    103.9234   1.0221723087e+02   3.3970699360e+01    0.4952087     0.409042  34.43  0.002096598    1.221    0.181
        31 -10.2527    134.6257    113.1957   1.0583762965e+02   3.3270452953e+01    0.4170251    0.1977854 -43.79  0.001599946    2.126    0.530
        32 -10.7874    135.4919    107.6850   1.0430117815e+02   3.4185596596e+01     0.488245     0.306477 -49.22  0.001806892    1.650    0.394
        33  -8.1687    198.3682    153.2519   1.0106970866e+02   1.3851163308e+01    0.1400445   0.09138324  20.12 0.0006958374    1.630    0.386
        34 -10.8338    151.5303    106.4555   1.0019178423e+02   3.1141687953e+01    0.4572707    0.3002031 -66.43  0.001361951    2.398    0.583
        35 -11.1780    146.9016     99.4927   9.9468068562e+01   3.3427446224e+01     0.473134    0.4171151 -88.34  0.001415274    1.397    0.284
        36  -9.6223    222.0358    104.6875   8.5661074218e+01   1.6072819078e+01    0.2349977    0.1955505 -45.38 0.0006293292    1.432    0.301
        37 -11.4102    199.7666    120.7171   9.3615424750e+01   1.8445708795e+01    0.4365839    0.3129702 -42.01   0.00221098    1.558    0.358
        38  -9.5281    121.9442    101.5294   1.0616467206e+02   3.8055688785e+01    0.3024247    0.2663742 -13.08  0.001570759    1.245    0.197
        39  -9.4120    191.4878    150.9987   1.0191650506e+02   1.5488135634e+01      0.32671    0.1937111 -65.87   0.00103602    5.766    0.827
        40 -10.6964    227.6729     96.8261   8.2733211312e+01   1.5951827468e+01    0.4197245    0.3715922 -72.79  0.002149751    1.545    0.353
        41  -9.2495    133.7094     96.5997   1.0190826717e+02   3.6728605810e+01    0.3265107    0.2504235 -61.89 0.0007745624    1.535    0.349
        42  -9.7518    204.6787     91.8136   8.5338693092e+01   2.1774869343e+01     0.390089    0.3009517 -84.60  0.001100632    2.018    0.504
        43  -9.0611    133.6607    146.6805   1.1304600827e+02   2.6993899576e+01    0.3380036    0.1230197 -46.96  0.001317634    2.925    0.658
        44  -9.2899    121.9201    147.2516   1.1576195686e+02   2.8904672895e+01    0.1966232    0.1826112 -69.81 0.0002972709    1.124    0.110
        45 -10.1334    140.4884     88.8516   9.8106089182e+01   3.6815883909e+01    0.3409863    0.3071336 -43.97  0.001042823    1.133    0.117
        46  -9.1663    192.1040    143.9291   1.0032812491e+02   1.6438002516e+01    0.1930877    0.1874392  55.68 0.0004546075    1.270    0.213
        47  -8.9219    132.6198    139.4938   1.1192600862e+02   2.8532073963e+01    0.3192889    0.1303318 -53.22  0.001249101    2.797    0.642
        48 -10.8210    217.3265    189.5386   1.0445201972e+02   5.7684173826e+00    0.6469794    0.2831786  53.58  0.002625704    3.709    0.730
        49 -10.8689    187.1458    138.4336   1.0011517697e+02   1.8266069869e+01    0.3175713    0.2475745  20.05  0.001738703    1.255    0.203
        50 -11.0967    209.6189    135.7625   9.5254841294e+01   1.4198492860e+01    0.3968481    0.3354945  76.53  0.002189524    1.767    0.434
        51 -10.8514      4.1351     83.2055   1.3712966524e+02   5.6557662710e+01    0.3381764    0.1508828 -84.12  0.001783862    1.949    0.487
        52  -9.7760    145.5477     71.7527   9.1774616568e+01   3.8859576674e+01    0.6065959    0.2668442 -51.65  0.001916631    3.416    0.707
        53 -10.6624    150.7202     70.1313   9.0042381621e+01   3.7950487001e+01    0.7479308    0.3245306 -48.62  0.002401834    2.987    0.665
        54  -8.5174     11.9692     73.0000   1.3331631197e+02   5.8410219566e+01    0.1541239   0.06869321  18.85 0.0004535872    2.903    0.655
        55 -10.2990    192.2957    125.5680   9.6201608332e+01   1.9249735454e+01    0.3095138    0.2314796  56.90 0.0009095198    1.556    0.358
        56  -7.8360     76.0000     64.0073   1.0928837451e+02   5.3887228212e+01    0.2238698   0.07141918 -49.97 0.0003802122    2.797    0.642
        57  -8.9670      2.3281     64.3380   1.3533898205e+02   6.0859804117e+01    0.1230177   0.06314822 -49.75 0.0006740614    1.730    0.422
        58 -12.7477    186.3146    122.0917   9.6565058479e+01   2.1052958500e+01    0.8315539    0.6596437 -18.90  0.004446754    1.268    0.211
        59  -9.2883    129.3318     56.8491   9.0908192621e+01   4.5180681590e+01      0.21579    0.1825756 -22.46 0.0005628554    1.133    0.117
        60  -7.9280    250.4945     56.5109   6.8968953381e+01   1.6091768019e+01    0.1396479    0.1220891  -7.09 -0.0001628525    1.055    0.053
        61  -9.2018     95.9970     55.4646   9.9990937155e+01   5.2288563329e+01    0.2084877    0.1430409  40.39 0.0007248663    1.566    0.361
        62 -10.9111    114.9874     51.8754   9.3038716740e+01   4.9192375511e+01    0.4104116      0.27529 -33.51 0.0004801171    1.412    0.292
        63 -12.1931     35.9477    181.9347   1.3803971461e+02   3.3545861937e+01    0.4714283    0.2496578  64.21  0.003051357    1.635    0.388
        64 -11.4646    200.0922    133.7046   9.6566482891e+01   1.6403525836e+01    0.4252212    0.2858593  17.84  0.002099576    1.631    0.387
        65  -8.7242    102.6694     38.6976   9.1651378393e+01   5.4055228761e+01    0.1510246    0.1083195   7.64 0.0002571603    1.651    0.394
        66  -9.5809    222.0338    177.6017   1.0152588212e+02   6.3908816285e+00    0.2735647    0.2236639 -73.07  0.001565476    2.496    0.599
        67 -10.3229    214.0325    131.1068   9.3405484356e+01   1.3985274460e+01    0.2204482      0.19272  15.24 0.0008503895    1.039    0.038
        68  -9.8376    112.6828     29.9392   8.5164188200e+01   5.3309149456e+01    0.2135383    0.1812855 -18.08 0.0005431194    1.101    0.092
        69 -10.1988    140.9491    122.1516   1.0640072277e+02   3.0300571447e+01    0.3892598    0.2562381 -60.83  0.001811401    1.907    0.476
        70 -10.3945    160.8139    128.5782   1.0338415586e+02   2.5190664127e+01    0.3565955    0.2852357 -69.34  0.001850722    1.664    0.399
        71 -12.4233     69.5087    150.5689   1.2815128862e+02   3.5927232304e+01     2.087453     0.942908 -57.08   0.01055685    2.191    0.544
        72 -12.3790     51.8241    168.3232   1.3384289769e+02   3.4461796446e+01    0.7140631    0.4652562  84.77  0.002777097    1.417    0.294
        73 -11.9168     57.3726    163.5361   1.3223630802e+02   3.4775131716e+01     0.543404     0.352816  86.58  0.001787703    1.475    0.322
        74  -9.9378    175.7076    202.1546   1.1377234382e+02   1.1008108047e+01    0.2008575    0.1535465  35.08 0.0002871855    1.051    0.048
        75 -11.3599     31.0877    172.0336   1.3830906214e+02   3.5856500159e+01    0.4006723    0.1633798  52.20  0.002295793    2.090    0.522
        76  -9.2565    191.9641    193.3048   1.0950831279e+02   9.5033118868e+00    0.4266506    0.2512241 -64.30  0.001599685    5.900    0.831
        77  -9.7066    219.2345    169.8935   1.0056952715e+02   7.8144853293e+00    0.3903928    0.1986471  59.12  0.001485559    4.133    0.758
        78  -9.6210    230.0064    166.5179   9.8072974927e+01   6.3512006075e+00    0.2201713    0.1714549 -36.31 0.0008269782    1.618    0.382
        79 -10.8306    135.6396    126.7959   1.0865220219e+02   3.0418182523e+01    0.5968829    0.2312844 -47.23   0.00227635    2.671    0.626
        80  -8.5324    203.5591    160.7222   1.0159722805e+02   1.1829034585e+01    0.1619511    0.1237149 -39.63 0.0009321196    1.559    0.359
        81 -10.1209    135.3630    119.8249   1.0718799638e+02   3.1826958906e+01    0.2517845    0.2309866 -24.72  0.001445469    1.132    0.117
        82 -12.5215     45.9287    172.8375   1.3542364178e+02   3.4228799931e+01    0.5291946    0.4040264  73.70  0.001430328    1.061    0.057
