#   1 NUMBER                 Running object number                                     
#   2 MAG_AUTO               Kron-like elliptical aperture magnitude                    [mag]
#   3 X_IMAGE                Object position along x                                    [pixel]
#   4 Y_IMAGE                Object position along y                                    [pixel]
#   5 X_WORLD                Barycenter position along world x axis                     [deg]
#   6 Y_WORLD                Barycenter position along world y axis                     [deg]
#   7 A_WORLD                Profile RMS along major axis (world units)                 [deg]
#   8 B_WORLD                Profile RMS along minor axis (world units)                 [deg]
#   9 THETA_WORLD            Position angle (CCW/world-x)                               [deg]
#  10 FWHM_WORLD             FWHM assuming a gaussian core                              [deg]
#  11 ELONGATION             A_IMAGE/B_IMAGE                                           
#  12 ELLIPTICITY            1 - B_IMAGE/A_IMAGE                                       
         1 -11.7949     44.0579     28.9108   9.9205780625e+01   6.4421703915e+01    0.4976328     0.328016  -5.15  0.003095384    1.452    0.311
         2 -11.8646     76.8563     21.5120   8.4794660500e+01   6.0236252584e+01    0.4979092     0.276312  44.14  0.001848399    1.600    0.375
         3 -10.9418     92.2519      9.4083   7.5991187008e+01   5.8515836743e+01    0.3694814    0.2691174 -18.19 0.0009073833    1.520    0.342
         4 -11.7257     88.8819     13.9269   7.8510160292e+01   5.8765341027e+01    0.5468602     0.356263 -37.19  0.003042575    1.862    0.463
         5 -11.3013     40.0272     19.6638   9.7124409271e+01   6.6138264143e+01    0.5550351     0.361542   0.14  0.003487461    1.423    0.297
         6 -10.7945     22.2854      9.1000   1.0021645282e+02   6.9509417380e+01    0.3258608    0.1706735  14.71  0.001991236    1.857    0.462
         7 -11.6855     30.3299      7.3613   9.5910981039e+01   6.8783862098e+01    0.3402772    0.2624266 -11.70  0.001979657    1.207    0.172
         8 -11.3996     35.0922     13.0207   9.6364728822e+01   6.7558231061e+01    0.3270864    0.2190549 -22.67  0.001557788    1.369    0.270
         9 -11.7862     40.1362      8.3488   9.2299761462e+01   6.7416433486e+01    0.4454859    0.2767754 -16.18  0.001486373    1.483    0.326
        10 -10.8840     99.8408     18.8498   7.7431793944e+01   5.6111147119e+01    0.3470815    0.2802466 -82.05  0.001867971    1.800    0.444
        11 -11.3420    155.8213     13.7283   6.4891284130e+01   4.4194450617e+01    0.4336779    0.2525922  37.42  0.002209636    2.080    0.519
        12 -10.6022    119.3821     12.1586   7.0790368749e+01   5.2610347322e+01    0.2591513    0.1627257  66.24 0.0002538333    1.515    0.340
        13 -12.0968     56.5006      5.3360   8.4952836797e+01   6.5293707089e+01    0.5179341    0.3248001  -0.01  0.003283422    1.591    0.371
        14 -11.5808     11.1765      6.2169   1.0414185382e+02   7.0966839697e+01    0.4426826    0.4001871 -21.02   0.00368096    1.698    0.411
        15  -9.7430      2.5135      2.7205   1.0688865839e+02   7.2143317357e+01    0.1953915    0.1099916   6.16  0.001364484    1.569    0.363
        16 -11.2464      4.4140      9.8823   1.0903546938e+02   7.1079655577e+01    0.2563811     0.152774  11.74 0.0007553916    1.527    0.345
        17 -10.8962      2.3772      6.3368   1.0854509845e+02   7.1699998284e+01    0.1935955    0.1416265   0.92 0.0005067458    1.196    0.164
        18 -11.6046    150.8774      7.4717   6.3930398528e+01   4.5923308866e+01     0.368558    0.2602461  40.54  0.001207176    1.514    0.340
        19 -10.9579    209.8856      7.2047   5.6865037848e+01   3.2409658652e+01    0.2223679    0.1674383 -83.89   0.00140304    1.085    0.079
        20 -11.6854     80.2159      1.7894   7.6297949776e+01   6.1464029598e+01     0.429927    0.1828927  43.53  0.001088778    1.869    0.465
        21 -10.3715     70.2612      7.3718   8.1333188981e+01   6.2804615825e+01    0.6836004    0.2721051  56.97  0.003026656    3.133    0.681
        22 -10.3170     73.5003      5.4504   7.9604598691e+01   6.2397609279e+01    0.2809056    0.1658181  53.11  0.001578465    1.647    0.393
        23 -11.2013    195.5814      5.4941   5.7902749835e+01   3.5803871954e+01    0.3186903    0.1444869 -67.44  0.001419308    2.740    0.635
        24 -10.9171    144.9803      5.8076   6.4361910941e+01   4.7422694117e+01    0.1859423    0.1806982 -17.99 0.0006350959    1.243    0.196
        25 -10.9425    119.8119      4.5729   6.8298347172e+01   5.3162478580e+01    0.4205711     0.148814  49.10 0.0008926004    2.271    0.560
        26  -9.8576    235.5950      4.2813   5.4090687927e+01   2.7161918578e+01    0.1384452    0.1101703 -34.91 0.0009495582    1.620    0.383
        27 -10.2980    217.8353      3.8302   5.5450607749e+01   3.1010895225e+01    0.1699577    0.1106523 -74.82 0.0003433089    1.331    0.249
        28 -11.1819    130.3173      3.6962   6.6133042194e+01   5.0913809534e+01    0.2490002    0.1692834  58.31  0.001296603    1.200    0.167
        29 -10.7776    172.4624      2.9594   5.9877661193e+01   4.1344727377e+01    0.3027924    0.1525659  81.79 0.0008855403    1.921    0.479
        30  -9.7821    176.5158      2.4955   5.9287974908e+01   4.0453676095e+01    0.1934825    0.1637747 -41.45  0.001310975    1.379    0.275
        31 -11.2131    160.1749      2.2585   6.1243363581e+01   4.4238413528e+01    0.3003137    0.1986236 -88.84  0.001741577    1.517    0.341
        32 -10.7973     19.0302      2.6733   9.8824052941e+01   7.0593503349e+01    0.3062381    0.1484825  22.18  0.001896246    1.883    0.469
        33 -10.0374    100.0795      1.7406   7.1415883877e+01   5.7563317987e+01    0.1714886    0.1521393  69.17 0.0004826796    1.264    0.209
        34  -9.6518     49.8667      2.0651   8.5882285579e+01   6.6624812741e+01    0.3484584    0.1110362  41.67    0.0016772    2.594    0.615
        35  -9.6927    112.7511      2.6397   6.9050639942e+01   5.4839946052e+01    0.1714814     0.101918  68.26 0.0009448347    1.634    0.388
        36  -9.2199    204.2993      1.3213   5.6142544760e+01   3.4255099558e+01    0.1128061   0.08353335  50.90 0.0002102391    1.624    0.384
        37  -9.8752    230.6202      3.1866   5.4269261629e+01   2.8328310296e+01    0.1385918     0.110718 -32.37 0.0006891523    1.650    0.394
        38  -9.3692     67.4280      1.4930   7.9836413634e+01   6.3801171037e+01    0.1168867   0.08902901  25.67 7.868763e-05    1.044    0.042
        39 -11.1835     11.9068    129.7448   1.3595834174e+02   4.7347321600e+01    0.4556563     0.227021  56.82  0.001930686    2.721    0.632
        40 -12.9137     17.6685    248.3684   1.4569739116e+02   2.0147174742e+01     1.165096     0.387661  30.04  0.004743721    4.915    0.797
        41 -12.4816     10.6182    244.6844   1.4666909600e+02   2.1636533216e+01    0.4230847    0.3119327   6.97  0.002639261    2.916    0.657
        42 -13.5848     10.1632    229.8745   1.4583368951e+02   2.4691214411e+01     0.836779    0.4510786  73.08  0.005076909    1.553    0.356
        43 -10.6330    248.0036    129.1672   7.8255044193e+01   5.5700734013e+00    0.2261984    0.1584142 -82.87  0.001103672    2.078    0.519
        44 -11.6631     23.1879    120.9381   1.3142989645e+02   4.8534024706e+01    0.5770309    0.2741346 -86.04  0.002278117    3.292    0.696
        45 -10.7365      3.6995    118.9399   1.3674983598e+02   5.0392927605e+01    0.1764603    0.1298272 -67.69 0.0006111423    1.069    0.065
        46  -9.7414      2.3120    114.3089   1.3649306266e+02   5.1529032791e+01    0.1254772   0.06974692 -45.60 0.0002259715    1.624    0.384
        47 -10.7475     65.8041    111.2322   1.1650824091e+02   4.6153251153e+01    0.3685622    0.1691796 -45.73  0.001537735    2.010    0.503
        48  -9.9032     41.9992    112.9869   1.2429015903e+02   4.8629350402e+01    0.2056401    0.1270855 -35.11 0.0007646919    1.718    0.418
        49 -10.0219    249.3919    111.7874   7.4405771565e+01   8.4234453002e+00    0.1940662    0.1177597 -34.56 0.0009470725    1.647    0.393
        50 -11.1122      3.8612    109.1123   1.3526954539e+02   5.2610494664e+01    0.2979313    0.1585629  25.17  0.001691114    2.294    0.564
        51 -10.3391     58.0651    107.9439   1.1816605268e+02   4.7930673789e+01    0.2247074     0.153235 -25.88  0.000823069    1.688    0.408
        52 -10.8631     13.1969    108.1131   1.3228550501e+02   5.2240528910e+01    0.1987135    0.1387897 -46.08 0.0005783704    1.257    0.204
        53  -9.1522     34.2890    107.6239   1.2562097701e+02   5.0633588612e+01    0.1287722   0.09580957  83.89  0.000701954    1.728    0.421
        54  -9.9155     92.8009    105.1940   1.0675883244e+02   4.3297689536e+01    0.2523413    0.1695367 -12.80  0.001066843    2.201    0.546
        55  -9.7890    113.5227    102.5125   1.0005178161e+02   3.9986649653e+01    0.1498703     0.145252 -19.59 9.580672e-05    1.021    0.020
        56 -11.0516     57.5202    101.5301   1.1682897022e+02   4.9448331337e+01    0.3444513    0.2417536  36.55  0.001368731    1.588    0.370
        57  -9.1989     24.9779    101.7617   1.2742185889e+02   5.2782821142e+01    0.1396494    0.1072087  14.45 0.0002242268    1.541    0.351
        58 -10.4544     20.4730     99.5747   1.2844712606e+02   5.3628172263e+01    0.3150274   0.06289841 -54.57  0.001155224    3.125    0.680
        59 -10.8772     18.3029     94.4731   1.2815240299e+02   5.4915248441e+01    0.2734175    0.1993647 -89.47 0.0009954376    1.733    0.423
        60 -10.1209     62.1548     98.6436   1.1462150491e+02   4.9484825362e+01    0.2395906    0.1785615 -59.62  0.001196034    1.360    0.264
        61  -9.5163    129.4989     97.5006   9.4372388386e+01   3.7700550596e+01     0.149557    0.1488891  -0.00 -0.000539166    1.003    0.003
        62 -10.7005     78.9601     94.9989   1.0828880958e+02   4.7820984717e+01    0.2097627    0.1909866 -27.87 0.0002950898    1.021    0.020
        63 -11.0279     27.3723     91.0530   1.2439403017e+02   5.4941047409e+01    0.4569826    0.2849706  49.55  0.002452804    2.240    0.554
        64 -10.2954     25.3011     84.9888   1.2373940211e+02   5.6411096498e+01    0.2378332    0.1770709 -61.45 0.0007420038    1.295    0.228
        65 -11.0166     58.5783     91.3393   1.1392620483e+02   5.1538681097e+01    0.2858085    0.2175743 -21.45 0.0002100516    1.357    0.263
        66 -11.3263     11.2287     87.8809   1.2920259932e+02   5.6826752535e+01    0.5694353     0.201164 -60.60  0.002635441    2.208    0.547
        67 -10.7775     76.4473     89.2804   1.0751770529e+02   4.9419535471e+01    0.2483465    0.2257607 -19.79 0.0004690886    1.030    0.029
        68 -10.3544     42.8313     88.8882   1.1861652963e+02   5.3923593812e+01    0.4666463    0.2102548  49.55  0.001773333    4.011    0.751
        69 -10.0297      1.8099     89.7296   1.3270280283e+02   5.6983492368e+01    0.2005591    0.1151667 -54.86 0.0002271968    1.304    0.233
        70 -10.0746    107.6810     89.3104   9.8018827114e+01   4.3877414026e+01    0.1449225    0.1187501  89.84 0.0005740562    1.643    0.391
        71 -11.2420     98.8716     89.2278   1.0056289096e+02   4.5583232683e+01    0.2805257    0.2051197  18.65  0.001361873    1.595    0.373
        72 -10.2941     17.6845     88.6990   1.2717817173e+02   5.6210763901e+01    0.3181222    0.1732433 -23.63  0.001443587    2.155    0.536
        73  -9.5639     33.2941     87.7657   1.2161790865e+02   5.5118357471e+01    0.2406273    0.1251621 -34.42 0.0005085953    1.938    0.484
        74  -9.5260    124.1519     86.8444   9.2779925723e+01   4.0968363910e+01    0.2070505    0.1778478   7.17 0.0006847291    1.312    0.238
        75 -11.3369     54.7172     84.9152   1.1352396936e+02   5.3381516278e+01    0.3249184    0.2474612 -63.06  0.001829957    1.496    0.332
        76 -10.5642      3.8385     83.1613   1.3078865137e+02   5.8266909240e+01    0.2680248    0.2216453 -82.67  0.001186281    1.402    0.287
        77  -9.8827      2.9900     78.4653   1.3014678500e+02   5.9291071315e+01     0.143383    0.1108279   0.50 -2.494247e-06    1.492    0.330
        78  -8.9243    129.2533     83.7140   9.0556688709e+01   4.0457500531e+01    0.1400905    0.1163762 -78.82            0    1.475    0.322
        79  -9.5724     78.1738     83.3498   1.0527609780e+02   5.0355475452e+01    0.1885321     0.125952  45.44 0.0004363034    1.686    0.407
        80 -11.4553     63.9919     79.9834   1.0899273538e+02   5.3156087806e+01    0.4231242    0.3325294 -42.82  0.002447244    1.192    0.161
        81 -10.5041     89.7003     79.8616   1.0060302124e+02   4.9097817079e+01    0.4153199    0.2713662 -24.69  0.001971697    1.737    0.424
        82  -9.2955    124.4812     79.0209   9.0426519607e+01   4.2367750400e+01    0.1951916    0.1262328 -64.72 0.0007006061    2.269    0.559
        83  -9.4662     24.1922     78.8281   1.2268053131e+02   5.7787235222e+01    0.1803872    0.1180882 -34.50  0.001069995    1.349    0.259
        84 -10.5530    176.5288     77.3263   7.8316384788e+01   3.0628466605e+01     0.313419    0.2512121  34.28  0.001594658    1.481    0.325
        85 -11.7546     56.5189     75.4095   1.1024054830e+02   5.5069050830e+01    0.4840337    0.2898937  22.09  0.001617923    1.842    0.457
        86 -10.2057     15.4779     75.9810   1.2514500108e+02   5.9030686970e+01    0.1745571    0.1497092 -19.39  0.001068735    1.185    0.156
        87  -9.3966    160.5265     74.9965   8.0867741652e+01   3.4836367029e+01     0.211452    0.1449506 -40.48 0.0003945747    1.499    0.333
        88  -9.1209     74.7453     75.6785   1.0412634862e+02   5.2399496939e+01    0.1367783   0.09780268 -16.15 0.0001943322    1.541    0.351
        89  -9.4542     70.2948     75.3420   1.0550417319e+02   5.3148766856e+01    0.1412094   0.09731207 -15.02 0.0004469774    1.660    0.398
        90 -10.3516     32.2046     73.1458   1.1833106798e+02   5.8236052198e+01    0.2708763    0.1956031  46.36 0.0007495902    1.893    0.472
        91 -10.9227     35.8332     72.1572   1.1673381548e+02   5.8081004644e+01    0.4262024    0.2806133 -62.47  0.001666152    1.761    0.432
        92  -9.0578    224.2950     74.2973   6.9833972150e+01   2.0082003074e+01    0.1236092    0.1105399  18.34 0.0002810894    1.566    0.361
        93  -9.6283    136.4790     74.1491   8.6002667632e+01   4.0577302060e+01    0.2110396    0.1454522 -37.52 0.0008302039    1.506    0.336
        94 -10.0698      6.6968     74.3118   1.2794654259e+02   5.9934182602e+01     0.201182    0.1481536  48.28  0.001001684    1.911    0.477
        95 -10.2077      2.9708     73.5757   1.2913439425e+02   6.0292933632e+01    0.2123532    0.1483931  -6.07 0.0008433945    1.588    0.370
        96 -11.3163    105.9294     71.6275   9.3263218111e+01   4.7561813413e+01    0.2694161    0.2369406  15.30 0.0004112245    1.133    0.117
        97  -9.4117     92.4609     72.4825   9.7509377932e+01   4.9982769700e+01    0.1383712    0.1298693  -2.68 0.0001244298    1.027    0.026
        98 -10.0425     80.8544     72.0580   1.0102681042e+02   5.2089784988e+01    0.2142237    0.1623804 -71.21 0.0007983565    2.020    0.505
        99 -10.0734    114.3094     66.7322   8.9428870356e+01   4.6693336277e+01    0.2365521    0.1823942  71.99 0.0006815575    1.666    0.400
       100 -11.4385     39.4346     62.0378   1.1247264495e+02   5.9640071579e+01    0.6215801    0.2525016 -31.86  0.001417299    2.845    0.648
       101 -10.7186    131.6833     64.4430   8.4303038028e+01   4.3292288071e+01    0.3659725     0.276119  53.99  0.001895081    1.278    0.218
       102 -10.7873     34.6238     64.8027   1.1510864123e+02   5.9622192760e+01    0.2783213    0.1965283 -27.23 0.0006355877    1.245    0.197
       103  -9.8114     72.5969     63.7619   1.0112915168e+02   5.4922734718e+01    0.1812087    0.1218704 -49.20 0.0007424869    1.662    0.398
       104 -11.2724      3.5349     61.2527   1.2610880149e+02   6.2697774724e+01    0.4090448    0.2527463  57.75  0.002203627    3.181    0.686
       105 -10.8941      9.7563     60.3344   1.2345675562e+02   6.2500919058e+01    0.3175432    0.1395379 -41.01 0.0001644617    1.780    0.438
       106 -10.4759     62.8129     61.9722   1.0391389863e+02   5.6711829073e+01    0.2913695    0.2159582  -6.45   0.00117632    1.380    0.275
       107  -9.6516     66.7778     60.6507   1.0210487834e+02   5.6360120583e+01    0.1975355    0.1600715  -2.39 0.0004928386    1.167    0.143
       108  -9.9090    101.0143     61.9589   9.1644705616e+01   5.0184123409e+01    0.2050313     0.172354 -79.24 0.0006331336    1.665    0.399
       109 -12.9160     20.7910     57.7348   1.1840705452e+02   6.2190190028e+01    0.4298253    0.3077387 -52.85  0.002800158    1.389    0.280
       110 -12.4497      5.2544     51.5050   1.2290272964e+02   6.4425773268e+01    0.4422007    0.1910186 -27.44  0.002308126    2.322    0.569
       111 -10.3692     20.2590     51.2357   1.1670004028e+02   6.3411657129e+01    0.3041729    0.1528682 -31.55  0.001030626    1.775    0.437
       112 -11.7849     15.7971     45.9588   1.1691319198e+02   6.4691420607e+01    0.6766195    0.3754129   0.52  0.003966569    1.986    0.496
       113 -11.2612     54.6300     57.9834   1.0554676050e+02   5.8540173743e+01    0.5273646    0.4124462 -65.94   0.00304355    1.939    0.484
       114  -9.8903    118.9605     59.2401   8.5883007573e+01   4.6922293880e+01    0.1945581    0.1787711  39.29 0.0004388835    1.030    0.029
       115  -9.6149     83.5147     56.9696   9.5328669862e+01   5.4250131131e+01    0.1869706    0.1260589 -33.85 0.0003361699    1.470    0.320
       116 -12.0634     88.2552     53.5740   9.2711098391e+01   5.3940292909e+01    0.4686877    0.3448558  29.31 0.0008726793    1.299    0.230
       117 -10.3609     60.2300     58.0576   1.0355359806e+02   5.7760620201e+01    0.2108704    0.1764195  17.00 0.0006774582    1.170    0.145
       118  -9.2061     71.6883     57.2938   9.9318882992e+01   5.6171869137e+01    0.1169965    0.1070699  85.01 0.0002939976    1.592    0.372
       119 -10.4665    225.1549     54.8953   6.5450830637e+01   2.2924264356e+01     0.355246     0.274329  -4.54  0.001881804    2.206    0.547
       120  -9.7459     99.6584     56.2021   9.0177777300e+01   5.1372309877e+01    0.1835047    0.1233414 -23.51 0.0004251745    1.609    0.379
       121 -11.6473    114.5726     54.0399   8.5385712339e+01   4.8656558359e+01    0.3228151    0.2843188  42.20 0.0007950407    1.069    0.065
       122 -10.4344     34.3333     53.5283   1.1179203057e+02   6.1707149074e+01     0.251041    0.1543408 -26.81 0.0006623238    1.476    0.322
       123  -9.9080    106.0078     53.0057   8.7346857664e+01   5.0592504380e+01    0.2057099    0.1705703  87.67 0.0007695432    1.676    0.403
       124 -12.3437     66.2129     52.5464   9.9598759196e+01   5.7800507640e+01    0.5078949    0.2098248  33.92  0.001201738    2.472    0.596
       125  -8.9797    176.3039     52.2927   7.1850035242e+01   3.4659650999e+01    0.1351024    0.1056462  34.01 0.0001976619    1.575    0.365
       126 -10.8822    102.8911     47.4478   8.6382697788e+01   5.2035602068e+01    0.4267026    0.1892792  35.01  0.001157597    2.608    0.617
       127  -9.5184     75.3391     50.2688   9.5717101507e+01   5.6706222245e+01    0.2366517    0.1646506   6.03  0.000308484    1.591    0.372
       128 -10.5651     77.8335     46.2926   9.3520299386e+01   5.6885856838e+01    0.3259502     0.213285  29.02 0.0009201437    1.470    0.320
       129  -9.2437     47.2946     47.3132   1.0469830751e+02   6.1274704379e+01     0.126476   0.08203838 -11.30 0.0004468522    1.597    0.374
       130  -9.5485     64.9966     46.2570   9.7843806419e+01   5.8972583121e+01    0.1722022    0.1402554  17.76  0.001083616    1.129    0.114
       131  -9.7777     30.7759     45.8488   1.1070319502e+02   6.3381647540e+01    0.1851763    0.1297009 -20.93 0.0004372135    1.213    0.176
       132  -9.4953     91.1836     44.7558   8.8832370355e+01   5.4702578218e+01    0.1777407    0.1391695  10.98 0.0004569764    1.282    0.220
       133 -10.8106     26.0052     43.8581   1.1198894678e+02   6.4175942367e+01    0.2239727    0.2047382 -26.69 0.0009607204    1.328    0.247
       134  -9.7481     94.8333     41.8877   8.6781079447e+01   5.4400704284e+01    0.1678278    0.1588267 -70.41 0.0007430355    1.363    0.266
       135 -10.5022     70.2287     41.7133   9.4423795395e+01   5.8819263310e+01    0.2869348    0.2131713  25.29  0.001284233    1.235    0.190
       136 -10.3286     36.2942     41.3662   1.0693101434e+02   6.3526181343e+01    0.2226089    0.1571915   5.60  0.001116699    1.329    0.248
       137  -9.4359      2.0220     42.2289   1.2162048083e+02   6.6267704869e+01    0.1284821    0.0824936   5.72 0.0005430388    1.622    0.383
       138 -10.3630    181.6727     40.5018   6.7982621027e+01   3.5011617524e+01     0.299684    0.2122471  54.63  0.001220875    1.388    0.280
       139 -10.7610    139.1926     40.4858   7.5466798400e+01   4.5057665089e+01    0.3009955    0.2146986  71.42  0.001588479    1.462    0.316
       140  -9.0769     58.0455     41.1965   9.8517477070e+01   6.0766009930e+01    0.1515856   0.08888619  32.74 0.0008264979    1.646    0.392
       141 -10.1714    132.1499     38.4349   7.6329813988e+01   4.6930721972e+01    0.3626811    0.2719875 -81.80  0.001919825    1.754    0.430
       142 -11.4905    134.2173     34.0692   7.4568528967e+01   4.6996843033e+01    0.2241068    0.1786311  43.36 0.0002862035    1.180    0.152
       143  -9.1990     42.9298     40.7367   1.0406908876e+02   6.2851536245e+01    0.1369394   0.09374171  19.59 0.0003948515    1.399    0.285
       144 -10.2132     12.7744     37.9986   1.1564395550e+02   6.6265541724e+01    0.3477889   0.09573843 -51.13      0.00149    3.360    0.702
       145  -9.5051      9.1365     35.6453   1.1645648935e+02   6.6918545624e+01    0.1825941   0.09517885  20.86 0.0007573797    2.030    0.508
       146  -9.6661      5.7139     39.3705   1.1915646059e+02   6.6531571146e+01    0.1843824   0.09047901 -35.22  0.001101862    1.595    0.373
       147 -12.4829    122.3390     36.3153   7.7846518896e+01   4.9390708121e+01    0.7049245    0.4973893  34.25  0.003207774    1.428    0.300
       148  -9.1857    101.6535     39.6714   8.4118488944e+01   5.3346022563e+01    0.1415398   0.09280965  20.78 0.0005809892    1.755    0.430
       149 -10.3080     22.7625     38.5955   1.1155755709e+02   6.5335432509e+01    0.2199626    0.1700889  11.48 0.0007699381    1.307    0.235
       150 -10.9739     26.4567     35.3955   1.0886384326e+02   6.5489562296e+01    0.4116636    0.2038137 -36.97  0.002129861    1.718    0.418
       151 -10.5392      2.2724     35.4337   1.1943054049e+02   6.7406737285e+01    0.2949775    0.1562538 -19.35  0.001828552    1.762    0.432
       152  -9.8728     69.6701     36.7037   9.2795747405e+01   5.9608708924e+01    0.1300753   0.08582947   9.90 0.0002819344    1.636    0.389
       153  -9.8460     38.9099     35.4067   1.0372249538e+02   6.4138466896e+01    0.1565108    0.1204665   8.18 0.0004145753    1.159    0.137
       154  -9.4154     64.3846     34.3072   9.3722979096e+01   6.0778979987e+01    0.1333286   0.08329366   9.73 0.0007020168    1.800    0.444
       155  -9.6925     50.2228     33.7681   9.8679745494e+01   6.2933083036e+01     0.163528    0.1460108  -1.64 0.0006116506    1.222    0.182
       156 -11.4419    145.0969     32.9359   7.2089555327e+01   4.4623106331e+01    0.2107223     0.179741  57.42 -0.0009232552    1.047    0.045
       157  -9.4898    229.5317    248.0053   1.0465108068e+02  -1.1600353579e+01    0.1708628    0.1106672 -31.89 0.0007805252    1.555    0.357
       158 -10.6997     38.7090     30.8363   1.0208431097e+02   6.4823649044e+01    0.2390284    0.1486864   0.89  0.000324839    1.645    0.392
       159 -10.8043     19.8071     31.8579   1.1044556384e+02   6.6659513683e+01     0.285682    0.1653437   3.04  0.001200114    1.764    0.433
       160  -9.9964    205.2811     30.6304   6.2471136553e+01   3.0753708272e+01    0.2176518    0.1305642 -72.60  0.001108713    1.762    0.432
       161  -9.7770    166.4606     31.1389   6.7908098827e+01   3.9805181891e+01     0.179467    0.1323033 -34.29 0.0005206921    1.523    0.343
       162 -10.2306    148.9472     28.9594   7.0244505840e+01   4.4188719293e+01    0.4192578    0.2509351 -70.10  0.001913496    2.444    0.591
       163 -11.3954      8.3095     28.9871   1.1454753646e+02   6.8038807781e+01     0.233257    0.2137956  32.09  0.001852577    1.696    0.410
       164 -10.6251     69.9407     28.5297   8.9661814649e+01   6.0619364165e+01    0.4671271    0.2191785 -27.97  0.002029584    2.209    0.547
       165 -11.3333     76.9158     25.9251   8.6436137359e+01   5.9729270242e+01    0.3104042    0.2303435  38.05 0.0004236111    1.221    0.181
       166  -9.4982    224.6352    246.7897   1.0535844305e+02  -1.0725238368e+01     0.153416    0.1110198 -39.57 0.0005979924    1.576    0.366
       167 -10.0456    140.1710     27.0210   7.1290072066e+01   4.6444747795e+01    0.2522765    0.1677861  60.03  0.001183652    1.314    0.239
       168 -10.0052    171.3170     26.3285   6.5912463981e+01   3.9219010563e+01    0.1319766   0.09331398  39.19 0.0003449478    1.680    0.405
       169  -9.9428    153.7210     25.5862   6.8473428843e+01   4.3450810385e+01    0.2293673    0.1468466  74.02 0.0007529582    1.513    0.339
       170 -10.9607    114.0554     24.2104   7.5842376263e+01   5.2583826920e+01     0.290538    0.2455168  11.03   0.00100142    1.253    0.202
       171 -10.5137    100.7019     25.5406   7.9535641864e+01   5.5235513362e+01    0.2092696    0.1922787 -40.51 0.0007414775    1.314    0.239
       172  -9.2983     18.3171     26.3184   1.0905162805e+02   6.7622763618e+01    0.1176251    0.0668172 -15.51 -0.0001342913    1.656    0.396
       173 -10.2186     59.1667     24.2662   9.1719736878e+01   6.2868633858e+01    0.2276877    0.1440622  -7.63  0.001328681    1.641    0.391
       174 -10.5384    219.2307     23.1676   5.9314077822e+01   2.8523013887e+01    0.1967097    0.1236215  35.83 0.0009576394    2.869    0.651
       175  -9.5654     89.4001     22.7552   8.1579869523e+01   5.7774566351e+01    0.1935407    0.1512378  -9.71 0.0007594788    1.327    0.246
       176  -9.3563    136.3531    245.6968   1.2271664337e+02   3.6597287267e+00    0.1370991    0.0922467  64.19 0.0007039898    1.706    0.414
       177 -10.1504     85.3526     20.9245   8.2055229873e+01   5.8740297721e+01     0.311186    0.1208868  39.04 0.0008118998    2.396    0.583
       178 -12.3596      5.0960    240.6816   1.4736879473e+02   2.3004675286e+01    0.4822833    0.2969107  67.61  0.003314332    1.247    0.198
       179 -10.5026      1.9787     21.7746   1.1489535345e+02   6.9581701163e+01    0.2219599    0.1264644 -42.86  0.001144138    1.523    0.343
       180 -11.0546     13.2787     20.6351   1.0915312489e+02   6.8883647817e+01    0.2407333    0.1905316 -21.53 0.0008262939    1.202    0.168
       181 -10.9056     13.8897     15.9710   1.0700187480e+02   6.9472381356e+01    0.3062995    0.1567123  24.07   0.00166203    1.908    0.476
       182  -9.7814    132.1273     20.4992   7.0872309184e+01   4.8975565641e+01     0.208077    0.1605267  34.41  0.001134301    1.330    0.248
       183 -11.0226      1.6934    248.6698   1.4837043469e+02   2.1774437925e+01    0.3792167    0.1990484 -80.84  0.002472872    1.583    0.368
       184 -11.8918      4.1449    232.5012   1.4705382582e+02   2.4754699602e+01     0.384304    0.2054475  78.03 0.0003578124    1.518    0.341
       185  -9.5495    202.4994    240.1119   1.0847909361e+02  -6.3505784626e+00     0.178039    0.1233526 -36.31 0.0007508747    1.534    0.348
       186 -12.5667     26.0522    235.9597   1.4339346255e+02   2.1713078402e+01    0.3592649     0.315433  63.88  0.001878928    1.319    0.242
       187  -9.0391    210.6865    235.6987   1.0613069101e+02  -6.9399843074e+00    0.1312966   0.09055126   2.80  0.000329575    1.611    0.379
       188 -10.5423     31.0095     20.5909   1.0124246791e+02   6.7115884006e+01    0.2005763    0.1329801 -22.29 0.0001146925    1.292    0.226
       189 -10.2328    175.2287     20.6188   6.3906197591e+01   3.8937266268e+01    0.1891862    0.1011214  59.45 0.0005578025    1.633    0.388
       190  -9.8130    249.1909    234.0931   9.8675116713e+01  -1.2350150806e+01    0.1820784    0.1353344  -2.81 0.0004518821    1.171    0.146
       191  -9.6640    148.8103     18.8239   6.7402975954e+01   4.5316729373e+01     0.171152    0.1368552 -89.76 0.0003331484    1.291    0.225
       192  -9.9682    199.9643     17.3190   6.0081124070e+01   3.3552690422e+01    0.1811964     0.137312  80.69 0.0004459341    1.115    0.103
       193 -10.3270     26.4814     16.4578   1.0149577178e+02   6.8153018600e+01    0.1942713    0.1664288  21.35  0.001089084    1.495    0.331
       194 -10.4645     20.1273     16.7913   1.0446723521e+02   6.8773777615e+01    0.1501423    0.1178014  -1.00 0.0003266886    1.141    0.123
       195 -10.4613     49.1673     16.1094   9.2094591414e+01   6.5309692605e+01    0.1792744    0.1492121  21.10  0.000536564    1.217    0.179
       196  -9.4754    140.5089    227.4652   1.1919854558e+02   6.4428227533e+00    0.1395699    0.1225195  55.48 0.0003342046    1.076    0.071
       197 -10.2991    190.6301     13.9183   6.0357097255e+01   3.6069664450e+01    0.2158916    0.1504845  65.48 0.0007339834    1.287    0.223
       198  -9.7879    174.3265     14.6628   6.2536926788e+01   3.9780871302e+01    0.1342328   0.08564129 -72.43 0.0007051639    1.725    0.420
       199 -10.5080     62.7983     14.0423   8.6396822382e+01   6.3431164101e+01    0.1660613    0.1533099  20.02 0.0005307245    1.307    0.235
       200 -10.0837    162.1364     13.1527   6.3814366781e+01   4.2779598286e+01    0.1941245    0.1479493  54.41 0.0004220259    1.244    0.196
       201  -9.8404     68.7135     13.5636   8.4270990898e+01   6.2488497974e+01    0.2110222   0.09624214  43.43 0.0006923104    1.878    0.467
       202 -10.2294     33.1779    225.1189   1.4122401416e+02   2.3176331061e+01    0.2906321    0.1133314  47.39  0.001423827    2.234    0.552
       203  -9.3319     35.3812    130.7451   1.2953286529e+02   4.5107239943e+01    0.1909668   0.09883759 -54.82 0.0005553546    1.613    0.380
       204 -12.1917      7.9397    217.6888   1.4542893710e+02   2.7483564077e+01    0.3486105    0.2372565  83.60  0.002357578    1.116    0.104
       205 -10.8454     16.0611    212.4265   1.4351169156e+02   2.7812463663e+01    0.2619047    0.1745002 -50.39  0.001592113    1.980    0.495
       206  -9.3573    209.5083    211.5058   1.0201562718e+02  -2.6878142106e+00    0.1358347    0.1221283   2.28 0.0005513724    1.001    0.001
       207 -10.3146     20.5715    209.8360   1.4242582396e+02   2.7916766804e+01    0.2251588      0.13809  69.05 0.0003079973    1.435    0.303
       208  -9.7139    246.6514    207.1763   9.4207246061e+01  -7.8961529306e+00      0.19011    0.1036267 -29.26 0.0009510295    1.743    0.426
       209 -10.2557    123.9871    206.0044   1.1945545993e+02   1.3879945583e+01    0.2000858    0.1877119  60.78   -0.0106749    1.030    0.030
       210 -11.4846      9.3555    203.5951   1.4414308753e+02   3.0419095474e+01    0.2201387    0.1929151  86.56 0.0008977317    1.233    0.189
       211  -9.1889    196.8255    203.6068   1.0308067118e+02   9.6632111659e-01    0.1930068    0.1278016  49.20 0.0006084333    1.662    0.398
       212  -9.5174    180.5629    199.4161   1.0568847368e+02   4.7622154332e+00      0.33567    0.1345549  42.50  0.001254512    2.428    0.588
       213  -9.6618     22.8226    197.4113   1.4090102633e+02   3.0478829147e+01    0.1410615    0.1221682  16.92 0.0003480489    1.659    0.397
       214 -10.3652      6.7781    191.8696   1.4374204321e+02   3.3280631751e+01    0.2725259    0.1365353  70.57  0.001214679    1.971    0.493
       215  -9.4159     15.3479    185.1649   1.4136647732e+02   3.4030872603e+01    0.1824256   0.09328851 -85.62 0.0009401904    1.731    0.422
       216  -9.4850      1.2020    183.0067   1.4417930933e+02   3.5763518289e+01    0.1609215    0.0741892 -76.48 0.0004833163    1.691    0.409
       217  -9.9444    100.9902    175.9887   1.1984546462e+02   2.4929023175e+01    0.2057416    0.1916363  88.84   0.00113915    1.005    0.004
       218 -11.1701      4.6867    167.3363   1.4205454382e+02   3.9084033935e+01    0.3139121    0.2124895  63.14  0.001472852    1.485    0.326
       219  -9.3126     41.4771    158.2354   1.3211163380e+02   3.7799695536e+01    0.1904136    0.1143257 -81.85 0.0009360885    1.654    0.395
       220  -8.7863    247.4718    155.5153   8.3822780865e+01   8.8295854774e-01    0.1371482    0.1190555 -34.38 9.492943e-05    1.003    0.003
       221 -10.4721      2.3585    153.7202   1.4125703619e+02   4.2425138275e+01     0.203776    0.1321635  47.47  0.001257391    1.722    0.419
       222  -9.8001     23.6651    150.6974   1.3564291526e+02   4.1419300047e+01    0.1290914   0.08444258 -44.24  0.000419503    1.661    0.398
       223 -10.1133     21.9094    143.3421   1.3512624521e+02   4.3335848623e+01    0.2307696    0.1503408 -78.64  0.001034994    1.355    0.262
       224 -11.4349      3.1848    138.1390   1.3934467675e+02   4.5995407035e+01    0.2888038    0.1890953  37.50  0.001794356    1.819    0.450
       225 -10.9817     10.6344    140.9166   1.3775620004e+02   4.4819758993e+01    0.2746803    0.1588233  30.17  0.001205644    2.071    0.517
       226 -10.8559      9.0532    135.3661   1.3747282976e+02   4.6237581070e+01    0.2201907    0.1305145 -61.88 0.0005140609    1.331    0.249
       227  -9.4506    212.3049    133.6815   8.5253038210e+01   1.1790180520e+01    0.1498737    0.1135429 -74.22 0.0003382922    1.630    0.386
