#   1 NUMBER                 Running object number                                     
#   2 MAG_AUTO               Kron-like elliptical aperture magnitude                    [mag]
#   3 X_IMAGE                Object position along x                                    [pixel]
#   4 Y_IMAGE                Object position along y                                    [pixel]
#   5 X_WORLD                Barycenter position along world x axis                     [deg]
#   6 Y_WORLD                Barycenter position along world y axis                     [deg]
#   7 A_WORLD                Profile RMS along major axis (world units)                 [deg]
#   8 B_WORLD                Profile RMS along minor axis (world units)                 [deg]
#   9 THETA_WORLD            Position angle (CCW/world-x)                               [deg]
#  10 FWHM_WORLD             FWHM assuming a gaussian core                              [deg]
#  11 ELONGATION             A_IMAGE/B_IMAGE                                           
#  12 ELLIPTICITY            1 - B_IMAGE/A_IMAGE                                       
         1  -8.7861     46.0839     20.2352   6.3394417037e+01   6.8504117461e+01    0.4574637     0.168996 -41.16  0.001883478    2.361    0.576
         2  -9.4137     77.7896     12.9053   4.6606921886e+01   6.3812714083e+01    0.6655807    0.2363399  53.26  0.002532606    2.851    0.649
         3  -8.5331     64.4612     13.5495   5.1735354607e+01   6.6411315507e+01    0.2584599    0.1924998  19.87 0.0007537472    1.392    0.282
         4  -9.0257     31.5359     10.9580   6.5638318811e+01   7.2157559213e+01    0.2699447    0.1908675 -17.58 0.0003498266    1.355    0.262
         5  -8.2619    156.1909     11.9253   2.9141763243e+01   4.4355998520e+01     0.370363    0.2024801  -9.86 0.0007673108    2.068    0.516
         6  -8.5938    156.2952      7.3132   2.7401410793e+01   4.4767082730e+01    0.2630238    0.1328061 -18.89 0.0007941108    2.012    0.503
         7  -8.3427     97.0305     11.5052   4.0232378891e+01   5.9659548832e+01      0.26557    0.1865753   5.55 0.0007281613    1.527    0.345
         8  -8.5236    142.8840      9.2975   3.0057475248e+01   4.8185660998e+01    0.2466242    0.2080337  -0.88  0.000357216    1.232    0.188
         9  -8.4370    125.2116     10.0319   3.3339452336e+01   5.2784418003e+01    0.2445097    0.1966599  56.54 0.0005480519    1.212    0.175
        10  -9.5398     20.5368      8.2759   7.0526158846e+01   7.3951608178e+01    0.2278699     0.182476 -10.49 0.0002387984    1.207    0.171
        11  -8.3169      3.6295      7.2984   8.1284227226e+01   7.5663715909e+01    0.3853962    0.1514129 -22.35  0.001439696    4.694    0.787
        12  -7.8229     41.1730      5.6690   5.7223958926e+01   7.1606116149e+01    0.2859716    0.1260715 -25.95  0.001052067    2.314    0.568
        13  -9.9735     84.9829      5.0858   4.0128755375e+01   6.3149612343e+01    0.2699974    0.2240984  -8.99 0.0003776629    1.129    0.114
        14  -8.2625     76.6712      6.1991   4.3241500135e+01   6.4864016898e+01    0.2069595    0.1905248  63.89 0.0005391955    1.291    0.226
        15  -8.4072     32.1257      5.7556   6.2076631422e+01   7.2933170250e+01    0.2262477     0.147509 -27.02 0.0003207801    1.309    0.236
        16 -10.0709     13.6675      4.1925   7.2514923038e+01   7.5395426128e+01    0.2747551    0.2037454  -5.58 0.0002304266    1.386    0.278
        17  -7.0747    131.6717      5.2868   3.0170652091e+01   5.1539700245e+01    0.1487329    0.1059221 -59.72 0.0002802285    1.613    0.380
        18  -9.1361     57.7877      3.2723   4.8212744344e+01   6.9036235833e+01    0.2273832    0.1854694   6.43  0.000328847    1.107    0.097
        19  -8.3013    153.5158      3.0005   2.6130968779e+01   4.5897177841e+01    0.2157608    0.1863205  72.91 -0.0001629124    1.136    0.120
        20  -7.8535    125.5148      3.1742   3.0278457497e+01   5.3344647310e+01     0.198405    0.1398256 -16.09  0.000360747    1.434    0.303
        21  -7.4354    105.5046      1.5371   3.3276556012e+01   5.8600850814e+01    0.1433069    0.1276557  27.32 0.0003014546    1.050    0.048
        22  -8.0871     67.2836    127.3381   8.7737878238e+01   4.1571007311e+01    0.1307373   0.09948215 -40.08 0.0007012926    1.627    0.385
        23  -9.2580    209.3384    249.8808   7.6816994753e+01  -6.2027156696e-01    0.1846702    0.1280639  28.14 0.0009638457    1.041    0.039
        24  -9.1353    213.8053    249.6318   7.6098165165e+01  -1.1865336339e+00    0.1920073   0.09573681  34.09 0.0009395388    1.470    0.320
        25  -9.5251    184.2147    249.9346   8.0769479919e+01   2.7560618162e+00    0.3449448    0.1118134  40.17  0.001803033    2.290    0.563
        26 -10.4130    177.2782    247.3163   8.1575806944e+01   3.9863885181e+00    0.3594185    0.2819268  76.56  0.002592156    2.238    0.553
        27  -7.3753    132.6471    124.6890   7.0339672611e+01   3.0956316776e+01    0.1482437    0.1165366   2.82 0.0007044586    1.725    0.420
        28  -7.0963    153.4826    123.5399   6.5296299439e+01   2.6916272517e+01    0.1461057    0.1391505  10.17 0.0001721698    1.060    0.057
        29  -7.8953     85.0313    121.4503   8.1839701854e+01   4.0299920414e+01    0.1829146    0.1278902   5.50 0.0008078846    2.514    0.602
        30  -7.6581    119.4480    118.5124   7.2147591343e+01   3.4850469807e+01    0.2651156    0.1397743  32.50  0.001032647    2.407    0.585
        31  -7.9701    101.0782    118.4352   7.6889512687e+01   3.8283735856e+01    0.1962825    0.1304265  13.62  0.000745563    2.603    0.616
        32  -7.4277     38.6865    109.7027   9.3130381154e+01   4.9242388156e+01    0.1265018   0.09069621 -44.83            0    1.603    0.376
        33  -8.1826    133.8092    105.8817   6.5453011024e+01   3.4585796962e+01    0.3188032     0.205215 -31.98  0.001008744    1.744    0.427
        34  -8.0773    123.4971    106.9958   6.8312925627e+01   3.6503230240e+01     0.322692    0.1881084  27.72  0.001251715    2.469    0.595
        35  -7.9127    109.3720    106.4121   7.1861343265e+01   3.9430979161e+01    0.2894914    0.1371791  29.49 0.0009528819    3.474    0.712
        36  -7.8892     32.4767    106.4907   9.4542022817e+01   5.0642714699e+01    0.1301819    0.1069613 -81.28 0.0001256436    1.006    0.006
        37  -9.5016     80.1518    102.4639   7.9196451867e+01   4.5494697530e+01    0.2689655     0.215436 -61.62 0.0002599788    1.149    0.129
        38  -7.7730     69.8909    103.8094   8.2576173071e+01   4.6748075840e+01    0.1967763    0.1560948  81.99 0.0006121203    1.333    0.250
        39  -8.1055     93.1826    102.8999   7.5491119186e+01   4.3203412323e+01    0.3785006     0.174506  31.19  0.001371581    3.009    0.668
        40  -9.0258    247.5145    101.8620   4.3282488336e+01   1.0623052222e+01    0.3206854    0.1532514 -54.13  0.001104941    4.281    0.766
        41  -8.0556     14.4507    104.5139   9.9813238518e+01   5.2667783708e+01     0.124868   0.09816213 -77.59 5.696922e-05    1.069    0.064
        42  -8.0107     72.6735     98.6656   8.0587979938e+01   4.7553694171e+01    0.1432957    0.1064626 -29.88 0.0007051557    1.717    0.418
        43  -7.6432    130.4863     96.5408   6.3746970123e+01   3.7219652152e+01     0.151626    0.1460624 -15.40 0.0002288573    1.076    0.071
        44  -9.2353     12.5445     93.0977   9.9041791434e+01   5.5540126548e+01    0.2593963     0.209988 -49.47  0.001217201    1.362    0.266
        45  -7.5012     56.3907     91.7999   8.4223225242e+01   5.1488692400e+01     0.196292    0.1108383 -52.93  0.000310218    1.594    0.373
        46  -9.0128     57.1264     87.8981   8.3092200204e+01   5.2327735846e+01    0.2601104    0.2265381 -76.68  0.001539081    1.071    0.066
        47  -9.3032     42.0839     91.1252   8.8844963737e+01   5.3369889642e+01    0.5282573    0.3807158 -16.44  0.002823041    2.025    0.506
        48  -8.5718     96.5199     89.7842   7.1102922346e+01   4.5572915577e+01    0.4131397    0.2412819  26.88   0.00166175    2.450    0.592
        49  -8.0773     65.9623     83.5417   7.9050311273e+01   5.2129326183e+01    0.2416702    0.1746684 -49.19 0.0005602469    1.280    0.218
        50 -10.0224     38.0004     80.3960   8.8059509649e+01   5.6402986981e+01    0.5821291      0.34697 -19.69  0.002627101    2.845    0.648
        51  -8.4974     27.3431     83.4701   9.2488410397e+01   5.6691617620e+01    0.2301705    0.1392713  88.97  0.001054338    1.763    0.433
        52  -9.0397     20.9467     83.9974   9.4846577231e+01   5.7104447334e+01    0.1914912    0.1510752 -72.70  0.000332094    1.022    0.022
        53  -7.4214    126.5023     83.0167   6.0799433926e+01   4.0855381275e+01    0.2132082    0.1358507 -16.42 0.0008079351    2.384    0.580
        54  -9.0189     89.6807     76.8865   6.9407534313e+01   4.9715467298e+01    0.5674534     0.363042 -36.32  0.002579677    1.648    0.393
        55  -9.1728      7.7047     77.2554   9.8565064713e+01   5.9663573027e+01    0.3531626    0.1633475 -52.35  0.001809554    1.936    0.484
        56  -8.0313    184.5969     77.7277   4.6597294765e+01   2.8000764112e+01    0.2140922    0.1350831 -39.56 0.0009363452    1.515    0.340
        57  -8.8001     49.0423     76.9353   8.3259563981e+01   5.5977565225e+01     0.448715    0.2549244 -22.99  0.001792676    3.253    0.693
        58  -9.5387     68.3366     75.5319   7.6043910247e+01   5.3640250286e+01    0.4617039    0.2589985  30.94  0.002069492    2.164    0.538
        59  -8.5155     23.5684     68.7895   9.1003208616e+01   6.0554187091e+01    0.2371116    0.1723288 -64.40 0.0004964169    1.109    0.098
        60  -9.3438     23.8200     73.3166   9.1843009818e+01   5.9447160426e+01    0.4742022    0.1595638 -49.50  0.001768052    2.689    0.628
        61  -8.3616     12.8314     73.9011   9.6129285363e+01   6.0138312410e+01    0.1953777    0.1399407 -57.49 0.0006411385    1.227    0.185
        62  -8.0832     80.1614     70.5436   7.0500197375e+01   5.2828055696e+01    0.2832481   0.09964553 -51.46  0.000854586    2.706    0.630
        63  -7.5278     62.6732     71.7197   7.6924059259e+01   5.5369447704e+01    0.1385664    0.1043884 -25.32 0.0002254862    1.597    0.374
        64  -9.4131     46.7194     71.1400   8.2623986621e+01   5.7634135129e+01    0.4030738    0.2191017  23.58  0.001874843    2.399    0.583
        65  -7.3201    129.6548     68.6939   5.5386149511e+01   4.2936609930e+01    0.1601446    0.1218501  12.57 0.0007042424    1.694    0.410
        66  -8.9790    105.2966     66.0675   6.1094255377e+01   4.8906102763e+01    0.3691988    0.2447973 -37.80  0.001634051    1.445    0.308
        67  -9.2405     83.9016     63.1343   6.6774147902e+01   5.3763596968e+01    0.4436065    0.3119243  45.49  0.002094979    1.559    0.358
        68 -10.5899     62.7016     60.0785   7.3250827903e+01   5.7999983097e+01    0.6497632    0.3852312 -29.99  0.002881586    2.107    0.525
        69 -10.5101     31.6233     58.1144   8.5105787094e+01   6.2347097580e+01    0.4974942    0.4240893 -39.10   0.00316418    1.187    0.158
        70 -10.1275     25.4523     58.5640   8.7838367938e+01   6.2817872174e+01    0.3920246    0.2568606  88.96  0.002078035    1.853    0.460
        71  -9.5147     49.0569     58.0697   7.7896761491e+01   6.0370343621e+01    0.3552239    0.2694707  67.11  0.001856315    1.734    0.423
        72  -7.5941    146.0848     56.4782   4.7344134597e+01   4.1092047896e+01    0.2173629    0.1556453  58.32 0.0003280123    1.457    0.314
        73  -9.5725     99.5091     54.4166   5.8588784486e+01   5.2426204132e+01    0.4463349    0.2899519 -33.78 0.0005501667    1.491    0.329
        74  -7.9215     19.8302     60.4190   9.0666953258e+01   6.2848158188e+01    0.1534095    0.1167425 -17.72 0.0003119397    1.625    0.385
        75  -8.1516    118.4778     50.8127   5.1839984219e+01   4.8822049690e+01    0.2548478    0.2147447  50.17 0.0004429072    1.236    0.191
        76  -8.9117    106.0128     48.9952   5.4559111845e+01   5.2012885562e+01    0.5198821    0.3088039   5.80  0.001697877    3.704    0.730
        77 -10.6867     75.2248     49.7330   6.4830720190e+01   5.8117572634e+01     0.341427    0.2797065 -18.17 0.0002514925    1.291    0.225
        78 -10.5370     82.8949     39.9711   5.8083691896e+01   5.8535677089e+01     0.447832    0.2973404 -21.57 0.0004213627    1.647    0.393
        79  -8.5120     87.5175     37.5311   5.5465488652e+01   5.8029063353e+01    0.3371377    0.2325324 -32.81  0.001152523    1.351    0.260
        80 -10.2472     45.3038     48.3041   7.6141482692e+01   6.3027114718e+01    0.4957432     0.288096 -20.17   0.00155194    2.707    0.631
        81  -7.5626    220.1722     49.6210   3.3133336488e+01   2.3416105020e+01    0.1874179    0.1292219  50.52 0.0004407804    1.586    0.369
        82  -7.5910     53.4763     47.0852   7.2238104182e+01   6.2183221248e+01     0.220723     0.119582 -48.31  0.001032544    1.595    0.373
        83  -8.5800     10.3653     47.1085   9.1687290397e+01   6.6634789599e+01    0.2335106    0.1823293  -2.79  0.001405377    1.597    0.374
        84  -8.2178     14.1662     45.3860   8.9432158723e+01   6.6774061084e+01     0.196155    0.1401182 -50.82 0.0005321191    1.159    0.137
        85  -7.1388    131.0000     43.0242   4.5766116906e+01   4.7051171515e+01    0.2574226   0.08528907 -30.65 0.0005366289    2.923    0.658
        86  -8.5540     93.3479     42.1939   5.5599861771e+01   5.5989341309e+01    0.4379467    0.2192605  29.80  0.001536802    3.137    0.681
        87  -9.1348     54.6536     42.7285   7.0034375812e+01   6.2923099896e+01    0.3835437    0.1840353  24.55  0.001507657    3.180    0.686
        88  -8.0509    113.5188     41.5047   4.9474962338e+01   5.1564309358e+01    0.2759331     0.127953  43.29 0.0006795739    2.339    0.572
        89  -7.5760    100.2232     41.5939   5.3243807687e+01   5.4601646191e+01    0.2074112    0.1364823  38.76 0.0009429487    1.637    0.389
        90  -8.3110      3.8632     39.5875   9.2964701023e+01   6.8743668473e+01    0.2030575    0.1216034 -71.99 0.0007408948    1.417    0.294
        91  -7.1194    124.2835     39.2898   4.5870929490e+01   4.9302380399e+01    0.1519887    0.1152725  18.29  0.000181441    1.531    0.347
        92  -9.3078     20.1534     36.0698   8.3572853719e+01   6.8398477502e+01    0.4452124    0.3516662 -34.92  0.002875962    1.201    0.167
        93  -8.8105     22.0148     31.9887   8.1107424515e+01   6.9117467100e+01    0.2821598    0.1793792  18.87  0.001081552    1.912    0.477
        94  -9.9819     55.6982     34.7652   6.6188804054e+01   6.4353626471e+01    0.3643128    0.3011942  -0.56  0.001101657    1.310    0.237
        95  -8.9836     35.5083     37.5298   7.6518971306e+01   6.6538283821e+01    0.2995045    0.1671496 -50.05 0.0008524858    1.481    0.325
        96  -8.6983     38.4894     35.0100   7.4072641933e+01   6.6710745361e+01    0.2589858    0.1951304 -12.73 0.0007465371    1.502    0.334
        97  -9.2347     66.7756     36.3020   6.2360040472e+01   6.2225399593e+01    0.4313833    0.2197852 -44.42  0.001719619    1.818    0.450
        98  -8.5075     71.2836     34.8305   5.9964320119e+01   6.1686438557e+01    0.3560044    0.2524726   7.84  0.001501824    1.816    0.449
        99  -8.5440     70.9693     30.2527   5.7941967568e+01   6.2552363506e+01    0.2576122    0.2275283  13.87 0.0006956972    1.160    0.138
       100  -9.6692     70.7965     25.6317   5.5746409502e+01   6.3359841764e+01    0.4709336    0.2952304  37.31  0.001916545    1.713    0.416
       101  -7.9505    105.4180     36.5189   4.9594552076e+01   5.4263763937e+01    0.2591958    0.1279828  42.47  0.000862583    2.183    0.542
       102  -7.6680     92.4341     36.4956   5.3430207626e+01   5.7167320473e+01    0.1474017    0.1343749 -15.17 0.0008067999    1.027    0.026
       103  -8.8809      5.0486     33.6088   9.0707709821e+01   7.0026070852e+01    0.3769166    0.2552195  68.96  0.001801216    2.034    0.508
       104  -7.8216      1.4430     28.5024   9.1165963512e+01   7.1357081513e+01      0.18597    0.0795505 -56.94 0.0009630156    1.664    0.399
       105  -8.9721     96.2987     32.7359   5.0571444905e+01   5.6934207597e+01    0.2673905    0.2521273  -7.09 0.0002431322    1.022    0.022
       106  -8.9601     42.0835     27.9680   6.9208454918e+01   6.7654450115e+01    0.4403629    0.1978512 -36.10  0.001925481    2.154    0.536
       107  -8.7626    249.0033    248.5691   7.0717195697e+01  -5.5654391113e+00    0.1697189    0.1196379 -38.03  0.001281551    2.455    0.593
       108  -9.0166     61.7147     26.3942   5.9688508259e+01   6.4890414475e+01    0.2478844    0.2067402 -11.75 0.0004822393    1.144    0.126
       109 -10.8979     80.2944     23.1641   5.1123482755e+01   6.1854571647e+01     0.394028     0.270834  30.04 0.0006927174    1.574    0.365
       110  -8.9316     84.7125     21.3497   4.8760573952e+01   6.1186973789e+01    0.2533306    0.1895335 -42.39 0.0005163683    1.409    0.290
       111  -7.7240      3.4508     24.5365   8.8715004287e+01   7.2112981627e+01    0.1229677   0.09128721 -50.90 6.851721e-05    1.038    0.036
       112  -7.1353    137.2497     22.3906   3.6282847491e+01   4.8277754370e+01    0.1567466    0.1094442  19.07 0.0006950242    1.674    0.403
       113  -8.8453    128.9869     21.9759   3.7719193903e+01   5.0484215221e+01    0.2194687     0.207494  17.42 0.0003140597    1.039    0.038
       114  -8.5385     25.9913     23.9349   7.5567287559e+01   7.0395148552e+01    0.4363169    0.1660485 -35.14  0.001716271    3.069    0.674
       115  -8.5815     92.3484     20.4840   4.5990489152e+01   5.9623814308e+01    0.2703294    0.2118529  22.54 0.0006485763    1.315    0.239
       116  -8.6492      8.8452     19.7353   8.3638050112e+01   7.2782412494e+01     0.275686    0.1644224 -27.76 0.0008235725    1.719    0.418
       117  -8.7502     12.9516     17.8253   8.0284277879e+01   7.2856394200e+01    0.4068508    0.2133982   3.91   0.00205772    2.705    0.630
       118  -8.3261    160.9770     18.7841   3.1000735375e+01   4.2357608004e+01    0.2215482    0.1886116  31.51 0.0007489154    1.243    0.195
       119  -7.8047    111.7530     19.0154   4.0185425070e+01   5.5211837525e+01    0.1989472    0.1773712  -6.65 -0.000275831    1.085    0.079
       120  -7.8847    127.4591     16.3102   3.5625634791e+01   5.1537926909e+01    0.1975425     0.133685 -34.63 0.0007657313    1.468    0.319
       121  -7.2232    189.4609     15.4726   2.6325693228e+01   3.5117379728e+01    0.1430058    0.1355579 -51.09 0.0001502021    1.004    0.004
       122  -8.0921    146.6781     13.8896   3.1289020178e+01   4.6714265059e+01    0.2564796     0.183265  56.98 0.0006979927    1.363    0.266
       123  -9.7399    191.5452    247.8405   7.9349933667e+01   1.9717495660e+00    0.2950336     0.188458  -7.86  0.002037137    2.035    0.509
       124 -10.8624    198.5799    241.7525   7.7465526567e+01   1.6279927228e+00    0.2980126     0.232066  48.69 0.0002081191    1.573    0.364
       125 -10.5691    165.5679    241.1198   8.2772326257e+01   6.3227332432e+00    0.4215171    0.2482713  56.67  0.001446939    2.167    0.539
       126  -9.5453    188.0476    233.5774   7.8110412434e+01   3.9811561597e+00    0.2085592    0.1888079  63.07  0.001643865    1.589    0.371
       127  -8.8673    168.0473    232.2691   8.1290105882e+01   7.0238309094e+00    0.1624856     0.154393  36.14 0.0001793139    1.283    0.221
       128  -7.6975    151.0476     12.5257   3.0101198374e+01   4.5680101689e+01     0.213467    0.1431834  69.77 0.0003967912    1.489    0.328
       129  -7.0943    157.3046    225.2962   8.2275048406e+01   9.4839169712e+00    0.1089388    0.0771445  17.51 0.0003300764    1.583    0.368
       130  -8.6095    158.3400    211.4937   8.0293696086e+01   1.1195858782e+01     0.191654    0.1531135  38.62 0.0002134012    1.034    0.033
       131  -6.7059    144.2866    208.3257   8.2451094278e+01   1.3839570005e+01    0.1120843    0.0864392  10.59 0.0006099979    1.607    0.378
       132  -8.0843     18.8496    202.0379   1.0588768558e+02   3.1334160519e+01    0.1458941    0.1319282 -14.77 0.0005048786    1.902    0.474
       133  -7.3415     85.7865    194.9876   9.2252961399e+01   2.4791632604e+01    0.1397202   0.09178075 -69.83 0.0005397385    1.641    0.391
       134  -7.0356     91.3275    191.3209   9.0729096973e+01   2.4685918627e+01    0.1089193   0.09520296  -5.65 0.0007047832    1.686    0.407
       135 -10.6775    100.9975    175.9973   8.6811871444e+01   2.6144890487e+01    0.1787226    0.1552071  61.59  0.001160177    1.002    0.002
       136  -8.7528    167.1782    158.9832   7.0020262537e+01   1.7805984209e+01    0.2309449    0.2065528 -30.95 0.0004951219    1.186    0.157
       137  -7.3531    145.2484    150.9942   7.3029045169e+01   2.3346292677e+01    0.1723942    0.1181181 -46.26 0.0008748866    1.548    0.354
       138  -8.0571    133.6679    146.8744   7.4780814117e+01   2.6302304915e+01    0.2731023    0.1225399 -41.24  0.001086862    2.555    0.609
       139  -8.6507     68.9828    145.4844   9.0045062238e+01   3.7202123580e+01    0.3216397    0.2102708  58.97  0.001755077    1.484    0.326
       140  -8.1185     65.4772    143.0456   9.0584769482e+01   3.8221185827e+01    0.3198673     0.231909  65.88   0.00135987    1.312    0.238
       141  -7.1041    113.6306    128.6798   7.5849782777e+01   3.3763701655e+01    0.1443709    0.1148456  -5.57 0.0007035728    1.794    0.443
       142  -8.2381    250.5013    127.0493   4.8702625833e+01   6.8407254933e+00    0.1883168    0.1111298 -24.25 0.0004583597    1.471    0.320
