#   1 NUMBER                 Running object number                                     
#   2 MAG_AUTO               Kron-like elliptical aperture magnitude                    [mag]
#   3 X_IMAGE                Object position along x                                    [pixel]
#   4 Y_IMAGE                Object position along y                                    [pixel]
#   5 X_WORLD                Barycenter position along world x axis                     [deg]
#   6 Y_WORLD                Barycenter position along world y axis                     [deg]
#   7 A_WORLD                Profile RMS along major axis (world units)                 [deg]
#   8 B_WORLD                Profile RMS along minor axis (world units)                 [deg]
#   9 THETA_WORLD            Position angle (CCW/world-x)                               [deg]
#  10 FWHM_WORLD             FWHM assuming a gaussian core                              [deg]
#  11 ELONGATION             A_IMAGE/B_IMAGE                                           
#  12 ELLIPTICITY            1 - B_IMAGE/A_IMAGE                                       
         1 -12.9916      2.3916    128.4536   1.1554611212e+02   4.7963989785e+01     4.365483     1.175836 -84.38   0.01154769    6.481    0.846
         2 -11.9877    217.4526     37.3644   3.6714312700e+01   2.7368543253e+01    0.8908036     0.669961 -58.33  0.005555276    1.166    0.143
         3 -11.5961    237.5178     18.8536   3.1071948215e+01   2.5462292830e+01    0.6486598    0.4792259 -63.77  0.002697829    1.086    0.079
         4 -10.3453      2.2321      6.1144   8.5786236367e+01   7.3829859111e+01    0.7623582    0.1158423 -45.70  0.002675745    5.563    0.820
         5  -8.0892      9.3209     16.6522   8.6406218586e+01   7.1664549454e+01   0.09560804   0.09163438  34.63 0.0007049111    1.738    0.424
         6 -11.9288     82.1233    239.8575   1.0740364949e+02   1.3151429529e+01    0.9381469    0.5962889  17.82  0.004641536    2.035    0.509
         7 -11.1258     68.5586    242.3017   1.1052059303e+02   1.4462581445e+01    0.8799379    0.5099838  79.68  0.003506903    2.080    0.519
         8 -11.5579     10.8832    232.9520   1.2153380610e+02   2.2891287690e+01    0.9536936    0.3228416 -84.45  0.004350969    2.927    0.658
         9 -12.7909      8.9045    208.0361   1.2049125712e+02   2.8421334155e+01     1.231823     0.839753 -66.79  0.004899947    1.467    0.318
        10 -12.3256     38.2400    249.0758   1.1719325499e+02   1.6787466719e+01     2.401686    0.6203305  27.99  0.008246096    5.236    0.809
        11 -10.5938     14.8307    248.7765   1.2161783461e+02   1.9333410800e+01    0.6662658    0.3133779  62.21  0.003237815    1.796    0.443
        12 -10.9175     57.4448    240.2519   1.1266056852e+02   1.6281068473e+01    0.4351182     0.362615  66.60 0.0008553316    1.044    0.042
        13  -8.0527     33.0000    234.9994   1.1727666296e+02   2.0208498917e+01    0.1836072   0.06164424 -74.25  0.000615105    2.925    0.658
        14 -12.1303    114.5569    230.6445   9.9190187586e+01   1.0329442599e+01     1.022734    0.4722738  36.02  0.004623789    1.898    0.473
        15 -10.2319    134.5910    229.5228   9.4564288480e+01   7.4808679341e+00    0.3780676    0.2460894 -66.80  0.001904838    2.061    0.515
        16  -9.3937    142.4696    227.8451   9.2569060421e+01   6.5751689036e+00      0.26811    0.2045756  54.92  0.001484225    1.500    0.333
        17 -11.9872     99.4260    228.8314   1.0235304143e+02   1.2945999397e+01     1.145925    0.3111019  38.10  0.004133476    3.018    0.669
        18 -10.5777     84.3732    219.6467   1.0466508131e+02   1.7055805689e+01    0.5408006    0.2933506 -75.52  0.001603235    2.228    0.551
        19  -8.6616     22.8067    223.3963   1.1857321795e+02   2.3733312146e+01    0.3067894    0.1312178  70.97  0.001407738    2.557    0.609
        20 -10.7671     76.0503    222.0461   1.0684282844e+02   1.7690003759e+01    0.4976239     0.300255  64.64  0.001416349    1.828    0.453
        21  -8.3464     32.5124    222.4713   1.1647555892e+02   2.2919196021e+01    0.2505114    0.1092507 -75.59  0.001218989    2.195    0.544
        22 -12.1339     57.7581    210.1003   1.0976012506e+02   2.2740870169e+01     2.101627    0.6185026  56.63  0.004949904    8.232    0.879
        23  -8.8922     20.7816    243.4982   1.2021508207e+02   1.9772257240e+01    0.3090784    0.1958519 -41.45  0.001778482    2.628    0.619
        24 -10.9419      7.5210    185.9490   1.1931680431e+02   3.3601834327e+01    0.4425597    0.1723245  83.64  0.001820963    2.910    0.656
        25 -11.3364      2.5085    161.1407   1.1862549737e+02   3.9921087007e+01    0.9534487    0.2069864 -76.97  0.003161896    4.010    0.751
        26 -10.2051      8.0035    191.7351   1.1961601002e+02   3.2209973117e+01    0.2366174    0.1883743 -73.98 0.0007580927    1.203    0.169
        27 -11.2866      2.6386    188.0189   1.2057713568e+02   3.3505625578e+01    0.9042277    0.3068787 -85.49  0.003769306    2.827    0.646
        28 -10.1454     54.2778    177.2917   1.0683094528e+02   3.1005355857e+01    0.4503695    0.2898279 -31.26  0.002100657    2.175    0.540
        29 -10.2452     60.3373    171.5741   1.0444597139e+02   3.1677994470e+01    0.3764026    0.2972271 -23.15  0.001040995    1.610    0.379
        30 -11.7804      3.2476    243.7088   1.2350055184e+02   2.1440192043e+01     1.636208    0.4347216 -80.10  0.007218726    3.501    0.714
        31  -8.5458     72.9901    172.9844   1.0122911755e+02   2.9632106567e+01    0.2078284    0.1978559 -81.38            0    1.032    0.031
        32 -11.3437     24.0734    203.6920   1.1688009344e+02   2.7984942058e+01    0.4474054    0.3536102 -41.28  0.001040133    1.651    0.394
        33  -9.8947     71.4510    162.2703   9.9965802554e+01   3.2542442671e+01    0.2884272    0.2848025  83.57 0.0004121756    1.066    0.062
        34 -11.6764     57.7748    158.2559   1.0320496293e+02   3.5372878992e+01    0.5453343    0.3134872 -41.10  0.001479031    2.005    0.501
        35  -9.2402     34.8484    159.1452   1.0978599721e+02   3.7719518922e+01    0.5832243    0.2519058  61.63  0.002021983    3.446    0.710
        36 -11.5304     78.7414    155.6762   9.6765577766e+01   3.3165744146e+01     1.010436    0.7538713  37.77  0.003783376    1.374    0.272
        37 -10.9456     69.8641    145.8770   9.7595094089e+01   3.6939263439e+01    0.5376599    0.4562934  10.58  0.001419037    1.345    0.256
        38 -10.8514     67.7801    142.5900   9.7617579680e+01   3.8067587527e+01     0.589995    0.3229913  42.41  0.001551488    1.929    0.482
        39 -10.5655     82.4564    140.4415   9.2762807487e+01   3.6462707799e+01    0.3706803    0.2942657 -55.12 0.0006485842    1.201    0.167
        40  -9.5055     94.4879    142.0448   8.9519235541e+01   3.4111468862e+01    0.3473898    0.2427402  20.13  0.001473136    1.677    0.404
        41  -7.7198    133.6997    141.3321   7.8415774719e+01   2.7019829936e+01    0.1577599    0.1265142  87.07 0.0003836482    1.650    0.394
        42 -10.6901     58.3012    133.1162   9.8781074294e+01   4.1737958273e+01    0.8676614    0.3296871 -74.44  0.002272681    5.375    0.814
        43  -9.1388    106.5338    131.0836   8.3538842556e+01   3.4683982464e+01    0.3358291     0.327614 -51.14  0.001190979    1.028    0.028
        44  -9.4810     93.7451    127.4056   8.6491651059e+01   3.7862429905e+01    0.3097441    0.2532085 -42.00 0.0004968282    1.194    0.163
        45  -9.4537     65.0350    126.6369   9.5354004676e+01   4.2497673271e+01    0.4333528     0.261799  66.39  0.001588624    2.599    0.615
        46  -8.6185     59.6656    122.4291   9.6231323757e+01   4.4269536104e+01     0.252045    0.1270732 -59.22 0.0008494309    1.833    0.454
        47  -8.3626    105.0061    119.4372   8.1159588811e+01   3.7754447140e+01    0.2279411    0.2038251 -43.96 0.0003200759    1.089    0.082
        48 -13.5739     34.5758    193.2315   1.1354897740e+02   2.9355982709e+01     3.423153     1.510916  77.18   0.01330857    3.157    0.683
        49  -8.9511     14.2613    128.0480   1.1187069156e+02   4.7318614385e+01    0.1877756    0.1499566 -70.47 0.0004795835    1.054    0.051
        50  -7.6010    160.5576    117.5350   6.5959351293e+01   2.6665129499e+01    0.1539881    0.1471716 -63.09 0.0001510824    1.077    0.072
        51  -7.9764    205.2710    110.3656   5.5237746573e+01   1.8504731731e+01    0.1950741     0.137019  65.01 0.0009533059    1.690    0.408
        52  -9.6067      1.6905    103.4394   1.1265594695e+02   5.4108876664e+01    0.5663971   0.08897541 -66.31  0.001881482    3.755    0.734
        53  -9.6120      2.0000     95.9193   1.1144187246e+02   5.5891926264e+01    0.4915597   0.03708786 -67.89  0.001282229    6.159    0.838
        54  -8.3930    162.4914     83.5280   5.6591559679e+01   3.2857404771e+01    0.1457541    0.1437955 -84.58 4.728724e-05    1.020    0.019
        55 -10.2006      2.2937     76.0586   1.0790428755e+02   6.0485392086e+01    0.6069551   0.02475794 -64.10  0.001658347    5.950    0.832
        56  -8.7463     13.1797     60.1618   9.9543749787e+01   6.3351996299e+01    0.1952439    0.1372613 -32.52 0.0006034962    1.188    0.158
        57  -9.8611      2.0874     51.0611   1.0232924947e+02   6.5883792870e+01    0.3791122   0.07671969 -57.17  0.001473728    3.217    0.689
        58 -10.2324    200.2010     50.1194   4.1654743320e+01   2.9450662903e+01    0.2509893    0.1900562 -89.24  0.001432586    1.303    0.233
        59 -11.8871    208.9656     41.9576   3.8670685450e+01   2.8610552512e+01    0.6420516    0.5329466 -72.82  0.003210053    1.055    0.052
        60  -7.9344     27.1290    240.4846   1.1880726217e+02   1.9716189858e+01    0.1675603    0.1004331  38.06   0.00101787    1.547    0.353
        61 -11.1671    223.7272     31.0454   3.4729069387e+01   2.6832740772e+01    0.5138178    0.3384834  53.04  0.001791852    1.832    0.454
        62  -9.6156      2.3479     37.4045   9.8225158473e+01   6.8558613754e+01    0.2813472    0.1058477 -61.67  0.001258304    2.950    0.661
        63  -7.8456    129.4824     29.4849   4.7381493313e+01   4.8725344403e+01    0.1351025    0.1208889  57.03 5.360377e-05    1.000    0.000
        64  -7.9277     33.0000     29.0116   7.9144180746e+01   6.7288218770e+01    0.1944464   0.06301067 -42.09 0.0008056631    2.965    0.663
        65  -9.9357      1.7886     26.8654   9.4921727592e+01   7.0517653060e+01    0.3627473   0.08379357 -55.56  0.001370485    4.189    0.761
        66  -8.8465     18.4972    237.9088   1.2033482025e+02   2.1130693791e+01      0.17419    0.1354889  59.71  0.001191716    1.085    0.079
        67 -10.0062    100.6935    235.8185   1.0291644515e+02   1.1348248160e+01    0.3634788    0.1470367  38.46  0.001589017    2.090    0.521
