#   1 NUMBER                 Running object number                                     
#   2 MAG_AUTO               Kron-like elliptical aperture magnitude                    [mag]
#   3 X_IMAGE                Object position along x                                    [pixel]
#   4 Y_IMAGE                Object position along y                                    [pixel]
#   5 X_WORLD                Barycenter position along world x axis                     [deg]
#   6 Y_WORLD                Barycenter position along world y axis                     [deg]
#   7 A_WORLD                Profile RMS along major axis (world units)                 [deg]
#   8 B_WORLD                Profile RMS along minor axis (world units)                 [deg]
#   9 THETA_WORLD            Position angle (CCW/world-x)                               [deg]
#  10 FWHM_WORLD             FWHM assuming a gaussian core                              [deg]
#  11 ELONGATION             A_IMAGE/B_IMAGE                                           
#  12 ELLIPTICITY            1 - B_IMAGE/A_IMAGE                                       
         1 -11.7168    175.5295     18.3321   6.4516091105e+01   3.9134963972e+01    0.3134793    0.2353854  72.76  0.000830012    1.138    0.122
         2  -9.6374    145.7850     16.0337   6.8380817164e+01   4.6416725282e+01    0.3429504    0.1978519  42.15  0.001053316    1.784    0.440
         3  -9.6339    131.2525     11.9313   6.9711534359e+01   5.0152363358e+01     0.217259    0.1890734  63.26 0.0004150589    1.061    0.057
         4 -10.7111    245.3701     10.4729   5.5591453100e+01   2.4141880821e+01    0.4570816    0.2525982  87.54  0.002647756    1.597    0.374
         5  -9.3333    166.7207     10.2871   6.3633678605e+01   4.2044011371e+01    0.1976617    0.1735398 -78.74 0.0002590244    1.148    0.129
         6  -9.2670    186.5394      8.3663   6.0685880316e+01   3.7560600750e+01    0.2109376     0.178813  84.10 0.0005606887    1.047    0.045
         7  -8.8047    111.3787      8.8008   7.2643724135e+01   5.4816801524e+01    0.1979054    0.1480663  60.98 0.0004515148    1.233    0.189
         8 -10.0542    126.3956      5.5715   6.8629321093e+01   5.1796361204e+01    0.2368933    0.1939302  55.39 0.0002137845    1.015    0.015
         9 -10.6793    245.4730      3.6607   5.4306007949e+01   2.4893684552e+01    0.3130058    0.1762726  83.25 0.0002057292    1.511    0.338
        10  -8.4919    223.5540      5.2873   5.6347989585e+01   2.9421914467e+01    0.1364734     0.118282 -31.77 0.0008802584    1.537    0.349
        11  -9.2252    193.2693      4.3852   5.9017984830e+01   3.6385358937e+01    0.3163804    0.1698975 -86.39  0.001083082    1.904    0.475
        12 -10.0181    183.5929      2.8444   5.9702564202e+01   3.8783554933e+01    0.2765684    0.1843416  74.80 0.0003592907    1.236    0.191
        13  -8.7508    176.7790      3.6483   6.0677655649e+01   4.0301656877e+01    0.1711497    0.1676628  48.75 0.0005300984    1.280    0.218
        14  -9.7005    237.3911    230.0023   1.0183385880e+02  -1.0175862576e+01    0.3608412    0.2481887  64.44  0.001734618    3.198    0.687
        15 -10.1333    248.3369    231.8212   1.0018410431e+02  -1.2028587904e+01    0.5082508    0.2721145 -40.34  0.002750675    1.978    0.495
        16 -10.9059    242.9557    247.1705   1.0381413644e+02  -1.3386820484e+01    0.5108786    0.3510557 -24.67  0.002477827    1.399    0.285
        17 -10.3659    248.9902    242.0257   1.0185758800e+02  -1.3528489316e+01    0.4704576    0.2922933 -43.18  0.002763213    1.982    0.495
        18  -9.7062    242.0412    239.2543   1.0261895012e+02  -1.2179089327e+01     0.328119    0.2694398  31.36  0.001469936    1.330    0.248
        19  -7.7631    226.2945    231.6256   1.0417698583e+02  -8.7327480745e+00    0.1134738    0.1032732 -87.18 0.0007024969    1.738    0.425
        20  -9.1699    186.0947    230.4650   1.1181613629e+02  -1.9201669994e+00    0.2429226    0.2089448  76.88 0.0009364831    1.546    0.353
        21  -8.9770    157.1563    230.7667   1.1779687309e+02   3.1180648614e+00    0.2169554    0.1853981 -71.79 0.0008023771    1.379    0.275
        22  -9.3988    230.7912    228.1451   1.0271870261e+02  -8.8988934155e+00    0.2279706    0.1868435  13.46  0.001456174    1.070    0.066
        23  -8.8439    223.0959    226.8885   1.0393753818e+02  -7.5029221260e+00    0.2635362    0.1818726 -35.99  0.001327636    1.488    0.328
        24  -8.8814    149.5022    226.4607   1.1871975054e+02   5.2976658868e+00    0.2334878     0.134226 -65.93  0.001031711    2.400    0.583
        25  -8.7865    161.5039    226.0772   1.1614074040e+02   3.2166349498e+00    0.1952072     0.137578 -48.89  0.001028733    1.577    0.366
        26  -9.8928    240.0674    221.3575   9.9782967004e+01  -9.2827533141e+00    0.4562078    0.3863956  68.66  0.002766625    1.948    0.487
        27  -8.8498    216.6777    223.5499   1.0456316353e+02  -5.9371710773e+00    0.3669479    0.1582132 -45.61  0.001584255    2.632    0.620
        28  -8.8734    200.1369    224.5057   1.0797159962e+02  -3.3225508501e+00    0.2339344    0.1874849 -33.87  0.001029425    1.311    0.237
        29  -9.2133    181.2765    224.8829   1.1184656454e+02  -9.8259166602e-02    0.3023853    0.2037733  63.09  0.001457051    2.067    0.516
        30 -10.7938    226.3803    219.3229   1.0194486884e+02  -6.8314951354e+00    0.5934216    0.4612597  79.52  0.002953019    2.516    0.602
        31 -10.9131    248.6644    216.5114   9.7345220199e+01  -9.8338041582e+00    0.6275505    0.3491905 -45.63  0.002910871    2.090    0.521
        32 -10.0256    236.0580    207.8122   9.7989242694e+01  -6.5276583794e+00    0.3591764    0.2743921 -43.30  0.001426519    1.437    0.304
        33 -11.5117    228.0451    200.0783   9.7992105053e+01  -3.9176255699e+00    0.7238474    0.4063328 -31.31  0.003091753    1.783    0.439
        34 -11.5139    235.5046    188.2969   9.4287275733e+01  -3.1516373721e+00      0.99551    0.7190458  55.42  0.005303794    1.802    0.445
        35 -11.1725    244.6147    203.0547   9.5529435475e+01  -7.1142093501e+00    0.8439379    0.5760638  63.68   0.00412685    2.727    0.633
        36  -9.4987    242.7841    198.0977   9.4900322034e+01  -6.0155003158e+00    0.2521653    0.2365576  44.79 0.0006697915    1.341    0.254
        37 -11.3691    238.6888    180.1597   9.2074749037e+01  -2.2750228195e+00    0.7177758    0.4644204  46.89  0.001504876    1.752    0.429
        38  -9.3501    191.9071    220.4913   1.0891297523e+02  -1.1985826245e+00    0.2542675      0.20781 -42.42 0.0009866648    1.332    0.250
        39  -9.0677    210.5212    220.0150   1.0511819468e+02  -4.3321835661e+00    0.2508629     0.214919 -83.79  0.001440976    1.776    0.437
        40  -9.3463    233.0377    214.1774   9.9746395978e+01  -7.0722370561e+00    0.3485281    0.2242147 -45.22  0.001831018    1.740    0.425
        41  -8.1703    168.5412    216.0437   1.1297257426e+02   3.8402666849e+00    0.1906471    0.1254248 -76.59 0.0008092278    2.601    0.616
        42  -9.2741    240.8018    214.4109   9.8365540674e+01  -8.3242653351e+00     0.274103    0.2208011  22.61  0.001009538    1.193    0.162
        43  -9.5525    185.5098    213.0946   1.0889641150e+02   1.2858457994e+00     0.306724    0.2538933 -47.84  0.001116679    1.325    0.246
        44 -10.7708    214.4837    210.2589   1.0254020289e+02  -3.3519129458e+00    0.4887562    0.3790043 -45.59  0.002113238    1.429    0.300
        45  -9.5640    217.6608    207.6975   1.0143886417e+02  -3.4565247805e+00    0.2351161    0.1984963 -28.40   0.00110999    1.166    0.142
        46  -8.8558    204.7535    211.5186   1.0469450072e+02  -1.8796799421e+00    0.3275305    0.2185063 -72.08  0.001387602    3.053    0.672
        47  -9.6958    204.3642    206.8606   1.0389755535e+02  -9.8247577006e-01    0.3244587       0.1657 -29.76  0.001359998    2.368    0.578
        48  -9.4439    175.4572    209.7099   1.1038649148e+02   3.7783923092e+00    0.5175231     0.308218 -65.39  0.002160479    2.619    0.618
        49  -8.7098    191.6873    208.6895   1.0681315508e+02   9.7448089021e-01    0.2971236    0.1649808 -42.94  0.001364469    1.881    0.468
        50  -8.4788    127.3813    206.7921   1.2037858734e+02   1.3337500396e+01    0.1978818    0.1321284 -45.94 0.0009511419    1.682    0.406
        51  -9.5081    196.8235    204.7190   1.0501544447e+02   7.7036047504e-01    0.3231361    0.2490976  58.05  0.001160755    1.559    0.359
        52  -8.6005    164.4682    203.4879   1.1161162058e+02   7.0810608403e+00     0.143542    0.1355198  43.11 0.0008096668    1.014    0.014
        53 -11.0378    224.9127    193.0988   9.7213235226e+01  -2.1645583080e+00    0.6165907    0.4177852 -56.14  0.002583052    1.914    0.477
        54  -9.4077    211.1803    200.9837   1.0141709073e+02  -1.1436714770e+00     0.257377    0.2356793  38.92 0.0009358944    1.177    0.150
        55 -10.4566    210.6569    196.6425   1.0067382809e+02  -2.6392451665e-01    0.5245059     0.370437 -78.65  0.002288801    2.769    0.639
        56  -8.5294    184.4832    201.5015   1.0696050938e+02   3.6730523739e+00    0.1421863    0.1337562  19.12 0.0001424961    1.009    0.008
        57  -8.7956    203.5865    198.8353   1.0251360840e+02   6.2072818025e-01    0.1862322    0.1324911 -51.91 0.0006149871    1.600    0.375
        58 -10.7416    217.0784    195.1445   9.9120657472e+01  -1.1461492361e+00    0.4127851    0.3041884 -22.71  0.002200506    1.386    0.279
        59  -8.7369    184.7814    193.0162   1.0526070002e+02   5.2811332988e+00    0.2408033    0.1660049 -14.66  0.001075952    1.986    0.497
        60  -8.7850    210.4144    190.2900   9.9462060212e+01   9.5110144048e-01    0.2659506    0.1312762 -37.94 0.0009438185    2.027    0.507
        61  -8.1918    199.4833    190.4960   1.0170210743e+02   2.9576140791e+00    0.1427145     0.134382   2.08 0.0008104287    1.009    0.009
        62  -8.5962     14.4635    190.4797   1.4316746036e+02   3.3220203942e+01    0.1221636   0.09341552 -89.68 0.0006166255    1.012    0.012
        63 -11.3033    235.2646    197.3466   9.6118288354e+01  -4.6626717823e+00    0.8261645    0.6599334 -76.94  0.004440518    2.089    0.521
        64  -7.8907    191.3271    187.3305   1.0275309626e+02   5.1411488259e+00    0.1512483    0.1131831  -0.70 0.0007051163    1.709    0.415
        65  -9.2212     11.9849    184.6636   1.4317540554e+02   3.4769280375e+01    0.1636262    0.1312392  87.07 0.0005427205    1.069    0.064
        66  -9.3417     23.7516    182.5069   1.4045735651e+02   3.4131878240e+01    0.2193364    0.1418824 -77.26 0.0005444679    1.258    0.205
        67  -8.9815    147.4017    179.8119   1.1095905449e+02   1.5488787679e+01     0.217047    0.1420553 -40.27 0.0009536846    1.678    0.404
        68  -8.3362    211.9173    176.4765   9.6343113005e+01   3.2804724678e+00    0.2090998    0.1408403  42.47 0.0008864158    1.530    0.347
        69 -11.5482    247.5435    192.3681   9.2937567598e+01  -5.8314539463e+00    0.8272979    0.4688198 -45.93   0.00412877    1.860    0.462
        70 -11.7831    249.0577    185.5271   9.1323881564e+01  -4.9337112965e+00     1.257054    0.4323008 -38.04  0.004950084    2.653    0.623
        71  -8.3014      9.5300    166.5003   1.4202071909e+02   3.9149276549e+01    0.1227206   0.09481645 -78.14 0.0001814311    1.059    0.056
        72  -8.1329    184.4692    164.5189   9.9436384692e+01   1.1199191816e+01    0.1501053    0.1471698 -18.01 7.228524e-05    1.014    0.014
        73  -8.8421    237.8119    162.8851   8.8670369483e+01   9.7807777692e-01    0.1785572    0.1594824 -60.36 0.0005460874    1.265    0.209
        74  -9.3919    248.4855    156.1680   8.5447333932e+01   2.7099855923e-01     0.382585     0.238673  57.12  0.001878948    2.071    0.517
        75  -9.8275    234.7830    153.9657   8.7316398960e+01   3.1824480068e+00    0.2559401    0.2057874  42.06 0.0003528898    1.362    0.266
        76  -9.4854    229.1475    153.3612   8.8184706242e+01   4.3720639193e+00    0.2514566     0.178756 -32.83 0.0005429811    1.350    0.259
        77  -8.2796     60.2766    152.6707   1.2774430292e+02   3.7081586831e+01    0.1410352   0.09929574  81.14 0.0002235423    1.595    0.373
        78  -9.4416    241.0322    149.1608   8.5219903401e+01   2.8961389112e+00    0.2726469    0.2390104 -59.65 0.0008929842    1.219    0.180
        79  -9.9311    225.8712    149.4767   8.7932695908e+01   5.7495630703e+00    0.4204638    0.2550598 -54.41  0.001209282    1.823    0.451
        80  -8.8233    232.9706    146.4492   8.6018440197e+01   4.9335082297e+00    0.2028841    0.1421669  48.59 0.0006761138    1.574    0.365
        81  -9.9914    246.4602    144.3994   8.3312301547e+01   2.7559225097e+00    0.3837125    0.2324554  38.67  0.001268235    1.952    0.488
        82  -8.2458    194.3829    145.5284   9.3114643617e+01   1.3068764436e+01    0.1517632    0.1426088 -48.47 6.184714e-05    1.031    0.030
        83  -8.9567    237.8464    140.7173   8.3947955116e+01   5.0592557481e+00     0.385134    0.2455869 -83.70 0.0008373111    3.261    0.693
        84 -10.0828    243.2491    138.8737   8.2659852850e+01   4.3639067108e+00    0.3876229    0.2303362 -62.91  0.001670291    2.349    0.574
        85  -9.1400    200.0236    134.0335   8.9329971239e+01   1.4201105629e+01    0.2202515    0.2102358 -56.31            0    1.010    0.010
        86  -9.5410    235.6888    130.3298   8.2049588665e+01   7.4141352881e+00    0.2347009    0.2024869 -86.43 0.0006457692    1.320    0.243
        87 -10.2830    234.5280    127.5297   8.1626503261e+01   8.1682735439e+00     0.423287    0.2886347  18.96  0.001891608    2.376    0.579
        88  -9.0575    247.4880    129.5369   7.9992611577e+01   5.2548477910e+00    0.1389047    0.1224783 -43.02 4.721138e-05    1.022    0.022
        89  -9.0916    186.5337    128.4297   9.0734145215e+01   1.8359900229e+01    0.3265433    0.1498643 -41.77  0.001196468    2.135    0.532
        90  -9.4766    201.3622    126.6099   8.7332941378e+01   1.5404705439e+01    0.4820643     0.250461 -53.65  0.001865055    2.122    0.529
        91  -9.5179    214.0135    123.5286   8.4255483878e+01   1.3232447392e+01    0.2775913    0.2098926 -25.39  0.001349925    1.505    0.336
        92  -9.7053    226.3585    129.1226   8.3352969527e+01   9.5381887524e+00    0.2475082    0.2323894  49.95 0.0003994605    1.166    0.142
        93  -8.3525    249.3580    122.7289   7.8257061972e+01   6.1213435427e+00    0.1371098    0.1011134 -73.94 0.0003567855    1.645    0.392
        94  -8.7166    232.3733    121.1796   8.0576712281e+01   9.7893268675e+00    0.2092546    0.1198959 -49.50 0.0005216982    1.644    0.392
        95  -8.5061    217.2758    126.9963   8.4465352870e+01   1.1856871575e+01    0.3093513    0.1866438  26.12  0.001191664    2.792    0.642
        96  -8.2218    226.5279    116.5729   8.0505819850e+01   1.1870677450e+01    0.1453473    0.1306719 -60.28 0.0001592955    1.042    0.040
        97  -8.4264    220.4181    115.2396   8.1227822661e+01   1.3431223319e+01    0.2186443     0.126144 -50.88 0.0009516325    1.684    0.406
        98  -8.4792    153.2326    113.9511   9.4513699793e+01   2.9042224336e+01    0.2101851     0.129831 -45.36 0.0006410302    1.606    0.377
        99  -8.6933    209.5183    113.4913   8.2725108520e+01   1.6165084432e+01    0.2493493    0.1916808 -35.90 0.0007742337    1.317    0.241
       100  -9.8761    210.7738    109.9910   8.1678352691e+01   1.6553628454e+01     0.495488    0.2136452 -53.68  0.001724922    2.747    0.636
       101  -8.9148     25.5610    111.3335   1.3038649153e+02   5.0683953989e+01    0.2069227     0.139861 -25.36  0.001176305    1.745    0.427
       102  -8.4583    236.6346    107.7089   7.6923597171e+01   1.1373200040e+01    0.1355255    0.1119868  10.44 0.0007026532    1.707    0.414
       103  -8.2703    197.2401    107.0202   8.3427406214e+01   2.0208745935e+01    0.2008638    0.1239218 -41.66 0.0005807578    1.571    0.364
       104  -9.1268    214.1470    105.0163   7.9926376031e+01   1.6734849528e+01    0.2258803    0.2012069 -57.21 0.0005267703    1.037    0.036
       105  -8.7503    228.2742    104.1768   7.7425532935e+01   1.3782858437e+01    0.2001192    0.1546131 -69.24 0.0005459974    1.339    0.253
       106  -9.9540    242.9271     98.4339   7.3973690727e+01   1.1712660465e+01     0.280574    0.2076992 -43.62 0.0003774606    1.227    0.185
       107  -9.0867    246.6718    102.3145   7.4282796856e+01   1.0270462854e+01    0.2749707    0.1826646 -63.25 0.0008994184    1.572    0.364
       108  -9.6213    243.5040    102.4409   7.4759272133e+01   1.0892647178e+01    0.2370901    0.2061461  68.99 0.0005803605    1.252    0.201
       109  -8.9568    206.1926     97.9545   7.9617874054e+01   1.9855307966e+01    0.2627763    0.2115171  59.94 0.0009941729    1.276    0.216
       110  -8.8621    171.8869     96.0997   8.5691655461e+01   2.8295965055e+01     0.240149    0.2007672 -75.26  0.000507283    1.286    0.223
       111  -9.4952    244.4631     93.4636   7.2687093189e+01   1.2255265822e+01    0.2366584    0.2027627 -59.30 0.0005528653    1.005    0.005
       112  -9.1938    212.9715     93.9597   7.7523085341e+01   1.9030975668e+01    0.2509027    0.2069773 -89.65 0.0007676984    1.250    0.200
       113  -8.2798    250.5029     92.6374   7.1700750308e+01   1.1162061317e+01    0.1334244    0.1146438 -65.59  0.000127333    1.046    0.044
       114  -8.6758    150.5078     92.4853   8.9438678053e+01   3.4049245607e+01    0.1533724    0.1471652  88.93  0.000121605    1.040    0.039
       115  -8.9139    227.1836     88.0611   7.3946998562e+01   1.6882690726e+01    0.2439227    0.1405576 -60.57  0.001080427    1.890    0.471
       116 -10.6047    207.5427     86.3835   7.6611944240e+01   2.1633398855e+01    0.4609376    0.4014561  82.77  0.001808768    1.124    0.110
       117  -8.6672    250.5818     87.2483   7.0553849850e+01   1.2053170867e+01     0.183029    0.1203328 -34.36 0.0008128094    1.596    0.373
       118  -8.2589    245.4751     87.4874   7.1268661959e+01   1.3062082242e+01    0.1382003    0.1169727 -62.15 -3.918993e-05    1.014    0.014
       119  -8.5713    221.4035     87.1812   7.4610520757e+01   1.8322743428e+01    0.2063882    0.1188838 -51.59 0.0005149281    1.651    0.394
       120  -8.4962     20.1961     86.2163   1.2714442645e+02   5.6650049109e+01    0.1733892   0.08310964  34.75 0.0008821289    2.520    0.603
       121  -9.1164    239.9686     85.2891   7.1529494006e+01   1.4587903534e+01     0.189117    0.1684088 -77.85 0.0005255929    1.074    0.069
       122  -8.5109    172.0175     84.2660   8.2548403832e+01   3.0476295529e+01    0.2781937    0.1505849 -68.73 0.0008908556    3.514    0.715
       123  -8.5812    244.5072     80.5335   6.9908392907e+01   1.4423354087e+01    0.2510269    0.1006512 -49.43 0.0007958829    2.275    0.560
       124  -9.1490    212.5081     77.2882   7.3659278078e+01   2.2048296764e+01    0.2443312    0.2056668 -83.74 0.0004663185    1.134    0.118
       125  -9.8729    223.6772     76.1634   7.1753558397e+01   1.9683401691e+01    0.2781551    0.2139832 -40.83 0.0004538288    1.310    0.237
       126  -8.5754    189.4094     75.2158   7.6927663143e+01   2.7867082623e+01     0.216262    0.1269152 -51.10 0.0009465425    1.734    0.423
       127  -8.7461    241.5002     73.9345   6.8878467465e+01   1.6136857174e+01    0.1962258     0.169791  87.89 0.0006274523    1.141    0.124
       128  -8.4744    171.1765     70.0718   7.8921522900e+01   3.3144144899e+01    0.2205686    0.2004085  33.67 0.0003889035    1.240    0.193
       129  -9.3278    232.4893     69.3499   6.9033397476e+01   1.8827987933e+01    0.2146614    0.1233447  65.78 0.0006082596    1.778    0.438
       130  -8.5405    239.0397     67.7161   6.7850638880e+01   1.7658041121e+01     0.188387    0.1601426 -80.85 0.0008017026    1.071    0.067
       131  -8.0968    176.4897     67.4950   7.7238217133e+01   3.2277568373e+01    0.1473774    0.1348469  89.85 0.0008103632    1.033    0.032
       132  -9.1256    244.7745     65.7704   6.6746638876e+01   1.6736061873e+01    0.2826023    0.1726265  85.77  0.001272628    1.831    0.454
       133 -10.6239    219.3498     61.0342   6.8901692310e+01   2.3092995434e+01    0.3271446    0.3027187  33.71  0.001392253    1.418    0.295
       134  -9.4267    214.0370     59.9598   6.9376303571e+01   2.4485239386e+01    0.3419947     0.194317 -55.88  0.001604866    1.755    0.430
       135  -8.6472    174.1556     58.8738   7.5369581395e+01   3.4206019213e+01    0.2242461    0.1877268 -82.66 0.0009165134    1.212    0.175
       136  -9.5921    204.1792     57.4304   7.0171500560e+01   2.7185445706e+01    0.2534798    0.2108698 -63.45 0.0006476279    1.127    0.113
       137  -9.0715    114.9782     54.4789   8.6941190407e+01   4.8658784425e+01    0.2385824    0.1891143 -49.96 0.0005539281    1.452    0.311
       138  -9.7005    191.9021     51.5659   7.0556523030e+01   3.0992163252e+01     0.288426    0.2112589 -24.29 0.0009064373    1.705    0.413
       139  -9.7548    148.3584     51.3873   7.8220912990e+01   4.1540579329e+01      0.25321    0.2255335 -89.29  0.000234637    1.179    0.152
       140  -8.6528    229.8691     48.8408   6.4876518972e+01   2.2530471847e+01    0.1835218    0.1695422  79.30 0.0003550928    1.237    0.192
       141 -10.0826    247.4651     46.6595   6.2504444373e+01   1.9018602520e+01     0.292015    0.1928137 -89.11  0.000602852    1.455    0.313
       142  -9.5987    241.6328     45.8027   6.2934076530e+01   2.0384645951e+01    0.2929144    0.1711832  67.56  0.001009458    1.683    0.406
       143 -10.9407    201.6309     45.3544   6.7636723222e+01   2.9549103407e+01    0.3557191    0.2263027  61.07  0.001834812    1.494    0.331
       144  -8.7610    145.2036     44.6175   7.6878831408e+01   4.3231322903e+01    0.2037297    0.1676347 -20.47 0.0002175942    1.389    0.280
       145  -8.3475    180.2238     44.3851   7.0536600281e+01   3.4829720238e+01    0.2016269     0.122631  76.54 0.0009462365    1.690    0.408
       146  -9.1920    174.3003     39.7122   7.0253703862e+01   3.6890368770e+01    0.3030583    0.1325051  45.76  0.001193822    2.628    0.620
       147  -9.6153    249.0363     38.1770   6.0649124276e+01   1.9871316743e+01    0.2787047    0.2127113 -87.50 0.0009595923    1.149    0.129
       148  -9.6050    201.4378     39.2921   6.6218057572e+01   3.0423539502e+01    0.2964057    0.1569219  73.97 0.0009474282    1.839    0.456
       149  -8.9181    229.2174     37.1416   6.2437188555e+01   2.4307250494e+01    0.2824098    0.1638743  78.68   0.00148027    1.641    0.391
       150  -9.5161    202.1423     35.1453   6.5147127954e+01   3.0802989420e+01    0.1913383    0.1741438  64.37 0.0005916288    1.231    0.187
       151  -8.7841    104.6489     33.4867   8.2676711032e+01   5.3691211465e+01    0.2112502    0.1224245 -27.56 0.0009524799    1.864    0.464
       152  -8.8705    218.2384     33.4578   6.2842712083e+01   2.7277155777e+01    0.1896872    0.1301498 -67.83 0.0004960974    1.350    0.259
       153  -9.6688    215.0628     28.7489   6.2156517774e+01   2.8608020359e+01    0.3435472    0.1773991 -63.58  0.001404651    2.066    0.516
       154 -10.2603    192.6485     32.6766   6.5790197283e+01   3.3373187959e+01    0.2385249    0.2053784  83.49 0.0002670175    1.029    0.028
       155  -8.0111    164.4553     32.4956   6.9908491403e+01   4.0177379397e+01    0.1356122    0.1199077  73.27  0.000165706    1.004    0.004
       156  -8.3570    203.3049     31.2874   6.4099627702e+01   3.1022464175e+01    0.1378614     0.112829 -83.85 0.0002934893    1.061    0.057
       157  -9.4505    199.7900     31.3279   6.4544199385e+01   3.1846034605e+01    0.2574359     0.197502 -81.90 0.0008497821    1.193    0.162
       158  -9.5542    126.1525     30.6362   7.6599961438e+01   4.9379664675e+01    0.3276532     0.216098  68.67 0.0009437921    1.613    0.380
       159  -9.5668    184.4798     28.7364   6.5922813935e+01   3.5812130182e+01    0.2537549    0.1946212 -71.72 0.0006454036    1.291    0.225
       160  -8.4636    166.8543     28.6595   6.8486158585e+01   4.0056878009e+01      0.18447    0.1132071  76.34 0.0009114316    1.602    0.376
       161  -8.8328    165.7152     24.9837   6.7674790857e+01   4.0751666175e+01    0.1782736    0.1600901  86.44 0.0003518537    1.065    0.061
       162  -8.3869    220.6001     23.2032   6.0361915956e+01   2.8031836150e+01    0.1636725    0.1237138 -22.63 0.0009606949    1.827    0.453
       163  -9.1397    138.3878     21.7416   7.1377009868e+01   4.7560360086e+01    0.3746344     0.147342  46.39  0.001205242    2.406    0.584
       164  -9.9944    116.8391     21.7213   7.5761015385e+01   5.2418496147e+01    0.3038234    0.2044138  51.36 0.0006122686    1.277    0.217
       165  -8.0860    190.6421     21.6867   6.3387790996e+01   3.5168603949e+01    0.1318824   0.09068114  44.20 0.0007043581    1.744    0.427
       166  -8.5055    206.4964     20.4979   6.1259067214e+01   3.1585433200e+01    0.1310324    0.1055698 -84.61 -0.0001617809    1.042    0.041
       167  -9.0968    233.7142    247.6000   1.0555846449e+02  -1.2141061269e+01     0.280203    0.1999466  50.12  0.001488625    1.939    0.484
       168  -8.7913    195.0645     23.0123   6.3160960118e+01   3.3969292584e+01    0.2156953    0.1336492 -68.97 0.0007303855    1.692    0.409
       169  -8.3600    240.5533     18.4686   5.7525449763e+01   2.4214207289e+01    0.1240485   0.09545961 -76.57 0.0001666227    1.015    0.015
       170  -8.2957    191.2274    247.9832   1.1366117633e+02  -5.6494348406e+00    0.1512705    0.1053338 -40.07 0.0008706711    1.630    0.386
       171  -9.1824    224.9068    245.7502   1.0687016127e+02  -1.0593633995e+01    0.2980339    0.1958472 -53.25  0.001633752    2.344    0.573
       172  -9.0970    146.5126    242.7973   1.2178678668e+02   2.7757996421e+00    0.2876345    0.1340266 -55.51  0.001144857    2.574    0.612
       173  -7.8605    169.4843    242.5099   1.1710838894e+02  -1.1204861694e+00    0.1318542    0.1142231  35.70 2.334018e-05    1.004    0.004
       174  -8.1276    214.4478    241.5370   1.0812808379e+02  -8.3811841074e+00    0.1253527    0.1069576  15.41 0.0001950257    1.030    0.029
       175  -9.4356    231.8174    237.8858   1.0424579575e+02  -1.0496985539e+01    0.3044401    0.2207533  56.93  0.001713896    2.185    0.542
       176  -8.3963    219.4825    239.5294   1.0683267800e+02  -8.8649632008e+00     0.125608    0.1066682  13.13 0.0001690705    1.027    0.026
       177  -9.2812    204.3006    235.7568   1.0910268458e+02  -5.8651001720e+00    0.3233395    0.2541549 -77.42  0.001773491    2.198    0.545
       178  -9.7809    216.1528    234.1232   1.0653428117e+02  -7.5231580321e+00    0.3350972    0.2765067 -73.62  0.001617258    2.013    0.503
       179  -9.1640    234.2252    233.5242   1.0303916444e+02  -1.0221286993e+01     0.206508    0.1558916 -24.06 0.0004462934    1.274    0.215
       180  -9.0575    195.3947    232.9183   1.1037107920e+02  -3.9239038226e+00    0.3008219    0.2413873 -86.91  0.001655058    2.028    0.507
