#   1 NUMBER                 Running object number                                     
#   2 MAG_AUTO               Kron-like elliptical aperture magnitude                    [mag]
#   3 X_IMAGE                Object position along x                                    [pixel]
#   4 Y_IMAGE                Object position along y                                    [pixel]
#   5 X_WORLD                Barycenter position along world x axis                     [deg]
#   6 Y_WORLD                Barycenter position along world y axis                     [deg]
#   7 A_WORLD                Profile RMS along major axis (world units)                 [deg]
#   8 B_WORLD                Profile RMS along minor axis (world units)                 [deg]
#   9 THETA_WORLD            Position angle (CCW/world-x)                               [deg]
#  10 FWHM_WORLD             FWHM assuming a gaussian core                              [deg]
#  11 ELONGATION             A_IMAGE/B_IMAGE                                           
#  12 ELLIPTICITY            1 - B_IMAGE/A_IMAGE                                       
         1 -11.1929     80.6930     22.9908   4.9178049528e+01   6.0453776407e+01    0.5780524    0.2714359  31.87  0.000819247    2.413    0.586
         2  -8.9068     46.0294     20.8981   6.1136128983e+01   6.5940754225e+01    0.5216962    0.1508645 -39.28  0.002143275    2.966    0.663
         3  -8.8901     26.6670     23.0102   7.0214365082e+01   6.7635204011e+01    0.4988284    0.1270298 -36.13  0.001733877    4.622    0.784
         4  -9.6797     10.4071     18.6501   7.5906259069e+01   6.9638936892e+01    0.5692226    0.2617869  -4.59  0.002927933    3.203    0.688
         5  -8.8889     64.3798     13.7745   5.0833129967e+01   6.4417494352e+01    0.3655525    0.2042773  19.08  0.001499638    2.110    0.526
         6  -8.6710     74.3546     13.2906   4.7082288972e+01   6.2842992844e+01    0.3179484    0.1819831  -2.34  0.001206487    2.162    0.537
         7  -9.4289     78.5929     12.4927   4.5305010368e+01   6.2198983437e+01    0.3803189    0.2422252  43.39  0.001700377    1.569    0.363
         8  -8.2943     97.2221     11.3843   3.9148434622e+01   5.8750813769e+01    0.2487287     0.173542  21.06 0.0007379471    1.397    0.284
         9  -7.8342     38.0000     11.9853   6.0613135566e+01   6.8243182868e+01     0.186448   0.05555322 -40.20 0.0007930663    2.878    0.653
        10  -9.4914     31.8284     10.6689   6.2749724320e+01   6.9116092944e+01    0.2985664    0.1805981  -5.89 0.0003586476    1.781    0.439
        11  -8.9797     32.0547      5.7541   6.0354740942e+01   6.9807674077e+01    0.2638768    0.1656984   6.24 0.0002511671    1.642    0.391
        12  -8.0987    155.9891     10.3772   2.5839735078e+01   4.5027364526e+01    0.4267414    0.1621167 -22.14  0.001600696    2.875    0.652
        13 -10.3487     13.3513      4.0855   6.8552850520e+01   7.1809303071e+01    0.3032776    0.2113406   9.58  0.000292016    1.500    0.333
        14  -8.5882     14.2133     10.4622   7.0909371452e+01   7.0741068504e+01    0.2447756    0.1574373  31.65  0.001671157    2.024    0.506
        15  -9.8326     20.7190      8.2285   6.6811748051e+01   7.0559513714e+01    0.2626704    0.2042397   9.55 0.0003098694    1.367    0.268
        16  -8.8110    142.7756      9.3621   2.7836614268e+01   4.8484935845e+01    0.2500775    0.2006872  41.12 0.0002539266    1.153    0.133
        17  -9.2830    125.2270     10.0047   3.1629100480e+01   5.2696273730e+01    0.2697832    0.1809351  52.53 0.0004829322    1.349    0.259
        18  -8.6665      3.8997      6.5625   7.4399610721e+01   7.2080458169e+01    0.2996521    0.1297857 -23.74  0.001647824    2.465    0.594
        19  -8.9045     76.8461      6.3389   4.3073827567e+01   6.3230288288e+01    0.2721229    0.1722221  40.90  0.001075073    1.503    0.335
        20  -9.6954     85.0211      5.0481   3.9910339138e+01   6.1852677444e+01    0.2536698    0.2025894  -7.63 0.0003906513    1.163    0.140
        21  -7.3249    179.5564      5.4376   2.0693186078e+01   3.9354182987e+01    0.1402415    0.1269475  77.69 8.853523e-05    1.027    0.026
        22  -7.9223     91.7811      5.4059   3.8085489230e+01   6.0490944861e+01    0.1893103    0.1034211  41.08 0.0009516421    1.652    0.395
        23  -8.7572     41.9473      5.0618   5.5634346446e+01   6.8739394980e+01     0.255183    0.1492576  27.37  0.001549235    1.734    0.423
        24  -9.1894     57.6295      3.3150   4.8415864577e+01   6.6770844860e+01    0.2265386    0.1688266   5.88 0.0002861932    1.147    0.128
        25  -7.8755    192.0285      2.7308   1.8319422342e+01   3.6335780558e+01    0.1925548     0.165955  73.78 0.0002340128    1.048    0.045
        26  -8.3146    125.7677      3.1030   2.8845002342e+01   5.3224328380e+01    0.2277944    0.1770568  52.26 0.0005506733    1.160    0.138
        27  -7.9529    110.7893      2.1808   3.1772853634e+01   5.6764576811e+01    0.2984941    0.0795624 -28.80  0.001067396    3.535    0.717
        28  -7.2842    134.3054      2.6846   2.6993467609e+01   5.1202289697e+01    0.1337236     0.103616 -64.19 0.0002430236    1.624    0.384
        29  -7.9518    153.6912      3.0203   2.3711956720e+01   4.6311224240e+01    0.1836509    0.1706427  26.83 0.0003718179    1.111    0.100
        30  -7.6658    104.9747      1.7332   3.2984956584e+01   5.8087362547e+01    0.1726957    0.1044871  53.32 0.0008889389    1.524    0.344
        31  -7.0863     87.2510    116.7300   7.5910637540e+01   4.1070998121e+01    0.1305447    0.1010829  87.00 -0.0001541599    1.446    0.308
        32 -10.2793    200.5214    247.9886   7.4151374837e+01  -2.9159160797e+00    0.3093669     0.273158  57.53   0.00233227    1.403    0.287
        33  -9.6076    182.7635    249.5835   7.7360677838e+01  -2.0692620251e-01    0.2530663    0.1774258  38.97  0.001463402    1.096    0.088
        34  -9.9389    159.5153    244.9813   8.0748501781e+01   4.2133386569e+00    0.4652048    0.2227933 -37.52  0.002392309    3.298    0.697
        35  -9.5093    157.0881    240.6400   8.0638556458e+01   5.2125324213e+00     0.235312    0.1926326  20.14 0.0003505143    1.500    0.333
        36  -9.9981    154.4610    249.5906   8.2154734952e+01   4.4184777098e+00    0.2988246    0.2262394  49.02  0.001036898    1.017    0.017
        37  -9.0965    156.0068    245.0899   8.1363458129e+01   4.7763703210e+00    0.1742046    0.1336066  48.91 0.0003483577    1.019    0.019
        38  -7.2437    145.2418    107.7032   5.8845702139e+01   3.1940356137e+01    0.1471215    0.1191387 -77.25            0    1.478    0.323
        39  -8.1911    133.6978    106.2699   6.1315202938e+01   3.4754985586e+01    0.2980178    0.1794319 -25.65  0.001147231    2.392    0.582
        40  -7.2884     76.3112    107.2866   7.6892747237e+01   4.4836115082e+01    0.1309966    0.1015982 -28.72 0.0002360843    1.577    0.366
        41  -6.9465    124.6070    106.6903   6.3732234808e+01   3.6559013073e+01    0.1553383    0.1199494   2.34 0.0002847961    1.832    0.454
        42  -7.5161    109.0116    106.1766   6.7693269869e+01   3.9705125972e+01    0.2360609    0.1745367   4.80  0.001075314    2.057    0.514
        43  -9.1367     13.8441    105.7593   9.3817775898e+01   5.1715555976e+01    0.2294756    0.1498488 -39.52  0.001465853    1.810    0.447
        44  -8.5011    248.4920    104.0290   3.7554563583e+01   8.4075032729e+00    0.2090476    0.1222388  -6.17 0.0008102499    2.640    0.621
        45  -7.8451     94.0068    102.5313   7.0892415611e+01   4.3154343279e+01     0.205156    0.1403388  41.62 0.0009515055    1.563    0.360
        46  -7.8074     64.1947    100.8366   7.8945870406e+01   4.7924652307e+01    0.1788082    0.1447267 -37.53 0.0007090035    1.327    0.246
        47  -7.2190    140.3439     99.3065   5.7811711819e+01   3.4754332755e+01    0.1572924    0.1228788   8.08 0.0007042612    1.691    0.409
        48  -8.6932    242.2040     96.0122   3.6567679158e+01   1.1042390355e+01    0.2188579    0.1576215  30.10  0.001063093    1.606    0.377
        49  -7.4746    129.6549     96.6870   5.9796244024e+01   3.7619042125e+01    0.1552409    0.1213873   3.46 0.0007046789    1.710    0.415
        50  -9.3160     20.8950     90.8583   8.9683220026e+01   5.4465653073e+01    0.3527936    0.1629851 -43.07  0.001824482    2.276    0.561
        51  -9.1294     16.4632     94.5212   9.1534620411e+01   5.3984328956e+01    0.2215295    0.1915536  -7.63  0.001142803    1.529    0.346
        52  -9.8669     12.2635     93.4312   9.2566084574e+01   5.4504002924e+01     0.434299    0.2358942 -34.37  0.001215055    2.348    0.574
        53  -7.4777     83.3098     93.3441   7.1687429592e+01   4.6898338696e+01    0.1419685    0.1033487 -25.07  0.000704498    1.700    0.412
        54  -9.0368     44.2582     91.7917   8.2927067521e+01   5.2222052966e+01    0.3289077    0.1979462 -42.50  0.001805258    1.670    0.401
        55  -7.8785     56.3371     92.2884   7.9418537035e+01   5.0791430267e+01    0.2007083     0.133646 -33.67 0.0005654869    1.736    0.424
        56  -7.6745    109.9467     90.5197   6.3364100864e+01   4.2898383244e+01    0.2085279    0.1298418  18.22 0.0008093777    2.643    0.622
        57  -7.9367     96.4271     90.1376   6.7068531164e+01   4.5445532790e+01     0.302352    0.1703005  23.47  0.001200933    2.727    0.633
        58  -8.1907     66.1099     83.8448   7.4479284528e+01   5.1429514184e+01    0.2137762    0.1864906  14.63 0.0008233279    1.335    0.251
        59 -10.4160     37.8741     80.5621   8.2568619197e+01   5.5301821774e+01      0.55883    0.3199528 -16.33  0.002703188    2.911    0.656
        60  -8.6902    247.1954     83.5882   3.2755383215e+01   1.1819382812e+01    0.2025838    0.1292626  45.48 0.0009537153    1.700    0.412
        61  -7.5150    126.4975     83.0294   5.6746221348e+01   4.1076918125e+01    0.2095057    0.1324367 -17.01 0.0008077666    2.391    0.582
        62  -9.7357      8.3202     77.0811   9.1208454444e+01   5.8256935905e+01     0.556872    0.2112233 -36.78  0.002576093    3.360    0.702
        63  -8.6590     88.4302     78.1181   6.6100351795e+01   4.9341255720e+01    0.3907522     0.267324  -4.76  0.001728656    2.250    0.556
        64  -7.6816    184.4222     77.7222   4.1789150308e+01   2.8182510081e+01    0.2096033     0.152996 -19.72 0.0009317914    1.548    0.354
        65  -8.9865     49.5412     76.8205   7.7984333094e+01   5.4934015774e+01    0.4246306    0.2429569   7.84  0.002016038    2.840    0.648
        66  -8.0569     74.6804     74.3436   6.9275921267e+01   5.2265808177e+01     0.250699    0.1682271 -18.13 0.0008112278    1.996    0.499
        67  -8.9826     23.9280     73.6796   8.5608488213e+01   5.7950914318e+01    0.4719653    0.1503643 -53.68  0.001821309    2.260    0.558
        68  -9.4904     28.2735     68.8695   8.3142242530e+01   5.8633461986e+01    0.3557026    0.1966134 -16.96  0.001806968    2.757    0.637
        69  -7.9382     23.3984     69.1687   8.4842756102e+01   5.8946824503e+01    0.1732449    0.1227495 -62.92  0.000776552    1.162    0.139
        70  -8.6197     20.9643     84.0364   8.8505276923e+01   5.5943360310e+01    0.1749325    0.1378008 -63.30  0.001216492    1.012    0.012
        71  -7.4045    116.3493     68.3186   5.4978306221e+01   4.6081805884e+01    0.1541769    0.1147112   5.68 0.0007048203    1.735    0.424
        72  -7.9431    106.5485     66.5574   5.7192027323e+01   4.8389515106e+01    0.2528179    0.1911488 -46.43  0.001290049    1.318    0.241
        73  -8.7897     84.0382     63.5466   6.3065830181e+01   5.3007592145e+01    0.3372521     0.256071  -4.82 0.0009735215    1.573    0.364
        74  -7.3655    148.3594     63.3186   4.5182405013e+01   3.9725700410e+01    0.1642184    0.1174832  19.81 0.0007043707    1.762    0.432
        75  -8.5350     18.6067     61.5751   8.4823761781e+01   6.0873946618e+01    0.3188058     0.139833 -35.08  0.001586112    2.554    0.608
        76  -8.6495     12.4701     62.5613   8.7162158932e+01   6.1063709506e+01    0.2748339    0.1648385 -79.88 0.0009891104    1.815    0.449
        77 -10.3579     62.0339     61.0121   6.9526467625e+01   5.6734519946e+01    0.3889456    0.2504732  20.96  0.000396257    1.878    0.468
        78  -8.3681    214.2378     60.0866   3.1547530352e+01   2.3370125788e+01    0.2360129    0.2072805  66.05 0.0003971481    1.141    0.123
        79  -9.3669     36.8209     58.6838   7.7671123163e+01   6.0008772913e+01    0.3870128    0.2042447  -1.17  0.001765735    3.355    0.702
        80  -9.0672     49.6778     58.6785   7.3111325673e+01   5.8695698582e+01    0.2115197    0.1893345 -49.30 0.0002829718    1.130    0.115
        81  -8.0279    111.0439     57.9481   5.3057895861e+01   4.9084301505e+01    0.2364981    0.1728488   7.58  0.001123634    1.714    0.416
        82  -9.4614     99.8203     54.8460   5.5281347548e+01   5.1853921751e+01    0.3641632      0.24972 -27.77 0.0006279934    1.457    0.314
        83  -7.8792     18.5299     54.4787   8.3200719111e+01   6.2332495742e+01    0.1166146   0.09015888 -51.86  0.000281995    1.017    0.016
        84 -10.4905     75.1821     49.7586   6.1380949554e+01   5.7024276327e+01    0.3486853     0.251706 -17.88 0.0002852151    1.454    0.312
        85  -8.0383    118.8304     50.8966   4.8464849899e+01   4.8660123038e+01     0.223268    0.1874209  11.23 0.0004884453    1.244    0.196
        86  -8.5286    106.3345     48.7092   5.1198884026e+01   5.1644946503e+01    0.4247411    0.2647894   0.15  0.001743047    2.524    0.604
        87  -9.4117     44.7092     48.8447   7.1924742257e+01   6.1175841556e+01    0.4059646    0.2441478  -5.54  0.002085566    2.372    0.578
        88  -8.5726     10.4936     47.0336   8.4377751537e+01   6.4332408390e+01    0.2038192    0.1341761 -49.85 0.0007073245    1.133    0.118
        89  -8.9131     13.5353     45.4539   8.2812272699e+01   6.4461061030e+01    0.2204221    0.1822845 -43.14 0.0007560683    1.104    0.094
        90  -7.5126    157.0610     46.0513   3.7640182559e+01   4.0321731756e+01    0.1809696    0.1692746  46.46 0.0004562759    1.029    0.029
        91  -9.1987     56.0973     43.0592   6.5773718052e+01   6.0932163908e+01    0.5602003    0.2653054 -22.57  0.002121011    3.691    0.729
        92  -8.9850      3.1505     42.4158   8.6083891752e+01   6.5636632920e+01    0.5460435    0.1211648 -53.67  0.002529589    2.582    0.613
        93  -7.7427    113.6317     41.7458   4.6610352314e+01   5.1253880655e+01    0.3006068    0.1440272  25.98 0.0009591556    3.850    0.740
        94  -8.4299     93.4280     41.8958   5.2590459087e+01   5.5278860725e+01    0.2911322    0.1714697  26.36  0.001329274    2.029    0.507
        95 -10.4035     83.3543     39.5944   5.4947821919e+01   5.7459816422e+01    0.3842185    0.2551363  26.65 0.0001219286    1.617    0.382
        96  -8.1189    124.1123     39.1437   4.2879213890e+01   4.9331266963e+01     0.219091    0.1810696  16.31 0.0002757252    1.236    0.191
        97  -9.3632     61.5233     26.7610   5.7527284464e+01   6.2965830989e+01    0.5301366    0.3027987  -4.71  0.001911516    2.579    0.612
        98  -9.7306     68.7464     36.3043   5.8690435786e+01   6.0360014255e+01     0.786082    0.4298733 -22.23  0.003701228    2.126    0.530
        99 -10.1078     70.5697     25.5914   5.3745665865e+01   6.1774832534e+01    0.5373785     0.343565  31.31  0.001930662    1.594    0.373
       100 -10.7114    188.3204    250.3250   7.6518827132e+01  -1.2038057173e+00    0.4693474    0.2109945  36.39  0.002500613    1.882    0.469
       101  -7.1233     53.2910     38.2788   6.5110291961e+01   6.2144005159e+01    0.1238255   0.08411577 -17.17 0.0006940471    1.525    0.344
       102  -8.4434     55.7791     34.9893   6.2946509469e+01   6.2401341042e+01    0.2866883    0.1499315 -43.79 0.0007676699    1.724    0.420
       103  -8.8442    169.2693    248.1240   7.9465854433e+01   2.1910249389e+00      0.30384    0.1825503 -88.24  0.001234498    5.427    0.816
       104  -8.3637     41.9678     31.5197   6.7026395770e+01   6.4654065960e+01    0.2064259    0.1520666 -34.43 0.0005692238    1.107    0.096
       105  -8.8544     42.2218     27.9251   6.5549828064e+01   6.5241814557e+01     0.270466    0.1743971 -26.44 0.0002425249    1.368    0.269
       106  -8.5707     35.4839     37.5202   7.1769011860e+01   6.4246826809e+01    0.2316415    0.1589752 -49.47 0.0008016882    1.306    0.235
       107  -8.8050     38.8333     34.9040   6.9521063960e+01   6.4388636621e+01    0.2641374    0.1775694 -11.42 0.0009420362    1.613    0.380
       108  -9.7514     20.3246     35.9647   7.7402671998e+01   6.5825615311e+01    0.4152908    0.3128024  18.05  0.002584656    1.586    0.370
       109  -9.0777     21.9211     31.8643   7.5419139423e+01   6.6463921003e+01    0.2543351    0.1663657 -20.33  0.001028057    1.524    0.344
       110  -8.5386    105.4793     36.6299   4.6993921093e+01   5.3745981628e+01    0.3301062    0.1995556  28.97 0.0008417516    1.857    0.462
       111  -7.9974     92.4496     36.4796   5.0839129420e+01   5.6327111270e+01    0.1374758    0.1212135  -3.67 0.0001044292    1.020    0.019
       112  -8.3951      3.4576     24.5044   8.1038449003e+01   6.9008951904e+01    0.2275696   0.09556673 -43.17 0.0007149864    1.718    0.418
       113  -9.2960      4.7879     33.5333   8.3123036799e+01   6.7263905667e+01    0.2931949    0.2462337  81.36  0.001723459    1.690    0.408
       114  -8.7177      1.3869     28.7300   8.3209603483e+01   6.8337183960e+01    0.2577442    0.0724841 -56.98  0.001254062    2.432    0.589
       115  -9.1263     96.5887     32.7140   4.8102361615e+01   5.6109199628e+01    0.2853744    0.2210519  27.54 0.0003809891    1.260    0.206
       116  -7.1444     10.6586     32.7166   8.0428248114e+01   6.7084985602e+01    0.1162126    0.0627486 -33.68 0.0007014257    1.634    0.388
       117  -8.7496      2.0640    109.3428   9.7286674239e+01   5.1703793876e+01    0.2586878    0.1106919 -53.18  0.001441399    2.122    0.529
       118  -9.4386    128.9910     22.1034   3.5391142179e+01   5.0471934772e+01    0.2351656    0.2037849  28.42            0    1.081    0.075
       119  -7.6672    136.9425     22.5238   3.3780883241e+01   4.8505221482e+01     0.217047     0.131053  54.72 0.0005618166    1.530    0.347
       120  -7.5251    166.9979     20.9257   2.7490977593e+01   4.1039477059e+01    0.1705556    0.1588318 -19.77 0.0004094812    1.151    0.131
       121  -9.2875     92.1470     20.5983   4.4536267709e+01   5.8654909682e+01    0.2921683    0.2060141  22.51  0.000590584    1.405    0.288
       122  -8.0595    227.4554    244.5101   6.9151125140e+01  -6.8453420936e+00    0.1159392   0.08645617  29.10  8.58054e-05    1.011    0.011
       123  -7.5012    146.7769     19.1281   3.0547273676e+01   4.6452735303e+01    0.2018014    0.1507564  32.07 0.0004304184    1.361    0.265
       124  -8.0148    100.9400     19.6569   4.1571187077e+01   5.7014003147e+01    0.2665742    0.1031604  44.82 0.0008078425    2.406    0.584
       125  -8.3641    246.1910     17.8324   1.6626691146e+01   2.1009493704e+01    0.1788859    0.1547957  46.33 0.0009740677    1.366    0.268
       126  -7.9765    127.7479     16.2358   3.3458743207e+01   5.1441554533e+01    0.1877613    0.1857555  19.84 0.0005187693    1.127    0.113
       127  -9.1223    167.0579    242.0274   7.9082963084e+01   3.3598752547e+00    0.1779491    0.1396023  47.13 0.0004511791    1.043    0.041
       128  -7.7688    189.8307     15.4071   2.2316895088e+01   3.5626724116e+01    0.2154868    0.1151409  55.80 0.0009428198    1.723    0.419
       129  -9.7103    185.1444    238.0879   7.5423638209e+01   8.3769859435e-01    0.2155017    0.1782229 -46.68  0.001515986    1.587    0.370
       130  -7.6124     76.4036    237.4741   9.4106460410e+01   1.8148771864e+01    0.1089709   0.08161677  66.72 0.0002186554    1.046    0.044
       131  -7.9791    146.7427     14.1340   2.8791877278e+01   4.7003569016e+01    0.2416537     0.179064  70.36 0.0006948242    1.365    0.268
       132  -8.0390     87.9336     12.8471   4.2501386844e+01   6.0426145294e+01    0.2084049     0.154606  16.35 0.0006478269    1.266    0.210
       133  -7.6779    151.0424     12.5198   2.7437175239e+01   4.6079349236e+01    0.2109358     0.129644  61.29 -8.233142e-05    1.483    0.326
       134  -9.6826    188.5359    233.9254   7.4249620519e+01   7.9960849400e-01    0.2856082    0.2184585 -78.62    0.0016791    2.171    0.539
       135  -6.8583    110.6742    224.6798   8.6997795152e+01   1.5258933581e+01    0.1054999   0.09212306  20.40 0.0005750674    1.681    0.405
       136  -8.6032     75.6618    224.0474   9.3116007969e+01   2.0536833231e+01    0.1859336    0.1326803  52.98 0.0003603541    1.230    0.187
       137  -8.7230    147.8963    219.6322   7.9594460063e+01   9.9087979367e+00    0.1887949    0.1692756  81.85 0.0003465444    1.223    0.182
       138  -7.4237     96.3410    218.7127   8.8948855257e+01   1.8493845343e+01    0.1252993    0.0724996  66.44 0.0002753474    1.641    0.391
       139  -9.7265    123.9898    206.0009   8.2297540428e+01   1.6321193845e+01    0.1808236    0.1490131  60.63            0    1.004    0.004
       140  -7.8414     56.3794    199.1942   9.4388727919e+01   2.7662962914e+01    0.1537333   0.08968772 -88.81 0.0002100266    1.575    0.365
       141  -7.6282     11.5795    189.1930   1.0173705539e+02   3.4458517043e+01    0.1396025    0.0761761 -71.53  0.000310331    1.641    0.390
       142  -9.6278    158.0953    167.4241   6.9221134384e+01   1.7136668982e+01    0.2425001    0.2282543 -64.44 0.0001282218    1.149    0.129
       143  -8.0061    145.5005    150.5350   6.8658536985e+01   2.3011843603e+01    0.2554027    0.1385871 -60.14  0.001032172    2.279    0.561
       144  -8.6357    108.0256     10.5172   3.5895200509e+01   5.6558125120e+01    0.2066483    0.1223279  52.02  0.001027535    1.579    0.367
       145  -7.9353    133.5126    148.0388   7.0873319833e+01   2.5924872295e+01    0.2159748    0.1418844 -51.37  0.001026335    1.572    0.364
       146  -9.0134     67.3645    144.2661   8.5779995973e+01   3.7731340496e+01    0.4767317    0.2389448  61.52  0.002164051    2.431    0.589
       147  -8.0642    242.2447    137.9848   4.6528334847e+01   4.4950038014e+00    0.1825725    0.1130251 -31.09 0.0006314651    1.557    0.358
       148  -7.7472    108.9986    135.9657   7.4277443543e+01   3.3128178585e+01    0.2102215    0.1754292 -18.78 0.0006571871    1.620    0.383
       149  -7.2014    125.6643    135.6603   7.0182295436e+01   3.0091501352e+01     0.146036    0.1182791  -6.59  0.000597927    1.755    0.430
       150  -7.8720      4.5061    133.5322   9.9064834668e+01   4.6376081467e+01    0.1117322   0.08238739 -85.48 0.0008097751    1.005    0.005
       151  -8.2456     67.5444    127.7522   8.3127288121e+01   4.1411923741e+01    0.2769759    0.1425486  51.71  0.001311617    2.144    0.534
       152  -7.2108     25.3334    128.3321   9.3705170188e+01   4.5868501155e+01    0.1173223   0.07555437 -48.61 0.0007052215    1.729    0.422
       153  -7.3782    168.5119    121.4870   5.6957461600e+01   2.3872396933e+01    0.1538233    0.1484683  27.99 0.0002360481    1.045    0.043
       154  -7.5758     85.0078    121.2260   7.7416166412e+01   4.0403514012e+01    0.1709386    0.1131129  40.49 0.0008670923    1.624    0.384
       155  -7.4916    119.3346    118.3089   6.7906228268e+01   3.5092114546e+01    0.1461322    0.1188285  -5.93 0.0007042519    1.675    0.403
       156  -7.9655    100.4453    118.3839   7.2787084165e+01   3.8533908887e+01    0.2649113    0.1348144  25.99 0.0009541465    3.309    0.698
