#   1 NUMBER                 Running object number                                     
#   2 MAG_AUTO               Kron-like elliptical aperture magnitude                    [mag]
#   3 X_IMAGE                Object position along x                                    [pixel]
#   4 Y_IMAGE                Object position along y                                    [pixel]
#   5 X_WORLD                Barycenter position along world x axis                     [deg]
#   6 Y_WORLD                Barycenter position along world y axis                     [deg]
#   7 A_WORLD                Profile RMS along major axis (world units)                 [deg]
#   8 B_WORLD                Profile RMS along minor axis (world units)                 [deg]
#   9 THETA_WORLD            Position angle (CCW/world-x)                               [deg]
#  10 FWHM_WORLD             FWHM assuming a gaussian core                              [deg]
#  11 ELONGATION             A_IMAGE/B_IMAGE                                           
#  12 ELLIPTICITY            1 - B_IMAGE/A_IMAGE                                       
         1 -15.1079     10.6966    156.9178   1.4481104298e+02   4.1425038806e+01     10.14922     3.953939  68.64  0.005701072    2.905    0.656
         2 -13.3378    194.6933     29.3617   6.8298014456e+01   3.2906573733e+01     1.442477     1.351233 -78.88  0.007777691    1.041    0.039
         3 -13.5088    210.1003     10.0616   6.1321676089e+01   3.1175172115e+01     1.336065     1.003925  37.62  0.007393681    1.680    0.405
         4 -12.5217      2.2679      3.4886   1.1743365050e+02   7.4385955665e+01    0.7749559    0.3640883 -54.17  0.004423987    2.302    0.566
         5 -10.8779    100.9963    245.7449   1.3438649047e+02   1.2498711332e+01    0.3327314    0.1792544 -59.60  0.001253453    2.245    0.555
         6 -12.1069    247.4445    248.7092   1.0868251921e+02  -1.0432071355e+01    0.5820861     0.343744  28.49  0.003880553    1.312    0.238
         7  -9.7851    111.4652    250.5673   1.3295946977e+02   1.0159053883e+01    0.2356804   0.09013887  41.81 0.0006300441    2.044    0.511
         8 -10.2618     29.1730    249.4835   1.4704080812e+02   2.1225523965e+01    0.2936859    0.1968684  66.15  0.002069084    1.019    0.018
         9  -9.9470     34.2700    249.2900   1.4620354490e+02   2.0684668725e+01    0.2369506    0.1405564  69.87  0.001096133    1.266    0.210
        10 -11.3684     35.5012    244.0665   1.4571912884e+02   2.1443551049e+01    0.3896591    0.3335646  15.93  0.002974357    2.093    0.522
        11 -10.0612     16.3415    250.4232   1.4912500271e+02   2.2448487881e+01    0.1749319   0.08512526  37.55  0.001140048    2.104    0.525
        12 -10.6385      2.7006    248.1964   1.5115104421e+02   2.4196873211e+01    0.3207348    0.1839884  81.84  0.002472662    1.329    0.248
        13  -9.9243     81.8583    248.8323   1.3807875697e+02   1.4733427457e+01    0.1678558    0.1007864  61.07  0.000844437    1.352    0.260
        14  -9.8424     46.8636    249.1828   1.4411742468e+02   1.9224432625e+01    0.1687377    0.1034786  63.40 0.0003826604    1.192    0.161
        15  -9.8755    162.5008    248.4959   1.2346205998e+02   2.4748438823e+00    0.1209584   0.09356979  39.96 0.0008106785    1.005    0.005
        16 -10.0472    106.6555    248.1919   1.3359573893e+02   1.1258739796e+01      0.17074    0.1171435  55.12 0.0006388932    1.135    0.119
        17 -10.6896     21.3081    244.0552   1.4805046006e+02   2.3015098934e+01    0.3103041    0.1182665  60.26  0.001833403    1.974    0.493
        18 -10.6633     12.7081    240.8482   1.4929393299e+02   2.4468565507e+01     0.182794    0.1433628  66.81  0.000917839    1.249    0.199
        19 -10.2903      5.8195    241.0331   1.5039948965e+02   2.5122244375e+01    0.1532889    0.1185829  65.90 0.0003578996    1.251    0.200
        20 -11.4046    233.1776    236.0781   1.0909230288e+02  -7.0368483217e+00    0.3606084    0.2229192 -54.71  0.001798802    3.790    0.736
        21 -10.8175    119.4928    238.0557   1.3018490725e+02   1.0941603048e+01    0.2831166    0.1656981 -88.86  0.001441724    2.689    0.628
        22  -9.9415    183.0020    238.5080   1.1837497123e+02   5.3660983022e-01    0.1904181   0.09787081  39.74 0.0004994893    1.551    0.355
        23  -9.5084     22.5029    236.4603   1.4748657541e+02   2.4224637360e+01    0.1977935    0.1134885 -55.13  0.001147368    2.705    0.630
        24 -11.8158    140.6584    250.0887   1.2762540888e+02   5.7217096904e+00    0.5761976     0.179989  38.68  0.002451124    2.720    0.632
        25 -10.1009    172.9625    222.6001   1.1793314845e+02   4.5211132991e+00    0.3036718    0.1044979  41.67  0.001252745    2.409    0.585
        26 -11.3214    216.7345    249.3596   1.1394297749e+02  -6.1029920191e+00    0.4347025    0.1483254  33.73  0.001992585    2.552    0.608
        27 -12.9198      9.0876    207.0523   1.4832451947e+02   3.1084856528e+01    0.7504081    0.5637856  45.61  0.004449876    1.457    0.314
        28  -8.8739     91.7599    214.0610   1.3293506590e+02   1.9528182079e+01    0.2719624     0.114953  58.76   0.00116828    2.608    0.617
        29  -8.7118    152.4723    212.8897   1.2050230567e+02   9.6682657216e+00    0.1599962    0.1321403 -52.46 0.0003804383    1.429    0.300
        30 -10.1900     54.4810    229.4314   1.4147747611e+02   2.1786545061e+01    0.2430782    0.1438837  63.26   0.00082997    1.347    0.258
        31 -11.5315     61.6126    198.3848   1.3746419085e+02   2.6944585871e+01    0.2767853    0.2313634 -54.26  0.000603988    1.562    0.360
        32  -9.6866    192.1734    193.7087   1.0939142466e+02   5.6470690849e+00    0.5677122    0.3067323 -65.57  0.001645924    6.850    0.854
        33 -10.9929     17.4118    198.3607   1.4628723585e+02   3.2014221420e+01    0.2452208    0.1565419  57.40 0.0009048682    1.303    0.233
        34  -9.3825     49.4351    196.9248   1.3983501009e+02   2.8792190192e+01    0.2736717    0.2089934 -24.10  0.001216277    2.497    0.600
        35 -12.6349     35.0634    232.3404   1.4512296566e+02   2.3582339580e+01    0.2635455    0.2243154  80.44 0.0007556559    1.312    0.238
        36 -11.7976     67.6932    190.2027   1.3533800153e+02   2.7844074137e+01    0.2703333    0.2216685 -63.98 0.0004616791    1.375    0.273
        37 -10.5719     77.7103    177.4644   1.3160317197e+02   2.9183903936e+01    0.2276416    0.2038158  88.47 0.0002915468    1.110    0.099
        38 -13.0925     64.4729    175.5542   1.3438840727e+02   3.1460170043e+01    0.4676569    0.2748263 -47.50  0.001533687    2.200    0.546
        39 -10.0415     98.0034    174.7010   1.2653971964e+02   2.6643839109e+01    0.2847795    0.1890534 -73.34 0.0003437903    1.582    0.368
        40 -11.7297     85.3887    168.1644   1.2853623115e+02   3.0099781359e+01    0.6464044     0.568655  48.77  0.003928968    1.192    0.161
        41 -10.8262      4.8334    227.4541   1.5001018778e+02   2.7635553960e+01    0.2690035    0.1819472  28.61  0.001956027    2.109    0.526
        42  -9.8155     97.8292    152.2988   1.2293852701e+02   3.1698989736e+01    0.2670105    0.2503136  36.27 0.0008532252    1.210    0.173
        43 -11.9144     86.4086    151.4114   1.2567007750e+02   3.3766470671e+01    0.2940327    0.2497608 -51.18 0.0005936577    1.290    0.225
        44 -12.3609     67.2147    143.8841   1.2939374504e+02   3.8351289293e+01    0.7837431    0.5083477  74.26  0.003474009    1.741    0.426
        45  -9.0127    100.8916    148.0537   1.2139686857e+02   3.2150775675e+01    0.2060764    0.1734468 -22.53 0.0003352252    1.571    0.363
        46  -8.2635    191.9960    143.9981   9.9273980938e+01   1.4409608148e+01    0.1733577    0.1632881 -21.73 0.0004393291    1.065    0.061
        47 -14.0497     40.7132    224.7372   1.4364487401e+02   2.4335796860e+01    0.9447958    0.8659397 -72.17  0.005026417    1.550    0.355
        48  -9.7140    109.6383    137.0639   1.1698424635e+02   3.3114643569e+01    0.3641568    0.2410067 -27.34  0.001539235    2.285    0.562
        49 -10.4232     96.6698    134.4647   1.1987810243e+02   3.6030602246e+01    0.2568782    0.2298684 -31.56 0.0003759719    1.307    0.235
        50 -10.7019     56.2042    129.0814   1.2998694637e+02   4.3286600966e+01    0.2698453    0.1759429 -87.16  0.001381004    1.630    0.387
        51  -9.0454     79.2880    131.5454   1.2402744041e+02   3.9529682702e+01     0.208815    0.1485199  71.79  0.000302129    1.599    0.374
        52  -9.3774     90.1593    130.8147   1.2090517415e+02   3.7981688516e+01     0.213346    0.1774141  79.78 0.0004889038    1.245    0.197
        53  -8.5494    115.6657    129.6720   1.1381169744e+02   3.3666084609e+01    0.1512518    0.1213488 -10.00 0.0007051819    1.721    0.419
        54  -8.9045    106.6509    123.9037   1.1492391980e+02   3.6699643601e+01    0.1963438     0.174224 -63.77 0.0003469054    1.094    0.086
        55 -10.6197     33.1476    132.6251   1.3680661557e+02   4.4978149559e+01    0.2904398    0.1714966  60.98  0.001455657    1.818    0.450
        56 -10.1329    167.7151    112.8413   9.6875761138e+01   2.5954824658e+01    0.3475544    0.2778866 -75.57 0.0009357182    1.531    0.347
        57  -8.9579    203.4683    111.5002   8.9215212538e+01   1.7798165183e+01    0.1504291    0.1444042  -6.64 2.181592e-05    1.049    0.047
        58 -10.4518     56.8640    223.4760   1.4058770193e+02   2.2595417715e+01    0.3865986    0.2560973  67.47  0.002564579    1.207    0.171
        59 -10.7460    243.1230     91.5885   7.7824943198e+01   1.2192144854e+01    0.2486486    0.1621538 -29.36  0.001100027    1.472    0.321
        60  -8.5213    184.5095     77.4642   8.3701153785e+01   2.8434021813e+01    0.1518079    0.1495799  38.90 7.242422e-05    1.058    0.055
        61  -9.3608    157.5165     76.5030   8.8963187065e+01   3.5407954286e+01     0.154141    0.1521331  56.49 0.0001742421    1.012    0.012
        62  -9.3762     43.6231     67.9728   1.2104173091e+02   5.8800238425e+01    0.2164176    0.1707739  49.21 0.0006826363    1.571    0.364
        63 -10.2045     34.0691     63.0507   1.2336312225e+02   6.0811464453e+01    0.3737214    0.2012853  46.96  0.001586065    2.591    0.614
        64 -10.5052      2.3066     61.4995   1.3549579791e+02   6.3355388231e+01    0.2144646   0.08319707 -66.78 0.0008697431    2.015    0.504
        65 -10.7212     15.9448     55.7863   1.2874478687e+02   6.3792095610e+01      0.21742    0.1950404  41.05 0.0006482213    1.418    0.295
        66 -10.9221    198.9768    247.8355   1.1682289163e+02  -3.2166491168e+00    0.3307711    0.2032568 -49.02  0.001980714    2.375    0.579
        67 -10.4670     97.8348    248.1637   1.3518069268e+02   1.2566921699e+01    0.2153944    0.2013547  73.52  0.001193019    1.328    0.247
        68 -11.6447      2.6614     36.6338   1.2949688065e+02   6.8443732403e+01    0.4564766    0.1514469 -66.23  0.001999344    3.116    0.679
