#   1 NUMBER                 Running object number                                     
#   2 MAG_AUTO               Kron-like elliptical aperture magnitude                    [mag]
#   3 X_IMAGE                Object position along x                                    [pixel]
#   4 Y_IMAGE                Object position along y                                    [pixel]
#   5 X_WORLD                Barycenter position along world x axis                     [deg]
#   6 Y_WORLD                Barycenter position along world y axis                     [deg]
#   7 A_WORLD                Profile RMS along major axis (world units)                 [deg]
#   8 B_WORLD                Profile RMS along minor axis (world units)                 [deg]
#   9 THETA_WORLD            Position angle (CCW/world-x)                               [deg]
#  10 FWHM_WORLD             FWHM assuming a gaussian core                              [deg]
#  11 ELONGATION             A_IMAGE/B_IMAGE                                           
#  12 ELLIPTICITY            1 - B_IMAGE/A_IMAGE                                       
         1 -15.0193    192.2671    155.2458   4.5159032710e+01   1.2833666266e+01     9.253785     5.332479  44.41   0.04431506    1.746    0.427
         2 -14.7858    172.8658    100.7998   3.6255893179e+01   2.6634490768e+01     8.658842     3.709459 -25.77   0.02634207    3.703    0.730
         3 -12.9071    246.0118     26.1945   6.9605649095e+00   2.0997187714e+01     1.059183    0.7336907 -17.19  0.004634369    1.660    0.397
         4 -16.2650    246.2801     55.5520   1.3755331787e+01   1.7368908463e+01     5.954709     3.003069 -42.05   0.02986135    1.652    0.395
         5 -15.9586    193.8008    103.2021   3.2843062127e+01   2.1494997338e+01     5.942007     4.585276  17.96   0.02976856    1.543    0.352
         6 -10.2781    194.4896     19.4646   9.7272369886e+00   3.3572991119e+01    0.2935715    0.2387766 -26.75  0.001673648    1.300    0.231
         7 -15.9932    235.5307    105.7757   2.6769351522e+01   1.2477465443e+01     3.405247     1.530826 -36.48   0.01528729    1.924    0.480
         8  -9.1452    220.8983     14.5994   6.0748723995e+00   2.7777160184e+01    0.2103094    0.1787687  -2.77 0.0008306302    1.482    0.325
         9  -9.3182     96.2982     11.6498   2.3015442489e+01   5.9713087131e+01    0.2695184    0.2314073 -38.96  0.001542595    1.279    0.218
        10 -10.0975    120.1253      9.3683   1.6666436912e+01   5.3971115729e+01    0.3546807    0.3169465  -0.83  0.001048871    1.213    0.176
        11 -10.8081    213.5699      5.1033   4.2145098197e+00   3.0453545815e+01    0.2740603    0.2062596 -57.58 0.0004551327    1.150    0.131
        12  -9.8546    181.4991      3.8562   6.4889347396e+00   3.8439149078e+01    0.4756222    0.3366511  37.54  0.002515583    1.733    0.423
        13 -12.0108    245.5572      2.4317   1.5880578236e+00   2.3621854828e+01    0.6223038    0.1772151  64.24  0.002610572    3.567    0.720
        14 -10.6652    232.9895      3.5007   2.5470453578e+00   2.6204348542e+01    0.3695776    0.2209523  56.50  0.002040634    1.977    0.494
        15 -10.9312    238.0142      1.3946   1.7659947260e+00   2.5321316591e+01    0.2815754    0.1444705  77.26 0.0004526075    1.964    0.491
        16  -9.2561     61.0581    148.2741   7.5996395597e+01   3.7460831327e+01    0.3125426    0.2530909 -25.22  0.001627378    1.660    0.398
        17 -11.1982    248.4378    248.3149   5.1433566680e+01  -7.5330621671e+00    0.3862875    0.2829275  15.13  0.003127468    1.190    0.160
        18  -8.9951    214.9860    250.5303   5.7147235765e+01  -3.7476594988e+00    0.1553705   0.07053022  18.26 0.0004664044    2.397    0.583
        19  -7.9562    217.3500    213.6680   5.1245653172e+01   1.8008819726e-01    0.1033535   0.09308338  53.59 0.0007047854    1.773    0.436
        20  -9.2552    192.1671    212.8324   5.5647052208e+01   3.9657294286e+00    0.1992097    0.1652099  21.80 0.0004699611    1.086    0.079
        21  -9.2467    247.9192    211.3069   4.5788909017e+01  -3.6613413006e+00    0.2024536    0.1632529  40.36  0.001445362    1.785    0.440
        22  -8.9608    211.0127    209.0127   5.1599418516e+01   1.6825136242e+00    0.2054641    0.1534986  55.30  0.001224704    2.119    0.528
        23  -9.6298    206.8224    205.9146   5.1837838627e+01   2.7105802326e+00    0.2680352    0.2140227  59.83  0.000991678    2.039    0.510
        24  -9.2339    242.0283    207.2483   4.6050629941e+01  -2.4307111058e+00    0.2543649    0.1622823  17.25  0.001096286    1.339    0.253
        25  -9.6027    248.3351    201.4742   4.4064649169e+01  -2.5955706623e+00      0.31766    0.1893097  39.80  0.001403755    1.875    0.467
        26 -10.0177    242.5559    199.4858   4.4641557035e+01  -1.5863927736e+00    0.5009009    0.2237387  45.88  0.002449377    2.993    0.666
        27  -8.4529    233.1619    200.9536   4.6430365469e+01  -4.6750765745e-01    0.1623532    0.1358075 -51.60  0.001063086    2.023    0.506
        28 -10.5209    199.5804    198.7157   5.1952343591e+01   4.8101348826e+00    0.5829505    0.3945425  63.74  0.002822072    3.053    0.672
        29 -10.8341    192.7555    194.2476   5.2468703675e+01   6.5404670050e+00    0.8339477    0.4562394 -59.96  0.003069804    5.057    0.802
        30  -9.3273    122.1001    195.3956   6.7376928878e+01   1.7969015095e+01    0.1952068    0.1818788 -88.95 0.0002786201    1.206    0.171
        31  -9.4042    133.0458    247.0114   7.1483654318e+01   7.7721305018e+00    0.3268346    0.1905396  66.58  0.001467697    3.001    0.667
        32 -11.6558     67.8734    142.8433   7.3281755568e+01   3.7848267207e+01    0.9257923    0.6209416 -89.37  0.004579436    1.633    0.388
        33  -8.5447    107.1734    246.2095   7.6355792897e+01   1.1450811372e+01    0.1590031    0.1213397  36.53 0.0002840095    1.112    0.101
        34  -8.6126     32.8515    241.1313   9.0181734532e+01   2.1388506196e+01     0.130936     0.126325 -12.68 0.0005503887    1.622    0.383
        35  -8.5044     94.8934    143.3067   6.5760064601e+01   3.3575032070e+01    0.1953359    0.1832562  47.43 0.0003371021    1.074    0.069
        36  -9.4147     80.3416    137.3953   6.8801924383e+01   3.7330016488e+01    0.2567597    0.2207997  81.90 0.0005111854    1.148    0.129
        37 -11.6727     22.5645    134.9275   8.5470184817e+01   4.4920114523e+01    0.5563213    0.2758603 -84.34  0.001244792    1.864    0.464
        38 -11.6496     21.0114    118.5000   8.4226868779e+01   4.9098660548e+01     0.594443    0.3198336 -27.31  0.002653087    2.940    0.660
        39 -13.2127      7.4138    127.3771   8.9264267756e+01   4.7925504209e+01     1.126771     0.710731 -81.68  0.004465468    1.323    0.244
        40 -12.5199     66.4790    122.5173   7.0295430966e+01   4.3034307450e+01     1.670366     1.411466 -60.83  0.009302222    1.151    0.131
        41 -11.8046     54.8409    124.0446   7.4216102278e+01   4.4212082392e+01    0.7047924    0.4053009 -62.14   0.00148673    1.606    0.377
        42 -13.3502     46.2740    122.9270   7.6746363283e+01   4.5522351566e+01     1.079666     1.047966 -23.94  0.001563903    1.214    0.176
        43 -11.8404     38.1342    123.9514   7.9467084620e+01   4.6155551894e+01    0.5718076    0.3225548  35.46 0.0009192558    1.814    0.449
        44  -8.3349    126.3056    127.3268   5.3949455380e+01   3.1410844046e+01    0.1530276    0.1215609  -6.19 0.0004888118    1.649    0.394
        45 -10.2019    211.3030    159.0334   4.2372804153e+01   8.7889476871e+00    0.4863566     0.353515 -71.05  0.002276659    2.784    0.641
        46  -8.3451     93.1153    117.1796   6.0975217780e+01   4.0084436974e+01    0.2079786    0.1707121  68.71 0.0005454831    1.316    0.240
        47  -8.3195    114.2749    113.6671   5.3959715634e+01   3.6895483934e+01    0.1540547    0.1209687  89.25 0.0006992884    1.599    0.375
        48 -10.7236    123.5838    110.7269   5.0644049901e+01   3.5640332986e+01    0.6352797    0.2316411  40.29   0.00196568    2.888    0.654
        49 -11.5621    123.1891    103.7970   4.8933623166e+01   3.7246640013e+01    0.8191763    0.6123507  81.00   0.00362292    1.813    0.448
        50  -8.8450    109.0003    107.4705   5.3911518786e+01   3.9364973165e+01    0.2348307     0.151186  40.57 0.0005068037    1.571    0.363
        51 -10.3874    142.0308    101.9911   4.3536498937e+01   3.3468853603e+01    0.3923849    0.3261701 -73.85  0.001066773    1.412    0.292
        52  -8.9073     75.7757     98.7359   6.2179768812e+01   4.7485108603e+01    0.3193337    0.1833485 -57.35  0.001389227    1.679    0.404
        53  -9.7077    140.0105     94.8084   4.2041208401e+01   3.5395906174e+01    0.4616954    0.2216065 -44.63  0.001523921    2.088    0.521
        54  -9.1711    118.0536     91.1712   4.6835138160e+01   4.1097395835e+01    0.2796194    0.2273281 -45.40 0.0005645545    1.224    0.183
        55 -10.5573    231.9078    240.0031   5.2853906327e+01  -4.7497696583e+00     0.255869    0.1301178  34.10 0.0009809255    1.694    0.410
        56  -8.6453    140.1355    161.1723   5.7584666363e+01   2.1554242885e+01    0.2077402    0.1894424  -9.63  0.001176494    1.186    0.157
        57  -9.3286    239.0998    181.8196   4.2042197398e+01   1.1002324365e+00     0.200176     0.157214  42.13 0.0007267012    1.595    0.373
        58  -9.4468    139.7713     78.9628   3.7416560207e+01   3.8579713554e+01    0.2406473    0.2127717   1.56  0.001127597    1.282    0.220
        59  -8.0192    101.9982     78.9615   4.7929948238e+01   4.7159795125e+01    0.1856056    0.1607766 -44.56 0.0003108272    1.139    0.122
        60  -8.1597     57.4860     78.0860   6.3473425659e+01   5.5226368908e+01    0.2083847    0.1322117 -56.66 0.0003896302    1.467    0.318
        61  -7.9851     89.6246     76.5288   5.1201744433e+01   5.0183818060e+01    0.1492191    0.1408397 -41.01 6.323088e-05    1.032    0.031
        62  -7.9643     65.5964    180.5181   7.8736717289e+01   2.9436103278e+01    0.1277015    0.1127714  68.05 0.0002720858    1.050    0.047
        63 -11.1110    180.2746    174.9409   5.1441409809e+01   1.1694288404e+01    0.5630715    0.2638819 -42.90  0.002499712    2.299    0.565
        64  -9.9685    137.8925     71.1975   3.5438431519e+01   4.0493460249e+01    0.4192311    0.2181437  63.88  0.001526108    2.388    0.581
        65  -8.3259     84.6890     65.0719   4.9119242603e+01   5.3602605164e+01     0.227043    0.1277014 -36.28 0.0009373238    1.878    0.468
        66  -8.9016    134.4637     64.0781   3.3950950070e+01   4.2626043375e+01    0.2345094    0.1518679 -36.44  0.001017978    1.554    0.356
        67  -7.8446     58.3471     63.2876   5.8677806497e+01   5.8521616397e+01    0.1451292    0.1057932 -16.94 0.0004359803    1.656    0.396
        68  -8.1442    120.6105     60.7693   3.6380840852e+01   4.6589099320e+01    0.2297607    0.1385149 -47.98   0.00095345    1.765    0.433
        69 -15.1274    239.5027    114.5382   2.8187346265e+01   1.0449560087e+01     3.345941    0.8876766 -43.75  0.002147373    4.473    0.776
        70 -10.2534    144.5176     59.6456   3.0146424421e+01   4.0883713909e+01    0.3175498    0.2835909  53.13 0.0006283696    1.113    0.101
        71  -9.6335    140.0309     57.0070   3.0271936890e+01   4.2457054325e+01    0.2291654     0.218068 -71.26 0.0004306283    1.070    0.065
        72 -10.0844    135.2425     59.6753   3.2286516541e+01   4.3205168845e+01    0.2967164    0.2670595 -24.56  0.001312263    1.154    0.133
        73  -8.0143     72.5769     59.2066   5.1543041324e+01   5.7082322259e+01    0.2145312    0.1284775 -34.98 0.0009431811    1.753    0.429
        74  -9.6880    153.4894     56.9067   2.7355210458e+01   3.9055718468e+01    0.2813654    0.1544427 -27.47 0.0004588074    1.990    0.497
        75 -11.0472    155.0335     50.2974   2.4904441807e+01   3.9692310570e+01    0.5611809    0.3664499 -15.20  0.001772508    1.912    0.477
        76 -11.6891    163.0292     49.8646   2.3281888649e+01   3.7698207035e+01    0.7145401    0.3609498  62.56  0.002116865    1.980    0.495
        77  -8.1132    103.3657     54.7792   3.9189671804e+01   5.1699529753e+01    0.2108676    0.1411992 -26.24 0.0007510275    1.657    0.396
        78 -10.4471    151.1989     47.4249   2.4699846696e+01   4.1115098650e+01    0.3107542     0.256773 -53.02  0.001023916    1.236    0.191
        79 -10.3924    222.9135    236.1165   5.3768037798e+01  -3.2001696842e+00    0.2678004    0.1870725  53.86  0.001411744    2.776    0.640
        80  -8.2035    164.5668     40.4814   2.0026077516e+01   3.8641152838e+01    0.1456852    0.1401498 -79.15 0.0001033341    1.013    0.013
        81 -10.1362    134.2328     40.8832   2.5933955307e+01   4.6462892602e+01    0.3579734    0.2003895 -62.69   0.00131629    2.704    0.630
        82  -9.2093    178.0190     37.9953   1.7181142434e+01   3.5503936098e+01    0.2118868    0.2020755 -78.12  0.001216026    1.027    0.026
        83 -10.6808    148.8666     32.8704   2.0190860515e+01   4.3762903345e+01    0.5949277     0.310792  -8.99  0.002150919    3.026    0.670
        84  -8.5305    148.1945    174.8763   5.8255381198e+01   1.7420170550e+01    0.2003892    0.1808044  63.11 0.0004099185    1.237    0.191
        85  -9.9268    179.7205     24.1050   1.2743909525e+01   3.6783362019e+01    0.5005835    0.3517546  77.23  0.002568234    1.388    0.280
        86  -9.5891    189.1654     21.4576   1.0861942997e+01   3.4683185230e+01    0.2883334    0.2137598  20.43 0.0009499699    1.815    0.449
        87 -10.2755    245.4871    233.5841   4.9714235025e+01  -5.7422197237e+00     0.236843       0.1363  33.04  0.001592813    1.610    0.379
        88  -8.6417    234.9026    226.1376   5.0268255686e+01  -3.6398705041e+00    0.1569671    0.1252953  15.73 0.0004483265    1.221    0.181
        89  -8.6845    224.8762    218.7672   5.0774672384e+01  -1.4791844353e+00    0.2301565    0.1358767  50.72  0.001215594    2.862    0.651
        90  -8.6569    151.2610     19.3068   1.5095406430e+01   4.4765662452e+01    0.2492881    0.1777312  -4.86 0.0006213457    1.721    0.419
        91  -9.6345    238.6418    217.7498   4.8328821353e+01  -3.1877114197e+00    0.2010578    0.1592604  16.97 0.0007267366    1.214    0.176
        92 -10.2971     34.0498    217.5354   8.8742475961e+01   2.5558158445e+01    0.2460638    0.2017017 -40.72   0.00133133    1.864    0.464
        93  -8.4231    109.3678    215.3440   7.2708187633e+01   1.6266635785e+01    0.2215406    0.1388392  83.31 0.0008038831    2.426    0.588
        94  -8.2794    227.4519    206.4598   4.8323999029e+01  -3.4678105649e-01    0.1622413    0.1027042  40.74 0.0005435855    1.729    0.421
        95  -9.9836    238.0588    211.8233   4.7456290039e+01  -2.4345287777e+00    0.2177427    0.1763445  15.15  0.000412536    1.211    0.174
        96  -9.5774    234.0395    209.9724   4.7809576484e+01  -1.6790995455e+00    0.1864082    0.1364492  22.92 0.0003446184    1.203    0.169
        97  -9.4271    230.7397    208.3620   4.8089866295e+01  -1.0358077192e+00    0.1872836    0.1648958  -8.03 0.0004312722    1.341    0.254
