#   1 NUMBER                 Running object number                                     
#   2 MAG_AUTO               Kron-like elliptical aperture magnitude                    [mag]
#   3 X_IMAGE                Object position along x                                    [pixel]
#   4 Y_IMAGE                Object position along y                                    [pixel]
#   5 X_WORLD                Barycenter position along world x axis                     [deg]
#   6 Y_WORLD                Barycenter position along world y axis                     [deg]
#   7 A_WORLD                Profile RMS along major axis (world units)                 [deg]
#   8 B_WORLD                Profile RMS along minor axis (world units)                 [deg]
#   9 THETA_WORLD            Position angle (CCW/world-x)                               [deg]
#  10 FWHM_WORLD             FWHM assuming a gaussian core                              [deg]
#  11 ELONGATION             A_IMAGE/B_IMAGE                                           
#  12 ELLIPTICITY            1 - B_IMAGE/A_IMAGE                                       
         1 -13.2048    172.2367     53.9876   6.0457591071e+01   3.5210521160e+01     2.015004     1.303511  26.27  0.005845021    2.124    0.529
         2 -13.3749    187.0235     39.9133   5.3679201795e+01   3.3432789482e+01     1.025968    0.9625086 -62.96  0.003266483    1.052    0.049
         3 -12.9040    191.6653     33.8623   5.1221607863e+01   3.3038287465e+01    0.6742146    0.6057747 -53.44  0.001531545    1.103    0.093
         4 -12.5473    198.4429     23.3211   4.7319251357e+01   3.2604423986e+01    0.6518684    0.4727745  79.08  0.002481687    1.325    0.245
         5 -13.8887    210.1915      8.5817   4.2033575240e+01   3.1289039801e+01      1.18545     1.123341  15.64  0.004169207    1.297    0.229
         6 -12.4290    192.6591     15.3103   4.5783494623e+01   3.4994735413e+01     1.027364    0.4873919  61.10   0.00451682    1.913    0.477
         7 -10.4408    244.4669      1.6040   3.7459805600e+01   2.3884708257e+01    0.3386288    0.1109282  75.61  0.001386148    2.948    0.661
         8 -11.2435     57.8555    214.2720   1.2083920491e+02   2.3496640243e+01    0.2251576    0.1443171  62.84 0.0005558034    1.275    0.216
         9 -12.3882    247.9207    222.3258   8.5756229014e+01  -8.0877917341e+00    0.5117554     0.270076 -35.18  0.002909939    2.110    0.526
        10 -12.7069    247.5352    245.7508   8.9657416919e+01  -1.0610875382e+01    0.9227346    0.5790231  -5.59  0.006134582    1.570    0.363
        11 -11.6239    150.9836    196.1493   9.9653666065e+01   1.2345190130e+01    0.3644347    0.3294961 -89.48  0.002055611    1.241    0.194
        12 -11.4135     63.4933    195.8185   1.1803426994e+02   2.6485859313e+01    0.3389014    0.2184919 -47.82  0.001366624    2.134    0.531
        13  -9.2152     82.6402    195.4408   1.1401171822e+02   2.3905288444e+01    0.2893062    0.1783022  76.77  0.001528496    1.747    0.428
        14  -9.5818     79.0658    193.8410   1.1457936746e+02   2.4755739366e+01    0.2244393     0.141732  62.29 0.0004367586    1.466    0.318
        15  -8.5671    159.3309    194.6657   9.7671758837e+01   1.1085333656e+01    0.1386555     0.103719  72.85 0.0007052165    1.728    0.421
        16  -9.4981    156.6169    190.2342   9.7485564638e+01   1.2400769900e+01    0.1751696     0.130793 -34.36 0.0003370937    1.570    0.363
        17 -10.9986    150.7504    188.7654   9.8475182903e+01   1.3768215709e+01    0.3870104    0.1869154 -59.44  0.001562143    2.808    0.644
        18 -10.0613     38.9695    212.6302   1.2424557774e+02   2.6098389405e+01    0.1951023   0.08571016  50.96  0.001087768    1.851    0.460
        19  -9.5962    238.2938    185.6495   8.0701644462e+01  -1.8171253044e+00    0.1161468    0.1049765 -63.97 0.0003816629    1.677    0.404
        20 -10.1014    153.2806    184.2634   9.7157307281e+01   1.4152005259e+01    0.2724831    0.1719236 -73.71  0.001169145    2.554    0.609
        21 -19.1173     21.8593    102.9442   1.1693203948e+02   5.2119641965e+01     16.26498    0.8478974 -68.20   0.02827107   14.689    0.932
        22  -9.8915    188.9946    178.4359   8.8608313592e+01   8.3513142853e+00    0.4245994    0.3262601  79.22  0.001272842    1.999    0.500
        23  -9.7092    187.9463    173.6549   8.7878124182e+01   9.3991206624e+00    0.3974828    0.2616203 -68.92  0.001677955    2.709    0.631
        24 -11.7089     52.6589    209.1530   1.2140325285e+02   2.5155283300e+01    0.1892322    0.1507832  66.97 0.0003273317    1.086    0.079
        25 -12.1433     48.1388    206.1142   1.2202225790e+02   2.6313023215e+01    0.3407359    0.1585469  54.00  0.001525485    1.823    0.452
        26  -8.2572     63.3399    170.2770   1.1524555064e+02   3.2039781297e+01    0.1166339   0.09985358 -35.22 0.0005668418    1.618    0.382
        27  -9.5843    240.5037    169.4712   7.7069342249e+01   1.6114689253e-01    0.1335069    0.1161718  -0.68 -4.433302e-05    1.025    0.025
        28 -11.3704     70.5472    207.0124   1.1771869204e+02   2.3257282096e+01    0.4781853    0.2813582  24.73  0.001548804    2.627    0.619
        29  -8.9883    186.8100    165.3969   8.6433013505e+01   1.1116874309e+01    0.2685506    0.1108344 -44.23  0.001007294    2.576    0.612
        30 -11.0638     92.7581    157.8767   1.0651680913e+02   3.0583568590e+01    0.2659864      0.24146 -77.28 0.0004175338    1.082    0.076
        31  -8.8517    149.4284    156.2332   9.2685544624e+01   2.0533571057e+01    0.2126167    0.1419885 -61.86 0.0009520435    1.765    0.433
        32 -10.7243    134.4796    148.5018   9.4600444778e+01   2.5187291889e+01    0.7339936    0.2941166 -58.17  0.002405539    3.247    0.692
        33 -10.5438    133.5047    143.0064   9.3679094409e+01   2.6591022930e+01    0.7924861    0.2682084 -57.69  0.002190327    4.454    0.775
        34 -11.8610     98.2382    151.2574   1.0403989483e+02   3.1209541373e+01    0.6059127    0.4294861 -37.62    0.0029898    1.767    0.434
        35 -10.0490    113.3128    151.2420   1.0030143797e+02   2.8592602205e+01    0.3533211    0.2265355  73.61  0.001264152    2.140    0.533
        36  -9.4646    174.8482    149.1213   8.5479410723e+01   1.6692037017e+01    0.2300991     0.207629  87.26  0.000723002    1.292    0.226
        37 -10.8768    193.4047    195.7914   9.0989882387e+01   4.6056873446e+00    0.8447348    0.4448444 -62.41  0.002771911    5.366    0.814
        38  -8.9689     92.5337    146.9832   1.0471638154e+02   3.3137565655e+01    0.2205742    0.1325613 -60.39  0.001033477    1.598    0.374
        39 -11.5457    109.0051    138.4509   9.8870461585e+01   3.2301526165e+01     0.671881    0.4527812 -45.03  0.003187227    1.558    0.358
        40 -10.9583    106.1032    130.8689   9.8045983733e+01   3.4584527183e+01    0.4116403    0.3540743 -85.12  0.001379285    1.198    0.165
        41 -11.8097     97.4889    137.2383   1.0161905524e+02   3.4597993092e+01    0.3101333    0.2776111 -75.68 0.0004130334    1.053    0.050
        42 -10.6568    135.6550    127.3582   8.9621267933e+01   2.9619167704e+01    0.7017711     0.144439 -48.42  0.001724388    4.996    0.800
        43  -9.9295    161.8670    128.5886   8.3621172610e+01   2.3683524315e+01    0.4440493    0.2607256  64.10  0.001675037    2.364    0.577
        44 -10.5405    103.5337    124.5683   9.7365015491e+01   3.6514547565e+01    0.2773243    0.2413495 -20.06  0.001461966    1.377    0.274
        45 -10.1092    120.8507    122.8745   9.2354460628e+01   3.3639719717e+01    0.4802444    0.2829719 -20.78  0.001577671    3.613    0.723
        46  -9.5133    152.4313    119.4150   8.3562878381e+01   2.7713082680e+01    0.3358773    0.2471648 -68.72  0.001249245    1.698    0.411
        47 -10.2816    115.6383    128.7901   9.5081312701e+01   3.3299254248e+01    0.3118157    0.2797197 -15.92 0.0007367712    1.313    0.238
        48  -9.4611    110.8773    118.0935   9.3885262418e+01   3.6664807448e+01    0.2187995    0.2115422 -70.02 0.0003931366    1.013    0.012
        49  -9.8633    231.1685    113.7136   6.6195979598e+01   1.0959542050e+01    0.2525674     0.242791 -38.20 0.0008519808    1.082    0.076
        50  -9.4423    167.7658    112.6658   7.8266841686e+01   2.5610728757e+01    0.3817859      0.25782 -88.09  0.001426568    2.603    0.616
        51 -11.3466    119.2890    109.9782   8.9596898460e+01   3.6868461069e+01    0.5479354    0.4013924  61.80  0.002354808    1.572    0.364
        52  -9.6918    205.3875    110.2073   6.9880039337e+01   1.7304984459e+01    0.3320346    0.2141437  41.51  0.001145859    1.643    0.391
        53 -10.1316    134.6304    105.8661   8.4457453063e+01   3.4555365218e+01    0.6481007    0.1437372 -46.64  0.001622594    4.602    0.783
        54  -9.8885     75.3648    248.3616   1.2041917785e+02   1.5019304304e+01    0.2729144   0.07954543 -59.64  0.001266971    3.919    0.745
        55  -9.5266    186.0105     85.8212   6.7117683286e+01   2.6362093958e+01    0.2805357    0.2293434 -35.42  0.001023741    1.208    0.172
        56 -10.9507     71.9246    245.1515   1.2076520791e+02   1.6020231382e+01    0.2143511     0.162724 -73.82  0.001096934    1.501    0.334
        57 -18.0350     35.2605    240.9247   1.2668017763e+02   2.1278629840e+01      6.49317     5.480501  48.21   0.05030409    1.494    0.330
        58  -9.1452    167.7827    231.0139   1.0160448917e+02   3.5941529760e+00    0.2203967     0.164148   9.17 0.0009078133    1.673    0.402
        59 -11.1023     61.0049    203.6882   1.1929565592e+02   2.5194758622e+01    0.2009778    0.1606935  78.52 0.0006107745    1.050    0.047
        60 -10.4538     62.1221    220.2285   1.2053462929e+02   2.1801756727e+01    0.1714828    0.1337991  74.94  0.001020414    1.061    0.057
        61  -9.1917     87.8054    202.6031   1.1376409616e+02   2.1681870107e+01    0.1801036    0.1491449  36.60 0.0007281101    1.385    0.278
