#   1 NUMBER                 Running object number                                     
#   2 MAG_AUTO               Kron-like elliptical aperture magnitude                    [mag]
#   3 X_IMAGE                Object position along x                                    [pixel]
#   4 Y_IMAGE                Object position along y                                    [pixel]
#   5 X_WORLD                Barycenter position along world x axis                     [deg]
#   6 Y_WORLD                Barycenter position along world y axis                     [deg]
#   7 A_WORLD                Profile RMS along major axis (world units)                 [deg]
#   8 B_WORLD                Profile RMS along minor axis (world units)                 [deg]
#   9 THETA_WORLD            Position angle (CCW/world-x)                               [deg]
#  10 FWHM_WORLD             FWHM assuming a gaussian core                              [deg]
#  11 ELONGATION             A_IMAGE/B_IMAGE                                           
#  12 ELLIPTICITY            1 - B_IMAGE/A_IMAGE                                       
         1 -15.2301    107.2796     60.9823   3.4040786626e+01   4.8882897283e+01     2.891501      2.01909 -42.37   0.01263961    1.571    0.364
         2 -15.9231    142.0676     59.1336   2.4838317851e+01   4.1246000890e+01     3.052083     1.957866  40.02   0.01087377    1.647    0.393
         3 -15.5004    127.6649     22.6456   1.6918998117e+01   4.9300084650e+01     3.882632     2.483319 -78.37   0.01888803    2.250    0.555
         4 -13.4099     30.3505     33.4502   5.2670875633e+01   6.6261503704e+01    0.8222811    0.5621994 -62.10  0.004246024    2.744    0.636
         5 -12.9392     38.1068     63.9749   5.9678879963e+01   6.0010356220e+01     1.405174    0.3740905 -43.45   0.00509409    3.335    0.700
         6 -11.5976    248.5072     20.4953   1.7867886913e+00   2.2452055540e+01     0.380003    0.3188257  -7.67  0.002644573    2.028    0.507
         7 -12.9197     20.7900      4.2019   4.4676693231e+01   7.1383322158e+01    0.5953797    0.4213326  25.21  0.003775553    1.330    0.248
         8 -12.5150     23.8292     17.4826   4.9279572751e+01   6.9347292960e+01    0.3634605    0.2814771 -17.73  0.002478984    1.192    0.161
         9 -12.3216     28.1527     11.3344   4.4343046919e+01   6.9618214011e+01    0.5090178    0.3028198  -6.14  0.003057352    1.690    0.408
        10 -11.6165      1.9374      6.0689   5.6199248928e+01   7.3054715389e+01    0.4684948    0.1379075 -49.16  0.001926402    4.800    0.792
        11 -12.3284     52.2894      4.2069   3.0534994434e+01   6.6741579488e+01    0.6118621    0.3882994  59.15  0.003491059    2.148    0.535
        12 -10.0348     46.1469    223.3672   8.4122263310e+01   2.1863345786e+01    0.2421496    0.1390937  84.87 0.0006676501    1.870    0.465
        13 -11.5860     80.1039    249.7763   7.9325076219e+01   1.1944234172e+01    0.4085251    0.2251577  26.34  0.002045806    2.034    0.508
        14 -12.0902     75.2839    246.5577   8.0023835417e+01   1.3241396437e+01    0.4697747    0.3187953 -68.90  0.002785191    1.627    0.386
        15 -11.1583     71.9751    242.2870   8.0308631109e+01   1.4546273330e+01    0.2689135    0.1819384 -74.19 0.0005065929    1.602    0.376
        16 -10.7977     46.0409    250.4800   8.6370286393e+01   1.6263244257e+01    0.3972407    0.1125847  41.49  0.001737801    2.604    0.616
        17 -14.9740     75.9198    219.6888   7.7022839275e+01   1.8746513919e+01     1.933215     1.393675 -64.44   0.01027999    1.465    0.317
        18 -15.4925     70.2602    161.1297   7.0336396428e+01   3.3414030957e+01     3.699052     2.914788  81.71   0.01919629    1.398    0.285
        19 -13.3111      8.9532    229.5246   9.2327220024e+01   2.4583410368e+01    0.5038614    0.3492894  27.41  0.001880875    1.715    0.417
        20 -16.6536     28.2657    191.1761   8.5263471931e+01   3.1182928191e+01     4.046646     2.489301 -78.63   0.02220987    1.484    0.326
        21 -14.3079     17.9052    165.1995   8.5303151375e+01   3.8369559478e+01       1.4323    0.5902233  49.39  0.006298664    2.609    0.617
        22 -15.2899      8.5770    220.8115   9.1884864475e+01   2.6455815908e+01     1.413229    0.7638155  27.59  0.005525817    2.095    0.523
        23 -13.9680      9.9385    206.5103   9.0675376946e+01   2.9446951613e+01    0.7813217    0.5499925   3.28   0.00355948    2.184    0.542
        24 -14.0868    175.2372    214.3478   5.3363711502e+01   3.7553777320e+00      1.53191    0.9252844  37.11  0.005724404    1.542    0.351
        25 -12.9847    183.9342    212.0756   5.1099565997e+01   2.7307505890e+00    0.6143732    0.5409123  24.80  0.002390222    1.110    0.099
        26 -13.3413    203.7466    154.8905   3.5768576252e+01   1.0012722272e+01    0.9764159     0.667431 -21.96  0.004713246    1.660    0.398
        27 -14.8060    201.4890    194.1491   4.4138374085e+01   3.0666839863e+00     2.027194     1.519463   0.73  0.007370625    1.413    0.292
        28 -13.2193    198.9428    169.7754   3.9823307972e+01   8.0592018386e+00     1.010265    0.5077384 -52.47  0.004077326    2.421    0.587
        29 -10.8132     99.0198    180.7993   6.5793284511e+01   2.4142313533e+01    0.2480536    0.2178383 -62.86 0.0006733692    1.167    0.143
        30 -12.8548     61.2700    146.5181   7.0462452270e+01   3.8293837408e+01     0.825909    0.4831905 -24.67  0.003119376    2.675    0.626
        31 -12.5047    215.2581    143.3895   3.1181371447e+01   1.0006335029e+01    0.5584916    0.4433112  83.57   0.00293598    1.760    0.432
        32 -14.7343     49.0291    206.2557   8.1823211889e+01   2.5334051887e+01     1.774442     1.022962  62.88  0.007255069    1.787    0.440
        33 -13.1213      2.0803    246.6574   9.4526314954e+01   2.1785326914e+01    0.3352896    0.1854495 -83.67 0.0005412533    1.623    0.384
        34 -11.3468     45.6147    135.1507   7.3274936010e+01   4.3046503674e+01    0.4990607    0.2308021 -64.28  0.002110584    2.020    0.505
        35 -14.0653    208.7491    117.1527   2.6626388352e+01   1.6100195386e+01     2.545431     0.909251 -34.92  0.008659894    3.194    0.687
        36 -11.3901     84.6327    133.0240   6.0723024223e+01   3.8157224671e+01    0.2710072    0.2486199 -45.63 0.0003890863    1.069    0.065
        37 -13.8570    228.7764    128.3660   2.5720060535e+01   1.0191234489e+01     1.153851    0.6498215  37.63  0.005436054    2.198    0.545
        38 -13.0216    236.9300    118.1622   2.2349159421e+01   1.0450584205e+01    0.5904685    0.3064564 -42.51  0.002856759    1.685    0.407
        39 -13.3022    144.9653    126.1326   4.2155540286e+01   2.8021265965e+01    0.9311872    0.5834028 -35.05  0.003930991    1.750    0.429
        40 -11.5154     32.1054    125.1250   7.5867583426e+01   4.6909899829e+01    0.4277272    0.3423203  45.54  0.002189005    1.392    0.282
        41 -12.0969    247.4694    123.1043   2.1834757631e+01   7.7408810592e+00    0.3641341     0.324154 -74.18  0.002371309    1.241    0.194
        42 -12.7045    176.7898    116.8206   3.2613888843e+01   2.2967247361e+01    0.9910317    0.6662881 -40.98   0.00418486    1.472    0.321
        43 -10.6050     95.3097    122.1117   5.4967773188e+01   3.8923757624e+01    0.2718849    0.2087233  12.78 0.0006483258    1.524    0.344
        44 -11.3491     35.1579    117.2780   7.3490702883e+01   4.8518185069e+01    0.4515721    0.2743621  88.38  0.002031351    2.349    0.574
        45 -14.5975      8.6395    239.1353   9.2925798784e+01   2.2645311792e+01     1.297073    0.6262493  65.93  0.007387464    1.810    0.448
        46 -10.1661      5.4976    110.5018   8.2324743788e+01   5.2430959638e+01    0.1256529    0.1049931 -60.87 0.0008106625    1.012    0.012
        47 -13.6322     88.1592     90.4687   4.8945095165e+01   4.7241717954e+01     1.801952    0.9920769 -37.67  0.006717883    1.902    0.474
        48 -10.4963     34.1972    248.9619   8.8597409875e+01   1.7961770635e+01    0.2039841    0.1452552  46.76 0.0009541282    1.220    0.180
        49 -12.5064     45.9991    240.9112   8.5637173759e+01   1.8184451816e+01    0.6968891    0.4467418  37.79  0.003940498    1.450    0.310
        50 -11.7211      1.9800     66.4159   7.5794649358e+01   6.2432466824e+01    0.3375728    0.1632991 -67.04  0.001612325    2.061    0.515
        51 -11.5238    243.7266     65.3309   1.0741705087e+01   1.7528474180e+01    0.2989971    0.2487386 -53.01  0.001992838    1.120    0.107
        52 -11.9144    200.4183     59.5852   1.4802104215e+01   2.7471968483e+01    0.2719654    0.2471292 -81.95  0.000775137    1.044    0.043
        53 -10.2920     13.3398     60.0243   6.9282757315e+01   6.3049801979e+01    0.1732128    0.1325938 -41.60  0.000462628    1.110    0.099
        54 -13.8810    211.9371     51.9244   1.1577814542e+01   2.6004414214e+01    0.8330494    0.7477127  53.56  0.004304744    1.335    0.251
        55 -13.9016    223.1592     44.3772   8.6870200498e+00   2.4614213219e+01    0.7296245    0.6813961  58.68  0.002074428    1.356    0.262
        56 -12.3936      4.3162     76.6889   7.6993066011e+01   6.0137526985e+01    0.5091375    0.2671166 -31.35  0.002758743    1.799    0.444
        57 -13.4470     15.6099     71.4682   7.1202233690e+01   6.0547737155e+01    0.8320401      0.50245  16.84  0.004394553    1.775    0.437
        58 -10.8347     37.8390    239.6281   8.7207812725e+01   1.9418008484e+01    0.2632357    0.2184423 -86.14 0.0009273387    1.216    0.177
        59 -11.9640     55.5205    239.6344   8.3549507405e+01   1.7259835817e+01     0.455799    0.2932857  21.69  0.002208138    1.960    0.490
        60 -13.7905     59.5901    231.7886   8.1963623378e+01   1.8366442885e+01    0.8474884    0.7373345 -88.15  0.004719824    1.167    0.143
        61 -11.1546    249.5127     24.5334   2.4458423133e+00   2.1783501272e+01    0.3213315    0.1896347 -50.54  0.001710148    1.421    0.296
        62 -14.3858    237.8537    227.9332   4.3340697017e+01  -7.8341318790e+00     1.775998     1.104445  -2.23  0.008817913    1.652    0.395
        63 -13.8207    233.5366    204.3616   3.9930164402e+01  -3.6506593590e+00     1.477116    0.5061142 -45.24  0.005794463    3.270    0.694
        64 -10.7985     28.1360    233.7346   8.8755150121e+01   2.1732673827e+01    0.3748342    0.1501275 -75.99  0.001381245    2.436    0.589
        65 -12.2372    198.0220    239.1867   5.2824199217e+01  -4.0267081506e+00    0.4766853    0.2406519  34.88  0.002408485    1.788    0.441
        66 -14.8937     64.2209    189.9344   7.6205922448e+01   2.7205170990e+01     2.098217     1.325975  74.87  0.009453083    1.872    0.466
