#   1 NUMBER                 Running object number                                     
#   2 MAG_AUTO               Kron-like elliptical aperture magnitude                    [mag]
#   3 X_IMAGE                Object position along x                                    [pixel]
#   4 Y_IMAGE                Object position along y                                    [pixel]
#   5 X_WORLD                Barycenter position along world x axis                     [deg]
#   6 Y_WORLD                Barycenter position along world y axis                     [deg]
#   7 A_WORLD                Profile RMS along major axis (world units)                 [deg]
#   8 B_WORLD                Profile RMS along minor axis (world units)                 [deg]
#   9 THETA_WORLD            Position angle (CCW/world-x)                               [deg]
#  10 FWHM_WORLD             FWHM assuming a gaussian core                              [deg]
#  11 ELONGATION             A_IMAGE/B_IMAGE                                           
#  12 ELLIPTICITY            1 - B_IMAGE/A_IMAGE                                       
         1  -9.9578    229.7952      4.2141   4.1210502217e+01   2.6647423559e+01    0.4203029    0.2005176  35.20   0.00160546    3.532    0.717
         2  -8.0360    138.2615      3.6362   5.1638422488e+01   5.0404615425e+01    0.1449585    0.1017823 -52.64 0.0004728456    1.638    0.390
         3 -11.0129    113.8717    244.5874   1.1434647831e+02   1.2083306926e+01    0.3617369    0.2673389  18.66  0.002288026    1.950    0.487
         4 -11.6140    201.3086    219.5881   9.5967366301e+01   2.1506130453e+00     4.972793     1.831913 -24.52   0.01619317    7.014    0.857
         5 -11.3158    191.2390    245.8667   1.0132755833e+02   6.0312352693e-01    0.7105272    0.3742601  26.21  0.003972143    1.857    0.462
         6 -11.8390    203.7707    235.8190   9.7895792916e+01  -1.2835104549e-01     2.586667     1.009315 -21.44   0.00846154    8.090    0.876
         7 -11.5299    215.2779    222.9268   9.4084028255e+01  -4.0921605435e-01     1.660617      1.00678   4.08  0.009665657    2.015    0.504
         8 -12.0548    210.1649    247.5894   9.8443069104e+01  -2.3202811392e+00     1.244886    0.6690426  -7.15  0.006797287    3.050    0.672
         9 -12.7935    224.9834    244.4026   9.5621670748e+01  -4.0958528165e+00     1.677438    0.8268258 -28.67   0.01046848    2.401    0.583
        10 -12.6874    230.0090    195.6521   8.7105994600e+01   4.9515995310e-01     1.471488    0.8319861  -8.28  0.007657355    2.183    0.542
        11 -15.2576    246.3292     55.8151   5.3027739641e+01   1.6733198754e+01     12.03343     3.787678 -22.82   0.03766929    3.881    0.742
        12 -13.9884    247.8507    221.8058   8.8588014060e+01  -5.0857216663e+00     2.439775     0.703597 -24.82  0.009954883    4.604    0.783
        13 -12.0500    238.4034    218.2903   8.9534198768e+01  -3.3646247437e+00    0.5156857    0.3537333 -13.15  0.002124396    1.447    0.309
        14 -12.2583    248.7528    202.1339   8.5159460747e+01  -3.1634188452e+00    0.7478124    0.3349819 -12.58  0.003388216    3.154    0.683
        15 -12.3078    129.4918    235.3751   1.1072349790e+02   1.1166749107e+01     1.316965    0.8396984   4.27  0.006014419    4.416    0.774
        16  -9.9561    163.5575    223.9335   1.0327292042e+02   7.5689833961e+00    0.4936113    0.3767224 -11.47  0.003239347    1.755    0.430
        17 -10.1208    193.6586    216.6473   9.6864760494e+01   3.7350901773e+00    0.3585483    0.2605938 -12.82  0.001510254    1.610    0.379
        18  -9.7162    158.3521    229.5900   1.0493020234e+02   7.6044164403e+00     0.407735    0.2394952  19.48  0.002154329    2.452    0.592
        19 -10.2669    154.0134    225.7583   1.0522781710e+02   8.8143640461e+00    0.6508188    0.3324474 -30.19  0.003098104    3.623    0.724
        20 -10.6876    145.7500    231.0237   1.0735018748e+02   9.3459633424e+00    0.3891567    0.3452809  82.38  0.002941094    1.355    0.262
        21  -9.5415    172.2527    223.7103   1.0168346203e+02   6.2230051702e+00    0.6649044    0.3950333   5.80  0.003112128    3.365    0.703
        22 -10.4218    149.0044    238.2757   1.0761498036e+02   7.8488903140e+00    0.5796403    0.3732863  -1.17  0.002984098    3.432    0.709
        23  -9.6452    185.8730    219.9969   9.8736811264e+01   4.5475584083e+00    0.2556698    0.1947118 -16.05  0.001073399    1.554    0.357
        24  -9.7214    170.7534    233.1735   1.0319653318e+02   5.2107843634e+00    0.2912314    0.2332459   0.73  0.001153251    1.502    0.334
        25  -9.5015    174.3242    227.5576   1.0183422537e+02   5.3862015037e+00    0.2574789    0.1978325  -8.39  0.001201332    1.633    0.388
        26 -10.5424    177.0612    233.7922   1.0217848111e+02   4.1625053602e+00    0.4496145    0.2772274 -22.23  0.002297929    2.349    0.574
        27  -9.3921    184.1150    226.5342   9.9972427252e+01   3.9853113030e+00     0.414715    0.2097531  27.44  0.002169004    2.087    0.521
        28 -10.7622    160.4617    235.6378   1.0530284538e+02   6.4664307789e+00    0.7190287    0.3640342  25.15  0.003579096    2.657    0.624
        29 -10.4653    133.3059    245.5403   1.1111094501e+02   9.1782950345e+00    0.3485851    0.2749806   6.01  0.001663336    1.866    0.464
        30 -11.2022    137.6694    237.1013   1.0946833385e+02   9.7069960156e+00    0.6649389    0.4428421   0.61  0.003526869    3.274    0.695
        31 -11.2376    141.4672    247.0909   1.0987675097e+02   7.7851138042e+00    0.7489188    0.4301752  24.90  0.004306216    2.234    0.552
        32 -10.3318    152.1712    244.9013   1.0781363158e+02   6.5007657782e+00    0.6422274    0.3936639 -15.46  0.003329765    3.732    0.732
        33 -10.5546    156.6753    247.0530   1.0728624727e+02   5.5615042493e+00    0.4647821    0.3282531   4.46  0.003034111    2.124    0.529
        34 -11.0752    191.0203    232.7057   9.9626243883e+01   2.1571640348e+00    0.5165692    0.3640502  23.65  0.002667651    1.263    0.208
        35  -9.8249    190.6427    224.2821   9.8513470822e+01   3.2460851439e+00    0.3102029    0.2049299 -14.74  0.001380887    1.964    0.491
        36  -9.8593    163.5915    245.3602   1.0591842581e+02   4.7508671822e+00    0.2750922    0.2571965 -19.39  0.001154118    1.381    0.276
        37 -10.3782    169.5754    240.8371   1.0435821535e+02   4.4192601792e+00     0.393113    0.2756933   8.06  0.001526174    1.873    0.466
        38 -10.5420    168.2151    249.9811   1.0567313966e+02   3.5072965224e+00    0.5933906    0.2059415  35.24  0.002849516    2.556    0.609
        39 -11.0487    176.7816    244.5101   1.0358129014e+02   2.8950135868e+00    0.5046411     0.325695  14.27  0.002409121    1.936    0.484
        40 -10.6289    183.5900    237.8326   1.0158126825e+02   2.6720781577e+00    0.4370633    0.2777263 -16.11  0.002693259    2.258    0.557
        41 -10.8716    125.1099    247.8412   1.1273462836e+02   1.0038304843e+01    0.4597884    0.2623775  40.41  0.002525822    1.375    0.273
        42  -8.9009    103.4547    250.5343   1.1662265101e+02   1.2664225379e+01    0.2267321    0.0811566  40.54  0.001069683    2.154    0.536
        43  -9.2607     88.1672    249.2523   1.1906681240e+02   1.4877576086e+01    0.2246314    0.1467978  28.50  0.001162788    1.974    0.493
        44  -8.9644     73.5375    250.3615   1.2155017698e+02   1.6569779449e+01    0.2068432    0.1003795  40.73  0.001327334    1.693    0.409
        45  -8.8121     47.9791    249.9266   1.2562928203e+02   1.9660218562e+01    0.2386217    0.1222859  29.37  0.001428533    2.785    0.641
        46 -10.7595    118.7074    239.2048   1.1300461068e+02   1.2178641287e+01    0.3286587    0.2654018  11.68  0.002338207    1.799    0.444
        47  -9.3329     62.1751    248.4168   1.2327382298e+02   1.8245750685e+01    0.2307828    0.1566184  29.59  0.001650657    1.959    0.490
        48  -9.6998     95.0610    244.0477   1.1750647028e+02   1.4742129542e+01    0.3403122    0.1540421  33.41  0.001836736    2.432    0.589
        49  -9.6953     82.5236    243.4930   1.1958297646e+02   1.6474254150e+01    0.2691263     0.149592  32.54  0.001666623    2.038    0.509
        50 -10.5746    105.1277    241.0344   1.1552935329e+02   1.3822162578e+01    0.3011084    0.2444749  18.23  0.001709315    1.752    0.429
        51  -8.3163     42.1843    243.6157   1.2622926222e+02   2.1289871079e+01    0.1311828    0.0820984  36.39  0.000949087    1.739    0.425
        52  -8.7797     69.0239    239.7801   1.2159257727e+02   1.8758019919e+01    0.1474583    0.1182083  18.96  0.001078021    2.001    0.500
        53 -10.0513    112.3371    237.5047   1.1395427135e+02   1.3339022350e+01    0.2087147    0.1601119  34.24 0.0009089157    1.373    0.271
        54  -8.8049     90.9665    235.8157   1.1753642042e+02   1.6553020730e+01    0.1601122    0.1210556  18.68 0.0009706999    2.039    0.510
        55  -9.2431    108.8391    232.7262   1.1411703545e+02   1.4562027193e+01    0.1743593    0.1267432  31.29  0.001182816    1.526    0.345
        56 -10.2421    123.5077    230.7323   1.1129862992e+02   1.2738069038e+01    0.2942303     0.217896  17.35  0.001902655    1.882    0.469
        57  -8.7344    100.7846    230.3982   1.1533256315e+02   1.6061990834e+01    0.1568073   0.09144413  35.39 0.0009480869    1.689    0.408
        58  -9.6672    113.8472    228.1209   1.1276700374e+02   1.4556289993e+01     0.198292    0.1553856 -13.64  0.001273258    2.236    0.553
        59 -10.0514    129.9564    223.5980   1.0934689293e+02   1.2856345393e+01    0.2750907    0.2009437  15.06  0.001420844    1.948    0.487
        60  -9.5928    120.9637    224.5839   1.1110316423e+02   1.4060087278e+01    0.2333223    0.1362692  28.02  0.001286799    2.099    0.524
        61  -9.2112    180.6178    221.4450   9.9877585446e+01   5.1956775680e+00    0.2241324    0.1788039  -0.59 0.0009399097    1.430    0.301
        62  -9.5126    135.6403    222.9159   1.0822536624e+02   1.2089080697e+01    0.2029889    0.1392104  35.40 0.0008320425    1.331    0.248
        63 -10.0129    148.5210    220.6868   1.0558783108e+02   1.0412097564e+01    0.2852311    0.2183956 -24.70  0.001245949    1.798    0.444
        64  -8.7672    154.1968    218.7738   1.0429814726e+02   9.7925448166e+00    0.1570399    0.1283401  17.22 0.0006402941    1.368    0.269
        65  -9.4268    129.0002    218.9803   1.0898998132e+02   1.3721345058e+01    0.1742992    0.1395136  12.20  0.001132735    1.693    0.409
        66  -9.1085    159.1650    217.4365   1.0320674668e+02   9.1913957067e+00    0.2673783    0.1763561  20.57  0.001291408    1.823    0.452
        67  -9.7003    171.0108    214.7118   1.0065558372e+02   7.6630087676e+00    0.3204085    0.2252877 -13.94  0.001549198    1.961    0.490
        68  -8.5020    136.6417    217.7005   1.0741366850e+02   1.2734580580e+01    0.1157879   0.08697683  17.34 0.0007036061    1.710    0.415
        69  -9.1079    179.6814    215.4573   9.9186459595e+01   6.1490226747e+00    0.2257694    0.1724968  21.90 0.0008619765    1.248    0.199
        70  -9.7005    143.3734    214.6772   1.0577576383e+02   1.2138551854e+01    0.2773883    0.1973222 -18.49  0.001522164    2.248    0.555
        71  -8.9781    165.0132    214.7751   1.0176539339e+02   8.6304241938e+00    0.2239136    0.1709609  26.40  0.001182895    1.257    0.204
        72  -9.2783    140.9458    220.4839   1.0695680832e+02   1.1633617011e+01    0.1999145    0.1665019 -20.06   0.00122264    1.637    0.389
        73  -9.7918    154.6009    212.3839   1.0336804535e+02   1.0678526237e+01    0.2605447    0.1944691 -19.06  0.001311695    1.859    0.462
        74  -8.7148    124.3463    215.3064   1.0943155838e+02   1.5025019756e+01     0.112645   0.08926179  15.14 0.0007042702    1.697    0.411
        75  -8.7022    185.8244    213.9461   9.7856215405e+01   5.3548491556e+00    0.2213573    0.1419376  24.83 0.0008054047    1.523    0.343
        76  -9.4571    132.6338    213.6318   1.0766595921e+02   1.4005482014e+01    0.1736303    0.1402633  11.30 0.0009372124    1.643    0.391
        77  -8.9092    138.4767    213.5274   1.0654963233e+02   1.3098190839e+01    0.1212107   0.09977753  43.84 0.0001969882    1.041    0.040
        78  -9.5286    176.8907    209.0960   9.8755232655e+01   7.4919151098e+00    0.2818035    0.2176144 -16.15  0.001701782    1.559    0.358
        79  -9.7364    161.3121    209.0998   1.0165166902e+02   1.0072242933e+01    0.2932324    0.2201425 -24.06  0.001440826    1.713    0.416
        80  -9.9043    149.5495    210.2061   1.0402179601e+02   1.1834719367e+01     0.240741    0.1540298 -30.48  0.001136695    2.245    0.555
        81  -8.9481    200.3233    209.5289   9.4587810748e+01   3.5751850658e+00     0.211289    0.1630624   1.78 0.0007163665    1.343    0.255
        82  -9.4313    193.0559    208.3726   9.5702476553e+01   4.9176774306e+00    0.2564508    0.2080714  -6.16  0.001139665    1.326    0.246
        83  -9.1933    186.7676    209.2927   9.6980663165e+01   5.8301805009e+00    0.2538652    0.1753363  19.22 0.0009977809    1.495    0.331
        84  -8.9083    167.7383    208.7098   1.0039351751e+02   9.0660746143e+00    0.3232576     0.165114 -48.91  0.001678254    2.445    0.591
        85  -8.8717    171.4003    206.7418   9.9419801308e+01   8.7452596367e+00    0.1919353    0.1746263  -5.11 0.0007917876    1.232    0.188
        86  -8.7561    173.1422    202.3478   9.8426386995e+01   9.1004158827e+00    0.1982166    0.1668516 -12.07 0.0008907972    1.364    0.267
        87 -10.0222    145.8732    207.4734   1.0434926766e+02   1.2863783731e+01    0.2217503    0.1608778 -24.71  0.001052233    1.964    0.491
        88  -8.6918    135.3157    208.6640   1.0652868158e+02   1.4381733015e+01    0.1244032   0.08470388  66.86 0.0007047572    1.694    0.410
        89  -8.9063    183.1871    205.7295   9.7083434806e+01   6.9194056719e+00    0.2617183    0.1740136   8.05 0.0009574518    1.978    0.494
        90  -9.2285    186.7354    201.8824   9.5823961707e+01   6.8657278338e+00    0.2718944    0.2102056 -16.60  0.001258219    1.473    0.321
        91  -9.1263    156.1615    205.3355   1.0208664960e+02   1.1501448281e+01    0.1944119    0.1673185 -25.04 0.0009721383    1.407    0.289
        92  -9.6044    124.1498    206.0374   1.0835104798e+02   1.6592051697e+01    0.2097989    0.1458733  52.77 -0.0006383859    1.238    0.192
        93 -10.6136    139.2007    203.4806   1.0509252789e+02   1.4601845209e+01    0.3987203    0.1696167 -59.94  0.001742285    3.342    0.701
        94  -9.8642    197.8694    202.2732   9.3858727622e+01   4.9389418500e+00    0.3499525    0.2287612  -5.54  0.001393175    1.976    0.494
        95  -9.6756    202.2553    195.9638   9.2013686158e+01   5.0566042302e+00    0.3584303    0.2275831 -13.58  0.001664248    1.950    0.487
        96  -8.9950    205.2341    189.5613   9.0363432291e+01   5.4271068177e+00    0.2511182    0.1807211 -17.91 0.0008805447    1.493    0.330
        97  -8.9382    179.1381    202.3881   9.7310901663e+01   8.0788263112e+00    0.2471775    0.1785993   2.46  0.001308196    1.733    0.423
        98 -10.2626    164.4958    201.1433   9.9879489989e+01   1.0748960011e+01    0.4219529    0.2310856 -21.81  0.001785999    3.627    0.724
        99  -9.2200    144.4236    201.1954   1.0375991685e+02   1.4116505029e+01    0.2141482    0.1211761 -44.89  0.001136822    2.126    0.530
       100 -10.4077    161.2417    198.7218   1.0013604192e+02   1.1679661480e+01    0.4061271    0.2386989 -19.78  0.001825365    3.170    0.685
       101  -9.0032    131.4987    201.4839   1.0632946247e+02   1.6190592416e+01    0.1249973     0.105149  49.70 0.0003377885    1.005    0.005
       102 -10.4348    156.8454    195.4199   1.0048582203e+02   1.2959640230e+01    0.4027576    0.1367751 -43.59  0.001618785    3.520    0.716
       103  -9.6518    198.8724    189.7409   9.1554850907e+01   6.5050001466e+00    0.3291385    0.2215528 -15.68  0.001404386    1.741    0.426
       104  -8.8187    191.4467    196.4817   9.4073455072e+01   6.8295562494e+00    0.2256833    0.1720191  -3.55 0.0007966894    1.466    0.318
       105  -9.0911    194.2410    193.3533   9.3031051919e+01   6.7940362290e+00    0.3200037    0.2030593 -14.27  0.001300073    2.055    0.513
       106  -8.9201    176.3341    196.0445   9.6829165658e+01   9.4983224795e+00    0.2558666    0.1862251 -13.02  0.001192467    1.739    0.425
       107 -10.0750    169.7828    195.9354   9.8061089490e+01   1.0647640113e+01      0.31093    0.2373054  44.43  0.001901781    1.168    0.144
       108  -9.4960    184.4375    194.8666   9.5108338447e+01   8.2714446257e+00    0.4146733    0.2179568 -30.81  0.002040828    2.359    0.576
       109  -9.0691    185.1192    188.9187   9.3977612273e+01   9.0381031983e+00    0.3019851    0.2696258 -88.91  0.001905024    1.546    0.353
       110  -8.7442    192.9951    200.9784   9.4530873396e+01   5.9348749039e+00    0.1923345     0.153329  19.71 0.0007136383    1.143    0.125
       111 -10.0160    161.7778    191.6194   9.8927394969e+01   1.2721866715e+01    0.2787197    0.1725722 -40.48  0.001501009    1.882    0.469
       112  -9.4530    152.3700    192.8122   1.0096700842e+02   1.4157436503e+01    0.1645008    0.1198064 -33.74  0.000651509    1.686    0.407
       113  -9.7258    145.5284    192.0280   1.0220892146e+02   1.5463493477e+01    0.1780903    0.1286031 -54.01  0.001033602    1.608    0.378
       114  -8.5676    190.2823    190.3629   9.3254224885e+01   7.9154054256e+00    0.2211775    0.1248084 -30.82 0.0006027638    2.060    0.515
       115  -9.2283    193.1378    186.7651   9.2094647661e+01   7.9417708205e+00    0.3184228    0.2031163   8.20  0.001490182    2.126    0.530
       116  -9.9818    172.5539    189.6183   9.6502228547e+01   1.1149747441e+01    0.2816033    0.1909741 -27.24  0.001547194    1.798    0.444
       117  -8.9760    178.9559    189.0089   9.5167011128e+01   1.0113528434e+01     0.283062    0.1863307 -29.87  0.001549606    1.779    0.438
       118  -9.7213    149.0065    197.4321   1.0232252642e+02   1.3966967513e+01    0.2124688    0.1706031 -13.21  0.001285312    1.654    0.395
       119  -9.4548    166.3204    185.1553   9.6977457377e+01   1.2973793323e+01    0.1993624     0.164696 -10.56  0.001191866    1.422    0.297
       120  -8.7506    189.8213    183.7824   9.2190203584e+01   8.9768076725e+00    0.2180869    0.1668483 -12.53  0.001268865    1.460    0.315
       121  -9.4101    183.6420    181.7781   9.3012637193e+01   1.0396703735e+01    0.3168362    0.2087453 -27.70  0.001486193    1.752    0.429
       122  -8.9811    197.2340    181.4176   9.0371208649e+01   8.0019984089e+00    0.2546213    0.1703574 -33.70 0.0007800151    1.621    0.383
       123  -9.4386    205.2605    167.9738   8.6327225019e+01   8.5453824547e+00     0.316462    0.2428317   0.01  0.001057805    1.358    0.264
       124  -9.6651    197.3928    175.0661   8.9164025711e+01   8.9246669589e+00    0.3049864    0.2372318 -29.07  0.001299521    1.363    0.267
       125  -8.6254    200.8337    170.7312   8.7690357255e+01   8.9488955374e+00    0.3280237    0.1617456 -25.24  0.001401924    2.576    0.612
       126 -10.5619    176.6097    180.1942   9.4097077779e+01   1.1924166330e+01     0.374095     0.250338  52.42  0.001916119    1.556    0.357
       127  -9.4243    190.2810    177.7873   9.1018287876e+01   9.8091370869e+00    0.3223987    0.2899999  39.86  0.001967188    1.147    0.129
       128  -9.6246    168.9066    176.8898   9.5037858251e+01   1.3876571124e+01     0.206393    0.1719557  15.50 0.0007745612    1.263    0.208
       129 -10.3726    151.1953    176.4441   9.8569136320e+01   1.7184943374e+01    0.2583694    0.2123293   3.39  0.001480478    1.506    0.336
       130  -9.2187    182.3635    175.0051   9.2034305487e+01   1.1703409572e+01    0.2709617    0.1955861 -12.74  0.001257948    1.691    0.409
       131  -9.3305    162.0623    173.9903   9.5908294144e+01   1.5631721271e+01    0.2150086    0.1601501  11.06  0.001073277    1.693    0.409
       132  -9.0121    192.7842    172.1138   8.9478884710e+01   1.0228655002e+01    0.2726921     0.174771 -25.09 0.0009609224    1.767    0.434
       133  -8.9587    187.3962    171.3407   9.0369600146e+01   1.1354829598e+01    0.2028358    0.1479867   7.86 0.0007704434    1.608    0.378
       134  -8.3807    197.3260    168.8591   8.7988146157e+01   9.8884201959e+00    0.1896806    0.1487003   3.38 0.0009175393    1.340    0.254
       135  -9.3226    199.5772    163.5503   8.6513806370e+01   1.0290687553e+01    0.3757296    0.2321585 -19.17  0.001431516    1.940    0.485
       136 -10.0454    178.4017    167.5194   9.1412738234e+01   1.3675220744e+01    0.3377293    0.2154312  36.57  0.001634448    1.463    0.316
       137  -8.2896    165.2968    166.3486   9.3851173857e+01   1.6364412291e+01    0.1383733    0.1051095   4.08 0.0007034289    1.680    0.405
       138  -9.2017    191.8074    164.0227   8.8095468563e+01   1.1695435270e+01    0.3115854    0.2352738  -3.74  0.001080321    1.506    0.336
       139  -8.5856    184.7672    164.1247   8.9491723877e+01   1.3026144688e+01     0.250079    0.1834029 -10.53  0.001303892    1.630    0.387
       140  -8.5905    176.7651    157.6275   8.9803931400e+01   1.5680360840e+01     0.246503    0.1736058 -23.49  0.001098074    1.647    0.393
       141  -8.9757    197.1970    155.4521   8.5314749377e+01   1.2036932943e+01    0.2748304    0.2019818   4.22  0.001087472    1.566    0.361
       142  -8.8559    206.0086    153.0231   8.3136650896e+01   1.0703710663e+01    0.2240025    0.1556136   9.44 0.0006906247    1.686    0.407
       143  -8.6061    187.8652    154.4103   8.6917203808e+01   1.4044202590e+01    0.2717885     0.175014 -18.51 0.0009868257    1.936    0.484
       144 -14.5142    244.2814    142.8151   7.4281301301e+01   4.9414363104e+00     6.809514      2.71016 -15.83   0.01981937    5.443    0.816
       145  -8.8533    208.3645    143.4653   8.0633020080e+01   1.1749983752e+01    0.2984815    0.1974827  14.20  0.000955091    1.855    0.461
       146  -8.4299    214.2081    141.0277   7.9021389084e+01   1.0966081913e+01    0.2221896    0.1450461  -5.87 0.0008376751    1.886    0.470
       147  -8.8652    224.3569    139.1232   7.6795544386e+01   9.2492935385e+00    0.2838105    0.1866365 -17.28 0.0007155803    1.565    0.361
       148  -8.9893    218.6957    136.9670   7.7305179695e+01   1.0699934790e+01     0.330954    0.2168444 -10.99  0.001136395    1.740    0.425
       149  -9.2254    225.7879    132.1209   7.4964381687e+01   1.0022900919e+01    0.3246442      0.19577 -14.93   0.00105744    1.880    0.468
       150  -9.2440    221.0495    127.3003   7.4667778361e+01   1.1721341079e+01    0.3705824    0.1896722 -23.43  0.001545154    2.136    0.532
       151 -13.7965    238.7924    187.2497   8.4118372035e+01   9.9885458821e-02      4.23512     1.150614 -23.76  0.009665906   11.041    0.909
       152 -12.2540    235.9010    227.9601   9.1458742852e+01  -4.0034979834e+00    0.8133233    0.4700488  -9.95  0.004823735    1.927    0.481
       153 -13.3301    243.4761    196.8393   8.5081418816e+01  -1.7700453878e+00     3.067636    0.7956463 -24.94  0.009171876    6.942    0.856
       154  -8.7021    225.1991     81.4844   6.2524091012e+01   1.7902060004e+01    0.2457837    0.1816873 -47.76 0.0007817631    1.390    0.280
       155  -9.2773    223.3011     76.0061   6.1354818073e+01   1.9158244109e+01    0.2149459    0.1754255 -31.59 0.0006256885    1.131    0.116
       156 -12.6233    248.7413    179.2215   8.0985768922e+01  -5.3217427874e-01     1.114011    0.3011667 -34.32  0.004357357    3.646    0.726
       157  -8.4143    221.9030     71.0518   6.0229406376e+01   2.0218914926e+01    0.2291727    0.1807987 -48.59 0.0006743796    1.274    0.215
       158  -8.2800    218.3521     68.1872   5.9972803296e+01   2.1482902512e+01    0.2167232    0.1210623 -39.36 0.0008639469    1.666    0.400
       159 -13.2141    247.1923    159.6284   7.7361959443e+01   2.1768525634e+00     1.780469    0.5502051 -25.21  0.006160543    3.984    0.749
       160 -10.3101    214.4130     54.4350   5.6712570645e+01   2.4418944774e+01    0.5024242    0.2718084 -13.26  0.001954139    2.411    0.585
       161 -12.4249    247.9582    242.2093   9.1697846824e+01  -7.0314044208e+00    0.7199816    0.5740067 -60.52  0.004643213    3.421    0.708
       162  -9.4032    108.5003    248.9360   1.1564270182e+02   1.2205387047e+01    0.2356258    0.1331524  31.44  0.001357988    1.963    0.491
