#   1 NUMBER                 Running object number                                     
#   2 MAG_AUTO               Kron-like elliptical aperture magnitude                    [mag]
#   3 X_IMAGE                Object position along x                                    [pixel]
#   4 Y_IMAGE                Object position along y                                    [pixel]
#   5 X_WORLD                Barycenter position along world x axis                     [deg]
#   6 Y_WORLD                Barycenter position along world y axis                     [deg]
#   7 A_WORLD                Profile RMS along major axis (world units)                 [deg]
#   8 B_WORLD                Profile RMS along minor axis (world units)                 [deg]
#   9 THETA_WORLD            Position angle (CCW/world-x)                               [deg]
#  10 FWHM_WORLD             FWHM assuming a gaussian core                              [deg]
#  11 ELONGATION             A_IMAGE/B_IMAGE                                           
#  12 ELLIPTICITY            1 - B_IMAGE/A_IMAGE                                       
         1 -11.3835    167.3884     47.6399   6.8720516443e+01   3.7228101829e+01    0.9288024    0.8265373   2.19  0.005054637    1.468    0.319
         2 -10.7957    187.6471     16.9237   5.8570534793e+01   3.6322771619e+01    0.6587329    0.4373554 -35.54  0.003977566    1.734    0.423
         3 -10.4603    180.3302     18.9451   5.9890697296e+01   3.7750387948e+01    0.5968789    0.3582418 -51.32  0.003383888    1.711    0.416
         4  -9.6844    182.9748     13.4963   5.8334117610e+01   3.7731650261e+01    0.2777016    0.2363488  89.25  0.001327764    1.069    0.065
         5  -8.6961    120.4465      8.7429   6.6182417988e+01   5.2173443613e+01    0.2548645    0.2218488 -53.81  0.001383369    1.373    0.272
         6  -7.4079    144.6089      6.4854   6.1578222210e+01   4.7032599177e+01    0.1198948   0.09955685  65.32 5.642428e-05    1.049    0.047
         7  -8.6825    248.6207    240.8263   9.5804116843e+01  -1.3220240476e+01    0.1952099    0.1669532   9.07 0.0004165071    1.219    0.180
         8 -10.6133    230.8441    250.5825   1.0069358212e+02  -1.2356457811e+01    0.1990841    0.1196226  30.53 0.0002437982    1.574    0.365
         9  -8.0844    152.8963    249.2016   1.1597232723e+02  -3.9677649011e-01    0.3281953    0.1218787 -43.33  0.001292806    3.170    0.685
        10 -18.0751     59.9968    226.0576   1.3281127150e+02   1.9032239544e+01     4.623061     3.683166 -76.76    0.0118559    1.202    0.168
        11  -7.7447      5.0703    191.5478   1.4125900223e+02   3.3313138555e+01    0.2910534    0.1239108 -46.46  0.001265495    3.270    0.694
        12  -7.8281    169.4601    190.0845   1.0210785369e+02   8.6011331088e+00    0.2169921    0.1449932 -50.13 0.0005552716    1.516    0.340
        13  -7.7602    156.6981    190.0064   1.0497692754e+02   1.1045082020e+01    0.2113105    0.1882527 -53.69 0.0005297313    1.140    0.123
        14  -8.3295    131.9969    189.9464   1.1077337368e+02   1.5733049404e+01    0.2183722    0.2084537  86.97 0.0003065402    1.044    0.042
        15  -8.0577    153.3743    185.9510   1.0494696596e+02   1.2592510830e+01    0.3075251    0.1825005 -56.67  0.001290205    1.817    0.450
        16  -8.4496    169.5143    240.1724   1.1109382286e+02  -1.4681079306e+00    0.2550038    0.2001497  59.66  0.001005223    1.555    0.357
        17  -7.8425    143.0034    183.9497   1.0699072780e+02   1.5046344228e+01     0.252062    0.1878037  76.08   0.00110311    1.752    0.429
        18  -9.5936    249.0784    179.8527   8.4478653715e+01  -3.3064792426e+00    0.3565184    0.2707168 -80.46  0.001886792    2.240    0.554
        19  -9.0519    161.6888    176.9254   1.0120177499e+02   1.3010521496e+01    0.4337872    0.2770297 -64.70  0.001513583    1.967    0.492
        20  -9.4228    188.7404    176.7633   9.5218232367e+01   7.7741523691e+00    0.5010021    0.2900666 -49.87  0.001446686    1.731    0.422
        21  -9.8089    237.7264    175.0413   8.5464096864e+01  -6.3750024683e-01    0.3457787    0.2365341  50.29  0.001841197    1.791    0.442
        22  -9.1759    238.0683    170.1922   8.4438774441e+01   2.0585886674e-01    0.2524006     0.184092 -46.62 0.0002313427    1.270    0.212
        23  -9.0864    238.2532    165.3766   8.3441965240e+01   1.0731741024e+00    0.2448592    0.2001715 -44.74 0.0002934304    1.117    0.105
        24  -7.8694    221.3620    176.2213   8.8640892275e+01   1.9031730760e+00    0.2003881    0.1210348 -49.31 0.0004783954    1.637    0.389
        25  -8.6767    152.8811    237.7663   1.1422740329e+02   1.7459733418e+00    0.4268773    0.1866688  33.16  0.001749171    2.283    0.562
        26  -8.4244    131.6856    232.3370   1.1797785590e+02   6.4107824442e+00    0.2342994    0.1961666 -48.93  0.001034444    1.307    0.235
        27  -8.6169    133.4283    229.4849   1.1716051196e+02   6.7029514935e+00    0.2549528    0.2296699 -22.19 0.0007767694    1.280    0.219
        28  -9.4683    134.1281    173.2148   1.0699447715e+02   1.9287371682e+01    0.4794672    0.2451311 -52.31  0.001544782    1.942    0.485
        29  -8.8070     23.5838    173.1186   1.3517079771e+02   3.6017840071e+01      0.37951     0.237223  25.12  0.002055631    1.985    0.496
        30  -8.1265     11.7211    173.7879   1.3809131238e+02   3.6952943998e+01    0.2270534     0.147037 -76.70  0.001311152    1.250    0.200
        31  -9.4608    185.2556    228.5558   1.0585759160e+02  -1.9310333200e+00    0.3773682    0.1964474 -40.35   0.00174355    1.989    0.497
        32  -9.9307     17.3203    166.4045   1.3593103724e+02   3.8246922459e+01    0.5012342    0.3109112 -78.09  0.002765041    1.366    0.268
        33  -9.4090    119.7067    163.5852   1.0864828962e+02   2.4389180809e+01    0.3940284     0.274853 -71.25  0.000456102    1.658    0.397
        34 -10.1027    206.3614    162.9308   8.8739948476e+01   7.2798819595e+00    0.2622128    0.2383484 -51.90 0.0003390598    1.093    0.085
        35  -9.4100    184.7473    220.7374   1.0458184124e+02  -3.8560649201e-01    0.5241588    0.1894164 -51.60  0.001848639    3.406    0.706
        36  -8.4145    159.0824    166.0338   9.9508839674e+01   1.6001869304e+01    0.2250294     0.218206 -65.31 0.0003232211    1.029    0.028
        37  -9.9672     49.3066    157.8788   1.2645502191e+02   3.6997009136e+01    0.4067136    0.2424325 -65.67  0.001321237    1.486    0.327
        38  -9.1214    133.8638    156.9713   1.0363826142e+02   2.3225430875e+01    0.4259768    0.3147437  83.78  0.001841883    1.826    0.452
        39  -8.8116    120.5387    156.8178   1.0700925241e+02   2.5882976897e+01    0.2854019    0.2130796  42.96 0.0006166906    1.368    0.269
        40  -9.6705     22.5520    155.5054   1.3325519773e+02   4.0439607040e+01    0.4284484    0.2409756 -75.63  0.002066992    1.575    0.365
        41  -8.9766      6.1237    155.6696   1.3750311400e+02   4.1776008701e+01    0.4713485    0.2181028 -29.73  0.001918821    3.922    0.745
        42  -9.6319    155.9148    154.4030   9.7701116125e+01   1.9316257192e+01    0.4272372    0.3093444 -65.62  0.001015917    1.578    0.366
        43 -10.5787    134.9285    148.9988   1.0159882956e+02   2.4909888150e+01    0.7779284    0.5114675 -60.01  0.002241616    1.628    0.386
        44  -7.5029    248.0081    165.0232   8.1750972296e+01  -4.6727105405e-01    0.1577949    0.1375908 -34.32  0.000367282    1.034    0.033
        45  -7.3716    146.6446    156.7171   1.0042834689e+02   2.0693682256e+01    0.1582867    0.1261282  -1.45 0.0007017744    1.664    0.399
        46 -10.3066     10.2626    144.8894   1.3513576721e+02   4.4057606370e+01    0.4875582    0.3566954 -61.52  0.001253917    1.145    0.127
        47  -8.6448    225.8931    145.6851   8.1508575649e+01   7.0298871235e+00    0.2411134    0.1803682 -46.26 0.0004064542    1.189    0.159
        48  -7.5947    211.7496    145.0216   8.3884416304e+01   9.8717053138e+00    0.3361858    0.1078436 -49.20  0.001064767    3.206    0.688
        49 -10.3208    186.0285    214.5177   1.0318484595e+02   5.8806590447e-01    0.6064466    0.3695541  42.68  0.002442112    1.663    0.399
        50  -8.8070     20.6891    144.4284   1.3224664269e+02   4.3318239065e+01    0.2420301    0.1908792 -41.91 0.0009093771    1.338    0.252
        51  -7.8041    153.9925    143.4887   9.5670263694e+01   2.2217720221e+01     0.235349    0.2039813 -49.23 0.0002884316    1.123    0.109
        52  -9.9285     32.8434    140.0691   1.2818261353e+02   4.3250880070e+01    0.3172417    0.2293068   3.42  0.001109731    1.820    0.451
        53  -8.8256      4.2103    139.2835   1.3605395765e+02   4.5838534755e+01    0.3428834    0.1177581 -62.24  0.001534987    2.112    0.527
        54  -8.6615    158.2116    139.3219   9.3710160946e+01   2.2259781001e+01    0.2695386    0.2099454 -33.50 0.0008116354    1.374    0.272
        55  -9.0461     21.4874    138.2537   1.3112825947e+02   4.4750852642e+01    0.2116117    0.1829257  17.74  0.001347697    1.410    0.291
        56 -10.4503    183.2175    208.4284   1.0264909863e+02   2.2715269058e+00     0.908516    0.2486293 -48.90  0.002800056    3.977    0.749
        57  -9.8565      3.0050    129.2238   1.3507499094e+02   4.8299151244e+01    0.4427868    0.1599812 -70.32  0.001946122    2.269    0.559
        58  -9.3169    101.9197    129.3182   1.0585211018e+02   3.6059886035e+01    0.4252014    0.3334379  86.60  0.001592281    1.630    0.387
        59  -7.8415    192.6406    229.3293   1.0447279350e+02  -3.2768843623e+00    0.1305416    0.1074012  71.72 0.0003601267    1.792    0.442
        60 -10.5335    143.2776    227.6482   1.1470381258e+02   5.3889115197e+00    0.4739327    0.3418526  15.64 0.0004812553    1.698    0.411
        61  -9.3901     40.3563    125.3627   1.2337671314e+02   4.6051968325e+01    0.2742704    0.1554288 -63.33 0.0008947199    1.585    0.369
        62  -7.9342    108.9749    123.4942   1.0245758191e+02   3.6098150496e+01    0.2409027    0.1951997 -47.87 0.0005207314    1.197    0.164
        63  -9.9168    177.8072    222.5392   1.0636350556e+02   4.4834999128e-01     0.628126    0.2335647 -50.62  0.002235317    3.060    0.673
        64  -7.9763    181.9979    120.7533   8.4134334502e+01   2.1067616387e+01    0.2031913    0.1932952 -81.76 0.0003862593    1.036    0.034
        65  -9.4845    166.8118    223.0805   1.0880829145e+02   2.2313414029e+00    0.4170719    0.2687452 -29.58  0.001421486    1.847    0.459
        66  -7.6795    242.9867    120.0213   7.3463204517e+01   8.6826249667e+00    0.1628474    0.1391051 -54.60 0.0003683904    1.013    0.012
        67 -11.0930    154.6047    217.9174   1.1058293108e+02   5.4120546525e+00     1.072699     0.417382  33.92  0.003876404    2.736    0.634
        68  -8.5960    134.1369    242.3040   1.1892027483e+02   3.9974019670e+00    0.3073817     0.172133 -43.46 0.0009308767    2.095    0.523
        69  -8.7281     96.2150    130.8936   1.0784524469e+02   3.6714677830e+01    0.2268184    0.2034658  87.35 0.0003545154    1.224    0.183
        70  -8.2686    168.7553    114.1057   8.5284013906e+01   2.5383503095e+01    0.2706827    0.2130158  87.51 0.0008463107    1.505    0.336
        71  -8.3955    134.6433    237.7428   1.1814341301e+02   4.8160035855e+00     0.256717    0.2326387 -63.84 0.0008035427    1.210    0.173
        72 -10.1237     63.7784    108.6315   1.1236678523e+02   4.7100452761e+01    0.6282516    0.2736293  27.80  0.002480825    2.681    0.627
        73  -9.9501     66.1484    104.8897   1.1068179382e+02   4.7607795947e+01    0.3560591    0.2706797  -4.57   0.00176768    1.545    0.353
        74  -9.7856    121.5744    204.7516   1.1588057900e+02   1.4188754332e+01    0.5833572     0.361198  53.29  0.002628499    1.689    0.408
        75  -8.4181    168.0811     97.8344   8.1381889330e+01   2.8776447602e+01    0.2118121    0.2015455 -86.24 0.0003084713    1.010    0.010
        76  -7.7920    131.0480     96.3267   8.9442184928e+01   3.7421578856e+01    0.2016278    0.1900943  56.55 0.0003364296    1.057    0.054
        77  -8.7865     19.5553     95.5196   1.2413084837e+02   5.4849591608e+01    0.3535593    0.1851041 -56.67  0.001395688    1.567    0.362
        78  -8.2385     23.4713     94.5873   1.2258074436e+02   5.4735148256e+01    0.2187417    0.1729864 -26.24 0.0005163035    1.218    0.179
        79  -8.5513     90.3486     94.5490   1.0029995221e+02   4.5931944349e+01    0.2686073    0.2386777  61.80  0.001051052    1.309    0.236
        80  -8.6456     60.0799     94.0038   1.0987257882e+02   5.0832722642e+01    0.3871488    0.1916061  34.71 0.0009939001    2.140    0.533
        81  -7.9052     29.1338     93.4821   1.2036871649e+02   5.4478002090e+01    0.2240432    0.1264232  11.80  0.001134957    2.136    0.532
        82  -9.5717    224.2463     90.6895   7.0034223791e+01   1.7632726185e+01    0.2368233     0.203839 -67.65 0.0002773848    1.008    0.007
        83  -7.6598    228.9789     86.7643   6.8543807360e+01   1.7328162455e+01    0.1820203    0.1568698 -76.03 0.0002968074    1.057    0.054
        84  -8.9788    203.0207    199.4883   9.6838384652e+01   5.7342378628e-01    0.3456865    0.2630157 -86.78  0.001650495    2.243    0.554
        85  -7.6604    233.6465     81.2845   6.6787496313e+01   1.7293143384e+01    0.1388652   0.08961105 -74.13 0.0005433214    1.663    0.399
        86  -8.4038    111.2040     78.2896   8.9556605142e+01   4.5059309402e+01    0.2291781    0.2172772  19.24 0.0005057602    1.023    0.023
        87  -7.9494    168.3201     71.0343   7.4527439232e+01   3.3496397757e+01    0.1909616    0.1736239 -58.17 0.0003729948    1.112    0.101
        88 -10.4819    155.6193     61.4308   7.4425178157e+01   3.7973999028e+01    0.4582782    0.3169986  52.44  0.002173179    1.376    0.273
        89  -9.2417    143.0245     60.4214   7.6690632025e+01   4.1036537592e+01    0.3745753    0.2099165  39.81  0.000686669    2.014    0.503
        90 -10.4155    124.8465     56.5881   7.9634399883e+01   4.5701202970e+01    0.2321184    0.2239653 -29.69 0.0002120035    1.115    0.103
        91  -8.6670    165.9415    248.8625   1.1321084848e+02  -2.4480377447e+00    0.1941539    0.1788491 -20.51 0.0003830126    1.164    0.141
        92  -9.8599    172.4618     39.2076   6.5807786156e+01   3.7166285171e+01    0.3703567     0.275234 -31.65 0.0007803501    1.579    0.367
        93  -9.1773    194.8589    199.6569   9.8536808155e+01   1.9619699986e+00     0.262729    0.2350084  66.05  0.001477233    1.374    0.272
        94  -9.9060    220.5548     41.8588   6.0230618522e+01   2.6022263367e+01    0.3610008    0.2455699 -38.08  0.001785565    1.632    0.387
        95  -7.7299    194.1728     34.8113   6.1795989423e+01   3.2758819662e+01    0.1570934    0.1406411  61.44 0.0002833547    1.284    0.221
        96  -7.7725    167.0271     24.7359   6.3024479241e+01   4.0146127151e+01    0.1719787    0.1419604  73.46 0.0001967458    1.043    0.041
        97  -7.4394     99.9975     25.5006   7.5877638350e+01   5.4915022147e+01    0.1562798    0.1071162  81.98 0.0004131326    2.221    0.550
        98  -7.5097    127.4644    249.5111   1.2134386755e+02   3.6926017060e+00    0.1318692    0.1175498  42.34  8.43854e-05    1.043    0.041
        99  -7.8461    250.6590    198.0144   8.7687353143e+01  -6.7003791945e+00    0.1837714    0.1032976 -38.13 0.0009570189    1.527    0.345
       100  -8.0905    128.3026    196.3607   1.1283057641e+02   1.4918681879e+01     0.249264    0.2121138 -66.05 0.0009350301    1.205    0.170
       101  -9.3007    192.5171    193.5580   9.7828944528e+01   3.5994213829e+00    0.3519869    0.2021042 -53.53  0.001533867    1.952    0.488
