#   1 NUMBER                 Running object number                                     
#   2 MAG_AUTO               Kron-like elliptical aperture magnitude                    [mag]
#   3 X_IMAGE                Object position along x                                    [pixel]
#   4 Y_IMAGE                Object position along y                                    [pixel]
#   5 X_WORLD                Barycenter position along world x axis                     [deg]
#   6 Y_WORLD                Barycenter position along world y axis                     [deg]
#   7 A_WORLD                Profile RMS along major axis (world units)                 [deg]
#   8 B_WORLD                Profile RMS along minor axis (world units)                 [deg]
#   9 THETA_WORLD            Position angle (CCW/world-x)                               [deg]
#  10 FWHM_WORLD             FWHM assuming a gaussian core                              [deg]
#  11 ELONGATION             A_IMAGE/B_IMAGE                                           
#  12 ELLIPTICITY            1 - B_IMAGE/A_IMAGE                                       
         1 -13.2778    236.3674     52.6867   2.5724796794e+00   2.0506720705e+01     1.359657    0.9128748  40.46    0.0078381    2.095    0.523
         2 -12.1027      2.3942     22.0504   6.8898507161e+01   7.5677058207e+01     1.000214    0.3894345 -70.65  0.004371331    2.520    0.603
         3 -12.5286      2.3095      7.8680   6.3120085446e+01   7.8776037174e+01     1.154329     0.731365 -62.09  0.006691332    1.578    0.366
         4  -9.4160     41.6502     24.7783   3.8899859962e+01   7.0852095559e+01    0.3050734    0.2277788  65.90  0.001079326    2.016    0.504
         5 -12.5170     45.1408    145.5259   6.9579043437e+01   4.0264278336e+01    0.7782849    0.4627167  -3.34  0.001381257    2.614    0.617
         6 -14.4038     15.2447    113.6186   7.6974422493e+01   5.1555497809e+01     3.814028     2.409855  87.61  0.007278041    1.508    0.337
         7 -14.8507      8.8357    208.9034   8.4007597209e+01   2.8813912429e+01     4.211162     2.642647  18.07   0.02512572    1.731    0.422
         8 -10.5113     29.0964    236.3090   8.0343504038e+01   2.1512090717e+01    0.2151418    0.1468673  68.19  0.001019522    1.369    0.270
         9 -10.3209     45.3239    221.7790   7.5918169214e+01   2.2611627513e+01    0.2864859    0.1569831  87.90  0.001344186    2.106    0.525
        10  -9.5366     42.2126    233.2766   7.7280469691e+01   2.0730177337e+01    0.2219487    0.1509954 -89.28 0.0008815288    1.661    0.398
        11 -10.5648     75.8831    219.9703   6.8495906466e+01   1.9347243495e+01    0.3264587     0.238418  27.08  0.001971324    1.229    0.186
        12  -8.3210    142.3201    216.0816   5.2629430920e+01   1.0921672080e+01    0.1536852    0.1217947 -63.04 0.0007192927    1.786    0.440
        13  -8.3556     93.3770    210.7394   6.3348883916e+01   1.8828615028e+01    0.1583163    0.1232906 -47.18 0.0004915825    1.567    0.362
        14 -15.1242     16.4580    175.5228   8.0762154133e+01   3.5611297839e+01     4.296946     1.795029  83.62    0.0187979    2.443    0.591
        15 -10.2717     83.5846    196.1332   6.4183469072e+01   2.3154682803e+01    0.3104829    0.2019796  64.19  0.001572383    1.747    0.427
        16 -12.6162      3.3879    182.8520   8.4592130920e+01   3.4951347098e+01    0.6144556    0.4225133 -89.92  0.002665589    1.393    0.282
        17  -9.5625     70.5220    188.9962   6.6855436144e+01   2.6485768705e+01    0.1977815    0.1732039  52.38 0.0007947797    1.054    0.051
        18 -10.5872     73.5435    188.0316   6.5935107169e+01   2.6295052801e+01    0.2646937     0.248481  85.63 0.0009586459    1.172    0.147
        19 -10.1847     74.6733    182.1021   6.4951335978e+01   2.7474932776e+01     0.660169    0.2696634  54.06  0.002344765    2.914    0.657
        20  -9.7808     99.1724    181.3269   5.8187250082e+01   2.4051497511e+01    0.2669091    0.2386183  41.21 0.0007824608    1.033    0.032
        21 -10.1027     67.1593    180.6907   6.6879040586e+01   2.8817465934e+01    0.2937163    0.2163064  89.00 0.0005218352    1.494    0.331
        22  -8.7813    158.6047    177.6704   4.2952231334e+01   1.5073069581e+01    0.3321093    0.1320749 -55.07  0.001116423    4.259    0.765
        23 -10.6814     72.0941    164.7699   6.3527496324e+01   3.1907212393e+01     1.202065     0.422433 -77.68  0.002894455    5.699    0.825
        24 -11.3163     74.7151    132.6245   5.7681987693e+01   3.9582603131e+01    0.5065214    0.3190394 -48.57 0.0005304629    1.714    0.416
        25 -11.7766     79.0015    159.7954   6.0770184290e+01   3.2102263148e+01      1.60691    0.6594613  61.32  0.004158136    5.646    0.823
        26 -11.3322     60.2504    150.1962   6.5232385246e+01   3.7171674655e+01    0.5223195    0.3457915  54.24 0.0005795648    1.467    0.319
        27 -13.4865     68.4967    145.0202   6.1821795364e+01   3.7342259283e+01     3.016817     1.494556  86.28  0.002422745    3.704    0.730
        28 -13.5162      7.3715    236.7121   8.5054225448e+01   2.3460391956e+01     1.555815     1.069348  70.83   0.01107046    1.329    0.248
        29  -8.2427     60.5530    165.5539   6.7069847468e+01   3.3291157911e+01    0.1439399    0.1269511  52.37 1.067049e-05    1.000    0.000
        30  -8.4165     84.9945    149.3162   5.7298046208e+01   3.3731157105e+01    0.2077472    0.1779307  39.87 0.0002743694    1.083    0.077
        31  -8.8675    148.9703    229.4784   5.2993068751e+01   7.8845003293e+00    0.1756231     0.082826  45.98 0.0008099909    2.538    0.606
        32 -10.1419    125.0252    225.4175   5.7661315118e+01   1.1791897378e+01    0.3286968    0.1902004 -56.24  0.001204702    2.245    0.555
        33  -9.2338     87.8910    135.3710   5.3867000137e+01   3.6710459423e+01     0.290893    0.2289729 -51.53 0.0009767059    1.344    0.256
        34  -8.8251     91.8965    132.8267   5.2083840920e+01   3.6644961660e+01    0.2406855    0.2100893   1.16  0.001187524    1.327    0.247
        35 -11.0041     42.3804    130.4954   6.8667964199e+01   4.4544709021e+01    0.4844353    0.2930474  67.48  0.001881613    1.807    0.446
        36  -9.2483    102.7002    127.0418   4.7463222880e+01   3.6070226961e+01    0.3513627    0.2804179   5.42  0.001631694    1.559    0.359
        37  -8.8725    105.1159    130.6152   4.7509073413e+01   3.4750674279e+01    0.2993169    0.2281908 -79.12 0.0009884501    1.606    0.377
        38 -12.7522     59.4438    137.4375   6.3674423036e+01   4.0578263985e+01     1.825812     0.814503 -89.89  0.005439733    4.215    0.763
        39 -11.7593     39.6876    162.1801   7.3037949267e+01   3.6625577739e+01    0.7424651    0.4676491   1.76   0.00129212    2.193    0.544
        40  -9.3336     73.9839    123.5160   5.6201018001e+01   4.2055482278e+01    0.2442683    0.2062355 -68.35 0.0005671707    1.211    0.174
        41  -9.9041     89.2894    121.7112   5.0585557191e+01   3.9887060942e+01    0.3884199    0.2602004  29.00 0.0007835692    1.559    0.358
        42  -9.9842    231.8619    166.4442   2.7047718254e+01   5.5278356469e+00    0.2687738   0.09803642  31.44  0.001152768    3.298    0.697
        43  -9.0243     34.9091    117.1141   6.9666532487e+01   4.8946237654e+01    0.2294903    0.1812449  61.18 0.0006368005    1.242    0.195
        44  -7.8726    183.5254    116.4866   2.4885196716e+01   2.1557650313e+01    0.1415487    0.1322608 -18.82 0.0008099526    1.013    0.013
        45  -8.7855    101.9079    116.1310   4.5182909314e+01   3.8859879247e+01    0.2336886    0.2058804  77.05 0.0003269094    1.227    0.185
        46  -9.1426    204.8088    110.6215   1.9817860043e+01   1.8336857043e+01    0.2671731    0.2048953   5.70 0.0008956396    1.572    0.364
        47  -8.5489     32.5063    107.0237   6.9195367626e+01   5.1920887045e+01    0.2179683     0.136856 -73.85 0.0004766218    1.524    0.344
        48 -10.8074     51.9815    103.0280   6.0418494322e+01   5.0748421742e+01    0.5357516    0.1944498 -64.41  0.001818561    2.706    0.631
        49  -8.9024     35.4981    101.6748   6.7093492420e+01   5.3071960426e+01    0.3146442    0.1356473  50.54  0.001140794    2.661    0.624
        50 -11.2164     47.3916    157.5843   7.0202713477e+01   3.6909872883e+01    0.4045534    0.3427503 -50.13 0.0006191659    1.353    0.261
        51  -9.0156     94.6787     86.3359   3.9490148137e+01   4.7442996326e+01    0.3251921     0.197017 -69.53 0.0006755171    2.439    0.590
        52  -9.0614     74.3355     86.7169   4.7221071319e+01   5.1417343122e+01    0.2630498    0.2308972  73.20 0.0006839508    1.235    0.190
        53  -8.0708     82.6697     67.7104   3.7777227946e+01   5.4219818621e+01    0.1573094    0.1245139   4.72 0.0007017215    1.623    0.384
        54 -10.9726     29.1094    242.6384   8.0590054099e+01   2.0349529785e+01    0.3634476    0.2180992 -51.24   0.00161097    2.474    0.596
        55 -10.1408     13.2539     60.4640   7.0721102398e+01   6.5827721845e+01    0.2829989    0.2146945 -64.20 0.0005181498    1.197    0.165
        56 -10.5292      2.3387     59.9546   7.7094219983e+01   6.6445760857e+01    0.3823983      0.19875  82.04   0.00174459    2.130    0.530
        57 -10.3086      2.2217     42.8505   7.4355134591e+01   7.0751396075e+01    0.5139709    0.1116948 -80.34  0.001387772    5.979    0.833
        58  -8.0340     82.9341     61.9686   3.5576474389e+01   5.5400460975e+01    0.1862471    0.1708537  43.05 0.0002927691    1.054    0.051
        59  -9.8272     72.2546    242.5908   7.1142499654e+01   1.5646347114e+01     0.238583    0.1805986  47.13  0.001332241    1.132    0.117
        60  -8.9553    210.6963    243.6830   4.3132396711e+01  -1.5934396931e+00    0.1125257   0.06403355   1.60 0.0007025452    1.624    0.384
        61  -8.5998     60.1155     21.3107   2.6665570014e+01   6.7837231250e+01    0.1983748     0.169501  42.28 0.0005073147    1.091    0.084
