#   1 NUMBER                 Running object number                                     
#   2 MAG_AUTO               Kron-like elliptical aperture magnitude                    [mag]
#   3 X_IMAGE                Object position along x                                    [pixel]
#   4 Y_IMAGE                Object position along y                                    [pixel]
#   5 X_WORLD                Barycenter position along world x axis                     [deg]
#   6 Y_WORLD                Barycenter position along world y axis                     [deg]
#   7 A_WORLD                Profile RMS along major axis (world units)                 [deg]
#   8 B_WORLD                Profile RMS along minor axis (world units)                 [deg]
#   9 THETA_WORLD            Position angle (CCW/world-x)                               [deg]
#  10 FWHM_WORLD             FWHM assuming a gaussian core                              [deg]
#  11 ELONGATION             A_IMAGE/B_IMAGE                                           
#  12 ELLIPTICITY            1 - B_IMAGE/A_IMAGE                                       
         1 -12.5838    125.4018     28.1073   4.2002466334e+01   4.9522371650e+01     1.486259    0.7918074  81.85  0.006232395    2.500    0.600
         2 -12.7528    119.6950     37.3658   4.6286451978e+01   4.9767433086e+01    0.8842756    0.5491029 -56.90  0.004146028    2.038    0.509
         3 -12.9064    113.8915     25.2266   4.3347214490e+01   5.2599159417e+01     1.359442    0.5678816  72.95  0.004890844    3.267    0.694
         4 -11.2984    153.7738     24.9984   3.6357684061e+01   4.3038720182e+01    0.9578288     0.532139 -45.96  0.004806803    1.835    0.455
         5 -13.2735    163.8262     19.1078   3.3405213395e+01   4.1287333086e+01    0.4070678    0.3066848  31.23  0.001035142    1.761    0.432
         6 -12.7172    160.0233     29.5309   3.6765199937e+01   4.1036164208e+01    0.4669882    0.3332672 -45.54  0.002640001    1.408    0.290
         7 -10.1046    126.0373      5.0183   3.4277754520e+01   5.1625598879e+01    0.1989366    0.1894328 -57.36 0.0007305647    1.185    0.156
         8 -12.0122    143.7629     24.9610   3.7826940982e+01   4.5445761125e+01    0.8847788    0.4758844  42.47  0.004106384    2.171    0.539
         9 -10.6980    121.7006     11.7545   3.7204174487e+01   5.2084020058e+01    0.4523489    0.2471764  72.99  0.001999576    1.713    0.416
        10 -11.5222    121.1771      7.5354   3.5870244506e+01   5.2579282195e+01    0.5124879    0.3051638  66.35  0.002442704    1.426    0.299
        11 -11.9513    128.1430     14.2953   3.6972443427e+01   5.0301228125e+01    0.6269124    0.3934296 -44.78  0.003368443    1.741    0.426
        12 -11.3456    135.2963     14.7851   3.6002517354e+01   4.8532621778e+01    0.4592401    0.2763127  63.57  0.002199925    1.437    0.304
        13 -11.9215     27.1526     27.7803   7.5993428960e+01   6.9246179760e+01    0.5466092    0.4011897 -12.49  0.002369571    1.215    0.177
        14 -10.6297     29.5829      3.4058   6.1849845353e+01   7.2274523130e+01    0.3185742    0.2372588 -55.39  0.001779846    2.584    0.613
        15 -12.0322     36.0674     18.1102   6.6495248109e+01   6.9445749611e+01    0.7553395    0.3779451 -27.31  0.003817541    2.080    0.519
        16 -12.3251     20.1791     21.9817   7.7278104567e+01   7.1029745669e+01    0.6265858    0.2499014 -39.60  0.002637699    2.341    0.573
        17 -10.5901     13.1568      8.9618   7.4926578702e+01   7.3812851795e+01    0.2626625    0.2144062   6.51 0.0009486123    1.165    0.142
        18 -12.1805     48.4884     12.9302   5.7983194884e+01   6.8005092344e+01    0.6622875    0.2731159  49.47  0.002767087    2.368    0.578
        19 -10.9362     36.1689      9.0602   6.1650354646e+01   7.0574238346e+01    0.6838162    0.2346728  52.18  0.002284697    5.248    0.809
        20 -12.6313     16.6389     13.5907   7.5201326157e+01   7.2735818914e+01    0.7702595    0.3928161  -9.53 0.0009126544    2.695    0.629
        21 -12.1128     22.9486     11.3848   7.0145617873e+01   7.2254828553e+01    0.4829681    0.2976823   9.84  0.001894895    1.594    0.373
        22 -11.6925     75.4747      4.5671   4.4472083022e+01   6.3387031810e+01    0.6231933    0.4345773  84.46   0.00343682    1.928    0.481
        23 -10.6846     87.7270      7.8151   4.2670893844e+01   6.0392025056e+01    0.6021751    0.3781657  71.51   0.00321689    1.660    0.398
        24 -11.6498     90.4340     20.2880   4.7068872102e+01   5.8581282783e+01     0.765231    0.3785607 -25.08  0.003587531    2.277    0.561
        25 -11.7408     86.0718     14.0626   4.5685860897e+01   6.0194268831e+01    0.5104125    0.3468244   2.68   0.00202425    1.771    0.435
        26 -10.6621    178.2554     21.6448   3.2422102492e+01   3.7664167151e+01    0.4211381    0.2777114  28.74  0.002166816    2.418    0.586
        27 -12.0800     68.3163     18.0938   5.2833573583e+01   6.3592648115e+01    0.5014189    0.3873357  40.99  0.001681582    1.123    0.109
        28 -12.0017    234.9950     18.2105   2.6828633164e+01   2.6051754563e+01    0.3958601    0.3217333 -32.52  0.002864103    1.463    0.317
        29 -11.6842    228.4852     15.7917   2.6780578776e+01   2.7579140238e+01    0.3691964    0.2212187  86.11   0.00112742    1.574    0.365
        30 -11.5583    224.0698     11.7039   2.6246040162e+01   2.8889745147e+01    0.3909048    0.2169038 -66.60  0.001431832    1.575    0.365
        31 -12.3991    246.0894     16.0906   2.5721465386e+01   2.4206462014e+01    0.4644746      0.30089 -89.73  0.003212447    1.452    0.311
        32 -10.7156    186.6974     15.1852   2.9970532271e+01   3.6439955053e+01    0.5636827    0.2260845 -89.03  0.002241976    3.267    0.694
        33 -10.5333    196.6007      4.7758   2.6699083434e+01   3.5301874514e+01    0.2669317    0.1605952 -49.07  0.001171488    1.485    0.327
        34 -11.5192    192.2206      8.4620   2.7890764232e+01   3.5896675507e+01    0.5975263    0.3443907  -7.42  0.002553611    3.123    0.680
        35 -12.3019    185.1719      8.0703   2.8393531668e+01   3.7495991615e+01    0.6941302    0.3446099 -57.02  0.002844622    1.925    0.481
        36 -12.2722    104.7155     12.9832   4.0850151840e+01   5.6010174867e+01    0.4416487    0.3428666  -7.72  0.001465301    1.515    0.340
        37 -11.4137    211.4406     10.6831   2.6906809681e+01   3.1564646377e+01    0.4153922    0.2968145  -1.90  0.002471695    2.381    0.580
        38 -12.2916    137.2883     22.0881   3.7970299982e+01   4.7316311378e+01     1.620586      0.31871  53.54   0.00514083    4.050    0.753
        39 -10.1736      6.4813     12.5232   8.1371593735e+01   7.3971431274e+01    0.3481871    0.1499398  24.20  0.001570222    2.198    0.545
        40  -9.4482      5.2731      9.3576   8.0553251383e+01   7.4578266210e+01    0.2971033    0.1465516 -18.22  0.001530565    2.210    0.548
        41 -10.0562    162.6413      9.7690   3.1018340136e+01   4.2494786213e+01    0.3843803    0.1950372 -12.32  0.001751642    3.065    0.674
        42 -10.5019     66.0769     10.2275   4.9953155586e+01   6.4872997891e+01    0.3363915    0.1736135  51.51  0.001711427    1.664    0.399
        43 -10.0646     62.7058      6.6596   4.9383582818e+01   6.5902212982e+01    0.2433665    0.1613139  20.63  0.001390841    1.532    0.347
        44  -9.7936    145.5018      9.5298   3.2979212616e+01   4.6574338860e+01    0.1718972    0.1268429  -0.12 0.0005302947    1.839    0.456
        45 -11.9172    233.1164      7.2401   2.4790296280e+01   2.7586320434e+01    0.3218059    0.2023955 -65.75  0.002040506    1.273    0.215
        46 -12.2366    247.3537      5.5371   2.3683298960e+01   2.5099152479e+01    0.4204814    0.2889291  75.48  0.002701835    1.550    0.355
        47 -11.7872    237.8593      5.3587   2.4157302369e+01   2.6876729875e+01    0.3309773    0.1769472 -60.45  0.001815582    1.494    0.331
        48 -11.0308    241.4777      3.4962   2.3610149880e+01   2.6389032381e+01    0.1999148    0.1662793 -75.65 0.0008180135    1.184    0.155
        49  -9.5417    169.3312      9.4371   3.0225777269e+01   4.0968943233e+01    0.2577727    0.0619483  58.18  0.000941965    3.560    0.719
        50 -11.5271    157.7495      3.9637   2.9969893848e+01   4.4168211409e+01    0.4255073    0.2307479 -37.70  0.002304438    1.888    0.470
        51 -10.2669    142.1902      4.1796   3.1815749481e+01   4.7832137646e+01    0.2720571    0.1611874  75.43  0.001377706    1.465    0.317
        52 -10.6683    137.7653      4.4081   3.2447736332e+01   4.8869136787e+01    0.2433108    0.1664023  49.25 0.0003179749    1.475    0.322
        53 -11.4083    133.6841      2.3690   3.2357077821e+01   5.0010773691e+01    0.4282605    0.2156716  69.60  0.002045746    1.665    0.400
        54 -11.3246    117.4875      2.1295   3.4628482546e+01   5.3897035017e+01    0.5869772    0.1845253  64.86   0.00240818    2.477    0.596
        55 -10.9417    109.1396      3.8927   3.6655373573e+01   5.5741866357e+01    0.4581457    0.2289633  37.00  0.001874491    2.264    0.558
        56 -11.1452    105.1119      1.6277   3.6556819139e+01   5.6865628536e+01    0.4346053    0.1902006  71.31  0.001494932    2.124    0.529
        57  -9.0821     55.6583      5.3558   5.1238856765e+01   6.7434986850e+01    0.1153863    0.0977761 -74.22 0.0007038885    1.818    0.450
        58 -10.0431     41.8011      4.0105   5.6192393639e+01   7.0161817600e+01    0.3553424    0.1944313  11.45  0.001780013    2.271    0.560
        59 -10.5861    218.7002      3.4175   2.4893974937e+01   3.0813449407e+01    0.2143478    0.1867862 -47.28  0.001426338    1.300    0.231
        60 -11.5670    224.7334      2.2336   2.4291392954e+01   2.9726240411e+01     0.441775    0.1761678  83.15  0.001667678    2.404    0.584
        61  -9.7429    207.5028      3.4470   2.5626039203e+01   3.3111444660e+01    0.1879209    0.1435027 -69.18 0.0007828395    1.050    0.048
        62 -10.6348    202.9981      2.1130   2.5644223191e+01   3.4187990845e+01    0.3535763    0.1500467  61.97  0.001820262    2.362    0.577
        63 -11.3027      2.7885      1.8493   7.8117076038e+01   7.5928042570e+01    0.3725692    0.1686392  15.50   0.00196633    2.226    0.551
        64 -10.8654    176.9445      5.8606   2.8583382607e+01   3.9560304988e+01    0.3221492    0.1642162  86.18 0.0008785237    1.851    0.460
        65  -9.9280     13.1652      1.5981   7.0601497218e+01   7.4808051219e+01     0.264315   0.09535358  30.92   0.00125722    2.546    0.607
        66 -10.8704    229.9889     26.7830   2.8907326825e+01   2.6046434275e+01    0.2890199    0.2036544 -30.00  0.001126978    1.607    0.378
        67 -10.3406    142.8120    249.8310   8.9609704266e+01   3.0805042552e+00    0.1713533    0.1334615  41.24 0.0007880253    1.334    0.250
        68 -10.1043     45.0035    120.2285   9.5634045167e+01   4.6707975747e+01    0.2829618    0.2174215  30.63  0.001428422    1.383    0.277
        69 -10.5893     43.5901    116.7554   9.5469260744e+01   4.7767675293e+01    0.3349246    0.3146208   9.41  0.001931927    1.138    0.121
        70 -11.5757     17.2933    100.9595   1.0247277033e+02   5.4260119653e+01    0.3284389    0.2689407 -35.48 0.0005009421    1.183    0.154
        71 -10.6893     36.1434    103.5410   9.5588159706e+01   5.1950739606e+01    0.7445514    0.2535586  17.46    0.0024502    3.850    0.740
        72 -10.2052     33.8263    112.0647   9.8154827042e+01   5.0010922918e+01    0.3095975    0.2068045   1.93 0.0006987433    1.794    0.443
        73 -12.2725     24.8027    106.9205   1.0061502225e+02   5.2155839342e+01    0.9005985    0.5116297 -66.96  0.003647923    1.603    0.376
        74 -11.2343     21.7123    114.4260   1.0304015935e+02   5.0481887963e+01    0.4966544    0.2750516  -3.56  0.001751055    2.388    0.581
        75 -10.8023     28.1359    113.1959   1.0047068532e+02   5.0254815099e+01    0.3007458    0.2409781  -6.90  0.000680221    1.398    0.285
        76 -10.3094      7.0195    114.5228   1.0838177588e+02   5.1475367570e+01     0.265442    0.2248486  41.65 0.0008773879    1.336    0.251
        77 -12.0280      2.4344    111.8870   1.0969644705e+02   5.2403367560e+01    0.4066894    0.2304234 -72.39  0.000727513    1.502    0.334
        78 -11.3308      3.9317    105.0826   1.0826393166e+02   5.4051906853e+01    0.4225354    0.3547006 -15.20  0.002058649    1.320    0.242
        79  -9.2015    126.6635    113.6973   6.7772290573e+01   3.4458796066e+01    0.1598005    0.1239133  -0.27 0.0007037584    1.665    0.400
        80  -9.9503     93.9817    112.5120   7.7068969376e+01   4.1228401165e+01    0.2969724    0.2247072 -70.22    0.0010418    1.591    0.371
        81 -10.0238     48.6388    112.4091   9.2743102382e+01   4.8290195435e+01    0.2605252    0.2308256 -69.04  0.000910066    1.134    0.118
        82 -10.7554    170.4932    110.5871   5.6651436431e+01   2.5740256246e+01    0.3729716    0.2883255 -31.50  0.001205888    1.303    0.233
        83 -11.0713    102.4682    109.2706   7.3560352116e+01   4.0374328523e+01    0.5704591    0.4259253 -29.03  0.002591483    1.472    0.321
        84 -10.1743     66.4414    110.7393   8.5924356784e+01   4.6291879359e+01    0.3464387    0.1780363  34.56   0.00140839    1.985    0.496
        85 -10.0456    134.8053    110.3400   6.4754787100e+01   3.3461052771e+01    0.2142653    0.1419337  35.01 0.0001165379    1.634    0.388
        86 -10.9032     16.0576    109.4212   1.0434369129e+02   5.2196102746e+01    0.3504175    0.2109983  48.25 0.0008570401    1.954    0.488
        87 -10.1339     18.0178    106.4357   1.0312273962e+02   5.2817011148e+01    0.2277991      0.16271 -41.70  0.001232078    1.323    0.244
        88 -11.2065    248.9452    107.9723   4.3610340153e+01   1.1300952670e+01    0.2974967    0.2102238  79.09  0.001763326    2.015    0.504
        89 -10.2667    120.9095    109.0450   6.8110742102e+01   3.6686894333e+01    0.3717479    0.2248361  31.26  0.001506105    1.902    0.474
        90 -11.6177     79.7504    108.0250   8.0606182221e+01   4.4829820180e+01    0.6064832    0.3172003  28.15 0.0003800744    2.134    0.531
        91  -9.5759    228.6727    107.3283   4.6099570606e+01   1.4851636214e+01    0.1335284   0.09136557 -63.35  0.000705069    1.704    0.413
        92 -11.1526    143.5142    106.0265   6.1454218364e+01   3.2478096353e+01    0.3094815     0.293742 -58.72  0.001142839    1.068    0.064
        93 -11.5295    145.4813    100.4052   5.9485869620e+01   3.3181067432e+01    0.4570714    0.3155367 -29.23 0.0009432473    1.604    0.376
        94 -11.2525    180.9714    103.2174   5.2794222475e+01   2.4905316193e+01    0.5471108     0.410695 -86.20  0.002674881    1.767    0.434
        95 -10.3398     89.4445    104.5260   7.6426408969e+01   4.3946313347e+01    0.2587959    0.1514401  37.94 0.0005720083    1.727    0.421
        96 -10.3620     85.7152    103.9563   7.7511971613e+01   4.4757013584e+01    0.2389891    0.2061273 -14.94 0.0007212383    1.232    0.188
        97 -10.8418     49.4579    102.4621   9.0216200349e+01   5.0696642046e+01    0.4543286    0.2755533   0.83  0.001245815    2.252    0.556
        98  -9.6825    194.5223    101.9623   5.0095843254e+01   2.2309070637e+01    0.2179741    0.1278647 -40.14  0.001019172    1.553    0.356
        99 -12.1520      7.3290     89.1663   1.0446084373e+02   5.7843983076e+01    0.6396101    0.4208881  23.71  0.001503397    1.717    0.417
       100 -11.8551      9.4968     97.4086   1.0496214968e+02   5.5671040610e+01    0.4947562    0.4454183  32.73 0.0005146904    1.284    0.221
       101 -10.3473     19.6258     82.9650   9.7963031616e+01   5.8531921245e+01    0.4395054    0.1866117 -64.78  0.001308007    2.192    0.544
       102 -11.7723     35.3253     92.9236   9.3577437395e+01   5.4679645037e+01    0.7600507    0.4854421 -47.29  0.003319364    1.398    0.285
       103 -10.8975     25.3718     87.0706   9.6397146570e+01   5.7062974352e+01    0.9056411    0.4961343  85.35  0.003359295    3.593    0.722
       104 -10.5982     29.1387     84.9515   9.4293418502e+01   5.7230887066e+01    0.3720585     0.291468  87.04  0.001201877    1.632    0.387
       105 -11.4055     22.9916     94.7275   9.9018418499e+01   5.5382166572e+01    0.4332184    0.2869469   4.44  0.001388597    1.711    0.416
       106 -11.8481     18.0396     90.6414   1.0025068504e+02   5.6781781891e+01    0.4958942    0.2892226 -61.78 0.0006021187    1.494    0.331
       107 -11.5536     44.6887     85.0636   8.7739603268e+01   5.5505094370e+01    0.6532952    0.4033861  -2.97    0.0029019    2.113    0.527
       108 -10.5056     37.2850     85.8836   9.1054647411e+01   5.6174025077e+01    0.2896799    0.1967891  16.01 0.0008438199    1.577    0.366
       109 -11.1923     80.2079     98.2105   7.7819427593e+01   4.7075696322e+01    0.3963833    0.3503566  72.09  0.001619523    1.352    0.260
       110 -10.5481     82.8226     93.3727   7.5541405334e+01   4.7717886703e+01    0.4038393    0.2057811  30.18  0.001405671    2.189    0.543
       111 -10.8452     78.5867     92.8019   7.6857602564e+01   4.8602973672e+01    0.4684736    0.3757616  20.27  0.002354544    1.303    0.232
       112 -10.4042    210.3412     97.4907   4.6558422524e+01   1.9903815548e+01    0.2894725    0.2425991   7.59  0.001665266    1.550    0.355
       113 -11.4944     68.6674     95.7639   8.1272711458e+01   4.9580228511e+01    0.4061583    0.3122682   9.78 0.0007230263    1.449    0.310
       114 -10.6089     52.2969     96.8351   8.7754041634e+01   5.1715025279e+01    0.4618485    0.2048903 -53.75  0.001831701    2.059    0.514
       115  -9.5387    190.5999     96.7707   4.9518577151e+01   2.4031444310e+01    0.2078675    0.1200512 -47.95 0.0009490966    1.647    0.393
       116 -10.7729     43.0868     94.2729   9.0753716599e+01   5.3489976566e+01    0.3551274    0.2838285 -45.21  0.001329371    1.139    0.122
       117 -11.0622    125.9607     94.1014   6.2600524812e+01   3.8770218044e+01    0.3657743    0.3533748  13.30 0.0007794104    1.051    0.048
       118 -11.4223    122.3034     93.6681   6.3455573735e+01   3.9660201646e+01    0.2966873      0.29007  49.31  0.001039922    1.034    0.033
       119 -11.6534    236.3267     91.8619   4.1846372658e+01   1.5937804873e+01    0.4175186    0.2850233 -52.07  0.002159826    1.299    0.230
       120 -10.9052    153.0323     91.7772   5.5449466668e+01   3.3161615487e+01     0.539039    0.3321137  32.43  0.002256395    2.104    0.525
       121 -10.9902     98.5406     91.1685   6.9690595876e+01   4.5192936973e+01    0.2804378    0.2632706  47.53 0.0002855884    1.106    0.096
       122 -12.2746     89.0702     89.6593   7.2323379692e+01   4.7378737193e+01    0.4359577    0.3539504 -26.97 0.0008472622    1.278    0.217
       123 -10.4438     49.2558     91.1773   8.7500871855e+01   5.3478031138e+01    0.2993288    0.1980712  39.02    0.0014414    1.644    0.392
       124 -10.7992    184.1789     87.0545   4.8227420769e+01   2.7079055626e+01     0.569209    0.2572421 -46.08  0.002327816    2.114    0.527
       125 -11.3450    121.1558     88.8036   6.2354260388e+01   4.0896862140e+01    0.4012195    0.2366167  30.53  0.001427082    2.134    0.531
       126 -10.8807    104.0617     87.8620   6.6989106960e+01   4.4761141211e+01    0.3381054    0.2187409 -37.54  0.001056568    1.588    0.370
       127 -10.0552     66.2870     89.0540   8.0276397486e+01   5.1519063814e+01     0.333459    0.2101355  11.98  0.001303247    2.046    0.511
       128 -10.1784    247.7956     85.3844   3.9205804559e+01   1.4907702192e+01    0.1490322    0.1130101  48.29 0.0009503491    1.686    0.407
       129 -11.1267    142.5441     84.6537   5.5812792433e+01   3.6875087687e+01    0.6077179    0.2639094  44.17  0.001279519    2.438    0.590
       130 -11.7919    112.9429     83.0052   6.2899849428e+01   4.3850017657e+01    0.5627935    0.3961074  68.23  0.002492035    1.847    0.459
       131 -10.9185     80.3771     83.9403   7.3583742847e+01   5.0246943629e+01    0.4216591     0.368927 -20.44  0.002010818    1.140    0.123
       132 -11.2901     75.1591     78.7467   7.3841610600e+01   5.2300294440e+01    0.6003469    0.5192914  57.25   0.00279133    1.356    0.262
       133 -10.3722    165.5971     83.6415   5.0699228459e+01   3.1793431340e+01    0.2867309    0.2442345 -60.59   0.00102217    1.175    0.149
       134  -9.7079     71.9413     84.2599   7.6740798500e+01   5.1667822891e+01    0.2011253    0.1828612  15.67 0.0003671742    1.085    0.079
       135 -10.1137     67.0183     82.2881   7.7996096815e+01   5.2925623275e+01    0.3810906    0.2561915 -34.84  0.001801451    1.504    0.335
       136  -9.4207    218.1400     83.3855   4.2303134377e+01   2.0652951193e+01    0.1683178    0.1206494  83.04 0.0004043307    1.662    0.398
       137  -9.8830     60.2404     83.2098   8.0905256038e+01   5.3789193610e+01    0.2235774    0.1908315 -21.03 0.0009929365    1.139    0.122
       138 -10.1900      1.3428     80.5251   1.0551490780e+02   6.0254466149e+01    0.3058219    0.1038956 -68.82   0.00123836    2.510    0.602
       139 -11.6456     53.1968     76.5073   8.1735134176e+01   5.6325723113e+01    0.6224336     0.396371 -58.55  0.002936661    1.735    0.424
       140 -11.0680     58.2537     77.7715   8.0054506989e+01   5.5302601166e+01    0.3219889    0.2453946 -32.31  0.000830568    1.269    0.212
       141 -12.2549    242.6307     77.1087   3.8080880779e+01   1.7021756633e+01    0.4644667    0.2936839 -84.71  0.002053567    2.068    0.516
       142 -11.0202     79.3923     68.2346   6.8838656483e+01   5.3656786794e+01    0.5032457    0.3528619  61.30   0.00232595    1.924    0.480
       143 -10.3807     94.5683     75.7687   6.6189075379e+01   4.9175735068e+01    0.5970921    0.5020392  61.22  0.002766226    1.353    0.261
       144 -11.8764     86.2613     73.0757   6.8063273961e+01   5.1377683400e+01    0.6039215    0.4786623  42.78  0.002304672    1.262    0.207
       145 -11.6673     13.8142     74.4454   9.8656970459e+01   6.0985169303e+01    0.5362885    0.3750336 -76.29  0.002628176    1.588    0.370
       146 -10.3018     14.2905     67.7356   9.6822498147e+01   6.2505777593e+01    0.3635592    0.2183034  10.11  0.001913265    1.788    0.441
       147  -9.5361    135.1811     77.4453   5.5440187833e+01   3.9885372445e+01    0.2157435    0.1426144  66.63 0.0009470911    1.760    0.432
       148 -10.4038    126.7525     76.9612   5.7354409856e+01   4.1909733048e+01    0.2048335    0.1993252 -46.63 0.0003865589    1.046    0.044
       149 -10.7257    234.0399     77.7122   3.9145422360e+01   1.8491687977e+01    0.2738947    0.2344617 -89.49  0.001072947    1.257    0.205
       150 -10.6303    192.6520     66.0572   4.1719935396e+01   2.8607462685e+01     0.373391    0.2402145 -76.14  0.001587151    1.901    0.474
       151 -12.7640    185.9676     69.8399   4.3636638787e+01   2.9497800962e+01     1.036334    0.5357702 -51.46   0.00462456    1.962    0.490
       152  -9.5830    112.4612     75.3369   6.0659683163e+01   4.5430945573e+01    0.2608809    0.1372105  48.63 0.0007732587    1.865    0.464
       153 -10.2027    103.8688     74.8909   6.3013445678e+01   4.7391116331e+01    0.2746174     0.227163  56.69  0.001349923    1.279    0.218
       154 -10.2159     29.2358     72.2082   9.0969370719e+01   6.0204865117e+01    0.3125351    0.1886419  30.24  0.001244614    1.772    0.436
       155 -11.8187     40.8754     71.7675   8.5580918198e+01   5.9011909368e+01    0.4855436    0.3405581 -58.78  0.001552644    1.516    0.340
       156 -10.7848     34.5122     71.8726   8.8467136294e+01   5.9728025882e+01    0.4521007    0.2124574  35.96  0.001969907    2.318    0.569
       157  -9.8743     24.5235     74.0963   9.3638036544e+01   6.0217102370e+01    0.2071205    0.1218257 -58.20  0.001023231    1.566    0.362
       158 -11.5021      2.0935     71.5853   1.0349446480e+02   6.2342752445e+01    0.6693628    0.1959976 -66.49  0.002597245    2.852    0.649
       159 -10.1509     13.9189     54.0792   9.3258306226e+01   6.5555497122e+01     0.326091    0.1465624 -50.62  0.001561297    1.838    0.456
       160 -11.9338     10.0865     62.4918   9.7556210223e+01   6.3981395924e+01    0.4429842    0.2967646 -54.08  0.001259549    1.290    0.225
       161 -12.0431      4.6181     62.2365   1.0022930600e+02   6.4366191127e+01    0.4317688    0.3330497 -49.76  0.001503681    1.095    0.087
       162 -11.5133    237.9337     69.6833   3.7047148847e+01   1.8941438065e+01     0.446909    0.2780638  85.92  0.002510539    1.990    0.498
       163 -10.0330    239.2177     65.4031   3.6033128388e+01   1.9310722471e+01    0.2141453    0.1372836 -55.63  0.001009175    1.354    0.262
       164 -10.8728    162.2450     71.0626   4.7941727418e+01   3.4690315253e+01    0.3929429     0.291712 -87.51  0.001484355    1.597    0.374
       165 -10.1418    154.1137     72.4774   4.9893624767e+01   3.6345937738e+01     0.314435    0.1286103  49.91  0.001176291    2.440    0.590
       166 -11.9923    122.8823     69.0581   5.5899698630e+01   4.4209719544e+01    0.4716898    0.3571761  49.64  0.001265026    1.279    0.218
       167 -10.7731    200.5444     69.8180   4.1531768345e+01   2.6338270381e+01    0.2306857    0.1834904  71.13 0.0005631882    1.314    0.239
       168 -10.8629    171.3850     67.9483   4.5487442624e+01   3.3083151061e+01    0.4966215    0.2648056 -36.70  0.001749895    1.850    0.459
       169 -12.1330    219.8917     66.5962   3.8365014416e+01   2.2838167898e+01    0.5504051    0.2890823  60.09   0.00255845    2.075    0.518
       170 -11.7607     59.2570     63.8272   7.5067946881e+01   5.8077006395e+01    0.3143204    0.2676983 -46.16  0.000431382    1.257    0.205
       171 -10.6830    199.8848     64.0043   4.0238673475e+01   2.7350048091e+01    0.4680871    0.2794733  78.48  0.002311753    1.954    0.488
       172 -10.9590    106.3086     63.2857   5.8490249871e+01   4.8968892880e+01    0.4392293    0.3001486  50.48  0.002111481    1.420    0.296
       173  -9.8057     21.0626     65.0228   9.2824558443e+01   6.2583465253e+01    0.1948817    0.1659984 -40.88  0.000513422    1.069    0.064
       174 -10.4757     98.6952     62.6835   6.0532949980e+01   5.0743822746e+01    0.3064327    0.1846037  24.40 0.0008988425    2.261    0.558
       175 -11.4536     91.7677     62.6244   6.2684897279e+01   5.2227397804e+01    0.5463898    0.3514463  63.93  0.002375847    2.115    0.527
       176 -11.0351     87.7503     56.5120   6.1831540851e+01   5.4132872179e+01    0.6062397    0.2308725 -35.92  0.002206016    2.828    0.646
       177 -10.5818     91.3195     57.3778   6.0982732329e+01   5.3237562145e+01    0.3512993    0.2697242  49.11  0.001060455    1.288    0.223
       178  -9.6952     51.0099     56.7288   7.6053632668e+01   6.0763019386e+01    0.2524159    0.2141811 -10.18  0.001180968    1.082    0.076
       179 -12.3159     43.8735     46.0923   7.5262194593e+01   6.3818214001e+01    0.7083268    0.6727106 -72.74  0.001390515    1.456    0.313
       180 -11.7734     60.0759     46.7654   6.8358682065e+01   6.1107801999e+01    0.9255973    0.6222491 -32.96  0.004852776    1.492    0.330
       181 -10.4047     52.0807     48.2931   7.2385064086e+01   6.2172942050e+01    0.2798806    0.2181831  -1.72 0.0007410554    1.265    0.209
       182 -12.4175     44.2015     61.5503   8.0802268534e+01   6.0771111971e+01    0.6163754    0.3461695 -26.49  0.001084425    2.055    0.513
       183 -11.1114     52.2365     61.8423   7.7342744523e+01   5.9567615660e+01    0.3678417      0.21982  40.71  0.001752128    1.804    0.446
       184 -11.2555     40.7415     57.1281   8.0864027511e+01   6.2131829006e+01    0.4402803     0.216808  38.65  0.001742106    2.223    0.550
       185 -11.8055    234.8627     60.9741   3.5551209579e+01   2.0737735692e+01    0.3733715    0.3031609 -58.54   0.00140364    1.024    0.024
       186 -10.8365    159.1508     62.3990   4.6114857528e+01   3.6790314143e+01    0.5052536    0.2157733  50.00  0.001994754    2.381    0.580
       187 -10.9329    210.4612     67.8632   3.9782708310e+01   2.4559394024e+01    0.4731153     0.143499  51.52  0.001734118    3.820    0.738
       188 -12.7542     74.8089     53.2256   6.5120649828e+01   5.7291633781e+01    0.8809578    0.6653132 -17.49  0.001283338    1.416    0.294
       189 -11.0735     72.5792     47.3068   6.3673713056e+01   5.8717091497e+01    0.3694814    0.2631538 -49.77  0.001428786    1.702    0.412
       190  -9.6201     65.0421     62.0224   7.2087839778e+01   5.7466646838e+01    0.1992324    0.1769628  85.89 0.0004695293    1.555    0.357
       191 -11.0229     92.5952     41.3194   5.4679889818e+01   5.5477906586e+01    0.6774918    0.2344904  51.42  0.002495924    2.638    0.621
       192 -10.2217    174.8866    247.0468   8.2581374759e+01  -7.2597646788e-01    0.2184068     0.160626 -22.12  0.001384813    1.349    0.259
       193 -12.4543    119.7233     57.6446   5.3040683907e+01   4.6844406282e+01     1.616838    0.9717745 -73.75  0.005862118    3.354    0.702
       194 -11.7493    108.0571     42.5000   5.0836182545e+01   5.1816323296e+01     1.023293    0.5300099  49.16  0.004571591    1.760    0.432
       195 -11.4085    113.8461     38.1595   4.7890176212e+01   5.1049844896e+01    0.2762915    0.2394908 -40.32 0.0002919351    1.252    0.201
       196 -12.5137    118.9741     44.1670   4.8747680274e+01   4.9029291664e+01     1.023797    0.5993497  59.66  0.003918989    1.626    0.385
       197  -9.9789    121.6707    245.6931   9.3627893118e+01   6.6644939384e+00    0.1274832   0.09159642  -2.23 0.0005773482    1.658    0.397
       198 -11.9500    107.1084     31.6974   4.7199397733e+01   5.3447004482e+01    0.5973337    0.3407242  17.97  0.002426081    2.932    0.659
       199  -9.4348    197.4629    243.5092   7.7604906370e+01  -3.0568345768e+00    0.1226489   0.09493241   2.60 0.0001173529    1.007    0.007
       200  -9.8583    113.5890     60.7154   5.5626811591e+01   4.7761497023e+01    0.2779606    0.1448503 -31.76   0.00114173    2.125    0.529
       201 -10.0481     29.4455     59.6955   8.7136970054e+01   6.2938625947e+01    0.3585205    0.3149224 -85.85  0.002147893    1.551    0.355
       202 -10.7578     24.9956     59.5004   8.9263042224e+01   6.3432300176e+01    0.6420115    0.3321053  52.77  0.002461633    3.907    0.744
       203 -10.8266     25.4857     55.9826   8.7898282025e+01   6.4130499874e+01    0.3875133    0.2047923 -39.13  0.001232579    1.698    0.411
       204 -10.6140    136.2236     56.5758   4.8904300088e+01   4.3119419670e+01    0.5499879    0.2795478 -18.32  0.001965723    3.338    0.700
       205 -10.0124    139.3222     54.6668   4.7673221152e+01   4.2669788956e+01    0.2842909    0.2258714  58.32 0.0009744677    1.200    0.166
       206 -10.8768    219.1309     57.1517   3.6366579773e+01   2.4331963163e+01    0.4001951    0.2053789  76.58  0.001961248    2.298    0.565
       207 -12.0388    157.3020     54.0125   4.4086318294e+01   3.8484489806e+01     1.002427    0.6222066 -78.36  0.004420337    2.219    0.549
       208 -11.3243    155.4750     42.2866   4.1056162962e+01   4.0541749295e+01     0.394935    0.3065896 -51.12  0.001005207    1.294    0.227
       209 -10.7142    153.0765     36.2983   3.9716939343e+01   4.1880459583e+01     0.288226    0.2295671 -22.88 0.0003917732    1.460    0.315
       210 -10.6424    106.9468     58.4813   5.6688558020e+01   4.9637660621e+01    0.2231559     0.137913  51.23 0.0005885521    1.551    0.355
       211  -9.7692     33.4119     57.5507   8.4502078157e+01   6.2948729653e+01    0.2224999    0.1713868  -3.89  0.001254961    1.257    0.204
       212  -9.8272     66.9190     55.3121   6.8898180781e+01   5.8392908405e+01    0.2260864    0.1904053 -43.80 0.0006053887    1.303    0.233
       213  -9.9987      7.2939     54.1764   9.6782829571e+01   6.5995576266e+01    0.2308802    0.1256704 -54.47  0.001218386    1.553    0.356
       214 -10.7985    206.6967     53.1821   3.6860643485e+01   2.7445150817e+01    0.3113518    0.2052277  82.81   0.00104027    1.609    0.378
       215 -10.1184    202.1908     52.6146   3.7255840908e+01   2.8481728576e+01    0.2269501      0.20715  22.71  0.001059814    1.450    0.311
       216 -10.3271    201.5221     48.5431   3.6377352870e+01   2.9179812496e+01    0.2648009    0.1986171 -32.96 0.0007861017    1.409    0.290
       217 -11.8013    198.9456     44.4750   3.5713102285e+01   3.0277581106e+01    0.7319985    0.3355091  77.29  0.003244358    2.525    0.604
       218 -10.6582     32.9329     52.7536   8.3075077609e+01   6.3982126165e+01    0.4328081    0.2133908  20.21  0.001636746    2.165    0.538
       219 -10.6535    215.2432     52.6186   3.5781018799e+01   2.5744789256e+01    0.1614808    0.1121074  60.32 0.0004792573    1.584    0.369
       220 -11.2359    145.9379     47.3003   4.4168001121e+01   4.2147631311e+01     1.125013    0.3213193 -40.22  0.003854489    3.367    0.703
       221 -10.8583    245.4415     51.2219   3.2588218833e+01   2.0094760233e+01    0.2019127    0.1535074  84.55  0.001135451    1.388    0.280
       222 -10.3587    240.7444     50.4211   3.2834787442e+01   2.1061242713e+01    0.1856567    0.1448871 -17.90  0.001188553    1.734    0.423
       223 -10.2691    176.8829     43.4943   3.8212005454e+01   3.5352691667e+01    0.4358244    0.1836214  50.52  0.001809684    2.625    0.619
       224 -11.0985    175.7858     48.4161   3.9648924608e+01   3.4945378883e+01    0.3455296    0.3089583  49.22   0.00122551    1.265    0.210
       225 -11.0859    171.9943     47.7640   4.0024066223e+01   3.5912323694e+01     0.313388    0.2906834   1.49  0.001238631    1.332    0.249
       226  -9.7831    144.6563     52.6637   4.6009445204e+01   4.1691662767e+01    0.2599676    0.1234873  50.56  0.001079249    2.049    0.512
       227 -10.6467     12.6769     47.9477   9.2018030133e+01   6.6940803253e+01    0.3679386    0.1689016 -29.56  0.001692048    2.214    0.548
       228  -9.8232      2.1568     48.8652   9.8086915534e+01   6.7438050223e+01    0.2092104    0.1339317  18.59 0.0008515354    1.697    0.411
       229 -11.4285     20.5533     46.1050   8.7108440564e+01   6.6634006756e+01    0.3001268    0.2362162 -32.17  0.000522343    1.095    0.087
       230  -9.7059    167.4918     46.0611   4.0233778393e+01   3.7194618133e+01     0.207635    0.1313803 -34.44  0.001046047    1.631    0.387
       231 -10.3813    138.7495     44.1346   4.4557713955e+01   4.4307530686e+01    0.4388545    0.2422647  30.02  0.001721871    2.935    0.659
       232 -10.4195    133.9695     46.0000   4.6083620603e+01   4.5199737586e+01    0.3852342    0.1838681  59.81   0.00123904    1.967    0.492
       233  -9.5391    248.6396     44.7009   3.1041280233e+01   2.0356807451e+01    0.1001554   0.08971632  22.99 0.0007035168    1.714    0.417
       234  -9.9707    161.7141     43.7986   4.0493670998e+01   3.8858913420e+01    0.2900632    0.1813182  76.65  0.001428144    1.653    0.395
       235 -10.9807     33.3923     42.9487   7.9157523661e+01   6.5815739901e+01    0.4840589    0.3117775 -16.44  0.002551911    1.627    0.385
       236 -10.1761      8.4902     30.3666   8.8156318592e+01   7.0723900222e+01    0.5648611    0.2220641  12.17   0.00251652    2.848    0.649
       237  -9.8603      5.9029     43.1666   9.4278349371e+01   6.8407494731e+01    0.2476567    0.2043943 -60.99  0.001078638    1.367    0.268
       238  -9.7012      3.9998     39.2571   9.4116169923e+01   6.9323328491e+01    0.1739714    0.1376588  16.94 0.0007925148    1.395    0.283
       239 -10.9326      4.8087     36.0786   9.2550085249e+01   6.9902737653e+01    0.3322525    0.2287092  12.30 0.0008388741    1.468    0.319
       240 -10.6129     26.2711     43.0377   8.2907484961e+01   6.6642094777e+01    0.2203748    0.1716864   8.85 0.0006938807    1.209    0.173
       241 -10.7508     99.7508     54.0090   5.7200131208e+01   5.1971998410e+01    0.3619992    0.1744066  50.14  0.001495401    1.966    0.491
       242 -11.4517    227.6091     37.4661   3.1310545168e+01   2.5228626588e+01    0.6260324    0.2883573  87.09  0.002986457    2.697    0.629
       243 -11.0458    198.8582     35.6398   3.3637006547e+01   3.1421555387e+01    0.2903247    0.2606386 -85.49  0.001464424    1.109    0.099
       244 -11.4637     79.2167     35.7025   5.6698407589e+01   5.9136643210e+01     0.759149    0.5201948 -32.62  0.004040052    1.560    0.359
       245  -9.5978    217.9583     39.4785   3.2607343139e+01   2.6911817227e+01    0.1744274    0.1123686  76.12 0.0007323042    1.564    0.361
       246 -10.4007    133.2888     37.5544   4.3548008229e+01   4.6484963154e+01    0.3681343    0.2485183 -86.84  0.001787904    1.833    0.454
       247 -11.2781     61.0423     36.2891   6.3637598678e+01   6.2621935698e+01     0.419205      0.30045 -17.88  0.001415772    1.453    0.312
       248 -10.8107     22.6019     37.2063   8.2610450045e+01   6.8134377561e+01    0.4803828    0.2108085  38.94  0.002143733    2.823    0.646
       249 -10.8686    205.5970     37.3340   3.3334274718e+01   2.9759673618e+01    0.3047944    0.1890381  72.41  0.001028341    1.593    0.372
       250 -10.0196    183.9245     38.0755   3.5920596985e+01   3.4439349679e+01    0.1968025    0.1666247 -78.45 0.0007865949    1.055    0.052
       251 -10.9355    176.9282     36.5206   3.6395348076e+01   3.6234302200e+01    0.2999545     0.268063  12.04  0.001617167    1.468    0.319
       252 -10.4394    181.9142     32.7936   3.4830478700e+01   3.5547261271e+01    0.3353953    0.1408208  57.38  0.001498146    2.331    0.571
       253  -9.7128     94.0984     35.8080   5.2146164829e+01   5.5902729268e+01    0.2035339    0.1813696  80.82 0.0007717688    1.301    0.232
       254 -11.3501    127.1212    242.3846   9.2017853473e+01   6.5069164675e+00    0.2205547     0.198341 -62.54 0.0008453507    1.380    0.275
       255 -10.4645     67.9805    240.5049   1.0495477187e+02   1.4731447545e+01    0.1953793    0.1088445  31.81 0.0009017893    1.582    0.368
       256 -10.9759    157.0190     20.3533   3.4600275373e+01   4.2766166091e+01    0.4814121    0.2106695  74.91  0.002106692    2.241    0.554
       257 -11.6806    147.0752    237.5090   8.7008699821e+01   4.5897134950e+00    0.5723588    0.2628682  41.71   0.00262801    2.181    0.541
       258 -11.7602    164.1828     27.7496   3.5711837276e+01   4.0256988702e+01    0.3209433    0.2302405 -49.33  0.000645217    1.377    0.274
       259 -10.3700    239.1468     32.9174   2.9452993491e+01   2.3562445612e+01    0.2934169    0.1441696  75.79  0.001643413    2.134    0.532
       260 -10.4041    169.7055     33.4258   3.6517802993e+01   3.8291608841e+01    0.2392734      0.17296  53.92  0.001084511    1.446    0.308
       261 -10.3864    167.6191    238.1959   8.2756833561e+01   1.6396583067e+00    0.1729289    0.1080503 -29.79 0.0008898199    1.681    0.405
       262  -9.7941    199.5150    234.5283   7.5801281973e+01  -1.9837614765e+00    0.2221209    0.1374776 -24.76 0.0009872859    1.527    0.345
       263 -10.9712    197.3246    232.3109   7.5868183343e+01  -1.3677360827e+00    0.2218441    0.1502041  12.19  0.001085849    1.303    0.232
       264  -9.3940     15.3868    233.7931   1.1588434033e+02   2.1901705779e+01    0.1563001   0.09700458 -68.93 0.0009442919    1.700    0.412
       265 -10.1258    247.4415    231.4772   6.6757844493e+01  -7.1424721045e+00    0.1148588   0.08284956  -9.74 0.0001111183    1.006    0.006
       266  -9.5706     23.5091    231.5561   1.1403259065e+02   2.1577378180e+01    0.1214417   0.09709319  60.22 0.0003005124    1.018    0.018
       267 -10.4323     67.7984     32.2579   5.9286092538e+01   6.1924739771e+01    0.2747317    0.2253581  37.68  0.001079812    1.130    0.115
       268 -11.8203     57.7074     30.3962   6.2427280199e+01   6.4094312423e+01    0.3993504    0.2684153   0.78 0.0008751866    1.730    0.422
       269 -12.0043     48.8940     30.2292   6.6163725648e+01   6.5659458293e+01    0.6256603    0.2722175  38.92  0.002329553    2.141    0.533
       270  -9.6013     99.7664     30.7509   4.8685277374e+01   5.5262267974e+01    0.1780043    0.1567491 -83.17 0.0005604215    1.336    0.252
       271  -9.8187     86.1548     30.8193   5.2521430201e+01   5.8303482456e+01     0.189468    0.1481133  19.77   0.00101427    1.328    0.247
       272  -9.5889    108.6727    229.3212   9.4486445124e+01   1.1551945414e+01    0.1366872   0.09372134  57.50 0.0003342587    1.687    0.407
       273 -10.3289    164.5387    212.1705   7.9272147654e+01   6.5933789576e+00    0.2371248    0.1745429  26.70 0.0006238007    1.249    0.199
       274  -9.3469     61.4749    206.4985   1.0311873716e+02   2.2863768587e+01    0.1343547    0.1212603  58.59 0.0008101588    1.001    0.001
       275 -10.1268    233.9008    196.7857   6.3062556216e+01  -6.1465064820e-01    0.2260226    0.1488638 -29.25  0.001216758    1.266    0.210
       276  -9.3638     83.6256    195.8434   9.6168028641e+01   2.2377215778e+01    0.1885614    0.1337803 -80.48 0.0007699648    1.624    0.384
       277  -9.9515     16.1386    191.5378   1.1309902963e+02   3.1289078000e+01    0.1836091    0.1505454  85.56  0.000394174    1.073    0.068
       278  -9.6209    168.9707    192.0000   7.4735483220e+01   9.7023494367e+00    0.2253472   0.07598727  35.95 0.0007971192    2.906    0.656
       279 -11.6880      4.7017    185.6689   1.1554285234e+02   3.3645577682e+01      0.48047    0.3496469  88.49  0.002287298    1.188    0.158
       280 -10.4919      2.6801    181.3425   1.1577358642e+02   3.4840607742e+01    0.2014268    0.1561774  66.26  0.000758132    1.147    0.128
       281 -11.0905    198.4262     27.9464   3.1877969521e+01   3.2439183791e+01    0.4478351    0.2966378 -28.36  0.002584493    1.708    0.415
       282 -10.8420    189.0867     27.8831   3.2812175347e+01   3.4508401470e+01    0.3163633    0.2683155 -14.24  0.002008051    1.532    0.347
       283  -9.7168    210.5444     28.9867   3.0979559001e+01   2.9726650827e+01    0.2211683    0.1145901 -29.73  0.001139007    2.104    0.525
       284 -10.5937    213.9626     24.7922   2.9761499512e+01   2.9502351770e+01    0.2718374     0.198697 -83.67  0.001023086    1.225    0.184
       285 -10.5996    240.3054     26.5227   2.8104536176e+01   2.4101193099e+01    0.2294029    0.1545503 -41.99 0.0006521423    1.334    0.250
       286 -11.1415    182.6724     25.7448   3.2973564361e+01   3.6199886562e+01    0.2805927    0.2404708 -83.38    0.0012825    1.021    0.020
       287  -9.5547     97.0340     25.9970   4.7583144554e+01   5.6450824617e+01    0.2038121    0.1611236 -73.81 0.0009695056    1.640    0.390
       288 -10.2448    240.2321    184.9029   5.9845512367e+01   3.9894607454e-01    0.1918197    0.1596508   4.11 0.0005370186    1.197    0.164
       289 -10.3237     51.9681    173.5630   1.0176858864e+02   3.2023600390e+01    0.4937727    0.2216672 -85.19  0.001721295    3.259    0.693
       290  -9.1840     28.1820    175.6219   1.0861358773e+02   3.4078244371e+01    0.1726973    0.1299364   6.29 0.0009396598    1.656    0.396
       291  -9.3476    170.5145    171.9549   7.0512745023e+01   1.3389486060e+01    0.2122466     0.135697 -41.13 0.0007081571    1.510    0.338
       292 -10.2315     35.8257    169.6569   1.0586459812e+02   3.4822032772e+01    0.3003975    0.1494754 -71.32 0.0007990377    1.880    0.468
       293  -9.9900     59.8294     23.6971   5.8531180299e+01   6.4602125950e+01    0.2068775    0.1622728  -4.82  0.000453664    1.277    0.217
       294 -10.3302     13.8617     23.3706   8.1800473218e+01   7.1483559826e+01    0.2079388    0.1437805 -27.74 0.0005351537    1.236    0.191
       295 -11.3728    246.2038     22.4983   2.6930161614e+01   2.3470043812e+01    0.2027155    0.1281514 -46.17 0.0007443763    1.293    0.227
       296 -10.5723    223.8005     22.1481   2.8418306457e+01   2.7801753267e+01    0.2722083    0.1611876 -86.51  0.001229869    1.628    0.386
       297  -9.9535    169.5498     23.5040   3.3896551931e+01   3.9473932931e+01    0.2728876    0.1123967  67.82  0.001209437    2.187    0.543
       298 -10.5649    126.0129     21.3577   3.9654221877e+01   5.0111902378e+01    0.3822441    0.1535237  69.30 0.0008622064    2.469    0.595
       299 -11.6033      9.4553    166.7770   1.1294844266e+02   3.7918352056e+01    0.3152812    0.2961306  36.93  0.001309457    1.211    0.175
       300 -10.0086     74.2279     19.4395   5.1465864249e+01   6.2214631578e+01    0.2231656    0.1583762  44.13  0.001119517    1.218    0.179
       301 -10.1124     19.0566    164.8369   1.1010884705e+02   3.7633140387e+01    0.2746465    0.1910119   5.92  0.001466733    1.815    0.449
       302 -10.0400    204.9972    163.0019   6.1705678989e+01   9.2523025157e+00    0.2085949    0.1793701 -19.24 0.0005715587    1.018    0.018
       303  -9.6761     78.8289    160.2641   9.2005175640e+01   3.1799284144e+01    0.2863237    0.1805826 -82.24  0.001193601    2.055    0.513
       304  -9.1094    216.6618     20.7225   2.8665423636e+01   2.9406963719e+01    0.1061373   0.08748602  49.37 0.0003658755    1.615    0.381
       305 -10.5416     46.8981     19.2887   6.1879066075e+01   6.7515494585e+01    0.2744343    0.2099462   3.53  0.001421114    1.224    0.183
       306 -10.0564    206.3908     17.9042   2.8874155334e+01   3.1858293924e+01    0.2789156    0.1334543 -61.48  0.001417553    2.025    0.506
       307  -8.9229    194.6543     19.2831   3.0208168577e+01   3.4240358351e+01    0.1311382   0.07698455 -68.08 0.0003110327    1.643    0.391
       308  -9.6624     38.1866    161.3741   1.0420866738e+02   3.6700464548e+01    0.2055092    0.1165684  39.39 0.0009550697    1.750    0.429
       309 -11.2496     14.0109    158.2139   1.1092486640e+02   3.9733647124e+01    0.3546526     0.167093 -70.51  0.001621889    1.833    0.454
       310 -10.6970    104.8170    154.4740   8.3401215368e+01   2.9046980002e+01    0.3517182    0.2834729  -6.43  0.001690445    1.475    0.322
       311 -10.1815      3.3047    152.9717   1.1355202275e+02   4.1839881732e+01    0.3017296    0.1529165  53.69  0.001444019    2.046    0.511
       312 -10.4395     30.8034    151.9882   1.0526367551e+02   3.9879665592e+01    0.2376887    0.2095397  25.70  0.001209092    1.249    0.200
       313 -11.9041     23.2944    148.7671   1.0717689129e+02   4.1403909629e+01    0.5204399    0.2747027 -39.10   0.00208134    2.255    0.557
       314  -9.2161    224.9516    151.0000   5.5776155445e+01   8.1390743074e+00    0.1851714   0.07557836  43.34 0.0005582072    2.836    0.647
       315 -10.4924     64.1109    150.1542   9.4703423536e+01   3.6497524863e+01    0.4442377    0.2088311  12.97  0.001453424    3.575    0.720
       316 -11.3380     48.2901    146.2535   9.9020064024e+01   3.9518884502e+01     0.480608    0.3792676   3.96  0.002500477    1.495    0.331
       317  -9.7191      9.4050    155.2451   1.1198418627e+02   4.0839362226e+01     0.193909    0.1115233  89.72 0.0009547698    1.649    0.393
       318 -10.7229     15.8009    147.9302   1.0937490342e+02   4.2237101554e+01    0.2803074    0.2040974  17.54 0.0007092697    1.582    0.368
       319 -10.3587      3.2166    147.7720   1.1313943668e+02   4.3167990879e+01    0.1954741     0.160021  79.33 0.0007522273    1.133    0.117
       320 -10.6876    249.4888    143.4985   5.0565072458e+01   5.6388458190e+00     0.566871    0.1899163 -31.33  0.002131626    3.322    0.699
       321  -9.3578    239.5200    146.5512   5.2605832701e+01   6.6264228210e+00    0.1280116    0.1042297 -29.44 0.0003009099    1.005    0.005
       322  -9.8244     74.0861    146.0144   9.0871062650e+01   3.6151756937e+01    0.2420181    0.1768826 -25.70 0.0007918149    1.654    0.396
       323 -11.2347     33.3256    144.5560   1.0351651634e+02   4.1576398594e+01    0.3670403    0.2628092  45.41  0.000690141    1.458    0.314
       324 -11.8072      2.5303    141.5118   1.1279233915e+02   4.4809811284e+01    0.4677006    0.3246441  71.75  0.001307775    1.431    0.301
       325 -10.4872    217.0333    138.4819   5.4490513747e+01   1.1605749204e+01    0.2546989    0.2163332 -40.82 0.0007166613    1.107    0.096
       326 -11.8717     12.4194    136.7250   1.0921594398e+02   4.5391216086e+01    0.5785819    0.2864087 -59.19  0.002720984    1.738    0.425
       327  -9.7793     40.6547    138.3045   1.0024338823e+02   4.2463277986e+01    0.2319807    0.1547665  65.50  0.001085441    1.762    0.432
       328  -9.7873     32.3624    137.6734   1.0286640035e+02   4.3475167680e+01    0.3280384    0.2219705  44.39  0.001331422    1.567    0.362
       329 -11.2460     21.6234    135.4329   1.0607940962e+02   4.5022225306e+01    0.4856113      0.36522  43.68  0.002685523    1.421    0.296
       330  -9.6761     47.3577    135.1263   9.7513123788e+01   4.2546373767e+01    0.2108017    0.1325571 -78.20 0.0009254648    1.716    0.417
       331 -10.0090     73.5110    132.9960   8.8486682317e+01   3.9586421489e+01    0.2408528    0.1459002 -57.59  0.001034584    1.596    0.373
       332  -9.6544     38.8345    133.2999   1.0005810216e+02   4.3970974066e+01    0.2198452     0.167764  49.76 0.0005136097    1.408    0.290
       333  -9.6642    103.8322    130.8595   7.8550515200e+01   3.4992760820e+01    0.2303981    0.2077232 -11.41 0.0003705057    1.178    0.151
       334 -11.5842     29.9382    133.2345   1.0302722153e+02   4.4869232792e+01    0.4818841    0.3140543 -32.24 0.0005172793    1.765    0.433
       335 -11.7545    240.3416    122.5691   4.7668001134e+01   1.0393099442e+01    0.6343583    0.3320129 -43.05  0.003175115    1.593    0.372
       336  -9.5423    187.4909    128.5145   5.7562379246e+01   1.8832877438e+01     0.144508    0.1322956 -31.97 -3.714725e-05    1.006    0.006
       337 -10.6757     22.8267    127.0350   1.0454170580e+02   4.7116116536e+01    0.2064419    0.1956988 -32.07 0.0003692949    1.136    0.120
       338 -10.1745    223.4569    125.1953   5.0655717038e+01   1.2792728695e+01    0.4217833   0.09362365 -44.64  0.001269932    4.286    0.767
       339  -9.7974      2.0280    126.0165   1.1144202790e+02   4.8811878872e+01    0.2167639    0.1375855  66.78  0.001041307    1.714    0.417
       340 -13.1025    103.7722    122.5546   7.6573041933e+01   3.7002747177e+01    0.3702979    0.3465263 -16.87 0.0006509283    1.086    0.079
       341 -10.0541     81.6697    125.6878   8.4247881729e+01   4.0153095519e+01    0.1606195    0.1180599 -19.76 0.0002663477    1.673    0.402
       342 -10.3325     49.7420    122.8013   9.4457307610e+01   4.5480409921e+01    0.2451246    0.1998488   3.69 0.0007242213    1.377    0.274
       343  -9.4226    203.4427     23.9461   3.0485700283e+01   3.1815510317e+01    0.1784427   0.07158266 -53.35 0.0008050631    2.360    0.576
