#   1 NUMBER                 Running object number                                     
#   2 MAG_AUTO               Kron-like elliptical aperture magnitude                    [mag]
#   3 X_IMAGE                Object position along x                                    [pixel]
#   4 Y_IMAGE                Object position along y                                    [pixel]
#   5 X_WORLD                Barycenter position along world x axis                     [deg]
#   6 Y_WORLD                Barycenter position along world y axis                     [deg]
#   7 A_WORLD                Profile RMS along major axis (world units)                 [deg]
#   8 B_WORLD                Profile RMS along minor axis (world units)                 [deg]
#   9 THETA_WORLD            Position angle (CCW/world-x)                               [deg]
#  10 FWHM_WORLD             FWHM assuming a gaussian core                              [deg]
#  11 ELONGATION             A_IMAGE/B_IMAGE                                           
#  12 ELLIPTICITY            1 - B_IMAGE/A_IMAGE                                       
         1 -13.3894     58.5330     64.3190   9.1825179678e+01   5.7198882822e+01     1.681803    0.8744937 -27.25  0.007137733    2.409    0.585
         2 -15.1539      6.5284     69.1480   1.1309271529e+02   6.0871377834e+01     1.575174    0.7282644 -57.90  0.006081699    1.570    0.363
         3 -14.6109    189.9255     25.3123   4.5361046120e+01   3.4641929464e+01     1.970614    0.9315401 -52.33  0.008201873    2.360    0.576
         4 -13.7172    188.2113     13.4056   4.2272104638e+01   3.6387551798e+01    0.9582328    0.6098418 -52.26  0.004930453    1.597    0.374
         5 -13.4868    131.7648     32.7391   5.7724028888e+01   4.8257677091e+01     1.072849    0.4984492 -34.91  0.004468506    2.200    0.546
         6 -14.2856    121.7906     37.6273   6.1834638084e+01   4.9965318140e+01    0.9883401    0.5437109  32.62  0.002648037    2.114    0.527
         7 -13.4591      2.6785     10.7152   9.7486295347e+01   7.2611782544e+01    0.7377635    0.3613585 -51.82  0.004330792    1.928    0.481
         8 -13.1021      7.8303      2.6682   9.0680646102e+01   7.3503296687e+01     0.495189    0.3971876  25.43  0.002518031    1.684    0.406
         9 -13.3616     17.0020     10.8077   8.9558186342e+01   7.1480642974e+01    0.4649448    0.3096111 -54.79  0.001073687    2.220    0.550
        10 -15.9408     11.2791     23.2082   9.7981442084e+01   6.9889112475e+01     1.779407     0.995941 -23.84   0.00949739    1.608    0.378
        11 -14.1989     24.3133     13.9377   8.7213875905e+01   7.0289664632e+01    0.6998155    0.3136718  24.49  0.002404893    2.347    0.574
        12 -14.7360    166.4978     30.0151   5.0167437534e+01   3.9970091634e+01     1.161491    0.9770729  69.83   0.00400536    1.131    0.116
        13 -12.7378    120.1897     26.6746   5.8176780768e+01   5.1753904092e+01    0.7226802    0.4174911  44.39  0.003417992    1.607    0.378
        14 -14.8641    147.1268     29.8147   5.3536442535e+01   4.4859185379e+01     1.421289    0.9337229  57.07  0.005020747    1.409    0.290
        15 -12.5457     71.5812     17.8048   6.8620112783e+01   6.2987505812e+01    0.4748188     0.334819 -37.73   0.00184503    1.633    0.387
        16 -15.4419     97.7121     12.3376   5.8143610038e+01   5.8394679047e+01     1.662625      0.75639  50.90    0.0058545    1.927    0.481
        17 -11.6561     60.0439     16.9362   7.2507073284e+01   6.5081906307e+01    0.3157451     0.173077 -32.37   0.00166857    1.772    0.436
        18 -14.5270     42.4635      6.2372   7.4570945245e+01   6.9115973249e+01     1.030782    0.6963065  -9.06  0.006525771    1.282    0.220
        19 -11.9506    153.3356      8.4985   4.5462443966e+01   4.5586027239e+01    0.2552634    0.2297566  60.57 0.0006437015    1.026    0.025
        20 -11.2863     68.3109      5.3001   6.3874828686e+01   6.4987696905e+01    0.2423248    0.1328821 -42.95  0.001179235    2.611    0.617
        21 -11.8577    182.3936      2.4912   3.9914393092e+01   3.8893375439e+01     0.495202    0.2488959 -87.76  0.002173119    2.296    0.564
        22 -12.5589    118.5607      2.8350   4.9502587133e+01   5.4542282899e+01    0.5270455    0.2955332  85.53  0.002307806    2.606    0.616
        23 -12.2804     79.3006      2.1663   5.8843683486e+01   6.3182686000e+01    0.5781422     0.190544  48.16  0.002465683    2.479    0.597
        24 -12.2172     61.5992      2.0139   6.4623169647e+01   6.6521627751e+01     0.314516    0.2023183  47.95  0.001288132    1.607    0.378
        25 -11.7309    232.7002      1.8609   3.5213529595e+01   2.7045065253e+01    0.3110422    0.1604042  73.02  0.001405795    1.816    0.449
        26 -15.1780    216.9627     15.5719   3.9766343955e+01   2.9192099889e+01     1.976397     1.130594 -23.47  0.009271016    2.010    0.502
        27 -14.4534    217.4810     42.0656   4.6337991010e+01   2.5811391425e+01     1.454732    0.5817161  63.81  0.004909445    2.471    0.595
        28 -12.5068     57.4509    246.7743   1.2085292963e+02   1.6644119892e+01    0.4610762    0.1483949  39.50  0.002260181    2.564    0.610
        29 -12.0278      2.7869    249.6655   1.3004242838e+02   2.2110081208e+01    0.2861563    0.1695858  52.98  0.001817075    1.319    0.242
        30 -13.7814      8.9945    245.5859   1.2890479194e+02   2.2225679797e+01    0.6981909     0.334378  59.48  0.003264788    1.528    0.345
        31 -11.7669     49.1021    181.6399   1.1689092146e+02   3.0814968682e+01    0.3434871    0.2313756 -51.41  0.001966944    1.729    0.422
        32 -13.0578    197.6610    180.4983   8.3377031739e+01   6.2652072156e+00    0.5802579    0.3929541 -70.03  0.002447284    2.962    0.662
        33 -12.3775     85.3259    180.5359   1.0848020505e+02   2.6242385802e+01    0.2947456    0.1953279  80.00  0.001480129    1.726    0.421
        34 -13.2207    123.9767    166.7930   9.7043450780e+01   2.2942546583e+01    0.6361303     0.407215 -76.32  0.002735561    2.167    0.539
        35 -12.7192    164.3146    195.1995   9.3087601410e+01   9.7324716292e+00     0.532442    0.2931784 -59.94  0.002258237    2.642    0.621
        36 -12.0364     77.3547    156.9480   1.0691891924e+02   3.2886842367e+01    0.4111767    0.2924262  33.46  0.001585531    1.547    0.354
        37 -13.1653     73.8899    153.3395   1.0723336626e+02   3.4242082729e+01    0.6564618    0.4727741  35.57  0.002783586    1.505    0.336
        38 -11.9387    111.5723    155.9676   9.8058695855e+01   2.7623830684e+01    0.4207684    0.2473187 -83.79  0.001531964    3.026    0.670
        39 -12.5068    209.0384    155.1311   7.5764182993e+01   8.6132591121e+00    0.6203339    0.3224455  41.06  0.002678774    1.958    0.489
        40 -11.6331     85.9214    152.8990   1.0405354110e+02   3.2582207051e+01    0.3704167    0.1778876 -49.89  0.001547018    2.095    0.523
        41 -11.2732    133.1167    152.7137   9.2045325949e+01   2.4377684284e+01    0.2364695     0.201839 -64.87 0.0002435819    1.229    0.187
        42 -11.7067    103.2974    149.9941   9.9027658621e+01   3.0457895963e+01    0.3660261    0.2557474 -36.91  0.001729891    1.679    0.405
        43 -11.6408     24.2541    150.4166   1.1941970243e+02   4.0613970949e+01    0.3011078    0.1975814 -54.57  0.001775523    1.543    0.352
        44 -11.3514     88.6385    140.0449   1.0099283874e+02   3.5248839615e+01    0.2606473    0.2129466 -11.16  0.001338444    1.615    0.381
        45 -13.0956    246.5484    133.8503   6.4330064142e+01   5.0917317856e+00    0.4717393    0.3715988 -37.80   0.00268934    1.191    0.160
        46 -12.1093     45.1597    135.1095   1.1205601322e+02   4.2235990644e+01    0.3210802    0.2313924  85.90  0.001789987    1.408    0.290
        47 -14.7285    233.0571    128.9856   6.5441443098e+01   8.4731684592e+00     1.074477    0.7566845 -38.50  0.005555326    1.306    0.234
        48 -13.2412    120.3375    102.3214   8.3256042587e+01   3.8348503672e+01    0.7289144    0.3334593  40.38  0.002678309    2.302    0.566
        49 -12.5545     77.0921    117.2441   9.9596354134e+01   4.2540575574e+01     0.540096    0.4111115 -83.43  0.002741837    1.508    0.337
        50 -13.2116     85.0649    115.4510   9.6825740769e+01   4.1751245022e+01    0.7289875    0.5617664   4.30  0.003559155    1.697    0.411
        51 -14.1901    105.2712    122.0174   9.2531818765e+01   3.6746974009e+01     1.655989     1.124535  44.75  0.007700846    1.541    0.351
        52 -14.9731    106.2533    105.9972   8.8248627838e+01   4.0295116747e+01     1.962191     1.456523  25.90  0.009006216    1.537    0.349
        53 -12.4986     28.3487    122.0737   1.1485255923e+02   4.7024638327e+01    0.3133076     0.202734 -74.37   0.00176415    1.312    0.238
        54 -11.8522      4.0848    119.8534   1.2137187643e+02   4.9320426399e+01     0.434742    0.1771947  17.68  0.002127911    3.257    0.693
        55 -13.9161     17.7714    111.2233   1.1638805105e+02   5.0459582425e+01    0.8603142    0.5741605 -43.36  0.004294622    1.534    0.348
        56 -14.0649     10.5260    102.5956   1.1735384380e+02   5.2983005358e+01    0.7952823    0.7062188 -46.13  0.005452416    1.229    0.186
        57 -13.3275      2.1916     97.2234   1.1918821494e+02   5.4706432384e+01    0.7904092    0.2227714 -73.47  0.003160598    2.944    0.660
        58 -11.7271     36.8669     93.2765   1.0721298787e+02   5.3155212665e+01    0.3908066     0.237823   6.57  0.001550684    2.227    0.551
        59 -13.9098     20.3967     96.2827   1.1324329164e+02   5.3808704547e+01     1.111592    0.5063338 -76.36  0.005065867    2.239    0.553
        60 -13.7002     28.9819     92.4681   1.0970366687e+02   5.4040753154e+01     1.046239    0.7074737  86.84  0.005677327    1.824    0.452
        61 -11.3479    176.7495    110.3941   7.1586581676e+01   2.4095362646e+01    0.3487974    0.2376053   5.04  0.001367501    2.312    0.567
        62 -11.0070     25.5607    127.2671   1.1634999496e+02   4.6013141490e+01    0.1856707   0.09508694 -60.99 0.0009465519    1.591    0.371
        63 -11.2751     45.8285    110.5204   1.0773579265e+02   4.8142847941e+01      0.26602    0.1722965 -61.21  0.001407856    1.308    0.236
        64 -10.2564     10.6860    134.2907   1.2114840612e+02   4.5497006005e+01    0.1222396   0.07751459  71.32 0.0007002969    1.591    0.371
        65 -12.2096     32.0809    104.8214   1.1098709761e+02   5.0848292196e+01    0.2939335    0.2046715  65.08  0.001372414    1.755    0.430
        66 -12.1542    136.0518    103.2436   7.9291599740e+01   3.4810826511e+01    0.7040494     0.265179  46.17  0.002322805    2.721    0.633
        67 -12.1639     62.0009     98.5043   1.0003689091e+02   4.9119618533e+01     0.514538     0.327218  77.46  0.002163348    2.748    0.636
        68 -10.1969     48.5127    101.4814   1.0508609272e+02   5.0025354603e+01    0.3271233    0.2257039  50.00  0.001426387    1.734    0.423
        69 -12.6936     52.6063     97.8395   1.0295939909e+02   5.0429296406e+01    0.7510979    0.3706928  16.98  0.003138401    2.914    0.657
        70 -12.3454     49.4501     94.6331   1.0328343313e+02   5.1545145227e+01     0.443363    0.3815705 -80.27  0.002030844    1.248    0.199
        71 -13.2926    249.2467     98.0269   5.5755974989e+01   1.0382820817e+01    0.5787588    0.2103697 -37.97  0.002269116    2.317    0.568
        72 -12.1138    137.1373     95.6371   7.6860490403e+01   3.6177185145e+01    0.4709957    0.3393112  68.84  0.001593883    1.803    0.445
        73 -10.7596     59.4449    125.5157   1.0644266390e+02   4.2923422857e+01    0.1394273    0.1216431 -63.58 2.055504e-05    1.033    0.032
        74 -11.5501     43.0156     91.2637   1.0469688696e+02   5.3024459486e+01    0.3059536    0.1974049 -77.74  0.001200474    1.803    0.445
        75 -12.0314     90.1160     88.2640   8.8237874472e+01   4.7212723642e+01    0.4557426    0.3354905  51.08  0.002242154    1.573    0.364
        76 -11.0919     34.5782     86.8414   1.0662598254e+02   5.4868576079e+01    0.2098461    0.1659426 -20.95 0.0009998216    1.393    0.282
        77 -13.5830    242.4991     84.3244   5.3478839827e+01   1.3934152028e+01    0.4499117    0.3175596  68.88  0.002129347    1.662    0.398
        78 -13.7358    237.1765     80.1557   5.3210024207e+01   1.5720064630e+01    0.5803561    0.3797237  78.14  0.002804295    1.962    0.490
        79 -12.1730    149.7726     84.9318   7.0579705111e+01   3.5420174999e+01    0.5562878    0.3360624  31.61  0.002198163    2.071    0.517
        80 -12.9781    188.3746     84.3468   6.2185908736e+01   2.6245637346e+01    0.7758495    0.3264039  42.01  0.002600996    2.890    0.654
        81 -13.4323    163.8800     71.4738   6.3377425331e+01   3.4481426686e+01     1.538137    0.4956445  47.28   0.00479744    3.166    0.684
        82 -12.7205    160.0258     68.2791   6.3229751255e+01   3.5978572723e+01    0.7229658    0.3815459 -47.93  0.002190791    2.077    0.519
        83 -13.5281    160.8528     80.7922   6.6804971901e+01   3.3552998705e+01    0.9098367    0.6169378  17.79  0.003145022    2.137    0.532
        84 -14.5065    169.2932     77.1485   6.3924507356e+01   3.2158935032e+01     1.450418    0.6521056  52.01  0.005361331    2.213    0.548
        85 -13.2775     66.0120     49.0840   8.3729012238e+01   5.9100442844e+01    0.5080586    0.4812005 -55.56  0.003182967    1.352    0.260
        86 -13.4597     28.3151    246.0737   1.2578687968e+02   2.0149668344e+01    0.4334718    0.2501542  62.03  0.002911959    1.298    0.230
        87 -12.8839     54.8340     82.1858   9.8381298570e+01   5.3793359353e+01    0.5520064    0.3360252 -41.21  0.002031285    1.495    0.331
        88 -13.8494     60.9673     75.6592   9.4391397163e+01   5.4463576601e+01    0.6784061     0.388685 -40.06  0.001221634    1.599    0.375
        89 -13.6927    213.5196     78.6281   5.6308982369e+01   2.1260917684e+01     1.085475    0.6210263  77.70  0.004341404    2.556    0.609
        90 -12.9130    216.6549     73.4811   5.4499832022e+01   2.1366970410e+01    0.6329657    0.4142748 -77.99  0.002804274    2.106    0.525
        91 -13.0038    135.7061     79.9811   7.2560785107e+01   3.9648039802e+01    0.7199429    0.3877323  46.21  0.002892441    1.870    0.465
        92 -12.0895    114.1441     80.2443   7.8517608724e+01   4.4319994659e+01     0.397066    0.3269313 -50.26 0.0009925853    1.261    0.207
        93 -12.1959    131.9349     85.8037   7.5319280633e+01   3.9352174576e+01    0.9208099    0.3399132  54.86  0.002753452    3.567    0.720
        94 -11.6453    182.1083    122.0405   7.3438373039e+01   2.0572656415e+01    0.4941677    0.3163514  80.58   0.00173878    3.145    0.682
        95 -12.4692     16.4955     78.7542   1.1133878558e+02   5.8133303463e+01    0.4015311    0.2423578 -68.09  0.001402796    1.434    0.303
        96 -13.7224     86.0491     66.4458   8.2763290679e+01   5.2503088732e+01     1.750179    0.9295704 -20.80  0.004665911    3.055    0.673
        97 -13.1067     70.6719     75.8371   9.1021372447e+01   5.3058804407e+01    0.5430333    0.4474576  -9.41  0.001344184    1.280    0.219
        98 -12.1748     77.1413     73.8373   8.8174976275e+01   5.2488736087e+01    0.3082028    0.2909813 -36.63 0.0009722951    1.101    0.092
        99 -11.8805     23.1184     71.8715   1.0741174218e+02   5.9219754919e+01    0.2101741    0.1883162 -35.52 0.0004572115    1.146    0.128
       100 -13.8195    171.2790    243.1281   9.9235601744e+01   6.3284762868e-01    0.8185782    0.4892039  29.09  0.004659173    1.510    0.338
       101 -13.1685      6.2079     43.8109   1.0725941724e+02   6.6275648533e+01    0.7173385    0.3389265  13.82  0.003975717    2.496    0.599
       102 -11.5404     96.8694     79.1384   8.3368565102e+01   4.7959749567e+01    0.2253011    0.2097097 -64.33  0.001236652    1.208    0.172
       103 -11.1592     42.1226     76.9480   1.0157928763e+02   5.6398961338e+01    0.2163258    0.1927138  10.38  0.001374263    1.272    0.214
       104 -12.9631      7.9599     50.6352   1.0831557149e+02   6.4779270954e+01    0.8736073    0.3460384 -22.16  0.003804607    3.446    0.710
       105 -13.8661    199.3880     69.8183   5.6257555213e+01   2.6044663209e+01     0.811516    0.5497388  48.78  0.002381227    1.556    0.357
       106 -11.6957    199.7758     62.4290   5.4186561672e+01   2.7120297535e+01    0.3065276    0.2040686 -42.82 0.0008558502    1.435    0.303
       107 -12.1739    241.8035     71.3777   5.0501012130e+01   1.6082592992e+01    0.3861316    0.2377404 -79.11  0.001746587    2.326    0.570
       108 -13.2983    133.6788     65.8293   6.8585682146e+01   4.2738265911e+01    0.8026385    0.6983966  -4.41   0.00255375    1.216    0.178
       109 -12.3865     38.2232     68.3474   1.0075497687e+02   5.8691393247e+01    0.5745275    0.2630462  28.05  0.002720852    2.475    0.596
       110 -11.7071    100.2731     65.0770   7.7720012159e+01   5.0109519913e+01    0.4214741    0.2525229 -24.69   0.00180682    1.927    0.481
       111 -13.9201    177.9879     57.7610   5.6545760687e+01   3.3226373221e+01    0.9051708    0.6842582 -43.15  0.002648674    1.313    0.239
       112 -12.4182     79.5397     61.1585   8.3175404143e+01   5.4658719292e+01    0.5529934    0.4544404 -45.62  0.002653158    1.257    0.204
       113 -12.8575     82.4544     54.6353   7.9858448697e+01   5.5380714776e+01    0.4991913    0.3643284 -10.32  0.001742143    1.492    0.330
       114 -11.3942     77.9435     53.7825   8.1115259676e+01   5.6317098429e+01    0.3003437    0.2075535  29.92 0.0009280941    1.493    0.330
       115 -11.8932     24.4308     59.8669   1.0388354655e+02   6.1737193774e+01    0.2975241     0.196249 -45.69 0.0008537455    1.199    0.166
       116 -10.5618     38.4941     60.0004   9.8247144544e+01   6.0445838429e+01    0.1730884     0.111567 -77.65 0.0008104639    2.553    0.608
       117 -14.6119    119.7257     54.6286   6.8448711280e+01   4.7851356992e+01    0.9548634    0.6888657  33.07  0.002285106    1.427    0.299
       118 -12.5419    247.7818     54.4797   4.5840388090e+01   1.7275844532e+01    0.5611722    0.2755455 -49.70  0.002613537    1.882    0.469
       119 -12.7188    249.1466     49.1011   4.4461508852e+01   1.7733076177e+01     0.400607    0.2919182 -44.34  0.002330496    1.187    0.158
       120 -11.9143    230.7411     55.6780   4.8103196609e+01   2.0843189599e+01    0.3680795     0.188807  66.14  0.001666649    2.089    0.521
       121 -12.8183    135.6294     50.2887   6.2929732110e+01   4.4851031531e+01    0.5766128    0.3408104  32.07  0.002408698    2.029    0.507
       122 -13.4553    103.2279     50.7278   7.1746060071e+01   5.2065432378e+01    0.7474784    0.4763719 -55.42 0.0008433303    2.178    0.541
       123 -12.4786     98.2931     50.8514   7.3295798514e+01   5.3052192895e+01    0.6481839    0.3928143 -51.69  0.002403709    2.117    0.528
       124 -11.6529     25.3736     47.7201   9.9923879010e+01   6.4172933461e+01    0.5158441    0.1936615 -32.87  0.002118424    3.016    0.668
       125 -12.9879    157.8440     43.8263   5.6041995444e+01   4.0340532946e+01    0.8029959    0.4681467  36.18  0.003401183    2.032    0.508
       126 -11.8249     40.2898    243.5212   1.2361657881e+02   1.9272180446e+01    0.2575417    0.1273527  88.70  0.001533271    1.997    0.499
       127 -13.9269     96.7845    238.7382   1.1296177076e+02   1.2793765880e+01    0.5760286    0.3854323  50.37  0.002345252    1.217    0.178
       128 -13.3835    205.2187     40.3592   4.7449370565e+01   2.8980613143e+01    0.7360169    0.4003433 -89.82  0.003013036    2.503    0.600
       129 -11.5769    169.4473     43.7523   5.3878822424e+01   3.7432182083e+01     0.283228    0.1997305  62.40 0.0009765644    1.376    0.273
       130 -11.7358    147.4981    239.0364   1.0323092977e+02   5.0048161506e+00    0.1617109    0.1247363 -52.34 0.0008622948    1.578    0.366
       131 -11.2883     14.7032    224.3807   1.2694735564e+02   2.5572305457e+01    0.3175042    0.1420857  64.36  0.001240329    1.851    0.460
       132 -12.8829    109.9468     42.3715   6.6710897485e+01   5.1953835645e+01    0.5748379    0.2436104  46.75  0.001399992    2.245    0.554
       133 -13.1493    113.6141     38.2286   6.4163489811e+01   5.1745535437e+01    0.4061367    0.3735077  16.35  0.002359227    1.011    0.011
       134 -10.3614     55.5045     41.3904   8.4889726684e+01   6.2013743756e+01    0.1315825    0.1092084 -12.31 0.0001072039    1.041    0.039
       135 -13.5496    242.2917     35.6598   4.2074031405e+01   2.1001608545e+01    0.7274015    0.4112728  73.17  0.002605275    1.844    0.458
       136 -12.4762     75.8438     37.4103   7.5555869129e+01   5.9470771954e+01    0.3211426    0.2393416  34.12 0.0008281268    1.335    0.251
       137 -12.2916     69.6328     36.6992   7.7524953421e+01   6.0643198309e+01    0.4162508    0.2156096  34.19 0.0009446039    1.969    0.492
       138 -11.1965    104.4737     37.0404   6.6236418649e+01   5.3919211349e+01    0.2158962    0.1351435 -28.60  0.001037407    1.607    0.378
       139 -11.6821     58.5862     35.2906   8.1202726397e+01   6.2608225888e+01    0.4619877     0.217663  33.59  0.002166789    2.203    0.546
       140 -12.2619     46.1441     33.8358   8.5763847183e+01   6.4570126729e+01    0.4690702    0.2756802 -27.62  0.002532988    1.556    0.357
       141 -11.9765     24.8391    217.2888   1.2472648449e+02   2.5932040950e+01     0.552374    0.3306284  87.67  0.003613601    1.404    0.288
       142 -13.6790     25.8571    227.4014   1.2515768482e+02   2.3857374619e+01    0.5801188    0.3113171 -60.48   0.00357126    2.196    0.545
       143 -12.6274      1.8581     21.6613   1.0232105378e+02   7.0763081510e+01    0.2022356    0.1351734 -51.57 0.0005278453    1.342    0.255
       144 -13.4456     20.7481    225.2096   1.2593311324e+02   2.4807555218e+01    0.4121232    0.3361979  78.60  0.002356282    1.181    0.153
       145 -13.1795     65.9849    223.4239   1.1741739556e+02   1.9898459031e+01    0.6713555    0.5286321  42.92  0.004554029    1.309    0.236
       146 -13.9844     62.9856    214.5858   1.1720385156e+02   2.2041049929e+01    0.7038422    0.3919591  59.18   0.00393967    1.623    0.384
       147 -11.7642    185.6031    213.8010   9.1938919525e+01   2.7921224232e+00    0.1696186    0.1260629 -52.08 0.0009536078    1.715    0.417
       148 -13.1989    139.4850     22.1489   5.2402984569e+01   4.7642108507e+01    0.6380479    0.3241567  57.83  0.001547143    1.764    0.433
       149 -12.0279     29.4314     32.2076   9.2606090606e+01   6.6746923024e+01    0.4902823    0.2868173  -9.62  0.002668723    1.936    0.484
       150 -13.2011      9.0351    210.9698   1.2723887387e+02   2.8738987560e+01     0.610806    0.4189996  39.77  0.004389728    1.591    0.371
       151 -11.0895     89.1299     30.1745   6.8114133681e+01   5.8050229419e+01    0.2001289    0.1615444  14.46 0.0002641067    1.156    0.135
       152 -11.2729     38.2912     30.0166   8.7647211404e+01   6.6174886493e+01    0.1777912    0.1289791 -28.50 0.0003535745    1.140    0.123
       153 -12.9170     56.6589     27.5393   7.8681810579e+01   6.4120696227e+01    0.5699578    0.2903647  43.31  0.001913867    2.246    0.555
       154 -12.9012     67.8867     24.5455   7.2992757490e+01   6.2751972353e+01    0.6824739    0.3251563  37.65  0.003239548    2.044    0.511
       155 -11.2167    136.7238    211.3861   1.0155763108e+02   1.1542755745e+01    0.2196379    0.1646043 -71.66 0.0008562948    1.637    0.389
       156 -10.9843     97.9321     27.1671   6.4216623082e+01   5.6647476831e+01    0.1995678    0.1903766  64.33  0.001221277    1.272    0.214
       157 -12.1073     46.6803     21.0413   7.9960290594e+01   6.6529550204e+01    0.3687386    0.2664713   9.89  0.001676788    1.281    0.220
       158 -10.8307     54.0813     19.9388   7.6307421572e+01   6.5616795009e+01    0.2454025     0.140223  14.32 0.0009506714    2.044    0.511
       159 -12.7170     94.4025    218.6088   1.1128144887e+02   1.6882284121e+01    0.3031677    0.2084877  63.86   0.00144097    1.379    0.275
       160 -12.1872     41.8785    206.9665   1.2073963050e+02   2.6171615411e+01    0.2615597    0.1307876  85.43   0.00135867    2.059    0.514
       161 -11.1596    150.7059    206.9829   9.7945961882e+01   9.9688044672e+00    0.2662876    0.1622219  28.86   0.00129922    1.716    0.417
       162 -12.4711     57.3200    203.2025   1.1728297199e+02   2.5111434225e+01    0.4700493    0.2288593 -86.09  0.002265426    2.304    0.566
       163 -13.0168     40.5928    195.4550   1.2003699131e+02   2.8749242965e+01    0.4467382    0.1739397 -86.88  0.001850379    3.140    0.681
       164 -12.9069     16.7590    195.5333   1.2485606508e+02   3.1188614938e+01    0.9620032    0.2545841 -72.71  0.004209056    3.061    0.673
       165 -13.6910     29.9648    169.3852   1.1997107745e+02   3.5672252208e+01     0.791625     0.651395 -76.52  0.002595962    1.152    0.132
       166 -13.5850     22.3920    181.1213   1.2265623256e+02   3.3767756590e+01    0.5956007    0.4098828 -65.62  0.002737428    1.431    0.301
       167 -14.9221      8.3138    183.5312   1.2574706483e+02   3.4509247290e+01     1.073686    0.8526475  80.95   0.00791053    1.077    0.071
       168 -15.1287     15.9191    175.6190   1.2360262728e+02   3.5581560330e+01       2.1747    0.9765154  67.59   0.01082666    2.276    0.561
       169 -12.3173    201.0397    191.8978   8.4933209355e+01   3.7065595131e+00    0.3339227    0.2633448  -8.03  0.001449816    1.275    0.216
       170 -13.0951    223.9635     20.8437   4.0370691513e+01   2.6958027401e+01    0.4132596    0.3368606  73.48  0.001514969    1.222    0.182
       171 -12.0212     97.5064    188.4900   1.0679932296e+02   2.2622092794e+01    0.1353638     0.121589  69.96 0.0008105781    1.001    0.001
