#   1 NUMBER                 Running object number                                     
#   2 MAG_AUTO               Kron-like elliptical aperture magnitude                    [mag]
#   3 X_IMAGE                Object position along x                                    [pixel]
#   4 Y_IMAGE                Object position along y                                    [pixel]
#   5 X_WORLD                Barycenter position along world x axis                     [deg]
#   6 Y_WORLD                Barycenter position along world y axis                     [deg]
#   7 A_WORLD                Profile RMS along major axis (world units)                 [deg]
#   8 B_WORLD                Profile RMS along minor axis (world units)                 [deg]
#   9 THETA_WORLD            Position angle (CCW/world-x)                               [deg]
#  10 FWHM_WORLD             FWHM assuming a gaussian core                              [deg]
#  11 ELONGATION             A_IMAGE/B_IMAGE                                           
#  12 ELLIPTICITY            1 - B_IMAGE/A_IMAGE                                       
         1 -14.2560    243.2003     63.3360   3.5638223447e+02   1.8367713953e+01     1.257704     1.024611 -24.54  0.008403537    1.188    0.158
         2 -13.9745    241.3837     45.9027   3.5258470770e+02   2.0834272057e+01     1.316211     1.283129   8.68   0.00967325    1.292    0.226
         3 -15.1426    190.0394     36.9655   3.5514074827e+02   3.2839444537e+01     2.649816     1.541379 -40.56    0.0131514    1.505    0.335
         4 -13.9061    176.8584     16.6524   3.5059568264e+02   3.8393030666e+01    0.5945454    0.4291777 -68.10  0.003261423    1.297    0.229
         5 -13.2551    167.7514     15.6107   3.5118061053e+02   4.0777231664e+01     0.473155    0.3675175  85.31  0.001349807    1.232    0.188
         6 -13.9416    157.7528     14.7553   3.5198444041e+02   4.3417321258e+01     1.045606    0.8974932  15.64  0.005958586    1.443    0.307
         7 -13.5792    162.4887      2.4030   3.4747069832e+02   4.3408278271e+01    0.7748324    0.3676011  71.43  0.003518251    1.966    0.491
         8 -14.4803    150.6762      3.4960   3.4893461929e+02   4.6350917424e+01     2.129336    0.7108216  75.99  0.007857768    2.821    0.645
         9 -11.6608    227.2116      3.3629   3.4355765568e+02   2.8263105866e+01    0.3592819    0.1833017  89.53  0.001943292    2.032    0.508
        10 -12.6041    229.5241     11.7408   3.4542570413e+02   2.6961653277e+01    0.6307256    0.5046754  75.58  0.004252321    1.421    0.296
        11 -13.1818      5.4957      3.7601   4.4142041376e+01   7.8759990651e+01    0.7821018    0.4075609  19.62  0.004167178    1.992    0.498
        12 -11.2297     82.6236    202.8152   5.5359421024e+01   2.2435206370e+01    0.1676646    0.1167083 -89.79 0.0009533514    1.732    0.423
        13 -11.9941    199.9816    192.4974   2.9154813210e+01   7.3062746829e+00    0.1733519    0.1523549  62.72  0.001151915    1.858    0.462
        14 -11.4263    193.6196    193.6373   3.0476827426e+01   8.0346725613e+00    0.2951121   0.09934143  41.10  0.001257255    3.024    0.669
        15 -12.4061    248.0744    187.6164   2.0654847674e+01   1.7031276801e+00    0.2290927    0.1845061  -5.06  0.001761702    1.156    0.135
        16 -10.9429    134.6791    183.3440   4.0714081738e+01   1.8592490344e+01    0.1322799    0.1001285  65.26 0.0007049924    1.728    0.421
        17 -12.6394    245.7993    175.5649   1.8914966548e+01   3.4066249147e+00    0.4830741    0.3852441 -40.73  0.003467632    1.682    0.406
        18 -12.8475    191.0649    176.3089   2.7967190192e+01   1.0942623243e+01    0.6208296     0.492523 -32.16  0.003963498    1.292    0.226
        19 -10.6678    145.6675    179.3279   3.7629215782e+01   1.7581885127e+01    0.1302972    0.1020981  65.94 -6.682013e-05    1.716    0.417
        20 -12.2268    140.3286    162.3275   3.5860147241e+01   2.1636706795e+01    0.2911616    0.1555457  55.22  0.001187258    2.558    0.609
        21 -11.5649    215.6622    160.0999   2.0698614052e+01   9.5954099519e+00     0.264742    0.1550484  27.35  0.001454671    1.798    0.444
        22 -11.2842    164.4896    159.5219   3.0046785630e+01   1.7997588435e+01    0.2820303    0.1298067 -42.23   0.00122581    2.220    0.550
        23 -10.2580    187.6430    155.3013   2.4656009412e+01   1.4781268594e+01    0.1217424    0.1065856  87.77 0.0007037771    1.711    0.416
        24 -11.3046    168.6418    155.6896   2.8445702422e+01   1.7956253028e+01    0.1419603    0.1003244   3.12  0.000704248    1.737    0.424
        25 -10.8904    225.3005    154.0882   1.8020752743e+01   8.9963773445e+00    0.2129785    0.1542926  17.95  0.001338447    1.392    0.281
        26 -13.8513    174.3695    142.7979   2.4667740299e+01   1.9202181540e+01     1.284662    0.4590439 -47.72  0.004583537    3.282    0.695
        27 -10.7644    250.3651    143.9971   1.2496381849e+01   6.7265021710e+00    0.2643146   0.09048321 -32.38  0.001228707    2.402    0.584
        28 -13.8712    187.3977    127.6944   1.8907699809e+01   1.9396687375e+01     1.107344    0.5099302 -34.09  0.004732936    2.123    0.529
        29 -13.0969    239.4953     91.0197   2.9423116203e+00   1.5427665854e+01    0.7186245    0.5630591 -35.14  0.003871625    1.058    0.055
        30 -13.1412    238.3012    102.8596   5.6677561869e+00   1.4031347695e+01    0.6305115    0.5129555 -15.05  0.004151239    1.171    0.146
        31 -12.3227    248.6108    128.7674   9.7518783813e+00   8.9392973869e+00    0.8213639     0.329959 -24.24  0.003702973    2.589    0.614
        32 -14.2879    245.9293    114.3622   7.1618675822e+00   1.1243190222e+01     1.742229     0.799116 -24.59  0.008510718    2.099    0.524
        33 -10.6717    204.4658    140.0178   1.8565259425e+01   1.4367139613e+01    0.2029092    0.1160313 -34.07  0.001034038    1.601    0.375
        34 -14.0028    153.6470    111.4219   2.1825559036e+01   2.9077364886e+01    0.8863097    0.6050776 -55.30  0.004143238    1.625    0.385
        35 -12.5975    182.5550    125.2998   1.9264429537e+01   2.0718646153e+01    0.4085719    0.2186298 -39.66  0.001871896    1.772    0.436
        36 -10.9870     23.5201    116.0005   6.2949999450e+01   4.9884120280e+01    0.2084482     0.123941 -76.89 0.0004132021    1.532    0.347
        37 -11.5600    135.6108    114.8168   2.6870115165e+01   3.2176196717e+01    0.2198971    0.1398899 -55.48 0.0009539211    1.726    0.421
        38 -11.4296     33.8414    114.8389   5.9044967711e+01   4.9206639285e+01    0.2098324      0.15298  66.46 0.0009895044    1.356    0.262
        39 -12.8716    201.3420    109.1121   1.2274985812e+01   1.9787746480e+01    0.4175938    0.2977515 -50.01  0.002249343    1.480    0.324
        40 -11.0136    109.8731    110.1143   3.2553864598e+01   3.8475786612e+01    0.2469963    0.2139171  84.43  0.001249565    1.271    0.213
        41 -12.0097    191.0500    107.3079   1.3549183600e+01   2.2091686394e+01    0.5278485     0.390563  57.67  0.002833043    1.543    0.352
        42 -12.0272    223.2983    106.9386   8.5164948894e+00   1.6057212524e+01    0.4950223    0.3140768  56.31  0.002724133    1.914    0.477
        43 -12.2224    165.5884    105.2507   1.7760293038e+01   2.7706856074e+01     0.513689    0.1440891 -46.72  0.001475899    4.092    0.756
        44 -12.3166    143.0863     99.2205   2.1054353032e+01   3.3744513513e+01    0.4954357    0.3225523 -74.42  0.001946274    2.491    0.599
        45 -12.7612    150.6740     91.5846   1.7263283399e+01   3.3522796110e+01    0.4068489    0.2814033 -46.96   0.00179952    1.423    0.297
        46 -12.9657    149.1127     85.0467   1.5762409228e+01   3.5103207831e+01    0.7703089    0.5762663  -7.27   0.00353569    1.818    0.450
        47 -12.3222    225.6629     61.0403   3.5756876645e+02   2.1993504734e+01     0.560361    0.4642326 -58.57  0.003576225    1.172    0.147
        48 -13.8883    245.4781     79.0653   3.5965975371e+02   1.5960447606e+01    0.9781815    0.8881666  52.76  0.006988501    1.356    0.263
        49 -13.0784    160.7626    236.2432   4.2747140698e+01   6.5263125697e+00    0.6424395    0.3258778  49.94  0.003222255    2.993    0.666
        50 -12.7093    155.6034    224.3922   4.2222977292e+01   8.8381818985e+00    0.3910803     0.122429  42.79  0.001583052    3.397    0.706
        51 -12.3368     27.6563     83.6438   5.6535723230e+01   5.8034059209e+01    0.5055985    0.3180661  52.23  0.002454005    1.722    0.419
        52 -11.7781      7.7705     82.8704   6.5411402384e+01   5.9742933206e+01    0.3516288    0.1910553  43.82  0.001708255    1.922    0.480
        53 -13.0426     77.9265     88.5793   3.7146729719e+01   4.9712855724e+01     0.619481    0.4173259  48.84  0.002750617    1.528    0.346
        54 -11.7594     58.6947     78.8447   4.1856072493e+01   5.5358142374e+01    0.2506822    0.1818178 -41.40  0.001205647    1.445    0.308
        55 -11.1306    226.9657     72.8767   2.3790040794e-01   2.0165530695e+01    0.3084608    0.1530371 -37.15  0.001527663    1.647    0.393
        56 -12.7413    214.2663     67.2361   3.3962350558e-01   2.3458898625e+01    0.5221815    0.3185272 -26.69  0.002649886    1.569    0.363
        57 -13.3337    195.0020     61.8784   1.3722679577e+00   2.8337217702e+01     1.191237    0.6192726 -39.14  0.005505703    1.680    0.405
        58 -11.0807    202.2474     53.0008   3.5811763390e+02   2.7964521045e+01    0.2170942     0.157216 -56.77  0.001132325    1.318    0.241
        59 -10.6405    104.6745    225.3084   5.2751674849e+01   1.5449085163e+01    0.1234777   0.07695703  53.12 0.0006257285    1.653    0.395
        60 -11.8371    176.1572     46.8234   3.5969634244e+02   3.4848315473e+01    0.5052299    0.3120146 -65.73  0.002322002    1.840    0.457
        61 -10.3638     88.5197     47.9597   1.9417372404e+01   5.6379522487e+01    0.2297289    0.1473148 -39.03  0.001026893    1.576    0.365
        62 -12.7242      3.7651     43.7778   6.1166586740e+01   6.9909429961e+01     0.490175    0.3093737 -37.22  0.002683473    1.535    0.349
        63 -12.3909    213.5693     42.2990   3.5415053584e+02   2.6883764780e+01    0.4177631    0.2026773 -41.61  0.002020261    1.701    0.412
        64 -13.2087     56.3333     40.4041   2.9121003787e+01   6.4489624153e+01    0.5994842    0.4336313  55.38  0.003003159    1.591    0.371
        65 -11.9247      5.0261     35.1200   5.8158077068e+01   7.1933493133e+01    0.3401068    0.2062979  26.44  0.001842383    1.807    0.446
        66 -13.4620    217.8723     55.0219   3.5691301082e+02   2.4356649641e+01    0.8193191    0.5713888  33.70  0.004442162    1.966    0.491
        67 -12.8237    176.0355    222.8540   3.8137943499e+01   6.3713773650e+00    0.3292194    0.1676831  20.21  0.001777917    1.962    0.490
        68 -12.2252    201.3092    221.9928   3.3511074530e+01   3.2881369138e+00     0.158402    0.1238414  -1.22  0.001172656    1.101    0.092
        69 -12.8590    195.1763    219.3622   3.4191444833e+01   4.3786771636e+00    0.2524391    0.1726085 -30.86  0.001719994    1.548    0.354
        70 -12.2897    150.2731    217.7224   4.2392388435e+01   1.0540150526e+01    0.2790501    0.1666357  -2.39  0.001404018    2.509    0.601
        71 -12.5995    243.5711    205.3016   2.4196688080e+01   2.2343899098e-01    0.4756118    0.2426619 -30.27  0.003053782    1.781    0.439
        72 -10.9901    150.1189    204.5770   4.0598140130e+01   1.2610846267e+01    0.2416566    0.1537815 -24.60  0.001331262    1.922    0.480
        73 -10.6541    213.3075    203.6698   2.8691585491e+01   4.0621558215e+00   0.09391155   0.09190563  29.34 0.0006492326    1.661    0.398
