#   1 NUMBER                 Running object number                                     
#   2 MAG_AUTO               Kron-like elliptical aperture magnitude                    [mag]
#   3 X_IMAGE                Object position along x                                    [pixel]
#   4 Y_IMAGE                Object position along y                                    [pixel]
#   5 X_WORLD                Barycenter position along world x axis                     [deg]
#   6 Y_WORLD                Barycenter position along world y axis                     [deg]
#   7 A_WORLD                Profile RMS along major axis (world units)                 [deg]
#   8 B_WORLD                Profile RMS along minor axis (world units)                 [deg]
#   9 THETA_WORLD            Position angle (CCW/world-x)                               [deg]
#  10 FWHM_WORLD             FWHM assuming a gaussian core                              [deg]
#  11 ELONGATION             A_IMAGE/B_IMAGE                                           
#  12 ELLIPTICITY            1 - B_IMAGE/A_IMAGE                                       
         1 -14.6748    172.9283     87.0819   6.6769092146e+01   2.9369736590e+01     7.611356     4.214482  21.89   0.02289592    4.022    0.751
         2 -12.4612    237.4586     17.1038   3.8790252255e+01   2.4030358257e+01     1.065081    0.8342562  43.93  0.002721043    1.643    0.391
         3 -15.5110    244.9145     41.5581   4.3753866487e+01   1.9326269873e+01     4.685119     3.577555  -7.64   0.01922854    1.768    0.434
         4 -11.5562    158.9368     30.6126   5.2231791608e+01   4.1757750378e+01    0.9192414    0.2283356  52.15  0.002879169    3.444    0.710
         5 -10.2753    134.0856     16.5544   5.2049898193e+01   4.9571321681e+01    0.3259462    0.2573098  49.93  0.001170393    1.145    0.127
         6 -10.3250    183.1053    108.6100   7.0552838991e+01   2.2845120817e+01    0.3193762    0.2266302 -31.84  0.001444358    1.416    0.294
         7  -8.6178    194.4916    222.5172   9.2466256706e+01  -4.7912575069e-02    0.1278397    0.1073864  25.02  7.88262e-05    1.035    0.034
         8  -8.9180    185.4062    222.2298   9.4163810206e+01   1.5031452222e+00    0.1609059    0.1241139 -53.15 0.0009526328    1.702    0.412
         9  -9.2430    211.8307    219.3621   8.8670749888e+01  -2.4206427839e+00    0.1989287    0.1713999 -28.02  0.001066527    1.340    0.253
        10  -8.5913    204.5056    219.4546   9.0057147195e+01  -1.2455235877e+00    0.1280154    0.1064068  20.18 0.0008088264    1.019    0.019
        11  -9.4930    219.7877    216.5612   8.6716103696e+01  -3.3026512088e+00    0.2413478    0.1054507  34.77  0.001129912    2.055    0.513
        12  -8.3371    199.3018    216.6228   9.0563284850e+01   2.8909235495e-02    0.1184643    0.1028294  76.75 0.0007026786    1.764    0.433
        13 -10.0682    226.0208    213.6470   8.5064068945e+01  -3.8877565158e+00    0.1830815     0.140913  23.30 0.0006293645    1.124    0.110
        14  -8.7865    185.4266    214.2069   9.2841792842e+01   2.7450956694e+00    0.1669525    0.1268655 -54.63 0.0009487856    1.727    0.421
        15 -10.1679    219.3174    211.4657   8.5900427900e+01  -2.5116010697e+00    0.2952976    0.1770151  10.74  0.001484864    1.976    0.494
        16  -8.9943    192.3445    210.0382   9.0775916773e+01   2.2157133541e+00    0.1795216    0.1623161  -4.10 0.0006243523    1.130    0.115
        17  -9.0201    207.9373    207.5148   8.7323327981e+01  -5.2611985365e-02    0.1981791    0.1152315  37.80 0.0009087382    1.558    0.358
        18  -9.5571    197.6938    204.3278   8.8722924186e+01   2.1931390105e+00    0.2579511    0.2237702  74.78  0.001519938    1.680    0.405
        19 -10.3897    211.2332    202.0565   8.5703083403e+01   2.1688394054e-01    0.2700358    0.2370105 -45.62  0.001172495    1.457    0.314
        20  -9.8720    242.1200    201.1711   7.9902609089e+01  -4.6968860860e+00    0.3263026    0.1672311  38.39            0    1.893    0.472
        21 -10.1512    231.6363    200.8402   8.1700956140e+01  -2.9900283403e+00    0.2270443    0.1533501  24.54 0.0008182617    1.348    0.258
        22  -9.6468    237.8956    196.6190   7.9781918263e+01  -3.3956262136e+00    0.3693425    0.1921175  15.85  0.001593102    2.612    0.617
        23 -10.2907    215.7318    197.0819   8.3922399279e+01   2.0983074709e-01    0.2629074    0.2087866  66.65  0.001048066    2.008    0.502
        24  -9.4593    202.9723    197.5118   8.6445961160e+01   2.3562550781e+00    0.2370536     0.192937 -52.73 0.0008607871    1.601    0.375
        25 -10.5627    225.2692    193.4102   8.1444586229e+01  -8.5252811588e-01    0.2589595    0.2196186  -1.76  0.001056805    1.045    0.043
        26  -8.8993    247.1190    193.1737   7.7508271322e+01  -4.3708665495e+00    0.2077377    0.1496623   1.70  0.001238541    1.269    0.212
        27  -9.4129    214.4919    192.9129   8.3361609462e+01   1.0691008283e+00    0.1939145    0.1257968 -31.98 0.0006001581    1.554    0.356
        28  -9.8599    209.7448    195.4569   8.4752147998e+01   1.4964377297e+00    0.2584533    0.2180147 -50.72  0.001425138    1.538    0.350
        29  -9.5711    219.7855    194.9643   8.2759281238e+01  -1.5858209238e-01    0.1951814    0.1553295 -61.70 0.0007797341    1.998    0.499
        30  -8.1774    185.6643    191.6808   8.8798945007e+01   6.4435138190e+00    0.1440819    0.1024692   6.62 0.0002765685    1.702    0.412
        31  -9.2848    238.9825    188.8913   7.8092012041e+01  -2.4605575161e+00    0.2648486     0.174456  25.86  0.001291087    1.445    0.308
        32  -9.8364    220.8475    188.5235   8.1313089491e+01   6.5021418012e-01     0.253086    0.1731954 -49.23  0.001233227    1.907    0.476
        33  -9.1885    232.0173    194.5240   8.0430338118e+01  -2.1406132868e+00    0.1922978    0.1172072  36.01 0.0006281893    1.565    0.361
        34 -10.5611    231.5160    187.5459   7.9160885072e+01  -1.0233831940e+00    0.3053837    0.2129528  33.43  0.001365138    1.380    0.275
        35 -10.4576    224.5023    184.0106   7.9740891873e+01   7.1833992727e-01    0.2326909    0.1910585  49.20  0.000820676    1.494    0.330
        36  -9.1092    202.6138    183.9255   8.3904029756e+01   4.6537094259e+00     0.259582    0.1743798 -50.93  0.001284496    1.865    0.464
        37  -8.5973     65.1572    183.8454   1.1407995592e+02   2.8487954542e+01    0.1559339    0.1436962 -68.10 0.0002639106    1.259    0.205
        38  -9.8069    244.6165    181.9753   7.5735275092e+01  -2.3715383021e+00    0.3898713    0.2680501   6.01  0.002173293    1.479    0.324
        39  -8.6027    215.5170    187.5158   8.2117982926e+01   1.7409624924e+00    0.1351974    0.1192986   7.33 0.0001267748    1.037    0.035
        40  -8.3614    218.4899    183.5004   8.0760373264e+01   1.8550257217e+00    0.1359949    0.1198842   4.60 0.0004002262    1.031    0.030
        41  -9.5102    211.3210    182.8479   8.1994255473e+01   3.2449417388e+00    0.2462898     0.215491 -60.82  0.001418144    1.557    0.358
        42  -9.4215    236.6857    182.1306   7.7156280991e+01  -1.0792150450e+00    0.2186497    0.1762103  37.52  0.001031288    1.354    0.261
        43 -11.8864      8.0194    174.7904   1.2561609818e+02   3.6664979612e+01    0.7133726    0.5119003 -89.37  0.004967674    1.070    0.065
        44 -10.1796    232.5339    175.7764   7.6608298163e+01   6.0415633103e-01    0.2424935    0.2221257  38.75  0.001287722    1.322    0.244
        45 -10.1920    224.2233    174.9988   7.7963799417e+01   2.1954987437e+00    0.2491319    0.1531669 -40.59  0.001236829    1.693    0.409
        46  -9.1326    219.5019    174.0072   7.8639003088e+01   3.2098261412e+00     0.185274    0.1177748 -57.10 0.0008103175    2.525    0.604
        47  -8.4409    193.5856    173.7988   8.3670745495e+01   8.1156031737e+00    0.1924161    0.1344285 -50.23 0.0009377364    1.667    0.400
        48  -8.8408    201.1057    172.6820   8.1925431101e+01   6.8716528174e+00    0.2329541    0.1874352 -42.33 0.0005829474    1.341    0.254
        49  -9.2210    247.4089    170.2544   7.2869231066e+01  -1.0939471732e+00    0.2432368    0.1499506  27.34  0.001200122    1.688    0.408
        50  -9.5060    238.4783    170.4814   7.4457709541e+01   3.9444466244e-01    0.2675707    0.1275415  42.07  0.001211029    2.167    0.539
        51  -8.9533    206.3385    169.9025   8.0310771763e+01   6.3586693241e+00    0.2799787    0.1232024 -45.58  0.001088343    2.549    0.608
        52  -8.0938    212.5020    169.5041   7.9029757664e+01   5.2593371367e+00     0.139802    0.1283866   0.13  5.06964e-06    1.054    0.051
        53 -10.5330    223.7730    167.1489   7.6406929918e+01   3.5553632847e+00    0.2339855    0.1907904  47.61  0.001309753    1.415    0.293
        54  -8.4268    138.6480    164.3305   9.3818531429e+01   2.0768587263e+01    0.1552067    0.1150014  77.58 0.0007047104    1.775    0.436
        55 -10.8818    231.8755    161.0980   7.3643200335e+01   3.0603181152e+00    0.2810729     0.196217  36.56  0.001489724    1.460    0.315
        56  -8.2749    207.3266    161.6750   7.8362361988e+01   7.6105982427e+00    0.1377941    0.1174132 -80.98 0.0004634213    1.694    0.410
        57 -10.0622     39.9820    159.0912   1.1703028768e+02   3.7195414415e+01    0.3422043    0.2572653  -3.45  0.001270481    2.125    0.529
        58 -10.9562     47.1967    155.0018   1.1478064394e+02   3.7359905107e+01    0.5252219    0.4431193  54.91  0.003338442    1.235    0.190
        59 -10.4720     53.5421    151.7305   1.1276171127e+02   3.7395250412e+01    0.3232733    0.2265705 -88.14  0.001103662    1.362    0.266
        60 -10.4847    227.3279    157.2506   7.3628833577e+01   4.5355012303e+00     0.233041    0.2043823  31.83  0.001054056    1.197    0.164
        61 -11.3004    235.1184    147.9956   7.0209476994e+01   4.6076588828e+00    0.3890603    0.2533486 -53.07  0.001585169    1.995    0.499
        62  -9.0504    158.3688    154.2716   8.7149610398e+01   1.8978115508e+01    0.2122513    0.1423759 -54.37  0.000946791    1.636    0.389
        63 -10.2791    232.3002    151.6251   7.1505732438e+01   4.5368560298e+00    0.2465827    0.1566925 -41.82 0.0005804927    1.584    0.369
        64  -9.8258    223.6295    152.2169   7.3195439673e+01   6.0869555299e+00    0.2029033    0.1248226 -25.66  0.000635276    1.630    0.386
        65  -8.5163    249.6705    151.6736   6.8559495255e+01   1.3698467351e+00    0.1412379   0.09592321   1.42 0.0007050729    1.705    0.413
        66  -8.5377    162.3292    149.6778   8.5232444033e+01   1.9117111531e+01    0.1540051    0.1227553  87.23 0.0007049061    1.694    0.410
        67  -8.7561    143.0000    148.9037   8.9586798361e+01   2.3266724373e+01    0.2476746   0.08644111 -47.68 0.0007956947    2.896    0.655
        68 -10.7092    241.7443    146.7706   6.8805753444e+01   3.5754115233e+00    0.2365987    0.1732105  36.08 0.0009694649    1.445    0.308
        69  -8.9831    171.4674    145.4656   8.2220478121e+01   1.8059734637e+01     0.150942    0.1471601   4.74 0.0001470555    1.010    0.010
        70  -9.9084    148.2417    143.1420   8.7047775071e+01   2.3448766992e+01     0.294787    0.2192781 -67.47  0.001295931    1.628    0.386
        71  -9.1941    138.0904    143.6531   8.9622598631e+01   2.5420874779e+01    0.2739275    0.2125321 -61.49  0.001314092    1.384    0.277
        72  -9.2232    174.5061    140.0505   8.0287292237e+01   1.8510116484e+01    0.2365851    0.1497796 -42.42  0.001025562    1.573    0.364
        73  -8.9604    131.5041    140.0567   9.0454102976e+01   2.7553602364e+01    0.2379913    0.1496074 -49.53 0.0009815259    1.583    0.368
        74  -9.3955    171.3358    136.4502   8.0134699250e+01   1.9931471650e+01    0.2674221    0.1917613 -62.52  0.001048051    1.742    0.426
        75  -9.8017    187.9991    134.4713   7.6059186629e+01   1.6690936438e+01    0.4973935    0.1533372 -35.44  0.001427112    3.714    0.731
        76 -10.2255    182.4330    135.1951   7.7409581096e+01   1.7762962299e+01    0.3807192    0.1457449 -42.62  0.001293317    2.577    0.612
        77  -9.2284    155.5095    135.5325   8.3547760105e+01   2.3554207467e+01    0.2820077    0.1460652 -54.62  0.001034872    2.278    0.561
        78  -9.2654    149.1460    135.9891   8.5172825340e+01   2.4815313346e+01    0.2582448    0.1819125 -72.75  0.001080537    1.971    0.493
        79  -9.9036    233.3598    132.3681   6.6975037775e+01   7.5600971384e+00    0.3258647    0.1596545 -40.35  0.001387008    1.900    0.474
        80 -10.4273    173.3147    130.0832   7.8149435265e+01   2.0798307640e+01    0.4585269    0.2605534 -60.75  0.001649785    2.644    0.622
        81 -10.8846    159.6912    130.2999   8.1300447398e+01   2.3760308403e+01     0.417037    0.2921169 -54.16  0.001699313    1.542    0.352
        82 -11.2654    166.3666    127.6929   7.9117958683e+01   2.2832761786e+01    0.6239098    0.3416203 -56.82  0.002301303    2.375    0.579
        83  -9.5668    166.4736    119.5084   7.7022578623e+01   2.4502377316e+01    0.2336417    0.1496367  36.86  0.000735365    1.688    0.408
        84  -9.5601    160.4913    124.4903   7.9669030287e+01   2.4809948190e+01    0.3121292    0.1530098 -38.82  0.001152472    2.078    0.519
        85 -11.5355    162.6004    120.2304   7.8095533703e+01   2.5229264955e+01    0.6246817    0.2858745 -51.20   0.00215131    2.521    0.603
        86 -10.4074    152.9545    129.9991   8.2817691376e+01   2.5294779067e+01    0.3282541    0.2192313 -44.07 0.0009930925    1.487    0.327
        87  -9.4982    146.2909    131.0190   8.4676246516e+01   2.6508294658e+01    0.2302816    0.1992209 -44.51 0.0007884229    1.148    0.129
        88  -8.9875    136.4248    131.1997   8.7166727119e+01   2.8546298790e+01    0.2483027    0.1534539 -48.57  0.001049035    1.607    0.378
        89 -10.2927    136.7345    126.6194   8.5980867813e+01   2.9506268892e+01    0.3435642    0.2104876 -36.55  0.001143809    1.763    0.433
        90  -9.9761    192.0274    129.2144   7.3950143386e+01   1.6827849926e+01    0.3657919    0.2018661 -54.49   0.00139014    2.328    0.570
        91  -8.6477    221.5945    128.7808   6.8186581445e+01   1.0561812806e+01    0.2141831    0.1275443 -44.29  0.000951606    1.671    0.402
        92  -9.4795    186.0625    129.0363   7.5142477678e+01   1.8180145282e+01     0.242616    0.1940353 -75.88 0.0009210894    1.656    0.396
        93  -9.9704    241.6935    127.1573   6.4394828914e+01   6.7955174292e+00    0.2289965    0.1610858 -45.79  0.000773745    1.441    0.306
        94 -10.2910    181.9800    125.6934   7.5178107512e+01   1.9749303693e+01    0.2865066    0.2120147 -48.66  0.001330622    1.394    0.283
        95  -9.9115    181.9835    120.1912   7.3791070026e+01   2.0837831133e+01    0.4062525    0.1958291 -41.38  0.001454708    2.018    0.504
        96 -11.5876    152.2355    121.4669   8.0857663266e+01   2.7286438416e+01     0.374844    0.2930249 -36.77  0.001176898    1.285    0.222
        97  -9.1832    226.8770    123.2889   6.5958572946e+01   1.0424464023e+01     0.333881     0.186312 -48.10  0.001434037    1.928    0.481
        98  -9.8357    188.1614    123.6828   7.3377366792e+01   1.8758473761e+01    0.2791063    0.2089847 -48.04  0.001015209    1.370    0.270
        99 -10.5551    176.0355    122.9822   7.5779439444e+01   2.1628675392e+01    0.4917526    0.2013593 -52.69  0.001481826    3.435    0.709
       100  -9.9992    195.2319    121.8341   7.1476994272e+01   1.7530453883e+01    0.3318361    0.2017149 -48.22  0.001406046    1.727    0.421
       101 -10.1525    170.3537    122.4556   7.6901617554e+01   2.3018897825e+01    0.3030413    0.1927088 -45.37 0.0008092739    1.571    0.363
       102 -10.1017    201.5736    119.5843   6.9669238911e+01   1.6538974390e+01     0.595615    0.2225005 -52.33  0.001575549    4.803    0.792
       103 -10.7794    157.2097    120.0819   7.9316487274e+01   2.6472976828e+01     0.357246    0.2077679 -49.46  0.001059397    1.786    0.440
       104  -9.6307    219.0810    117.1002   6.5825195222e+01   1.3151781772e+01    0.4133728    0.3044878  71.73  0.001978316    1.797    0.443
       105  -9.4093    177.5009    118.0385   7.4199915024e+01   2.2286891279e+01    0.2414079    0.1513991 -40.24 0.0006793889    1.556    0.357
       106  -9.2678    231.9929    116.0579   6.3377678682e+01   1.0603706760e+01    0.4060276    0.1715167 -39.46  0.001594259    2.133    0.531
       107 -10.0713    203.2918    115.8419   6.8403227845e+01   1.6849786248e+01    0.2798016    0.1786041 -40.73 0.0008099358    1.495    0.331
       108  -9.7906    185.1217    115.9202   7.2038847292e+01   2.0959436423e+01    0.2424524    0.2120575 -66.14 0.0007775945    1.284    0.221
       109 -11.0347    168.1422    111.9827   7.4679432485e+01   2.5658659032e+01    0.6688682    0.2217469 -47.32  0.001961095    3.356    0.702
       110 -10.3889    193.6952    114.1674   6.9844915940e+01   1.9334367649e+01     0.378668     0.268185 -40.08  0.001756055    1.358    0.264
       111 -10.8896    210.1237    113.2801   6.6488087528e+01   1.5793407294e+01    0.4290836    0.3259555 -41.16  0.001617966    1.254    0.202
       112 -10.2567    176.2622    112.3765   7.2995183685e+01   2.3699014839e+01    0.3357891    0.2463788 -36.88  0.001287169    1.336    0.252
       113 -10.3754    173.4911    108.4678   7.2560815511e+01   2.5119631800e+01    0.4049609     0.148567 -41.87  0.001312995    2.647    0.622
       114 -10.7201    127.9435    108.7332   8.3674549614e+01   3.5345244409e+01    0.3401754    0.2231764 -58.65  0.001436185    1.726    0.421
       115 -14.2810    157.4216     92.5038   7.1743363566e+01   3.2077952152e+01     2.588045    0.9019293 -45.79  0.007973114    3.043    0.671
       116 -10.7444    188.1685    249.1678   9.7714539853e+01  -2.7588611623e+00    0.2874121    0.1400131  39.63   0.00155511    1.661    0.398
       117 -11.6775    140.7406    106.0530   7.9618779930e+01   3.3148379882e+01      0.53908    0.3656873 -12.78  0.002132099    2.199    0.545
       118 -12.4175    149.0753    102.8020   7.6647075974e+01   3.1948377617e+01      0.67975    0.5083191   7.58  0.002942669    1.819    0.450
       119  -9.9907    221.5374    105.1927   6.2472987718e+01   1.4700017350e+01    0.2672553    0.2157992  50.09  0.001397645    1.336    0.252
       120  -9.7419    204.1747    105.1377   6.5516425623e+01   1.8610679351e+01    0.2386151    0.2098492  -3.70   0.00118886    1.226    0.185
       121  -9.3349    112.0744    248.7904   1.1173107593e+02   9.0499592425e+00    0.1796976    0.1278874  56.43 0.0004796953    1.189    0.159
       122 -12.4064    249.6580     59.0982   4.7327650527e+01   1.5870467334e+01    0.9354869    0.3340051 -38.30  0.001659292    2.311    0.567
       123 -11.5120    133.9323    109.0357   8.2179076298e+01   3.3998303035e+01    0.4510785       0.2814 -46.28  0.001428106    1.574    0.365
       124  -9.9171    193.7327    101.3908   6.6511685561e+01   2.1720858371e+01    0.2947748    0.1763804 -45.77 0.0009763585    1.667    0.400
       125 -10.2274    188.2696    101.1116   6.7509358846e+01   2.3060063465e+01    0.3064668    0.2086642 -53.59 0.0009104831    1.611    0.379
       126  -9.4961    195.4778    232.9784   9.3954702777e+01  -1.7084603574e+00    0.1480067    0.1117699 -72.01  0.000810029    2.539    0.606
       127 -10.1933    121.0885     99.6270   8.3029178590e+01   3.8787480128e+01    0.3200566    0.2231257 -37.81  0.001010199    1.429    0.300
       128  -8.9031    121.6097    109.2582   8.5520950737e+01   3.6547005172e+01    0.2223003     0.143224 -37.89 0.0009456708    1.593    0.372
       129  -8.8560    197.5074     97.9860   6.4892010182e+01   2.1457404306e+01    0.2387839    0.1454674 -37.72 0.0008552628    1.562    0.360
       130 -10.9598    134.1815     97.4789   7.8902892356e+01   3.6428184163e+01    0.3269819    0.2683434 -36.72  0.001195436    1.202    0.168
       131 -10.5576    183.5682     95.8628   6.7032967879e+01   2.5161318289e+01    0.4565421    0.1742881 -40.88  0.001537628    2.506    0.601
       132  -9.1703    112.4278     95.2851   8.4232075349e+01   4.1509956277e+01    0.2997676    0.1432287 -41.19 0.0009615325    2.063    0.515
       133 -10.8079    148.6125     94.2576   7.4338102471e+01   3.3805544781e+01    0.4819009    0.3189218 -17.35  0.001932211    2.041    0.510
       134 -11.6354    142.3459     91.4347   7.5061507827e+01   3.5829405333e+01       0.7076    0.3032579 -32.91   0.00232894    2.741    0.635
       135  -9.9070    131.1719     92.5518   7.8266028827e+01   3.8127775029e+01    0.3045677    0.2168621 -41.24  0.001381214    1.373    0.272
       136  -9.9525    189.9939    107.4173   6.8834691058e+01   2.1467258402e+01    0.3652723    0.2248041 -36.93  0.001173081    1.570    0.363
       137  -8.1335     75.2239     89.0056   9.3905729159e+01   4.9511178721e+01     0.186351    0.1087739 -50.68            0    1.553    0.356
       138 -10.1328    129.1781     87.3774   7.7257771147e+01   3.9636917165e+01    0.3678049    0.2273661 -31.33  0.001029676    1.742    0.426
       139 -11.4931    142.7973     80.5839   7.1693655560e+01   3.7861836814e+01    0.6449932    0.3747897 -15.41  0.002248129    2.845    0.648
       140  -8.9603    125.6466     82.1913   7.6624806367e+01   4.1467776517e+01    0.2257921    0.1419169 -31.00 0.0008318146    1.692    0.409
       141  -9.8359    201.0745    109.6926   6.7265208159e+01   1.8486532238e+01     0.212356    0.2053567  24.56  0.000911902    1.071    0.066
       142 -11.1721    150.4059     78.7460   6.9303168382e+01   3.6396204637e+01    0.4389698    0.3099633 -28.82  0.001714128    1.483    0.325
       143 -10.3210    137.1473     80.1487   7.2972662080e+01   3.9265874461e+01    0.2861515     0.234625 -51.76  0.001051597    1.283    0.221
       144 -10.6410    167.4942     76.8469   6.4936168390e+01   3.2565196044e+01    0.3591581    0.2555023  -4.96  0.001330442    1.921    0.479
       145  -9.9123    133.4933     76.4809   7.2763300349e+01   4.0814104586e+01    0.3230844    0.1513012 -37.79  0.001041477    2.119    0.528
       146 -10.3976    157.4179     74.9853   6.6555790644e+01   3.5380390201e+01    0.3753142    0.2392738 -29.08  0.001235859    1.661    0.398
       147 -10.3460    127.3611     74.7817   7.3832741321e+01   4.2535970183e+01    0.2895746    0.1999563 -28.85   0.00130181    1.513    0.339
       148 -10.8790    151.0539     71.7195   6.6989148927e+01   3.7521344410e+01    0.3707774    0.2884408 -44.22  0.001081162    1.302    0.232
       149  -9.5318    133.5024     83.0052   7.4789329621e+01   3.9544203471e+01     0.244222    0.1518027 -38.34 0.0008933668    1.587    0.370
       150 -10.7317    139.5851     73.2457   7.0201619448e+01   3.9999322653e+01    0.3315445     0.272853 -20.12  0.001085003    1.283    0.220
       151 -11.6062    170.6532     69.1593   6.2004285533e+01   3.3114957098e+01    0.5623589    0.3713719  25.73  0.002332933    2.063    0.515
       152 -12.3197    171.0545     61.7470   5.9703486663e+01   3.4238015631e+01    0.6197704    0.4881224  48.41  0.003076343    1.276    0.217
       153 -11.0499    163.3238     69.3093   6.3552279473e+01   3.4918157986e+01    0.4980178    0.3290951  15.26  0.001970038    2.336    0.572
       154 -11.9540    158.9028     63.1442   6.2587585421e+01   3.7059863597e+01    0.8074777    0.2820355 -46.27  0.002474305    3.397    0.706
       155 -10.7519    133.1219     69.3428   7.0575957750e+01   4.2230417322e+01    0.3920547    0.2242806 -30.67   0.00153308    1.844    0.458
       156  -9.4932    128.3849     68.7712   7.1616495892e+01   4.3428089446e+01    0.2185315    0.1442452 -26.09 0.0009305968    1.640    0.390
       157 -10.4466    145.7264     67.2823   6.6827527920e+01   3.9600218906e+01    0.3113394    0.2109375 -25.91  0.001044534    1.588    0.370
       158  -9.9762    139.4791     67.5645   6.8412656578e+01   4.1052330373e+01    0.3178675    0.1506185 -35.60  0.001195229    2.114    0.527
       159  -9.9410    150.5099     65.4848   6.5156378656e+01   3.8743990593e+01    0.3182369    0.1514434 -34.21  0.001063976    2.121    0.528
       160  -9.1122    125.4998     65.4749   7.1289893944e+01   4.4684204452e+01    0.1503117      0.14594  -0.42 0.0008100746    1.020    0.020
       161  -9.8620    136.4936     63.0473   6.7672219190e+01   4.2553181104e+01    0.2363315    0.1494301 -34.13 0.0009169009    1.588    0.370
       162 -10.9008    139.7001     57.1052   6.4932549823e+01   4.2781819423e+01    0.3508079    0.2123644 -44.05  0.001477712    1.740    0.425
       163 -11.2593    164.1092     64.3209   6.1867465544e+01   3.5563329885e+01    0.3574819    0.3155926 -11.80  0.001061097    1.221    0.181
       164  -9.8949    131.6030     58.2250   6.7277732136e+01   4.4529926601e+01    0.2169008    0.1440487 -20.88 0.0009544255    1.694    0.410
       165 -10.9184    147.0970     56.4735   6.3026086816e+01   4.1077513887e+01    0.3455079    0.1975159 -37.95  0.001463764    1.756    0.430
       166 -10.2040    156.4049     69.2249   6.5013557724e+01   3.6647851422e+01    0.2854449    0.1946106 -42.82  0.001232139    1.478    0.323
       167 -10.5769    176.7246     51.7709   5.5662039056e+01   3.4345412113e+01    0.5487854    0.1969684 -31.47  0.001881691    2.819    0.645
       168  -8.9833    115.4981    110.0655   8.7414515204e+01   3.7597651401e+01    0.2443801    0.1481411 -47.75  0.001033084    1.590    0.371
       169  -8.9510    190.8380     38.2726   4.9466414238e+01   3.2655526209e+01    0.2439569     0.177509 -44.33 0.0005564309    1.354    0.261
       170  -9.1355    202.5257    232.5208   9.2571874709e+01  -2.7625600391e+00    0.1242249     0.100537  22.43 0.0001971296    1.016    0.015
       171 -10.3943    216.1699    108.8429   6.4300129315e+01   1.5245289135e+01    0.4554412    0.3627652  89.18  0.002255726    1.650    0.394
       172  -8.8935    212.5689    228.2008   9.0021169346e+01  -3.7542596569e+00    0.1614025    0.1076468 -16.33 0.0007927315    1.617    0.382
