#   1 NUMBER                 Running object number                                     
#   2 MAG_AUTO               Kron-like elliptical aperture magnitude                    [mag]
#   3 X_IMAGE                Object position along x                                    [pixel]
#   4 Y_IMAGE                Object position along y                                    [pixel]
#   5 X_WORLD                Barycenter position along world x axis                     [deg]
#   6 Y_WORLD                Barycenter position along world y axis                     [deg]
#   7 A_WORLD                Profile RMS along major axis (world units)                 [deg]
#   8 B_WORLD                Profile RMS along minor axis (world units)                 [deg]
#   9 THETA_WORLD            Position angle (CCW/world-x)                               [deg]
#  10 FWHM_WORLD             FWHM assuming a gaussian core                              [deg]
#  11 ELONGATION             A_IMAGE/B_IMAGE                                           
#  12 ELLIPTICITY            1 - B_IMAGE/A_IMAGE                                       
         1 -15.3566    193.6300    108.7997   8.4028961160e+01   2.0499481611e+01     14.82238      8.66019 -79.68   0.04754417    3.710    0.730
         2 -14.6413    240.2640     81.9447   7.0178233492e+01   1.4785239381e+01     4.077055       1.4441 -45.24   0.01218257    2.489    0.598
         3 -15.1291    210.4698     63.8908   7.0267723663e+01   2.4439745401e+01     7.929424     2.868575 -55.21   0.02534916    3.876    0.742
         4 -13.9646    248.1259     45.0894   6.1584404195e+01   1.8769880654e+01     1.546113    0.6883161 -43.31   0.00753192    2.002    0.501
         5 -14.5714    224.4734     47.9319   6.4787085065e+01   2.3572809587e+01     2.245423     1.460586  39.28   0.01106294    2.335    0.572
         6 -13.7682    234.2996      4.0469   5.4771171093e+01   2.6879621449e+01     1.123814    0.7880249  68.21  0.004657968    1.430    0.301
         7 -13.3866    249.1176      2.7704   5.3426654957e+01   2.3885349624e+01     0.533829    0.5115278 -70.15  0.002658972    1.503    0.334
         8 -13.8862    249.4306     25.9971   5.7727499954e+01   2.1054968878e+01    0.6567438    0.5300213 -30.39  0.001369575    1.680    0.405
         9 -15.6745    242.5346     17.6667   5.6718609353e+01   2.3548035814e+01     3.314881     0.694706  61.56   0.01133128    4.117    0.757
        10 -13.0863    214.2167      3.9231   5.6442489545e+01   3.1340487999e+01     1.111632    0.5781539  87.69  0.004179298    1.742    0.426
        11 -13.4407    221.0647     36.9049   6.2777772462e+01   2.5874388002e+01    0.9935326    0.6746355 -61.50  0.005625158    1.362    0.266
        12 -14.5395    174.7219     69.4747   7.7622734876e+01   3.2212540740e+01     6.408873     2.949299 -65.78   0.00525778    7.395    0.865
        13 -10.9809    132.1879     21.4055   7.2128636750e+01   4.8950061206e+01    0.5219402    0.3615139 -67.53  0.002748462    1.967    0.492
        14  -9.6942    115.8094     12.4175   7.2642009900e+01   5.3516147751e+01    0.3035775    0.1876171  55.25  0.001600249    1.342    0.255
        15 -11.1629    120.2070      8.8203   7.0552418611e+01   5.2854131867e+01    0.4156644    0.3227044  52.76  0.001428741    1.057    0.054
        16  -9.8174    141.3769      9.8443   6.6966262264e+01   4.7913740121e+01    0.2614381    0.2336616 -26.15  0.001005693    1.342    0.255
        17 -10.0033    151.0327      6.9590   6.4600889759e+01   4.5896656130e+01    0.2914393    0.1802254 -27.63 0.0009749262    1.934    0.483
        18  -9.0135    200.0417      6.9895   5.8471363305e+01   3.4282748620e+01    0.2066785    0.1504735 -43.42 0.0008666462    1.500    0.333
        19 -10.4041    172.1614      3.7419   6.0856048745e+01   4.1169335110e+01    0.4640347    0.2387028 -64.24  0.001975138    2.424    0.587
        20  -8.1356     90.4715      7.4820   7.6921967333e+01   5.9268411367e+01    0.1232969   0.09943668  36.18 7.729071e-05    1.007    0.006
        21  -8.7249    178.3223      1.3000   5.9520411405e+01   3.9931228028e+01     0.263676     0.108897  76.71 0.0006852344    2.199    0.545
        22 -10.6023    183.8283      3.8182   5.9493730588e+01   3.8399473285e+01    0.4487482    0.2596543  89.51  0.001797755    1.658    0.397
        23  -8.7906    186.7637      2.0091   5.8743453399e+01   3.7877767697e+01     0.220604    0.1656365 -76.89 0.0005997884    1.240    0.193
        24  -8.8322    138.8062      4.0389   6.5696900577e+01   4.9008887756e+01    0.2384221    0.1361593 -27.69 0.0009754993    2.076    0.518
        25 -10.0204    157.8875    216.6255   1.1508954055e+02   5.5653329610e+00    0.2327712     0.223152 -35.22 0.0004345509    1.148    0.129
        26 -10.8029    173.9766    137.3458   9.5122236180e+01   1.9157383102e+01    0.3975913    0.3014283 -84.69  0.001562963    1.759    0.431
        27 -10.6238    146.2346    136.5955   1.0152654212e+02   2.5545583973e+01    0.5064219    0.3372082  87.69  0.001601721    2.597    0.615
        28 -11.1803    179.5474    135.8023   9.3516217624e+01   1.8227014490e+01    0.4361334    0.2960667 -68.05  0.001400193    1.942    0.485
        29  -8.7408    172.1255    154.1361   9.9442047591e+01   1.5915539414e+01    0.2299764    0.2089322   4.51 0.0003310764    1.216    0.178
        30  -8.9355    203.8831    152.8380   9.2318419251e+01   9.3475110953e+00    0.2295597    0.2045231   3.50  0.000567312    1.225    0.183
        31 -10.3263    133.9713    147.6812   1.0721464484e+02   2.5610393749e+01    0.7356427    0.2426382 -54.63  0.002095409    3.615    0.723
        32  -9.9380    136.1997    127.9922   1.0198015919e+02   2.9697139598e+01    0.5750939    0.2527924 -47.08  0.002025077    2.274    0.560
        33 -10.0397    134.8555    121.6050   1.0072911597e+02   3.1430624476e+01    0.7090637    0.2467502 -44.07   0.00222074    2.911    0.656
        34  -9.8194    171.2690    126.8957   9.3203656006e+01   2.2020432677e+01    0.2873555    0.2163865  59.90  0.001242491    1.404    0.288
        35 -11.2077    160.1123    128.2714   9.6120960775e+01   2.4287215534e+01    0.4994555    0.3449706 -40.28   0.00218949    1.482    0.325
        36 -10.5070    151.6311    123.2260   9.6902407830e+01   2.7326543751e+01     0.549437    0.2908125 -59.92  0.001911943    2.557    0.609
        37 -10.3707    218.8618    149.1665   8.8576891977e+01   6.9730092214e+00    0.2754156    0.2381115  65.10   0.00044499    1.316    0.240
        38 -11.4915     68.3794    144.8627   1.2435046340e+02   3.7954797392e+01    0.6869055    0.4719349  71.33  0.002418231    1.795    0.443
        39  -9.7393    141.5770    121.7958   9.9047144429e+01   2.9906520859e+01    0.4053103    0.2433521 -64.38   0.00151576    2.274    0.560
        40  -9.0523    138.6965    119.3217   9.9152543258e+01   3.1094252145e+01    0.2538621    0.1612132  51.40 0.0002285267    1.615    0.381
        41 -10.6905     37.2892    214.2620   1.4090397149e+02   2.5482684094e+01      0.24255    0.1592165  39.76  0.001077921    1.626    0.385
        42 -11.4072    167.7320    114.0739   9.0792539203e+01   2.5546468564e+01    0.4915987    0.4346745 -47.96 0.0009156327    1.131    0.116
        43 -10.7688    179.1464    146.1359   9.6031863599e+01   1.6105564546e+01     0.331127    0.2944244 -14.53  0.001147989    1.245    0.197
        44 -10.2022    157.3567    113.7923   9.3116613244e+01   2.8037012876e+01    0.4218063    0.2819202 -70.53  0.001679641    2.088    0.521
        45  -9.8305    134.5846    113.3204   9.8662441062e+01   3.3320630037e+01    0.4732255    0.2182481 -49.08  0.001701981    2.246    0.555
        46 -10.3571    134.7306    106.8130   9.6897471223e+01   3.4687816856e+01     0.774599    0.2868369 -45.44  0.002545625    2.731    0.634
        47 -10.0096    126.0340    110.0282   1.0006439620e+02   3.5896067164e+01    0.2330068    0.2305859 -60.30 0.0003581871    1.016    0.016
        48 -13.4141     11.2489    192.9459   1.4435719548e+02   3.2991621633e+01    0.9086346    0.6796144  89.44  0.003880257    1.025    0.024
        49 -10.1775    192.9962    195.1459   1.0352334479e+02   3.1016837308e+00    0.9587899    0.4684103 -64.05  0.002393727    7.155    0.860
        50  -9.5806    216.3918    190.2113   9.7745665710e+01  -3.5727729800e-01    0.1936915    0.1294732 -49.17 0.0003681272    1.658    0.397
        51  -8.9874    141.7820    104.1911   9.4385123972e+01   3.3648440296e+01    0.2171547    0.1881682   7.43 0.0006829348    1.353    0.261
        52 -10.3925    124.5851    102.4908   9.8424403840e+01   3.7821658480e+01     0.479705    0.3179278  50.95  0.002127824    1.553    0.356
        53 -10.1289    147.7582     99.7523   9.1704261366e+01   3.3178168526e+01    0.3562962    0.3388205  88.11 0.0008194316    1.076    0.071
        54  -9.3741    134.0925     96.0602   9.4121503523e+01   3.7056363841e+01    0.2250751    0.2232111  43.34  0.001218801    1.010    0.010
        55 -13.6449     42.3819    171.8528   1.3525968872e+02   3.4676543610e+01     1.261314    0.9100806 -33.64   0.00208303    1.913    0.477
        56 -11.6025      5.4872     88.8911   1.3310590759e+02   5.7075537410e+01    0.4772078    0.2776131 -23.72  0.002813874    1.906    0.475
        57 -12.9826     53.8091    162.7768   1.3118703310e+02   3.5499291872e+01    0.9022636    0.7935688 -79.69  0.003101169    1.025    0.024
        58 -10.9117     63.3505    150.9442   1.2680379891e+02   3.7155360667e+01    0.4786988     0.367505  57.63  0.002598865    1.384    0.277
        59 -10.4420    141.3281     89.1324   9.0347200008e+01   3.6766474782e+01    0.3531864    0.3180221 -75.50  0.001096658    1.215    0.177
        60  -8.6929    101.0121    175.9878   1.2135041651e+02   2.5148219702e+01    0.1985699    0.1847809  81.63            0    1.009    0.009
        61 -11.8254    156.0444     82.7749   8.5101893519e+01   3.4470709603e+01    0.4259632    0.3759191  57.24 0.0007160147    1.089    0.082
        62  -9.5044    151.5204     82.4747   8.6044756419e+01   3.5610568986e+01    0.2586257     0.223247 -52.41  0.000603993    1.206    0.171
        63 -10.7928    157.9586     92.6258   8.7368333725e+01   3.2169512820e+01    0.4959377    0.4422183 -10.32   0.00222116    1.296    0.229
        64 -10.5709     70.4554    159.7439   1.2639949117e+02   3.4003263874e+01    0.8327174    0.4169668 -73.50  0.003356166    2.301    0.565
        65  -9.6867    147.3194     74.9394   8.4880159570e+01   3.7954729807e+01    0.5184582    0.2285031 -49.25  0.001858481    2.705    0.630
        66 -11.0237    151.3594     70.7938   8.2782797710e+01   3.7695934551e+01    0.8541162    0.3991495 -55.85  0.002886151    3.290    0.696
        67 -10.6966    144.5423     68.1612   8.3563719697e+01   3.9765802401e+01    0.4322648    0.2964712  64.62  0.001582626    1.534    0.348
        68  -9.4904    148.5033     59.9602   8.0295474157e+01   4.0130821976e+01    0.2621123    0.1393103 -40.67 0.0009492784    1.995    0.499
        69 -11.1950    144.2088     59.2055   8.1018349898e+01   4.1275137664e+01    0.5846831    0.3269723 -34.17  0.001958063    1.943    0.485
        70 -10.8756    178.1606    142.1525   9.5322779319e+01   1.7180903266e+01    0.2976305     0.270144 -68.77   0.00123012    1.154    0.134
        71  -9.5942    206.7810     74.6840   7.3387676245e+01   2.3569696506e+01    0.2941208    0.2283819 -21.03 0.0009853333    1.664    0.399
        72 -11.3664    158.1345    141.2471   9.9728142645e+01   2.1859799368e+01    0.7626282     0.485722  86.91  0.002558505    3.174    0.685
        73 -10.8003      9.1900     69.2805   1.2774989128e+02   6.0913778018e+01    0.3029934    0.1544548 -72.92  0.001500512    2.621    0.618
        74  -9.7164    155.9454     68.7691   8.1210887066e+01   3.6924640213e+01     0.414513    0.1793851 -49.33    0.0014854    2.772    0.639
        75  -8.6854    120.0313     68.7679   8.9839532004e+01   4.5273080038e+01    0.1961705    0.1775711  33.29 0.0002417087    1.046    0.044
        76 -10.9041      2.2532     64.2478   1.2920477978e+02   6.2290001028e+01    0.4953045   0.05563054 -59.76  0.001595962    5.228    0.809
        77  -9.4498    200.6286    173.6738   9.7523076507e+01   5.8270582568e+00    0.3493766    0.2240959 -23.35  0.001513312    1.922    0.480
        78 -11.4390    105.0305     60.1537   9.1293068439e+01   4.9868995579e+01    0.7261831    0.3283255  28.47  0.002409447    3.694    0.729
        79  -8.9848     60.4802     62.5249   1.0660103518e+02   5.7166209317e+01    0.1318991    0.1120453 -12.47 0.0001192601    1.023    0.022
        80 -10.0754     95.6767     58.8195   9.3629231779e+01   5.1936781818e+01    0.3258602    0.1440592  32.52  0.001237244    2.718    0.632
        81  -8.6765     72.8645     58.3420   1.0086578162e+02   5.6041008445e+01    0.1806109    0.1529576  13.34 0.0004720122    1.094    0.086
        82  -9.8961    179.4143     51.4439   7.2035024976e+01   3.3836264470e+01    0.5785917     0.303846  42.22  0.002410086    2.337    0.572
        83  -9.2956     83.0770     52.3666   9.5423650951e+01   5.5288885016e+01    0.2378855    0.1823751 -38.88  0.000723918    1.408    0.290
        84  -8.7279    106.1707    159.1225   1.1688114310e+02   2.8316831823e+01    0.2069603    0.1967911 -40.78 0.0002913015    1.141    0.123
        85 -12.0667     24.7099    172.4102   1.3949993608e+02   3.6423762951e+01    0.5411273    0.3986668 -17.70  0.003140526    2.153    0.535
        86  -9.1679    204.0419     41.1918   6.5831112231e+01   2.9284601423e+01    0.2074675    0.1774238 -59.87 0.0004163291    1.164    0.141
        87 -11.5991    107.8487     38.9461   8.3477869423e+01   5.2358449180e+01    0.4971397    0.2514315 -47.17  0.002149606    2.693    0.629
        88 -10.3294    235.2225    173.8910   9.0816840302e+01  -8.0361685610e-01    0.3109744    0.2285611  51.47 0.0009659026    1.602    0.376
        89  -8.5737    153.3038     20.9760   6.8156109984e+01   4.4007024341e+01    0.1688443    0.1569081  65.31 0.0002850056    1.099    0.090
        90 -10.2501    230.8734    167.5916   9.0303128404e+01   1.1376437437e+00    0.3293538    0.1755323 -44.83   0.00146212    1.821    0.451
        91 -10.7941    213.4137    167.2244   9.3558742935e+01   4.5521147836e+00    0.6434314    0.3646356  66.07  0.002288856    3.420    0.708
        92 -12.5459    192.6681     69.7714   7.4488433144e+01   2.7770072616e+01    0.9704617    0.8293388  52.92  0.005022838    1.228    0.185
        93 -10.2147    191.9845    152.1551   9.4626866944e+01   1.2022373342e+01    0.5171419    0.2664789 -58.42  0.001822046    2.708    0.631
        94  -9.1539     72.6757    249.6689   1.3725743045e+02   1.3358410340e+01    0.1064626    0.0990975 -20.02 0.0007050443    1.704    0.413
        95 -10.2364    192.0204    144.0296   9.2764812303e+01   1.3707657749e+01     0.322108    0.2242455  58.84 0.0007848362    1.602    0.376
        96 -11.8894    245.1412    238.4876   1.0136607470e+02  -1.2772714789e+01    0.2245698    0.1924489 -10.42 0.0002852385    1.194    0.162
        97  -8.0267    104.7353    143.7824   1.1408867712e+02   3.2307218133e+01    0.1357983    0.1181543  -6.87            0    1.397    0.284
        98 -11.3762    188.3322    137.9965   9.2139672091e+01   1.5785094813e+01    0.3818139    0.3306181 -23.23    0.0016136    1.253    0.202
        99 -10.7884    167.7635    138.7460   9.6871614336e+01   2.0256035908e+01    0.4484494    0.2939631 -70.99  0.001002815    2.210    0.548
       100  -9.6048    166.5759    132.9062   9.5743054723e+01   2.1800735279e+01    0.3914813    0.1500408 -50.46  0.001226492    2.879    0.653
