#   1 NUMBER                 Running object number                                     
#   2 MAG_AUTO               Kron-like elliptical aperture magnitude                    [mag]
#   3 X_IMAGE                Object position along x                                    [pixel]
#   4 Y_IMAGE                Object position along y                                    [pixel]
#   5 X_WORLD                Barycenter position along world x axis                     [deg]
#   6 Y_WORLD                Barycenter position along world y axis                     [deg]
#   7 A_WORLD                Profile RMS along major axis (world units)                 [deg]
#   8 B_WORLD                Profile RMS along minor axis (world units)                 [deg]
#   9 THETA_WORLD            Position angle (CCW/world-x)                               [deg]
#  10 FWHM_WORLD             FWHM assuming a gaussian core                              [deg]
#  11 ELONGATION             A_IMAGE/B_IMAGE                                           
#  12 ELLIPTICITY            1 - B_IMAGE/A_IMAGE                                       
         1 -14.9685    160.3523     41.4522   8.3114078716e+01   4.0146591329e+01     1.450582      1.00465 -14.02  0.004000101    1.505    0.336
         2 -14.5805    172.9383      8.3862   6.9840523396e+01   4.0589625432e+01     1.082182    0.9961391  33.38  0.003961795    1.107    0.096
         3  -9.9779    150.9612    244.7641   1.2857733991e+02   9.7161089677e+00     0.142279    0.1036478  30.31 0.0003911478    1.016    0.015
         4 -19.9558     79.1269    192.1659   1.3690091114e+02   2.6760150265e+01     12.35537     6.135583 -68.57   0.06803666    2.287    0.563
         5 -12.4665     31.2702    182.7304   1.4639992431e+02   3.3652200856e+01    0.5863461    0.2754723  62.39  0.002040294    1.992    0.498
         6 -11.6841     27.5654    179.8957   1.4702523298e+02   3.4533123955e+01    0.2825331    0.2260325 -30.78  0.002014193    1.826    0.452
         7 -10.7183     24.9946    185.5396   1.4789326451e+02   3.3676491743e+01    0.1722396    0.1310455 -69.48 0.0004613863    1.446    0.309
         8 -12.2110     22.0066    243.6192   1.5092721301e+02   2.4131037641e+01    0.1692796    0.1116613  80.52  0.001432722    1.443    0.307
         9 -11.9275    168.1450    244.1316   1.2555665933e+02   7.6107931977e+00    0.1587927    0.1106391  20.53 0.0003183756    1.195    0.163
        10  -9.8856    159.6241    241.7267   1.2674577811e+02   8.9734922985e+00    0.1085878   0.06671842  16.12  0.000700069    1.690    0.408
        11 -12.5555    157.2355    178.3965   1.1854848814e+02   1.7974203159e+01    0.2180327    0.2141634 -84.81 0.0008801792    1.308    0.235
        12 -12.6868    123.4369    166.3394   1.2382026347e+02   2.5355248307e+01    0.4339968     0.295267 -75.66  0.001089891    2.156    0.536
        13 -13.4384    138.5180    172.1639   1.2144038714e+02   2.1961595973e+01    0.5646509    0.4170823  71.59  0.002654065    1.995    0.499
        14 -13.6847    130.7158    170.7745   1.2290956993e+02   2.3427552166e+01    0.6970176    0.2968993  41.19  0.002847552    2.106    0.525
        15 -13.0707    148.0285    173.0256   1.1956181859e+02   2.0304367549e+01    0.3620779    0.2512782  42.59  0.001299153    1.353    0.261
        16 -13.5392    144.4862    169.0467   1.1964689992e+02   2.1538679585e+01    0.4367672    0.3661469  30.13  0.001820179    1.060    0.056
        17 -13.1698    177.1653    177.7012   1.1447939042e+02   1.4901528354e+01    0.3737011    0.2703347 -65.88  0.001982707    2.591    0.614
        18 -13.3988    177.4947    169.9846   1.1304939473e+02   1.5983137898e+01    0.4355774    0.2738754  24.81  0.002370018    1.522    0.343
        19 -11.4289     26.1353    172.9757   1.4691953442e+02   3.6018428094e+01    0.2623314    0.1961446  74.09 0.0009373039    1.130    0.115
        20 -12.0658    202.0963    165.7911   1.0762972294e+02   1.2536382002e+01     0.263827    0.2415954 -61.34   0.00134183    1.709    0.415
        21 -12.1053    168.4098    175.8397   1.1587372173e+02   1.6582221979e+01    0.2323165    0.1586807  33.98 0.0006331964    1.284    0.221
        22 -11.5799    223.7780    163.7177   1.0344880695e+02   9.3175113862e+00    0.2160697    0.1778627 -22.24 0.0005359312    1.328    0.247
        23 -10.5630    237.6446    159.3009   1.0032712541e+02   7.6856244469e+00    0.1038958   0.09897405 -44.79 0.0004203456    1.706    0.414
        24 -11.9996     17.7198    154.4921   1.4771022762e+02   4.0504282983e+01    0.4290217    0.2148169 -63.24  0.002454505    1.972    0.493
        25  99.0000     13.8319    239.8174   1.5216766127e+02   2.5398554522e+01    0.2055385   0.06068008 -86.56  0.001129013    3.688    0.729
        26 -10.7882    154.6829    239.9603   1.2740661844e+02   9.8164702068e+00    0.1396921    0.1194961  24.79  0.001140061    1.166    0.142
        27 -10.6168     22.9659    156.1055   1.4655764794e+02   3.9741260042e+01    0.1708636    0.1434301  73.73 0.0005009774    1.024    0.024
        28 -14.2424    134.2145    146.1062   1.1781318135e+02   2.7347244233e+01     1.123214    0.3737064 -53.59  0.003754979    4.052    0.753
        29 -11.1247      7.9794    239.9998   1.5314134689e+02   2.5852188158e+01    0.1091677   0.06338219  86.96 0.0008695899    1.659    0.397
        30 -12.2632    174.3779    148.5182   1.0954310882e+02   1.9838967049e+01    0.3084475    0.2669878 -56.45  0.001368394    1.524    0.344
        31 -14.4933    143.8764    143.7738   1.1513829590e+02   2.6095719516e+01    0.8615981    0.5593444 -64.00   0.00402465    2.289    0.563
        32 -13.3781    153.0993    145.8033   1.1348743801e+02   2.4095663753e+01    0.4427165    0.3071078  45.82   0.00223562    1.457    0.314
        33 -10.1537    183.1814    150.1365   1.0811506391e+02   1.8021170237e+01    0.1626931    0.1615371 -16.32 0.0004589024    1.318    0.241
        34 -11.8650     27.5034    145.5434   1.4464782634e+02   4.1619980207e+01    0.2594814    0.1997191 -72.31  0.001392382    1.248    0.199
        35 -10.2429     25.7257    229.6521   1.4978662060e+02   2.5946210399e+01    0.1128881   0.07195633  81.54 0.0008756868    1.482    0.325
        36 -13.0288    136.0000    128.5278   1.1379081518e+02   3.0378112633e+01     0.502346    0.1930707 -49.77  0.001835547    2.918    0.657
        37 -13.6053    135.6505    122.3383   1.1249311468e+02   3.1641014303e+01    0.6978621     0.309973 -54.32  0.002547525    2.982    0.665
        38 -10.2282    219.4491    224.4471   1.1440844418e+02   3.0899403786e+00    0.1087339   0.07922198  16.86 4.209762e-05    1.046    0.044
        39 -10.8329     22.4879    221.1167   1.5002863716e+02   2.7606323821e+01     0.139206   0.08435688 -75.84  0.000680832    1.779    0.438
        40 -11.2055     23.7251    215.2935   1.4956546244e+02   2.8465108858e+01    0.1333444    0.1159986 -88.65 0.0005193534    1.323    0.244
        41 -12.4867    161.0613    128.2381   1.0798143750e+02   2.5710986787e+01    0.3435043    0.3110022 -69.14   0.00175693    1.414    0.293
        42 -11.3936    118.9476    213.6830   1.3106255917e+02   1.8073541459e+01    0.3363861    0.2239569  23.16  0.001412891    1.518    0.341
        43 -10.8844    139.2610    240.9348   1.3021931742e+02   1.1663439202e+01    0.4043895    0.1485166  40.35  0.002200244    2.082    0.520
        44 -12.1476    148.2285    132.7275   1.1184415033e+02   2.7328780433e+01    0.2452516    0.2036315 -32.53  0.001367424    1.224    0.183
        45 -12.4011    139.1158    248.1266   1.3097169158e+02   1.0793539002e+01    0.3411109     0.273612 -69.82  0.002651438    1.874    0.466
        46 -13.0186     11.3587    206.0910   1.5151726223e+02   3.1083223139e+01    0.3940204    0.2341596  23.95  0.002310406    1.909    0.476
        47 -12.4553    133.8399    246.4871   1.3172640382e+02   1.1647622442e+01    0.1663425    0.1399058  29.05  0.000306602    1.142    0.125
        48 -11.8807    140.5624    199.5302   1.2506962153e+02   1.7231748123e+01    0.2810898    0.1869119  34.16 0.0005449185    1.255    0.203
        49 -11.9144    136.1495    197.0960   1.2562151437e+02   1.8244076568e+01    0.3362003     0.237214  75.50  0.001895686    2.333    0.571
        50 -11.0693    123.4031    196.8785   1.2817631062e+02   2.0098593603e+01    0.2880464    0.1954513 -26.34  0.001693269    2.026    0.506
        51 -14.4936    206.9342    179.5156   1.0929280893e+02   9.9642540138e+00    0.7521052    0.6013678  10.13  0.004227631    1.015    0.015
        52 -10.7487    205.3895    110.1279   9.4928511082e+01   1.9879163406e+01    0.2398815    0.1776033  28.49 0.0007195548    1.340    0.254
        53 -13.7764    196.7473    172.4737   1.0985386694e+02   1.2494790429e+01    0.6567656     0.372117 -41.42  0.002652136    2.097    0.523
        54 -12.0197    148.2706    189.0867   1.2204106409e+02   1.7696567732e+01    0.3496783    0.1630082  26.39  0.001588047    2.436    0.589
        55 -10.7475    103.6098     81.9199   1.1069485739e+02   4.6002995939e+01    0.2281059    0.1961458  25.30 0.0003058437    1.220    0.180
        56 -10.4665    143.1438     80.1250   9.9459348741e+01   3.8128091054e+01    0.2020884    0.1815314 -61.82 0.0005342477    1.287    0.223
        57 -11.5588    148.8630     35.5342   8.3177163739e+01   4.3812660271e+01    0.7175098    0.3925644 -89.06  0.002343679    3.815    0.738
        58 -14.3025    149.3552     56.3459   9.0396736029e+01   4.0700652849e+01     1.000261    0.8676021  10.60  0.002211366    1.177    0.151
        59 -10.3685    160.0020    247.4360   1.2731346741e+02   8.2663515011e+00    0.1708541     0.126794  -5.05 0.0008817828    1.573    0.364
        60 -11.2421     13.3984     59.8611   1.3885941512e+02   6.2739379616e+01    0.1854471    0.1676784  56.72 0.0004809455    1.286    0.222
        61 -12.9451    164.0243     32.9680   7.9550674053e+01   4.0299304256e+01    0.4118773    0.3759942  -9.75 0.0007887742    1.068    0.064
