#   1 NUMBER                 Running object number                                     
#   2 MAG_AUTO               Kron-like elliptical aperture magnitude                    [mag]
#   3 X_IMAGE                Object position along x                                    [pixel]
#   4 Y_IMAGE                Object position along y                                    [pixel]
#   5 X_WORLD                Barycenter position along world x axis                     [deg]
#   6 Y_WORLD                Barycenter position along world y axis                     [deg]
#   7 A_WORLD                Profile RMS along major axis (world units)                 [deg]
#   8 B_WORLD                Profile RMS along minor axis (world units)                 [deg]
#   9 THETA_WORLD            Position angle (CCW/world-x)                               [deg]
#  10 FWHM_WORLD             FWHM assuming a gaussian core                              [deg]
#  11 ELONGATION             A_IMAGE/B_IMAGE                                           
#  12 ELLIPTICITY            1 - B_IMAGE/A_IMAGE                                       
         1 -12.3116     85.2825     86.6814   9.7356795491e+01   4.8338089964e+01     2.391227      1.21591 -65.55  0.009304203    2.413    0.586
         2 -12.2831     55.9987      5.8949   7.6876272712e+01   7.0090217588e+01     1.062519    0.6270275  19.23  0.001218377    2.302    0.566
         3 -12.3720     15.5279     56.5536   1.1818269230e+02   6.4009099570e+01     1.495348     1.118365  15.76 0.0005644382    1.603    0.376
         4 -12.7885     56.3132     69.2503   1.0333528954e+02   5.6927121891e+01     5.107887     1.157414  35.38   0.01606899    4.239    0.764
         5 -12.4474    165.0622     23.6279   5.5348925733e+01   4.0704871980e+01     1.098848    0.9134718 -72.03  0.005605932    1.272    0.214
         6 -12.3870    150.0707     17.1470   5.5342873516e+01   4.5587698493e+01     2.872962     1.429591  38.85  0.008123606    2.370    0.578
         7 -11.3933     14.2207     37.2205   1.1486935516e+02   6.8722404511e+01     1.198595    0.5498708 -55.39  0.006021049    1.737    0.424
         8 -13.1794     77.4816     31.1513   8.0971964455e+01   6.1684211309e+01      3.54059     1.943098  47.65   0.01560696    1.911    0.477
         9 -11.4569     69.3351     19.2485   7.8460692302e+01   6.5399736228e+01     1.041862    0.5977192  20.41  0.004176252    2.716    0.632
        10 -12.3843      8.8168     26.1246   1.1521834613e+02   7.1612820943e+01    0.8738676    0.6660514 -37.06  0.004874974    1.271    0.213
        11 -11.8464    135.6328      3.5397   5.2227388574e+01   5.1006289239e+01     1.155629    0.3310033  57.41  0.003806492    2.854    0.650
        12 -11.8316     74.2524     46.8390   8.8881526292e+01   5.9195760038e+01     1.302696     0.579008 -31.65  0.004252102    3.562    0.719
        13 -12.6330     39.1422     45.3956   1.0409316840e+02   6.4667085595e+01     1.551461     1.382102 -84.10  0.009607863    1.196    0.164
        14 -11.6660     50.5318     24.7418   9.0147589336e+01   6.7675966654e+01     0.827982    0.5553966 -15.47 0.0004181216    1.896    0.473
        15 -12.2136     41.0945     16.8173   9.1327874077e+01   7.0603073852e+01    0.8137419     0.686145 -33.25  0.001686546    1.043    0.041
        16 -13.5877     93.3717     56.0116   8.5221737034e+01   5.3581236257e+01     3.231957         1.42  42.48   0.01212804    2.371    0.578
        17 -12.4846    118.0684     51.2174   7.5751368306e+01   4.8975805726e+01     3.392008     1.321745 -50.09   0.01036725    3.446    0.710
        18 -12.4517    113.0249     19.7220   6.4102830829e+01   5.5259597592e+01     1.174778    0.8898923  -5.41  0.005708265    1.460    0.315
        19 -12.3508      3.2097     17.4520   1.1652863739e+02   7.3853059601e+01    0.3702078    0.2338441 -46.87 0.0003450308    1.334    0.250
        20 -13.3464      3.7609      9.6846   1.1364780852e+02   7.5567490248e+01     1.025296    0.4895587 -55.89  0.003228767    1.582    0.368
        21 -11.9482    129.3152     18.6328   5.9834551027e+01   5.1098260944e+01     1.858812     1.027985  42.73  0.007636091    1.885    0.469
        22 -11.9818     27.8912     25.1021   1.0303946952e+02   7.0431914454e+01     1.967289    0.8305477 -48.33  0.009027153    1.977    0.494
        23 -10.8180    193.1338     32.6638   5.4394106962e+01   3.2104433423e+01    0.7857437    0.4843311  -0.08  0.003333374    2.115    0.527
        24 -11.5974    110.0642     30.5753   6.9730904969e+01   5.4431793317e+01      1.06427    0.7178615 -84.55  0.004345653    2.348    0.574
        25 -12.8790    104.3874      7.8584   6.0650994751e+01   5.8951593594e+01     2.284397    0.6603236  63.04  0.004936039    3.428    0.708
        26 -11.2087     41.9908      2.6410   8.2347816651e+01   7.3015714521e+01    0.4447775    0.3135153 -14.85  0.002487217    1.449    0.310
        27 -10.1989    227.7604      2.7619   4.2310845350e+01   2.6509882955e+01    0.6410361    0.2281705  88.31   0.00180349    3.589    0.721
        28 -11.5442    213.2321      4.8153   4.3925133608e+01   2.9869752346e+01     0.843568    0.3756952  77.81  0.002037235    2.332    0.571
        29 -10.6371    210.8306     31.7838   5.1997831103e+01   2.7705101260e+01    0.5585459    0.4086214 -13.59  0.002470068    1.417    0.294
        30 -10.9214    215.5041     23.7366   4.9181386409e+01   2.7433714355e+01    0.8151957    0.4992729 -34.31   0.00284652    1.469    0.319
        31 -10.8968    211.5132     17.3191   4.7706764128e+01   2.9093371460e+01    0.5252011    0.3246862  62.20  0.002569241    1.661    0.398
        32 -10.6697    212.8363     11.5638   4.5911989814e+01   2.9334066934e+01    0.5414321    0.3467532 -81.27  0.001872969    1.700    0.412
        33 -12.1335     54.9810     37.3743   9.3520211115e+01   6.4397777877e+01    0.9902478    0.6296529  35.24  0.003300418    1.705    0.413
        34  -9.6756    248.5910      2.0937   4.0871170239e+01   2.1816004112e+01    0.2419889    0.2154005 -68.82 0.0007327873    1.135    0.119
        35  -9.5062    244.0771      5.3273   4.1949698703e+01   2.2522324910e+01    0.3820551    0.2124424  -3.06  0.001668952    2.272    0.560
        36  -9.9145    232.1465     18.7703   4.6314235056e+01   2.3959886644e+01    0.5025346    0.3578615 -13.93  0.002369372    1.433    0.302
        37 -10.8234    232.8768      9.8587   4.3869971807e+01   2.4654828091e+01    0.5205013    0.3573311  -9.25  0.002415565    1.575    0.365
        38 -10.1257    243.5934     12.4768   4.3809084941e+01   2.1967678144e+01    0.4116758    0.3216203  -6.01  0.001969886    1.387    0.279
        39 -10.8743    237.1865     31.9379   4.9386107205e+01   2.1442762660e+01    0.6968288    0.6094446 -25.27  0.004166558    1.065    0.061
        40 -10.5187    240.9547     22.1457   4.6501512739e+01   2.1612081408e+01    0.4678283    0.2918924 -23.98  0.001533581    1.448    0.310
        41 -10.6440    247.1093     19.2403   4.5287688668e+01   2.0540331731e+01    0.4449723    0.2963695  69.92  0.001452891    1.665    0.399
        42 -10.2576    240.0154     16.3923   4.5075613596e+01   2.2392905390e+01    0.5258077    0.2476031 -57.18  0.001649242    2.301    0.565
        43 -10.1098    176.7723     21.1742   5.2820746210e+01   3.7791239906e+01    0.6289907    0.2615721 -23.98  0.002332029    2.376    0.579
        44  -9.4278    185.7469     24.3321   5.2696226777e+01   3.5021004927e+01    0.5907555    0.1769218 -38.07  0.001485237    2.943    0.660
        45 -11.3922    178.3009     27.7356   5.4815538493e+01   3.6620281488e+01    0.9109991    0.4600955  38.47  0.002180998    2.455    0.593
        46  -9.7856     82.4063     20.4676   7.3907043293e+01   6.2486058678e+01    0.5172927    0.3979373 -89.20  0.002509825    1.916    0.478
        47 -10.4900    202.8178     18.1936   4.8818263502e+01   3.1210892118e+01    0.6983762    0.3172752  37.17   0.00252691    3.134    0.681
        48 -10.1614    198.6912     16.5287   4.8733991048e+01   3.2450496481e+01    0.4386534    0.3070565  31.11  0.001413388    1.703    0.413
        49  -7.8647     83.5381     13.7090   6.9977119670e+01   6.3252224739e+01    0.3827415    0.2195174 -42.08  0.001035048    1.853    0.460
        50  -9.4855     67.5000     13.5789   7.6159780001e+01   6.6688039300e+01    0.2632033    0.1890085  45.58 0.0007106205    1.440    0.306
        51 -10.1771    222.0910     11.3990   4.5101383598e+01   2.7070928403e+01    0.4519887    0.3005699 -42.47  0.001619147    1.350    0.259
        52  -9.5680    226.0035      8.7073   4.4056555416e+01   2.6384556061e+01    0.2986221    0.2285869  20.18  0.001055498    1.590    0.371
        53  -9.5505    198.7887     10.4169   4.6839042207e+01   3.3035977091e+01    0.3934714     0.239159  89.00  0.001819427    1.772    0.436
        54 -11.0376    199.5876      4.9376   4.5080406738e+01   3.3344090120e+01     0.612157    0.3839159 -35.62  0.002015378    1.475    0.322
        55  -8.6654    189.4072      8.3731   4.7113959918e+01   3.5709196649e+01    0.5954486    0.2233824  55.42  0.002214322    2.591    0.614
        56 -10.8254    181.3571      4.9543   4.6813240891e+01   3.8197540754e+01    0.8324805    0.4929006  80.90  0.003513219    1.709    0.415
        57  -9.1209    173.7149      5.0373   4.7659657557e+01   4.0277619083e+01    0.3718332     0.194444  41.98  0.001515388    2.168    0.539
        58  -8.6407     82.5575      2.2522   6.3911453906e+01   6.4957485704e+01    0.2489307    0.1856841 -11.44  0.001301179    1.346    0.257
        59  -9.8103     77.5711      8.9594   6.9508176201e+01   6.5248901760e+01    0.2799085    0.2349676  58.10 0.0007173609    1.299    0.230
        60  -8.8459     77.9057      4.5319   6.6827631000e+01   6.5753558106e+01    0.3740973    0.2028456  26.70  0.001541482    2.354    0.575
        61  -9.3145    250.1879      7.8670   4.2218983987e+01   2.0948808865e+01    0.2533743    0.1486927 -58.16  0.001190816    1.661    0.398
        62  -8.1290    238.3111      7.2984   4.2822436884e+01   2.3641312418e+01    0.1254492   0.09621961  30.44 0.0002312617    1.600    0.375
        63 -10.2072     70.1775      3.4667   6.9084548036e+01   6.7590480177e+01    0.4856125    0.4096247  35.88  0.002479355    1.152    0.132
        64  -8.9012    174.3065      8.6528   4.8843807634e+01   3.9773074513e+01    0.3453223    0.2605034 -16.43  0.001330679    1.391    0.281
        65 -11.7995     24.8043      5.3848   9.5513717534e+01   7.4842332073e+01    0.9499663    0.6023617  40.87  0.005328979    1.952    0.488
        66 -12.4656     19.2157     13.5845   1.0378591600e+02   7.3714073026e+01     1.067244    0.7161448  56.99  0.004584141    2.208    0.547
        67  -9.4729    107.8697    248.8950   1.1466788589e+02   1.4297768039e+01    0.1464168    0.1303446 -48.79  0.001277216    1.641    0.391
        68  -8.9607    184.0218    250.0222   1.0180181650e+02   4.2023631263e+00     0.154491    0.1044195  48.16  0.001137792    1.695    0.410
        69  -8.7667    161.5837    250.2095   1.0554301353e+02   7.1394697570e+00    0.1179671    0.0920831  -7.01 0.0009443018    1.632    0.387
        70  -9.5908    151.0501    249.9984   1.0730276854e+02   8.5554440687e+00    0.1609724    0.1014757  53.29  0.001128837    1.738    0.425
        71  -8.9240    124.7606    249.8231   1.1180339403e+02   1.2021042273e+01    0.1567547   0.09825248   9.87  0.000940511    2.734    0.634
        72 -12.5280     50.8743     92.6444   1.1048442238e+02   5.1953367924e+01     2.099853     1.209729 -45.89   0.01006945    1.924    0.480
        73 -12.0821     38.2858     86.4457   1.1392703561e+02   5.4846492672e+01     1.687949    0.8464593 -55.88  0.008079426    1.840    0.457
        74  -9.1556     11.2458    248.9815   1.3121228511e+02   2.4844935381e+01    0.1082157   0.06336455  80.51 0.0008881462    1.605    0.377
        75  -9.5600      3.3124    246.3123   1.3245419090e+02   2.5927826857e+01    0.1410715   0.09385116 -82.53  0.001228754    1.783    0.439
        76  -8.5812     91.5043    245.4829   1.1729477568e+02   1.6786599910e+01    0.1060631    0.0732023  45.51 0.0008104317    1.001    0.001
        77  -9.7433    142.3928    243.4174   1.0814706717e+02   1.0469943129e+01    0.2543359    0.1392305  28.83  0.001466287    1.601    0.375
        78  -9.1513    189.3161    243.6782   1.0020593617e+02   4.1296138768e+00    0.0964874   0.06935422  47.83 0.0005528568    1.662    0.398
        79  -8.5435      1.6115    242.1915   1.3266448540e+02   2.6681034622e+01    0.1067688   0.07382975 -86.40 0.0004636145    1.655    0.396
        80  -8.8128    211.2145    240.2657   9.6247933854e+01   1.5689689242e+00    0.1208981    0.0800803 -40.87 0.0008677585    2.378    0.579
        81  -9.7274     12.7616    231.9678   1.3057410167e+02   2.7264862557e+01    0.2259381    0.0985708  53.99  0.001241729    1.498    0.332
        82 -12.2973     10.7567    111.6309   1.2610112993e+02   5.1056556295e+01      1.04775    0.7420138 -29.19  0.006418378    1.969    0.492
        83 -12.2685     20.1255     99.2274   1.2204333368e+02   5.3323946178e+01     1.368086    0.7937601 -68.02  0.007604008    1.517    0.341
        84 -12.1350     28.9654     63.9728   1.1353835978e+02   6.1213330393e+01     1.467888    0.5343869 -34.83  0.004397116    5.770    0.827
        85  -9.6350     14.8429    236.1375   1.3031757422e+02   2.6433003056e+01    0.1513104    0.1098314  73.73 0.0003973274    1.284    0.221
        86  -8.5591     50.2924    235.6282   1.2406904577e+02   2.2983842576e+01     0.110713   0.05076016  57.94 0.0003766772    1.726    0.421
        87  -9.0529    180.5073    234.5366   1.0058886991e+02   6.2677826797e+00    0.1109436   0.07783179  28.42 4.339011e-05    1.043    0.042
        88  -9.3221    227.2692    231.3324   9.2546887658e+01   2.8404451444e-01    0.1838161    0.1080334  21.46 0.0006010524    1.280    0.219
        89  -9.3767    202.2178    228.9635   9.6244379498e+01   3.8551981133e+00    0.1802451    0.1148213  32.15 0.0003501613    1.161    0.139
        90  -8.4625     50.5583    227.7585   1.2363468123e+02   2.4168488071e+01    0.1350022   0.07900193  73.48 0.0009458562    1.630    0.386
        91  -8.7620     99.0003    224.0000   1.1426850373e+02   1.8894823843e+01    0.1888012   0.04825764  36.81 0.0007846142    2.933    0.659
        92  -8.9927      2.8299    213.1887   1.3192037972e+02   3.1164112413e+01    0.1188394   0.09966928  67.27 0.0005210741    1.294    0.227
        93  -9.1199     26.4027    212.2169   1.2747842669e+02   2.9205696907e+01    0.1422913   0.07527297  74.87 0.0009514696    1.670    0.401
        94  -9.1427    244.4874    204.0837   8.5884042071e+01   4.6697432963e-01    0.1483887   0.09219462 -15.51  0.001020185    1.558    0.358
        95  -9.4954    237.4966    135.4795   7.4441916836e+01   8.8815210159e+00    0.1280598     0.105442   4.47 0.0002843578    1.003    0.003
        96  -9.3813     86.3177    134.1913   1.0668727220e+02   3.7338486568e+01    0.3197525    0.1940339  19.16  0.001420332    2.426    0.588
        97  -9.1479     27.9270    120.2006   1.2161750009e+02   4.7715749346e+01    0.5809419    0.3256747  63.03  0.003085974    1.681    0.405
        98 -11.4279     47.0549    129.0849   1.1695771086e+02   4.3735327491e+01    0.8257745    0.4085338 -70.57  0.004093413    1.897    0.473
        99  -9.5090     41.8022    109.1016   1.1609286777e+02   4.8994056714e+01    0.2485221    0.2304034 -79.18 0.0005643812    1.136    0.120
       100 -11.5796     42.9244    115.3964   1.1655064955e+02   4.7378182778e+01    0.6885998    0.5528585 -38.68  0.001701091    1.565    0.361
       101 -10.4564     32.8005    108.7696   1.1892979723e+02   4.9967316731e+01    0.5762907    0.2659546 -65.57  0.002792826    1.923    0.480
       102 -10.8972     40.3841    127.0387   1.1864828706e+02   4.4926595963e+01     1.043554    0.2913419  55.18  0.003346168    4.717    0.788
       103 -10.8082     37.4729    119.4905   1.1869091331e+02   4.6978561703e+01     0.563436    0.2902355  66.84 0.0004940327    2.045    0.511
       104  -9.4079     22.1569    128.7884   1.2400314515e+02   4.6239910560e+01    0.2184154    0.1769289 -69.75 0.0007305079    1.294    0.227
       105  -9.1613     25.7500    126.6311   1.2281492825e+02   4.6423167836e+01    0.3429527    0.1820305  61.99  0.001832426    1.740    0.425
       106  -9.7964     64.3046    113.9931   1.0976002461e+02   4.5132350164e+01    0.3144771    0.1779009  45.25  0.001527228    1.699    0.412
       107 -10.3842     56.5810    125.5289   1.1377189865e+02   4.3435399322e+01    0.3054625    0.2328381  65.19  0.001112537    1.211    0.174
       108 -10.8389     59.2211    120.6600   1.1232054678e+02   4.4235108093e+01     0.459928    0.2969562 -75.52  0.002325517    1.501    0.334
       109 -10.6842     65.7830    131.0240   1.1188649734e+02   4.0998487643e+01    0.2587277     0.239519  61.77            0    1.109    0.099
       110 -11.5981     67.9384    121.7057   1.0989830630e+02   4.2840314840e+01    0.9401654    0.4171574 -49.09   0.00391767    2.614    0.617
       111 -10.0660     72.9669    129.5544   1.0965285874e+02   4.0345628670e+01    0.2776943    0.1860107 -64.56 0.0004553674    1.495    0.331
       112  -9.4854     34.6881    129.8281   1.2055442992e+02   4.4861979573e+01    0.2567622    0.1703379  81.91  0.001032837    1.361    0.265
       113  -8.4634     80.8035    125.3440   1.0677002006e+02   4.0150245831e+01     0.185707    0.1264833  28.58 0.0006985428    1.645    0.392
       114  -9.3442     75.3314    124.8017   1.0824211621e+02   4.1084859214e+01    0.2698031    0.1805542  60.59 0.0006929775    1.509    0.337
       115  -9.6464     91.6321    120.9516   1.0292148387e+02   3.9425163640e+01    0.3711454    0.2793771 -82.91  0.001694192    1.459    0.315
       116  -8.7194    132.0507    119.4600   9.1803843755e+01   3.2290457947e+01    0.2105561    0.1968803 -44.47 0.0005531303    1.136    0.120
       117  -9.7635    104.8864    117.1828   9.8464199509e+01   3.7967340695e+01    0.4070489    0.2464299  57.98  0.001633673    1.850    0.459
       118  -8.9990     50.7723    117.8883   1.1447408264e+02   4.5913419969e+01    0.1957353    0.1667378 -52.40 0.0007067394    1.331    0.249
       119  -8.9324    116.2131    116.7855   9.5301559700e+01   3.5946758215e+01    0.1920257    0.1723439   3.33 0.0003258184    1.313    0.238
       120  -9.3792     92.2368    114.6709   1.0153250698e+02   4.0734411510e+01    0.4047146    0.2525105  83.42  0.001382455    2.420    0.587
       121 -10.1019     82.0260    114.8421   1.0455833642e+02   4.2355020352e+01    0.3808775    0.2752931  22.46  0.001854728    1.697    0.411
       122  -9.5269     98.9097    112.9550   9.9260371486e+01   3.9966962231e+01    0.4152479    0.2904792  -0.66  0.001777256    2.547    0.607
       123  -9.9576    107.8264    109.3097   9.5936966163e+01   3.9144018068e+01    0.5066693    0.2212986 -47.81  0.001957383    2.379    0.580
       124  -8.5095    104.4699    109.4739   9.6921793828e+01   3.9733384979e+01    0.2609358    0.2201768 -87.44 0.0007596175    1.284    0.221
       125  -9.9621     59.6488    111.6988   1.1082966583e+02   4.6286580156e+01    0.4540508    0.1512085 -56.84  0.001742212    2.786    0.641
       126  -9.3791    132.8032    111.5568   8.9795331174e+01   3.3721921596e+01    0.3382749    0.2793282  47.68  0.001770276    1.159    0.137
       127 -10.8802     77.3910    102.0159   1.0345575031e+02   4.6057679199e+01    0.7566627    0.3432343  35.80  0.003112151    2.259    0.557
       128  -9.9512     74.8519    107.1785   1.0528493928e+02   4.5234323995e+01    0.4885924    0.2607987  36.65  0.001645038    1.886    0.470
       129 -10.6564     68.4684    106.3357   1.0713236084e+02   4.6364486587e+01    0.5577101    0.3021935 -38.47  0.002319397    2.650    0.623
       130  -9.3543    149.4338    106.1033   8.4401991742e+01   3.1241865423e+01    0.4194049     0.205696 -32.25  0.001584622    2.462    0.594
       131  -9.6363    114.0018    107.0366   9.3692840591e+01   3.8451659870e+01    0.2298661    0.2200959  68.15 0.0009166182    1.012    0.012
       132  -9.5233    133.9847    103.0099   8.7398303095e+01   3.5189495818e+01    0.3898574    0.1864891 -44.51  0.001522883    2.166    0.538
       133  -9.2979    171.3738    102.7220   7.8674213460e+01   2.6976379220e+01    0.3811289    0.2236423  25.64  0.001513271    2.328    0.570
       134  -9.8185    141.5329    102.3204   8.5336533840e+01   3.3693860670e+01    0.3145655    0.2619541 -15.26 0.0009537204    1.383    0.277
       135  -8.9900    105.4789    102.9920   9.5143268251e+01   4.0972675984e+01    0.2152268    0.1438363 -51.37  0.000417495    1.522    0.343
       136  -9.4709     37.6163    108.9077   1.1740650808e+02   4.9469309598e+01    0.2616249    0.2189569  83.80 0.0006341353    1.037    0.036
       137 -10.7874      4.0486     99.7984   1.2741650695e+02   5.4240060451e+01    0.4657044    0.3059211 -67.78  0.002895972    1.401    0.286
       138  -8.6811    110.7965    100.6073   9.3042658697e+01   4.0467463421e+01    0.1932824     0.136165  53.02 0.0002783979    1.434    0.303
       139 -12.9239     25.4760     79.2226   1.1762580427e+02   5.7769407338e+01     1.760192    0.9115187 -43.22  0.008118798    2.201    0.546
       140  -9.4594     63.3804     98.1079   1.0723271160e+02   4.9033188321e+01    0.3184598     0.220574  47.99  0.001663694    1.447    0.309
       141  -8.9736    160.2362     96.9009   7.9547430631e+01   3.0518557959e+01    0.4804372    0.1991749  40.40  0.001058512    2.643    0.622
       142  -8.8694    156.1521     94.6805   7.9866302070e+01   3.1854797346e+01    0.3417342     0.301519 -70.80  0.001776172    1.312    0.238
       143  -8.7626     96.0702     96.1431   9.6292289955e+01   4.4253594356e+01    0.2203568    0.2019562  -1.71 0.0006563131    1.286    0.222
       144  -9.4729    225.6441     95.0466   6.7081577905e+01   1.6279982724e+01    0.3875455    0.2057783  63.86  0.001685115    2.536    0.606
       145  -8.5929    141.1627     95.1943   8.3552063737e+01   3.5160842800e+01     0.204945    0.1769197  81.65 0.0004116301    1.340    0.254
       146  -9.9381    114.6059     95.2480   9.0602342283e+01   4.0859394350e+01    0.5209484     0.155008  49.86  0.001498651    3.854    0.741
       147  -9.9178    123.9462     81.7404   8.4235794302e+01   4.1688000316e+01    0.6124062    0.3159716 -57.43  0.002210164    2.592    0.614
       148 -10.4083    125.0741     93.2798   8.7186442744e+01   3.9079078657e+01    0.5384122    0.3953217 -79.03  0.001583266    1.871    0.465
       149 -10.6099    120.6982     86.7927   8.6592862330e+01   4.1363109656e+01    0.9199936    0.3366679  53.00  0.002889414    3.225    0.690
       150  -9.8192    115.9299    100.6722   9.1615205396e+01   3.9431565536e+01    0.2457936    0.2139158 -28.74  0.001289594    1.285    0.222
       151 -10.7880    105.4896     90.6862   9.2052429670e+01   4.3678738267e+01    0.6476476    0.5180848 -12.87  0.003160559    1.650    0.394
       152  -9.9505    109.0040     84.0103   8.9170261977e+01   4.4420219547e+01    0.3864101    0.2943395  -7.81  0.001235689    1.862    0.463
       153  -8.7325      9.7962     76.5913   1.2339423700e+02   5.9472711607e+01     0.242968    0.1367332 -57.65 0.0006746874    1.625    0.385
       154  -8.8933      5.4247     82.4998   1.2562921179e+02   5.8281204404e+01    0.2336004    0.1613817  70.85 0.0009958734    1.332    0.249
       155  -9.0191      5.8456     77.8798   1.2505146695e+02   5.9371360519e+01      0.31277    0.1879914  77.70  0.001602021    1.533    0.348
       156 -10.2927      5.7820     86.8141   1.2586588496e+02   5.7227866492e+01    0.6983914    0.3016375 -46.41  0.003314192    2.655    0.623
       157  -9.7629      1.9761     84.4707   1.2704879955e+02   5.7980431313e+01    0.2315533    0.1835114  62.87 0.0007870812    1.222    0.181
       158  -9.4791      3.0333     74.4662   1.2582322446e+02   6.0328699210e+01     0.279442    0.1595709 -41.07  0.001332755    1.991    0.498
       159  -9.8709      5.9724     71.4373   1.2436004169e+02   6.0920339597e+01    0.2578278    0.2145953  13.95  0.001033099    1.481    0.325
       160  -8.1115    137.3206     91.3107   8.3450250586e+01   3.6780453166e+01    0.1549976    0.1208273  10.01 0.0007036298    1.647    0.393
       161  -9.7403     72.6386     89.2395   1.0222690321e+02   4.9807001012e+01    0.4838358    0.1805748  37.74  0.001684143    2.687    0.628
       162  -9.7174    145.7910     86.2608   7.9940681674e+01   3.5810650598e+01    0.4020967    0.2395099 -32.78  0.001230943    1.803    0.446
       163  -8.0763     67.6303     86.7362   1.0338224595e+02   5.1154273070e+01    0.1376942    0.1094289 -18.86 0.0006985236    1.656    0.396
       164  -8.8373    224.7449     84.9946   6.4715809535e+01   1.7795236581e+01    0.1890521    0.1640734 -17.14 0.0001964292    1.048    0.046
       165  -9.4505    140.4795     84.4193   8.0706083140e+01   3.7394638763e+01    0.3399722    0.2348313 -82.69  0.001354993    2.369    0.578
       166  -8.7064    234.2288    199.7761   8.6791355311e+01   2.2962138988e+00     0.165136   0.07809607 -15.29 0.0008848007    2.472    0.595
       167  -9.7797    160.7655     81.7335   7.5210564127e+01   3.3081229840e+01    0.4567314    0.3180396  51.38  0.002111169    1.421    0.296
       168 -10.5212     92.0542     77.7320   9.2684370233e+01   4.9148420093e+01    0.5254067    0.4079918  26.94  0.002179508    1.475    0.322
       169 -11.2924    103.4555     80.1433   8.9741657184e+01   4.6388245060e+01    0.8547309    0.5992321  -4.20  0.003290218    2.426    0.588
       170 -10.5826     99.1857     77.1255   9.0195091024e+01   4.7901702812e+01    0.4960069     0.346893  28.44  0.001653912    1.695    0.410
       171 -10.4017    134.0361     80.2905   8.1119849654e+01   3.9684219558e+01    0.3783683    0.3381809  82.24  0.000988121    1.236    0.191
       172  -8.6030    217.1644     78.6060   6.4180673355e+01   2.0296761846e+01    0.1929105    0.1243943  42.87 0.0006890883    1.615    0.381
       173  -9.4496    150.4737     77.8447   7.6368484813e+01   3.6250800016e+01    0.4620469    0.2266045  38.63  0.001675191    2.377    0.579
       174 -11.6608    140.6013     75.0867   7.7884336635e+01   3.9129980545e+01    0.5051437    0.4934994  22.39 0.0003799238    1.025    0.025
       175 -10.1553    146.7293     74.9252   7.6357391772e+01   3.7684255767e+01    0.2901699    0.2421122  39.97  0.001437932    1.206    0.171
       176 -11.9203    137.8101     68.7531   7.6581210446e+01   4.0976554374e+01     0.585121    0.3206225  52.89 0.0002836043    1.820    0.451
       177  -9.6847    248.1660     76.3172   5.9486687627e+01   1.4045978590e+01     0.262037    0.1265208 -35.05 0.0007093682    1.827    0.453
       178  -8.5003    205.2467     75.5818   6.5191155739e+01   2.3421545133e+01    0.2098222    0.1270553  43.80 0.0007433934    1.712    0.416
       179  -9.6486    163.4837     74.8347   7.2596926980e+01   3.3605142833e+01    0.2654737    0.2354577  80.80 0.0003722228    1.259    0.206
       180  -9.6397    189.3702     77.9460   6.8500314753e+01   2.6814695784e+01    0.4395646    0.3063096   8.18    0.0012637    1.832    0.454
       181 -10.5559    101.0107     69.4665   8.7254699665e+01   4.9184564232e+01    0.5019249    0.4085188 -59.11  0.001971024    1.276    0.216
       182  -8.7378     95.0253     71.7243   8.9908916863e+01   4.9904848570e+01    0.3175427    0.1988917 -77.47 0.0009366773    2.747    0.636
       183  -8.7624    169.9228     70.4334   6.9960489595e+01   3.2740584483e+01    0.2370231    0.1492674  56.18  0.001027366    1.602    0.376
       184  -9.6604    163.7981     68.8788   7.0724409347e+01   3.4522135860e+01    0.4096176    0.2556885 -50.87  0.001097861    1.820    0.450
       185 -10.2722    150.7849     66.6408   7.2827657958e+01   3.8155552436e+01    0.4917514    0.4181933 -44.89  0.001774757    1.199    0.166
       186  -8.6860     93.4725     65.5291   8.8455680959e+01   5.1554828571e+01    0.1476697    0.1442103 -53.76 0.0002361002    1.003    0.003
       187  -9.8226    165.7162     62.4812   6.8344089521e+01   3.5075849245e+01    0.4081745    0.2970872 -53.47  0.001878318    1.525    0.344
       188  -8.9275     66.8969     62.9560   9.7357916502e+01   5.6868872073e+01    0.2072902    0.1894949 -56.89 0.0003668907    1.025    0.024
       189 -12.7666     10.9897    130.2816   1.2719994951e+02   4.6781113005e+01     1.527321    0.7802773 -60.84  0.008467416    2.048    0.512
       190  -8.5421    181.1354     60.9070   6.4978786328e+01   3.1403984364e+01     0.205362    0.1686696  34.51 0.0007159628    1.278    0.218
       191  -8.8884    211.8676     59.7708   5.9854692522e+01   2.4019160282e+01    0.2152187    0.1815335  15.08 0.0005876537    1.269    0.212
       192  -9.1123    201.0397     59.9026   6.1452509291e+01   2.6600669551e+01    0.2238073    0.2126539 -19.20 0.0007237024    1.005    0.005
       193 -10.2804    181.9488     51.3384   6.1890107017e+01   3.2579049016e+01     0.536565    0.2306619 -29.22   0.00198756    2.246    0.555
       194  -8.8146    185.1768     60.0261   6.4016390719e+01   3.0514610165e+01    0.2505134    0.1766481 -60.72  0.001133381    1.709    0.415
       195 -10.0391    185.5113     54.7381   6.2355052126e+01   3.1187719457e+01    0.5723458    0.3207821  -9.12  0.002023241    2.445    0.591
       196  -8.8202    188.4854     49.5068   6.0277515726e+01   3.1153677212e+01    0.2467659    0.2033609  45.86  0.001239824    1.249    0.199
       197 -10.4731    146.4779     34.6005   6.2642359798e+01   4.4351315952e+01    0.9219173     0.390767  63.37  0.003264242    2.398    0.583
       198 -10.3621    133.8924     53.0903   7.2252914675e+01   4.4743175322e+01     1.176765    0.5917215 -13.45  0.003354471    4.328    0.769
       199 -10.2439    139.9796     52.0783   7.0426959491e+01   4.3368920623e+01    0.6192401    0.4162665  29.00   0.00247479    1.828    0.453
       200 -12.4853    147.2343     53.5555   6.9286023312e+01   4.1261011774e+01    0.5489483    0.5301359  69.69  0.000261436    1.050    0.047
       201 -10.2081    141.7187     44.9813   6.7485138304e+01   4.4068471680e+01    0.4011284    0.2791719 -48.53 0.0002807998    1.530    0.347
       202 -10.5865    136.2674     41.8684   6.7577678307e+01   4.5979789110e+01    0.5281294     0.370486  58.86  0.001892878    1.420    0.296
       203 -10.9047    145.6237     43.2813   6.6012268294e+01   4.3306074932e+01    0.7612876    0.4356099 -58.72  0.002855664    2.392    0.582
       204  -9.8061    148.6306     41.1996   6.4626987522e+01   4.2822602695e+01    0.2849283    0.2451022  24.84  0.000268553    1.250    0.200
       205 -10.3137    174.2840     56.7339   6.4908112813e+01   3.3770289803e+01    0.6318492    0.3558192  -4.68  0.001804643    2.862    0.651
       206  -8.6570    137.9705     59.0327   7.3320710262e+01   4.2686740680e+01    0.2437428    0.1812448  25.79 0.0005637615    1.597    0.374
       207 -10.3969    222.7664     56.7039   5.7577021808e+01   2.1870827288e+01    0.3646603    0.2927334  46.66  0.001043669    1.328    0.247
       208  -8.5361    158.7085     58.5753   6.8510787879e+01   3.7492351997e+01    0.3072309    0.1393494  51.77  0.001128239    2.137    0.532
       209  -9.8583    166.7079     54.3065   6.5536672911e+01   3.6092504481e+01    0.5626776    0.4184832 -15.03   0.00262946    1.475    0.322
       210 -10.2707    160.0742     51.2941   6.5828044491e+01   3.8280167653e+01    0.8375763    0.3714081 -32.83  0.003084916    2.191    0.544
       211  -8.4929    155.9907     47.9999   6.5524209015e+01   3.9853802624e+01     0.385471    0.2589331   1.48  0.001588793    2.033    0.508
       212  -9.2810    155.5912     32.2948   6.0049127959e+01   4.2203089082e+01    0.2656142     0.236685  17.37 0.0006825746    1.203    0.168
       213  -9.7651    152.8886     44.5829   6.4962619589e+01   4.1188464155e+01    0.4799899      0.43152  -5.88  0.002475867    1.173    0.148
       214  -9.6384    156.0002     40.8848   6.3045835155e+01   4.0903444240e+01      0.31304    0.2458998 -31.78 0.0004499508    1.269    0.212
       215  -9.4272    160.5096     41.3217   6.2346222209e+01   3.9636064651e+01    0.4147906    0.2877877  47.75   0.00148875    1.451    0.311
       216 -10.0725    160.1319     36.3721   6.0686117281e+01   4.0425723275e+01    0.5609037    0.3139544 -69.98  0.000969759    2.862    0.651
       217  -9.3162    243.0542     55.2683   5.4843396093e+01   1.7558660391e+01    0.2673631    0.1945228 -23.28  0.001500177    1.218    0.179
       218  -9.1618    234.2673     55.2239   5.5806474524e+01   1.9464380587e+01     0.262111    0.1982103  84.18  0.001430006    1.619    0.382
       219  -9.1240    197.5157     54.5846   6.0432396543e+01   2.8188948836e+01    0.2327331    0.2078908  48.29 9.113335e-06    1.155    0.134
       220  -9.6756    193.9312     54.0000   6.0800075431e+01   2.9162842146e+01     0.335864    0.2470048  58.81 0.0009643858    1.395    0.283
       221  -9.3804    127.3433     51.5933   7.3377700001e+01   4.6641079276e+01    0.4118818    0.2485245 -57.27  0.001511785    2.144    0.534
       222  -8.3894     54.8035     49.6027   9.8133731411e+01   6.1725446261e+01    0.2758483    0.2427846  54.87  0.001022605    1.268    0.212
       223 -11.1445     59.5573     48.4480   9.5633849867e+01   6.1290201285e+01    0.8232988    0.3483663 -59.96  0.003058814    2.730    0.634
       224  -9.9058     54.7480     45.5893   9.6760563521e+01   6.2636850045e+01    0.3816366    0.2553163  52.54  0.001718646    1.813    0.449
       225  -9.2864    211.5887     50.3890   5.7257175773e+01   2.5289216302e+01     0.455459    0.2088906 -13.60  0.001386124    2.839    0.648
       226  -8.4559     65.7770     51.1832   9.3946979007e+01   5.9709189767e+01    0.1911682    0.1526156 -29.47 0.0005778185    1.332    0.249
       227  -9.4335    221.4986     46.4960   5.4944064836e+01   2.3409388613e+01    0.2373753    0.2113108 -29.82  0.001378003    1.032    0.031
       228  -9.4330    219.9503     42.8756   5.4121276552e+01   2.4204802697e+01    0.2417974    0.1920449 -24.91 0.0008084342    1.174    0.148
       229 -10.2434    173.8937     48.3272   6.2294073030e+01   3.5097264698e+01    0.5967524     0.343716  73.61  0.002405385    2.068    0.516
       230  -9.7084    125.3653     44.4093   7.1213248828e+01   4.8365831320e+01    0.4105657    0.3110509 -47.12 0.0006207097    1.375    0.273
       231  -8.2942    129.5401     46.4842   7.0931499636e+01   4.6963955589e+01    0.2276672    0.1442286 -44.57 9.475734e-05    1.632    0.387
       232  -9.8047    130.5585     41.3604   6.8742122909e+01   4.7540183260e+01    0.5086648    0.2291141 -34.67  0.001876322    2.177    0.541
       233 -10.2882     66.8166     43.6683   9.0717922409e+01   6.1167005677e+01    0.5139539    0.2491518 -46.64   0.00171311    1.925    0.481
       234 -10.1709    207.2847     45.8871   5.6526646805e+01   2.6900969389e+01    0.3290362    0.2372923  71.74 0.0007255967    1.510    0.338
       235  -8.3206    230.7073     45.6880   5.3684858088e+01   2.1378754797e+01    0.1363431    0.1009813  19.29 0.0002208358    1.591    0.371
       236  -9.8033    214.3695     41.7867   5.4467876310e+01   2.5671768303e+01    0.4301663    0.2549244   8.99  0.000888888    2.455    0.593
       237  -8.8392    179.8450     44.5183   6.0074889376e+01   3.4067937892e+01     0.244599    0.1996728  20.28 0.0008946593    1.375    0.273
       238  -8.0210    169.3517    200.6529   9.8146630502e+01   1.1968700386e+01    0.1164883   0.08581083  60.28 0.0007038481    1.822    0.451
       239  -9.9317    203.7186     27.9449   5.1662760856e+01   2.9925971774e+01    0.4174654    0.3432394  -3.72  0.002239311    1.316    0.240
       240  -9.2829    198.1656     35.3458   5.4571312962e+01   3.0484188048e+01    0.2670103    0.1925974 -26.30 0.0004528436    1.336    0.251
       241  -9.8156    199.3850     31.0342   5.3106066015e+01   3.0680860991e+01    0.2769928    0.2390136  12.82 0.0008052732    1.281    0.219
       242  -9.0925    190.7487     39.9974   5.7001794870e+01   3.1820269976e+01     0.395473    0.2366194 -12.70  0.001680789    1.922    0.480
       243  -8.9521     27.4929    194.4951   1.2652711169e+02   3.2221192946e+01    0.1111998   0.07934544  59.23 -4.464539e-05    1.023    0.023
       244  -9.5232     11.2691    192.2109   1.2975068680e+02   3.4124768941e+01    0.1883908    0.1229912  47.49  0.001389102    1.212    0.175
       245  -8.2062    207.7136     41.6499   5.5240652921e+01   2.7317244803e+01     0.148021    0.1072894  20.83 0.0007021856    1.660    0.398
       246  -8.2147    197.2975     41.6981   5.6614387024e+01   2.9924842402e+01    0.1520003    0.1058115 -57.76 0.0002961157    1.580    0.367
       247 -10.1615    245.1971    187.3041   8.3035760880e+01   1.9697409871e+00      0.22088    0.1580099   4.28 0.0005108239    1.129    0.114
       248  -8.9623      1.5083    188.0446   1.3161090352e+02   3.5696780629e+01    0.1528674   0.08321742  86.13 0.0007195392    1.599    0.375
       249  -8.5139    181.7430     33.9901   5.6382749204e+01   3.4938000379e+01    0.2074016    0.1872225 -28.74 0.0003150344    1.094    0.086
       250 -10.0819    180.5060     37.8683   5.7826831588e+01   3.4774127562e+01    0.6613044    0.3675998 -63.56  0.002513301    2.483    0.597
       251 -10.0210    174.5802     38.6315   5.9002619864e+01   3.6247260604e+01    0.3585206    0.2203279  46.74 0.0009551048    1.684    0.406
       252  -8.8924    235.6590     39.0615   5.1410424144e+01   2.1011133120e+01    0.1960173    0.1545543 -26.39 0.0004691695    1.140    0.123
       253  -8.9170    202.3996     38.7032   5.5042890920e+01   2.9002532297e+01    0.2460388    0.2089317  56.63  0.001330098    1.224    0.183
       254  -9.4048    222.0000     34.9501   5.1689300254e+01   2.4631510198e+01      0.35413    0.1881159  -9.76  0.001284963    2.267    0.559
       255 -10.1670    219.0920     33.6071   5.1620937896e+01   2.5478942525e+01    0.4059131    0.2483923 -21.79  0.001284799    1.570    0.363
       256  -9.6355     11.6589    184.8219   1.2942787767e+02   3.5462550385e+01    0.2101754    0.1059871 -72.32 0.0009341461    2.087    0.521
       257  -9.1458      7.5273    185.5027   1.3030950892e+02   3.5682020341e+01    0.1081849   0.07716075  62.18 -7.18773e-05    1.004    0.004
       258  -9.2492     32.4970    184.4799   1.2498072784e+02   3.3595503203e+01    0.1137145   0.08482814  60.65 3.912531e-05    1.005    0.005
       259 -10.3863      1.8625    177.6757   1.3127342212e+02   3.7617219997e+01    0.4640478    0.1295273  89.92  0.002172858    3.301    0.697
       260  -8.8525      6.2884    182.3200   1.3047218350e+02   3.6382295295e+01   0.09031074   0.07671017 -63.31 0.0002245327    1.599    0.374
       261  -8.9044     36.9146    179.4705   1.2372911113e+02   3.4109390828e+01    0.1722616   0.09179194  38.42  0.001028048    1.593    0.372
       262  -9.2167    123.9424     35.7119   6.8166532168e+01   5.0131234301e+01    0.3247942    0.2544513  34.47  0.001186617    1.346    0.257
       263  -8.5838     28.4696    177.4832   1.2548896155e+02   3.5341277877e+01    0.1151283   0.08521511  62.22 0.0008095445    1.024    0.024
       264 -10.2535    134.8872     33.8360   6.4815116411e+01   4.7556871920e+01    0.3117111    0.2798925  31.24 0.0005274627    1.141    0.124
       265  -9.1515    138.7502     31.2856   6.2976884530e+01   4.6891331226e+01    0.2880439    0.2514302  27.27 0.0006089968    1.203    0.169
       266  -9.5036    248.7160     26.0845   4.6900497600e+01   1.9509515415e+01    0.3357147    0.2367287  25.63  0.001845995    1.782    0.439
       267  -8.4618     80.3046    176.3450   1.1366158777e+02   2.9517328243e+01    0.1111747   0.09590001 -16.60 0.0007041247    1.690    0.408
       268  -9.5255      7.4328    174.4505   1.2998110605e+02   3.7799602261e+01    0.1892339    0.1443522  77.60 0.0005783495    1.145    0.126
       269  -8.3554     18.3086    182.6451   1.2794110559e+02   3.5292455037e+01    0.1223217   0.05513702  59.53 0.0007042875    1.724    0.420
       270 -10.0635     18.2582    165.1998   1.2718172361e+02   3.8730290987e+01    0.2605189    0.1463127  55.68  0.001145397    1.398    0.285
       271  -9.6552     12.3096    164.6637   1.2852865578e+02   3.9344232166e+01    0.1916279    0.1052242  67.83  0.001196219    1.459    0.314
       272  -9.8655      8.9895    163.4708   1.2924335988e+02   3.9854910098e+01    0.2651087    0.1053058  57.95  0.001128158    1.966    0.491
       273 -10.2313    248.1934     32.2139   4.8493863941e+01   1.8992152665e+01    0.5280873    0.2958097  30.91  0.001726364    2.513    0.602
       274 -10.6636      2.9334    159.9788   1.3051328839e+02   4.1029193173e+01    0.4272401    0.2195302 -87.29  0.001988323    1.695    0.410
       275  -9.9088     15.2981    160.0301   1.2762931458e+02   4.0041316542e+01     0.194782    0.1519049 -69.67 0.0008392467    1.462    0.316
       276  -9.0668      9.9238    157.9942   1.2880844504e+02   4.0899843464e+01    0.2122865    0.1364527 -47.04  0.001315448    2.245    0.555
       277 -10.3295    227.6112     30.2492   4.9828289681e+01   2.3824568906e+01    0.4743564    0.2636977 -50.74  0.001367717    1.822    0.451
       278 -11.0257     13.7268    151.1376   1.2758352414e+02   4.2028078798e+01    0.4676338    0.2911738  84.37  0.003011609    1.355    0.262
       279  -9.4112    188.7568     19.9143   5.0899710893e+01   3.4708262296e+01     0.356707    0.1924728  51.41 0.0007109822    1.906    0.475
       280  -9.0314    185.2273     18.1725   5.0753792256e+01   3.5837706514e+01    0.2005538    0.1812932 -44.61 0.0003712068    1.072    0.067
       281  -9.7232     33.0798    156.1898   1.2311495305e+02   3.9218748443e+01    0.1623021    0.1476053 -84.47 0.0004337306    1.267    0.211
       282  -9.2478     30.6832    151.4710   1.2338143583e+02   4.0456232378e+01    0.2131492    0.1504661 -65.73 0.0008780631    1.534    0.348
       283  -9.9064    182.9742     27.4578   5.4078501001e+01   3.5400417757e+01    0.2453442    0.2211536 -76.81 -1.60306e-05    1.125    0.111
       284  -8.6389    128.2352     31.9884   6.5614003527e+01   4.9579922801e+01    0.2062897    0.1957965  66.93 0.0004923667    1.065    0.061
       285  -9.9198    149.9775     59.2725   7.0608857725e+01   3.9612585645e+01     1.119693    0.3399227  61.02  0.002999754    4.258    0.765
       286  -8.4530     45.9923    149.9857   1.1936989890e+02   3.9192895900e+01    0.1688349    0.1386922 -49.05 0.0003945471    1.556    0.357
       287 -10.3513     46.1144    144.9305   1.1886779938e+02   4.0280451907e+01    0.4287948    0.3686083 -32.51  0.002425048    1.606    0.377
       288 -10.7867     35.4214    151.0878   1.2215737797e+02   4.0072031699e+01     0.623933    0.2480494  55.11  0.002985387    2.256    0.557
       289  -9.7988    176.5821     15.1527   5.0799783806e+01   3.8495218951e+01    0.7393727    0.1764888  61.27  0.002127141    3.402    0.706
       290  -7.9984     86.9465     16.0886   7.0049359386e+01   6.2134871924e+01    0.1981028    0.1848547 -10.63 0.0008953208    1.041    0.039
       291 -11.0996     27.8888    138.5002   1.2316208534e+02   4.3551495429e+01    0.9581459    0.3587633  70.72  0.003955457    3.119    0.679
       292  -9.2974     61.8405     15.7781   7.9922304700e+01   6.7417987035e+01    0.1715196    0.1657185  25.48 0.0002411721    1.149    0.130
       293 -10.7539     22.6286    136.2171   1.2441105827e+02   4.4528098868e+01     0.523379    0.2520559 -62.88  0.002770015    2.086    0.521
       294  -9.7405     30.9342    134.6937   1.2203230176e+02   4.4119531557e+01    0.3242353    0.1955469  39.85   0.00159437    1.553    0.356
       295 -10.4710     39.9052    146.7978   1.2066023806e+02   4.0540714236e+01    0.3270404    0.3071219  23.86  0.001247493    1.358    0.263
       296 -10.6781     37.8547    143.3505   1.2090178188e+02   4.1508865363e+01    0.4568538    0.3302839  -1.51  0.002102965    2.175    0.540
       297 -12.1107     20.7508    147.3934   1.2562561399e+02   4.2240159535e+01    0.7138869    0.4237028  54.78  0.003991188    1.400    0.285
       298  -9.7144     87.0600    149.4788   1.0877641947e+02   3.3946908556e+01      0.19952    0.1717392 -80.79 0.0006855656    1.198    0.165
       299  -9.8543     66.6461    147.9960   1.1382633085e+02   3.7128341442e+01    0.2367361    0.2172295  32.06  0.001457466    1.274    0.215
       300 -10.6746      4.9773    147.0757   1.2956137644e+02   4.3559259618e+01    0.3452849    0.1736282  35.66 0.0004389576    1.820    0.450
       301 -11.2349      5.9366    142.6320   1.2913877205e+02   4.4438737665e+01    0.3716588    0.2708106  45.35  0.001002448    1.291    0.226
       302  -8.9720     70.6826    142.9370   1.1214242925e+02   3.7687879348e+01    0.1830531    0.1555542  81.62 0.0006489957    1.095    0.087
       303  -8.9870     97.8604    140.7994   1.0469987329e+02   3.4089274269e+01    0.1891889    0.1452372  65.61 0.0004918886    1.306    0.234
       304  -8.7723     80.3088    141.0090   1.0932866755e+02   3.6751535346e+01    0.1824031    0.1626283  84.32  0.000520361    1.085    0.078
       305  -9.4597     49.6405    138.7211   1.1729809378e+02   4.1259114037e+01    0.4741324    0.1338535  44.86  0.001867052    2.966    0.663
       306 -10.3484     55.6001    137.3841   1.1552324692e+02   4.0856651959e+01    0.2871743    0.2166745 -67.38  0.001232975    1.349    0.259
       307  -9.4751     63.7764    138.6071   1.1344221719e+02   3.9559141445e+01    0.1897794    0.1022718  46.13 0.0004886818    1.668    0.401
       308  -9.7093    236.3217    249.5534   9.3569735371e+01  -2.3562138145e+00    0.2709187   0.07313319  41.33   0.00130881    3.455    0.711
