#   1 NUMBER                 Running object number                                     
#   2 MAG_AUTO               Kron-like elliptical aperture magnitude                    [mag]
#   3 X_IMAGE                Object position along x                                    [pixel]
#   4 Y_IMAGE                Object position along y                                    [pixel]
#   5 X_WORLD                Barycenter position along world x axis                     [deg]
#   6 Y_WORLD                Barycenter position along world y axis                     [deg]
#   7 A_WORLD                Profile RMS along major axis (world units)                 [deg]
#   8 B_WORLD                Profile RMS along minor axis (world units)                 [deg]
#   9 THETA_WORLD            Position angle (CCW/world-x)                               [deg]
#  10 FWHM_WORLD             FWHM assuming a gaussian core                              [deg]
#  11 ELONGATION             A_IMAGE/B_IMAGE                                           
#  12 ELLIPTICITY            1 - B_IMAGE/A_IMAGE                                       
         1 -14.8665    175.9626     72.7947   5.8804151664e+01   3.1209865481e+01     10.22899     4.417164 -60.26  0.007569016    6.750    0.852
         2 -14.7213    219.3196     76.4659   5.2583854934e+01   2.0334805073e+01     10.12018     2.386992 -48.51    0.0234943    6.624    0.849
         3 -12.4415    248.9603      4.7774   3.2934970400e+01   2.3436840136e+01    0.8801404    0.4934497 -13.02  0.004304979    3.120    0.680
         4 -12.9458    248.1184     60.4671   4.5123042208e+01   1.6540359907e+01      1.41264    0.5129485 -41.31    0.0052558    2.239    0.553
         5 -15.5747    235.2488     42.4643   4.2368426208e+01   2.1816095285e+01     7.083055     1.938246  58.61   0.02619352    3.590    0.721
         6 -13.4683    241.3093     72.7788   4.8743896149e+01   1.6122990113e+01     1.658932    0.8625088 -56.93  0.007360408    2.139    0.532
         7 -11.4123    123.1639     38.3884   5.9018589088e+01   4.9364750277e+01    0.5545475    0.3237846 -59.99  0.002223058    2.765    0.638
         8 -12.3637    214.4740     18.7642   3.8827192338e+01   2.9485644777e+01    0.5083615    0.3524331  43.00  0.001587784    1.845    0.458
         9 -10.3873    211.9631     28.3066   4.1432274845e+01   2.8943563749e+01    0.7125465    0.3535442 -20.84  0.003067672    2.648    0.622
        10 -12.0424    131.0006     21.9491   5.1465685694e+01   4.9512616735e+01    0.6063349    0.4055901 -33.72  0.001649163    1.591    0.371
        11 -11.5152    135.0860     15.0283   4.8283709781e+01   4.9242698977e+01    0.4327841    0.2881447 -14.81  0.001524103    1.711    0.416
        12 -11.7353    207.6340     13.6843   3.8245011056e+01   3.1649309759e+01    0.4878997    0.3605773  -7.49 0.0007950134    1.845    0.458
        13  -8.9194    164.8960     14.3952   4.3376113798e+01   4.1967300066e+01    0.2940489    0.1730246 -23.23  0.001449534    1.906    0.475
        14  -9.7074    119.1604      2.8137   4.6858112778e+01   5.4127743283e+01    0.2586737    0.1851162  23.65  0.001082122    1.476    0.323
        15  -9.7084    115.9632     12.5191   5.1122592007e+01   5.4027884695e+01    0.3065599    0.2126883  54.32  0.001082199    1.282    0.220
        16 -11.5985    120.4637      9.0269   4.8901225414e+01   5.3297980450e+01     0.464857    0.3975512  65.19  0.001567286    1.139    0.122
        17  -8.7268    235.2458      9.9948   3.5012722114e+01   2.5787314793e+01    0.1607148    0.1326343 -54.64 0.0004787598    1.123    0.110
        18  -8.8569     79.4963     10.4854   5.9546969575e+01   6.2121092211e+01    0.1289428    0.1084212  21.90 -2.458325e-05    1.001    0.001
        19  -9.2805    224.3030     18.3587   3.7813134649e+01   2.7278484348e+01    0.4236968    0.3174308 -14.12  0.002193806    1.756    0.431
        20  -9.9548    143.0071      6.8284   4.4199303050e+01   4.8075863514e+01    0.2177378    0.1956942 -20.87 0.0007943007    1.243    0.195
        21 -10.4143    129.0224      6.0382   4.6234686141e+01   5.1527352553e+01    0.2036399        0.181  55.74 0.0005943932    1.010    0.010
        22  -9.2304    235.8173      3.6325   3.3584584102e+01   2.6345889736e+01    0.3054245    0.2455859  63.05  0.002033764    1.431    0.301
        23  -8.9737    223.8086      8.5081   3.5577949563e+01   2.8481538046e+01    0.2496438    0.1484811 -34.23  0.001000686    1.668    0.400
        24  -9.1436     92.2078     11.7158   5.6466582585e+01   5.9391649590e+01    0.1918586     0.161944  73.26 0.0007770957    1.457    0.313
        25  -8.6851    171.7203      2.2333   3.8979916857e+01   4.1434375533e+01     0.207526    0.1407495 -57.27 0.0009373498    1.527    0.345
        26  -8.5890    184.0811      8.1462   3.9237408185e+01   3.7867325381e+01    0.1732379    0.1668103  73.52 0.0004328879    1.146    0.128
        27 -12.0189     25.1654    165.6036   1.1862355470e+02   3.7047366295e+01    0.4156272    0.2962138 -76.08  0.002572446    1.173    0.148
        28  -8.5002    208.8218    165.1813   7.5510886377e+01   6.6957259554e+00    0.2690539       0.1675  64.04  0.001099777    2.793    0.642
        29 -14.1559    206.0316    109.0312   6.2936268583e+01   1.7666572781e+01     3.922902     2.638337   7.26   0.01613463    2.422    0.587
        30 -11.4412    196.6132     65.3847   5.3154557329e+01   2.7411430434e+01    0.7059606     0.398872 -47.99  0.003101323    1.746    0.427
        31  -8.9543    245.4376    243.4694   8.3534614731e+01  -1.0710913358e+01    0.1147813   0.08671448   6.59 9.873226e-05    1.024    0.023
        32  -9.2908    135.7684    242.0552   1.0367334596e+02   5.7964936228e+00    0.2699135    0.1261805  55.73  0.001184491    2.704    0.630
        33  -8.8875    222.7413    145.2054   6.8518512320e+01   7.6275030884e+00    0.2030352    0.1799138 -40.64 0.0004700143    1.161    0.138
        34  -8.7016    192.4591    144.4454   7.4139230722e+01   1.3818047065e+01    0.2250867    0.2114089 -27.21 8.076347e-05    1.036    0.034
        35 -10.6246    195.8000    143.0528   7.3140208891e+01   1.3399308525e+01    0.5166966    0.3364055  71.31  0.001663072    2.625    0.619
        36  -8.2062    216.4334    232.9703   8.6911524634e+01  -5.3640237703e+00    0.1571368    0.1110977 -27.44 0.0002915298    1.458    0.314
        37  -9.0666    158.8372    142.8456   8.1089588481e+01   2.1193151100e+01    0.2159938    0.1903044 -86.15  0.001080162    1.336    0.252
        38  -9.0306    211.4727    136.5064   6.8583181976e+01   1.1426508480e+01    0.1480641    0.1345902 -21.49 0.0002327819    1.016    0.015
        39 -10.6142    160.1647    128.6349   7.7358864195e+01   2.3962778946e+01    0.5240559    0.3430419 -28.86  0.002211685    1.736    0.424
        40 -10.4739    137.5465    129.1300   8.2952465677e+01   2.8700648229e+01    0.6381435    0.4507805 -74.74   0.00268048    1.959    0.489
        41  -8.8136    141.0460    127.5055   8.1674479777e+01   2.8329686970e+01    0.2095596    0.2020574  55.32 6.917248e-05    1.069    0.065
        42 -12.3614     36.3101    159.6046   1.1529876494e+02   3.7359089291e+01    0.6657264    0.4291846 -76.28  0.001189992    1.323    0.244
        43  -9.4267    159.3493    157.9734   8.4372695699e+01   1.7849563006e+01    0.3359494    0.2530407 -68.28  0.001012939    1.669    0.401
        44  -9.8240    155.3435    153.4185   8.4298625716e+01   1.9634077346e+01    0.5275148    0.3370377  83.28  0.001490811    3.538    0.717
        45  -9.4773    162.9892    120.6635   7.4694798060e+01   2.5030246197e+01    0.2211452    0.2083741  43.83 0.0005437909    1.094    0.086
        46 -12.6249    197.7867     77.7057   5.6267851991e+01   2.5115098928e+01     1.456015    0.8097644  37.81  0.005230049    2.389    0.581
        47  -9.6274    192.2690    152.2568   7.5962641233e+01   1.2336554131e+01    0.4166855    0.1663193 -49.38  0.001404838    2.982    0.665
        48 -10.4159    167.4654    115.3220   7.2302503714e+01   2.5135360076e+01    0.4400147    0.3650974  25.16  0.002137575    1.344    0.256
        49 -13.4661    229.4158     63.0610   4.7922386651e+01   2.0167915935e+01     1.193827    0.8672183  52.52  0.004613512    1.556    0.357
        50 -10.3715    134.9078    110.6110   7.8859551076e+01   3.3398327730e+01    0.7232747    0.2181232 -42.46  0.002111779    3.286    0.696
        51  -9.0598    134.6174    104.1826   7.7174109191e+01   3.4860685582e+01    0.4492591     0.155144 -37.53  0.001319296    3.305    0.697
        52  -9.2274    121.0027    112.1670   8.2959775618e+01   3.5977933998e+01     0.386147    0.2567634 -66.75  0.001381239    1.935    0.483
        53 -11.4011    123.3702    103.2087   7.9880553115e+01   3.7489036348e+01     1.265177    0.6361312 -60.78  0.004148479    3.072    0.675
        54  -9.0067    141.9781    105.7367   7.5736239840e+01   3.2900363933e+01    0.2294225    0.2037527  48.68 0.0009261161    1.162    0.139
        55  -9.4840    149.5542    102.2340   7.2910728118e+01   3.1926185097e+01    0.3254392    0.2701266  39.61 0.0009979607    1.251    0.200
        56  -8.7962     33.4945    218.4852   1.2131079253e+02   2.4487605828e+01    0.1168378   0.09136733  75.25 0.0008102794    1.032    0.031
        57  -8.1087     87.5754    100.8024   8.9644201047e+01   4.4882758552e+01    0.1445118    0.1107161   4.07 0.0006762576    1.661    0.398
        58  -9.3671    135.1465     98.2256   7.5357676177e+01   3.6013367411e+01    0.2765438    0.2386122 -86.73  0.001348855    1.381    0.276
        59 -10.7489    160.3733     97.0398   6.8943907096e+01   3.0474432053e+01    0.5903921    0.3399113  38.38  0.002347236    1.976    0.494
        60  -8.7885    215.0622    215.6815   8.4201430131e+01  -2.7036826205e+00    0.1932876    0.1824338 -69.85  0.001034989    1.610    0.379
        61  -9.9530    143.1107     92.5123   7.1706415531e+01   3.5392652344e+01    0.3283091    0.2938152 -60.98 0.0004718263    1.179    0.152
        62 -10.6212    147.4280    143.7776   8.3997617543e+01   2.3364383746e+01    0.4811845    0.3304138 -78.32   0.00193981    2.262    0.558
        63  -9.9821      4.3905     90.8122   1.1509860333e+02   5.6454302229e+01    0.1919035   0.08017942 -59.38 0.0009556815    1.727    0.421
        64  -8.8388    173.6344    149.7078   7.9335041947e+01   1.6660134836e+01     0.157941    0.1184416   5.28 0.0007027578    1.710    0.415
        65 -10.1322    208.3755     84.8032   5.6378888295e+01   2.1440946578e+01    0.4946735    0.2687677 -58.98  0.001209348    2.392    0.582
        66 -11.4578    158.5914     87.5795   6.6650439228e+01   3.2737197640e+01    0.3711341    0.2871061 -26.43 0.0007396325    1.368    0.269
        67 -10.3803    104.0657     81.0246   7.8826171319e+01   4.6187674864e+01    0.2261461     0.214843  34.89  0.001239497    1.105    0.095
        68  -9.3614    115.9910     79.9734   7.5034774300e+01   4.3944622567e+01    0.2475477    0.1948097 -82.67  0.001140981    1.781    0.439
        69  -9.6197    139.8679     77.2983   6.7936101087e+01   3.9108369638e+01    0.4015461    0.2163242 -43.93  0.001088134    1.864    0.464
        70 -13.7727    236.5456     82.0489   5.1535887452e+01   1.5674598511e+01     2.076742    0.9954861 -61.18  0.003702103    3.274    0.695
        71 -10.2969    234.5566    208.6587   7.9378134659e+01  -4.6759562947e+00    0.2319024    0.1925316  -5.68 0.0004788171    1.072    0.067
        72  -8.2434     72.5768     58.4746   8.1575758088e+01   5.6373599000e+01    0.1391722    0.1232332 -19.97 0.0001131583    1.019    0.019
        73 -10.4119    124.2883     55.0766   6.4585516386e+01   4.6617820266e+01    0.3964788    0.2161842 -39.57  0.001107389    1.856    0.461
        74 -11.4764     66.2862    145.3468   1.0550123818e+02   3.7263310223e+01     1.839192     1.058737  29.02  0.008574879    2.040    0.510
        75 -13.0242     46.5197    154.5373   1.1210019935e+02   3.7468050750e+01    0.9752517    0.8464967 -22.55  0.005176036    1.520    0.342
        76  -8.8387    203.0005    209.9792   8.5468984058e+01   1.0309860275e-01    0.1942042     0.165978   7.40            0    1.023    0.022
        77  -9.4321    204.2702    205.1810   8.4354012892e+01   6.5747332001e-01     0.228977    0.1737625  36.88 0.0002717931    1.297    0.229
        78 -10.0075    133.7813    146.0723   8.7854536673e+01   2.5611263946e+01    0.6679325    0.2120506 -54.00  0.001917477    3.735    0.732
        79  -9.4040    162.9565     32.9956   4.9303370219e+01   4.0355425538e+01    0.2071309    0.1958441  72.58 0.0003473246    1.014    0.013
        80 -11.3000     19.1214    158.3140   1.1933966310e+02   3.9320851016e+01    0.4231185    0.1418257 -63.48  0.001872784    2.365    0.577
        81  -8.5561    168.7973    201.9372   9.0904908297e+01   7.3285176259e+00    0.2088899    0.1616096 -82.73 0.0009092592    1.987    0.497
        82 -11.1033    144.9009     27.3979   5.0664282636e+01   4.5512885433e+01    0.4769929    0.3125322 -28.98  0.002396775    1.614    0.380
        83  -8.7474    163.1275     26.1146   4.7173801265e+01   4.1138808192e+01    0.2037016    0.1755578  39.45 0.0003245922    1.234    0.189
        84 -10.2402    179.2348     23.7340   4.4150708859e+01   3.7407683402e+01    0.4697324    0.3376151  70.66  0.002542372    1.299    0.230
        85  -9.4405    204.8111    200.5037   8.3383305874e+01   1.3242136069e+00    0.2294913    0.1772895 -28.18 0.0004418387    1.284    0.221
        86 -10.1643    192.8762    194.6238   8.4627617608e+01   4.3741223946e+00    0.8012022    0.4053426 -61.50  0.002353879    6.108    0.836
        87  -8.6601    159.5623     21.6201   4.6347791763e+01   4.2532084972e+01    0.2193436    0.1389034 -19.60 0.0005614354    1.818    0.450
        88  -9.9621    172.3394    195.6277   8.9030848497e+01   7.8560485501e+00    0.2361395    0.2281085  35.16  0.000451634    1.117    0.104
        89  -8.7973    171.8940     16.3662   4.3012777988e+01   4.0031310815e+01    0.2441049    0.1892058 -11.18  0.001363708    1.554    0.356
        90  -9.2062    189.4464     15.7223   4.0679606336e+01   3.5785912792e+01    0.2089615    0.1812272  60.33 0.0004383581    1.194    0.163
        91 -10.3588    209.3145    187.0855   7.9929831697e+01   2.7815213579e+00    0.3856376    0.3041358  76.54  0.001599472    2.197    0.545
        92  -9.1635     57.0544    187.1275   1.1356502281e+02   2.8481671048e+01    0.1863082    0.1605293  83.71 0.0003406671    1.038    0.036
        93 -10.5825    218.5929    183.6308   7.7478074535e+01   1.7524173349e+00    0.4518779    0.2706321  51.84  0.001647744    2.181    0.542
        94 -11.6386      3.3229    179.9125   1.2463492810e+02   3.5697723452e+01     0.451317    0.2726162  87.93  0.002174795    1.307    0.235
        95 -12.3931      4.7917    173.8201   1.2390150983e+02   3.6942477096e+01    0.7261997    0.4018317  78.24  0.003996054    1.577    0.366
        96  -8.6535    193.9348    180.2610   8.1603424807e+01   6.7373989583e+00     0.191503    0.1670909  17.55 0.0002910238    1.083    0.077
        97 -10.4524    222.8501    177.7365   7.5492172738e+01   1.9958815770e+00     0.421147    0.2740841 -30.17  0.002196291    1.437    0.304
        98 -10.5777    227.7377    174.2600   7.3884856428e+01   1.7282460999e+00    0.4085281    0.3305939 -25.39  0.002393221    1.130    0.115
        99 -10.5081    236.7328    174.7593   7.2387123781e+01   1.2482366019e-01    0.4215199    0.2849374  61.97  0.002041658    2.560    0.609
       100 -10.9112    230.9854    168.0525   7.2010023340e+01   2.1938564362e+00    0.5304982    0.2655924 -46.75  0.002305903    2.297    0.565
       101  -8.8732    200.2963    174.4731   7.9142411458e+01   6.6101546747e+00    0.3665892    0.1193175 -35.46  0.001199046    3.408    0.707
       102  -9.9327    204.8961    153.9292   7.3814225493e+01   9.5061111110e+00    0.4709642    0.3515656 -77.88  0.002147124    2.236    0.553
       103  -8.0251     58.1651    171.6180   1.1144363194e+02   3.1950015143e+01    0.1476915    0.1294756  21.44 0.0001126704    1.445    0.308
       104 -10.8280    242.9709    166.3222   6.9567818612e+01   4.3530565815e-01    0.4256305    0.2056676 -39.26  0.001968739    1.913    0.477
