#   1 NUMBER                 Running object number                                     
#   2 MAG_AUTO               Kron-like elliptical aperture magnitude                    [mag]
#   3 X_IMAGE                Object position along x                                    [pixel]
#   4 Y_IMAGE                Object position along y                                    [pixel]
#   5 X_WORLD                Barycenter position along world x axis                     [deg]
#   6 Y_WORLD                Barycenter position along world y axis                     [deg]
#   7 A_WORLD                Profile RMS along major axis (world units)                 [deg]
#   8 B_WORLD                Profile RMS along minor axis (world units)                 [deg]
#   9 THETA_WORLD            Position angle (CCW/world-x)                               [deg]
#  10 FWHM_WORLD             FWHM assuming a gaussian core                              [deg]
#  11 ELONGATION             A_IMAGE/B_IMAGE                                           
#  12 ELLIPTICITY            1 - B_IMAGE/A_IMAGE                                       
         1 -13.0605    188.5897     38.2351   5.3058239189e+01   3.3142330456e+01     1.428246     1.083222  20.90  0.004930482    1.687    0.407
         2 -11.9047    193.3187     32.3674   5.0660420029e+01   3.2677264891e+01    0.6351613      0.55695 -77.97   0.00120448    1.102    0.093
         3 -12.5387    212.8891      6.5430   4.1317188467e+01   3.0647239123e+01    0.9310529    0.7914411  84.62  0.004228921    1.087    0.080
         4  -9.4688     60.5696    232.9043   1.2207239486e+02   1.9862896957e+01    0.1777095    0.1106154  62.18 0.0005329091    1.247    0.198
         5  -9.9953    247.4565    250.0000   9.0961281266e+01  -1.1114343096e+01    0.3908257    0.1460499  40.32  0.002045907    2.312    0.567
         6 -10.2462    249.8112    246.4310   9.0022743166e+01  -1.1081377473e+01    0.2968646    0.1940935 -21.07  0.002066765    1.593    0.372
         7 -19.4629     21.4396    142.1841   1.2202133640e+02   4.3304137413e+01     18.87013     3.162967 -73.20   0.05571327    5.481    0.818
         8  -8.5659     61.9274    220.0273   1.2079704729e+02   2.2069998509e+01    0.1383853    0.1044818 -79.03 0.0007593489    1.335    0.251
         9 -10.1982     92.9261    217.8144   1.1472142766e+02   1.8115059705e+01    0.2251547    0.1792155 -80.24 0.0007981727    1.294    0.227
        10  -8.5626     48.6455    217.4190   1.2302777962e+02   2.4254291478e+01    0.1308146   0.09936269  45.76 0.0009069707    1.409    0.290
        11  -9.5463     57.9400    214.4166   1.2106605579e+02   2.3667037934e+01    0.1772476    0.1223513  70.99 0.0004779651    1.167    0.143
        12  -9.6127     44.3683    210.9936   1.2332487447e+02   2.6021542176e+01    0.2110415    0.1678068 -81.01 0.0009825233    1.297    0.229
        13  -8.7645     39.2239    212.7133   1.2440093460e+02   2.6289901930e+01    0.1500356    0.0971328  52.39 0.0004840784    1.335    0.251
        14 -11.3619     49.9665    207.6772   1.2200836582e+02   2.5999277489e+01    0.4254761    0.1746079  58.78  0.002112878    2.251    0.556
        15  -8.5914    143.3463    209.3101   1.0366442612e+02   1.1385956163e+01    0.1283209    0.1002014  12.69 0.0007045143    1.706    0.414
        16  -9.6924     70.6967    207.2579   1.1796184726e+02   2.3375549204e+01    0.4394988    0.2504598  26.11  0.002177044    2.746    0.636
        17  -8.8641     72.0000    249.9634   1.2139663476e+02   1.5401370228e+01    0.1429778   0.05785588 -69.82 0.0004480917    2.721    0.633
        18 -10.0147     97.4011    200.3192   1.1180469700e+02   2.0821824861e+01    0.3416515    0.2927726   4.87  0.001283738    1.782    0.439
        19  -9.6967     60.4826    203.5954   1.1961618784e+02   2.5484091047e+01    0.2190579    0.2095978 -32.59  0.001516216    1.603    0.376
        20 -10.5977     61.2949    198.0392   1.1892346769e+02   2.6513202802e+01    0.2997198    0.2238378 -45.03  0.001366941    1.959    0.490
        21 -10.6319    141.2567    202.0418   1.0299916357e+02   1.3067525473e+01    0.4640386    0.3182767  -0.28  0.002081153    2.894    0.654
        22  -9.6180    249.1364    201.4701   8.2431012108e+01  -5.8716543117e+00    0.2036934    0.1348587 -28.79  0.001216291    1.513    0.339
        23  -9.4001    193.5995    195.9644   9.1485132000e+01   4.4955411057e+00    0.5308848    0.2365985 -56.78  0.001667079    5.509    0.818
        24  -7.9887     79.0179    193.9194   1.1485098717e+02   2.4916558793e+01    0.1921666     0.122067  70.26 0.0003179382    1.532    0.347
        25  -9.7190     96.9897    192.1104   1.1084060277e+02   2.2558524522e+01     0.304629    0.2625079 -13.81  0.001170409    1.780    0.438
        26  -9.8438    128.0000    190.9408   1.0405959282e+02   1.7554349186e+01    0.3460927   0.07775756 -53.51  0.001043591    4.864    0.794
        27 -10.6178     73.0285    182.7598   1.1480922633e+02   2.8147789503e+01    0.5258301    0.3481177  63.68  0.002432904    1.396    0.284
        28 -10.3016    120.5122    184.0431   1.0459800402e+02   2.0275758022e+01    0.3506242    0.1346523 -55.33   0.00137497    2.776    0.640
        29 -10.0446     70.2330    186.6038   1.1586106357e+02   2.7711310819e+01    0.5711159    0.2917796  62.69  0.002773392    2.038    0.509
        30  -9.7041    145.5571    182.8243   9.8961156545e+01   1.5925482784e+01    0.2826878    0.1862557  43.93  0.001252162    1.391    0.281
        31  -9.5073    110.4113    183.2302   1.0668606601e+02   2.2198990640e+01    0.1874054    0.1258997 -74.87 0.0009530754    1.643    0.392
        32  -9.8175     99.1385    180.6761   1.0879733059e+02   2.4621413209e+01    0.2884332    0.2312421  34.57 0.0008640512    1.415    0.293
        33  -8.5329    128.3060    175.6770   1.0150186884e+02   2.0600586492e+01    0.1451018    0.1049212  76.54 0.0007033321    1.642    0.391
        34  -8.1759    195.7823    174.6100   8.6968384843e+01   7.6281517216e+00    0.1995857    0.1279711  51.33 0.0009491391    1.648    0.393
        35  -8.1252    188.2111    174.3966   8.8439022382e+01   9.1605171550e+00    0.2006387    0.1283005  52.78 0.0005085949    1.670    0.401
        36 -11.0279    119.3192    173.3061   1.0311793219e+02   2.2738486406e+01    0.5140508    0.2434601  37.30  0.002126626    2.212    0.548
        37 -10.5993    103.7941    172.0646   1.0644839487e+02   2.5715189255e+01     0.363427    0.2768616  66.80  0.001935492    1.275    0.216
        38  -8.7268    168.0908    233.0536   1.0230856073e+02   3.2798836717e+00     0.185925    0.1504466  49.08 0.0007036155    1.154    0.133
        39  -9.2219     76.3862    166.0718   1.1188639596e+02   3.1367387844e+01     0.236362    0.1576198  66.90 0.0006988008    1.504    0.335
        40 -10.4799     86.7739    223.6004   1.1649047015e+02   1.7951800880e+01    0.2709735    0.1895051  85.83 0.0004203819    1.402    0.287
        41 -10.0501     91.7962    158.9424   1.0715716899e+02   3.0632640540e+01    0.2698702    0.2318121 -70.94 0.0004304144    1.125    0.111
        42 -10.8822     97.3038    152.2809   1.0468677553e+02   3.1256501934e+01    0.5992843    0.4477518 -31.45  0.002851189    1.831    0.454
        43  -9.7029    133.9962    146.1836   9.4542706062e+01   2.5843513962e+01     1.204534    0.2351173 -54.05  0.002229497    9.740    0.897
        44  -8.9191    113.6799    151.5659   1.0054413200e+02   2.8547856822e+01    0.3323331    0.2070373  87.63  0.001324675    2.535    0.605
        45 -10.2719    108.4865    138.4167   9.9230562091e+01   3.2506136342e+01    0.5226697    0.3091293 -36.68  0.002181311    2.194    0.544
        46  -9.4875     80.0160    140.4909   1.0696752742e+02   3.6768332209e+01    0.3392536    0.1373757  36.91  0.001316992    2.645    0.622
        47 -10.9137     96.7650    137.9109   1.0214421514e+02   3.4688893915e+01    0.2959313    0.2820679 -84.76 0.0004820889    1.064    0.060
        48  -9.6439    106.1085    130.7197   9.8223087290e+01   3.4725228621e+01    0.3760773    0.2998075 -75.24  0.001445235    1.303    0.233
        49  -9.4719    115.3171    129.4279   9.5537208189e+01   3.3301478191e+01    0.2937009    0.2402565 -32.30 0.0006786251    1.401    0.286
        50  -9.1690    162.0089    128.5072   8.3902959387e+01   2.3652008703e+01    0.2452678    0.1524942  46.90  0.000938514    1.602    0.376
        51  -9.2617    135.1413    124.9571   8.9443854513e+01   3.0302548063e+01    0.3796099    0.1051475 -46.90  0.001081732    3.582    0.721
        52  -9.3475    120.1503    123.5533   9.2925022642e+01   3.3700144205e+01    0.2471587    0.2110435 -27.70 0.0007376123    1.333    0.250
        53  -9.5232    103.1701    125.0843   9.7766528623e+01   3.6571167577e+01    0.3036758    0.2471502 -20.63   0.00120014    1.579    0.367
        54  -7.7615    152.3333    119.6898   8.3947871344e+01   2.7680757278e+01    0.1609047    0.1252556 -87.97 0.0007043121    1.675    0.403
        55  -8.2506    110.8445    118.4742   9.4175072235e+01   3.6678844037e+01    0.2145042     0.149602  42.57 0.0007262062    1.491    0.329
        56  -9.0069     51.0995    225.9326   1.2322291328e+02   2.2341655307e+01    0.1610451   0.09345695  73.21 0.0006374081    1.475    0.322
        57  -8.7471    168.1016    112.7519   7.8521048058e+01   2.5480016702e+01    0.3278548    0.2418998 -79.70  0.001392504    1.900    0.474
        58  -8.8114    205.7074    110.2658   7.0200744279e+01   1.7089684900e+01    0.2854508    0.2367572   9.29 0.0007807862    1.387    0.279
        59 -10.0727    120.7016    110.9598   8.9660799388e+01   3.6436494776e+01     0.333553    0.2443433 -65.23  0.001532715    1.521    0.343
        60  -8.9393    134.6123    106.1801   8.4760368554e+01   3.4533672921e+01    0.2313583    0.1458627 -34.34 0.0008420667    1.731    0.422
        61  -8.3532     43.8030    220.9789   1.2416416879e+02   2.4160541989e+01    0.1275349   0.07465607 -80.62 0.0006952722    1.562    0.360
        62  -8.5052    186.0003     86.0137   6.7436199935e+01   2.6243892920e+01    0.2606458    0.1909434 -71.19  0.001138426    1.725    0.420
        63 -10.6627    163.7415     64.6954   6.5588667648e+01   3.5608997702e+01    0.4721102    0.3309945 -72.17 0.0005437741    1.904    0.475
        64 -11.8911    173.5203     53.0881   6.0069189250e+01   3.4950199097e+01    0.6958885    0.6096379 -15.34  0.001278869    1.238    0.192
        65  -9.5490     72.4307    245.5013   1.2098444443e+02   1.6091445792e+01    0.2042306     0.120222  64.72 0.0001559141    1.398    0.285
        66 -11.3502    247.2764    236.5681   8.8863061754e+01  -9.7000853964e+00    0.3903862    0.3490532 -48.12  0.002849108    1.937    0.484
        67  -8.9240    189.8106     14.8435   4.6042932560e+01   3.5641558141e+01    0.2010898    0.1528749 -64.90  0.000591904    1.320    0.242
