#   1 NUMBER                 Running object number                                     
#   2 MAG_AUTO               Kron-like elliptical aperture magnitude                    [mag]
#   3 X_IMAGE                Object position along x                                    [pixel]
#   4 Y_IMAGE                Object position along y                                    [pixel]
#   5 X_WORLD                Barycenter position along world x axis                     [deg]
#   6 Y_WORLD                Barycenter position along world y axis                     [deg]
#   7 A_WORLD                Profile RMS along major axis (world units)                 [deg]
#   8 B_WORLD                Profile RMS along minor axis (world units)                 [deg]
#   9 THETA_WORLD            Position angle (CCW/world-x)                               [deg]
#  10 FWHM_WORLD             FWHM assuming a gaussian core                              [deg]
#  11 ELONGATION             A_IMAGE/B_IMAGE                                           
#  12 ELLIPTICITY            1 - B_IMAGE/A_IMAGE                                       
         1 -11.0588     59.1903      3.5128   6.3766913033e+01   6.6803346829e+01     1.029238    0.3952698  41.13  0.004429062    2.246    0.555
         2 -10.8902     65.9852     20.1844   6.9143260996e+01   6.3730705797e+01    0.5744437    0.4272298 -61.37  0.003016431    2.542    0.607
         3 -11.8606     60.6544     47.0462   8.2440162073e+01   6.0468093743e+01     1.252518    0.7542029  11.43  0.006004274    2.059    0.514
         4 -12.2770    104.0074     36.4421   6.3456736716e+01   5.4141671534e+01     1.535474    0.9475497   4.57  0.006777314    2.245    0.555
         5 -12.5159     21.2426     85.6563   1.0911936397e+02   5.6542201737e+01      2.55275     1.086299 -68.79   0.01146387    2.208    0.547
         6 -12.4456     51.4635     22.5955   7.6076364253e+01   6.5747990068e+01     1.968488     0.903077 -23.01  0.008911017    2.457    0.593
         7 -11.7059    129.4711     20.2894   5.1274678515e+01   5.0247095919e+01     1.470023    0.4218498  46.25  0.003854205    3.277    0.695
         8 -12.4404    105.5764      8.4092   5.2084368527e+01   5.6975039736e+01     1.076243     0.720922  43.34   0.00600728    1.288    0.224
         9 -12.1904    101.6933     55.3787   7.1139216129e+01   5.1712110323e+01     1.266688     1.012922  24.87  0.006744536    1.237    0.192
        10 -12.7002     86.7829     54.3374   7.5568715829e+01   5.4811859690e+01     1.232667    0.7713341 -42.21  0.002225637    1.634    0.388
        11 -10.5210    164.2606     53.7565   5.5254764548e+01   3.7396963596e+01      1.36919    0.8365685 -73.56  0.005386328    2.607    0.616
        12 -13.3040     70.6098     30.9378   7.2122393294e+01   6.1466249743e+01      1.71141    0.7677795  45.90  0.007622592    2.341    0.573
        13 -11.7641    164.2551      5.8273   4.0879234577e+01   4.3114112056e+01     1.323782    0.6706546  60.47  0.005375101    1.697    0.411
        14 -10.8517    181.4856     33.1027   4.6340802673e+01   3.5932886653e+01     1.764137    0.7056645 -41.74  0.007077083    2.468    0.595
        15 -11.3069    183.8842     54.2215   5.1898084301e+01   3.2477168987e+01     1.634395    0.8747016 -63.25   0.00619904    2.749    0.636
        16 -12.3289    166.3775     15.8166   4.3529732047e+01   4.1633192717e+01     1.786222    0.4994605  57.51   0.00652627    2.870    0.652
        17 -11.0004    183.1756     15.0313   4.1107948771e+01   3.7570687670e+01     1.134927    0.3353155  47.12  0.003621014    4.444    0.775
        18 -10.9408    154.1398     17.6552   4.5926426235e+01   4.4481159433e+01    0.3688993    0.2960118  13.74 0.0003566752    1.477    0.323
        19 -11.3336    149.7094     15.8956   4.6087068713e+01   4.5755900839e+01    0.7542345    0.4842669 -21.16  0.002710154    1.766    0.434
        20 -12.5395     91.5377     18.8219   6.0035075471e+01   5.8985940086e+01     2.820831    0.7981138 -19.62  0.007699691    6.487    0.846
        21 -10.9861     76.0021     43.6685   7.5319364032e+01   5.8564604076e+01    0.7237743    0.3368256 -27.75  0.003003003    2.400    0.583
        22 -11.4823      4.0856     26.9096   1.0112014078e+02   6.9918994231e+01    0.5629266    0.2891143 -32.63  0.003302895    1.561    0.360
        23 -11.3511     12.1578     25.3438   9.6288242426e+01   6.9677199688e+01    0.4082712    0.1991185 -29.35 0.0009410408    1.792    0.442
        24 -11.5611     17.0719     38.1468   9.8462178710e+01   6.6966960447e+01     1.005415    0.5460809 -16.51  0.005491511    1.970    0.492
        25 -10.7495      7.3153     19.6308   9.6634240392e+01   7.1012627565e+01    0.4223283    0.2779177  10.87  0.002230025    1.569    0.363
        26 -12.3429     18.6629     15.5634   8.8673338513e+01   7.0771682203e+01     1.187738    0.5329182 -51.67   0.00575907    2.897    0.655
        27 -12.2514     25.0349      8.3290   8.1750664817e+01   7.1186032253e+01    0.6906034    0.3532464 -37.63  0.001317279    1.843    0.457
        28 -13.3314      5.1616      9.8286   9.3650021370e+01   7.2786324608e+01    0.6162885    0.4773171  -8.29  0.002301505    1.178    0.151
        29 -11.6498     15.5333      2.3325   8.3855093570e+01   7.3014159159e+01    0.3314177    0.2341972   7.97  0.000919128    1.243    0.195
        30 -12.1516     10.1470      3.4063   8.7567578664e+01   7.3366829005e+01    0.3034349     0.246067  16.27  0.001979601    1.482    0.325
        31 -12.3465      2.3595      2.8220   9.2001788183e+01   7.4073340588e+01    0.3290654    0.2245173  15.85  0.002381304    1.544    0.352
        32 -10.9312    192.9456     33.7870   4.4935030410e+01   3.3034647523e+01    0.6985857    0.3687154 -22.32  0.003082139    2.299    0.565
        33 -11.6983    204.5001     24.2672   4.1042571801e+01   3.1401038134e+01     1.347537    0.3779384 -25.65  0.004377161    4.517    0.779
        34 -11.1138    213.6908     12.2809   3.7164897139e+01   3.0581916149e+01    0.7725154    0.4221196  76.33  0.003076063    1.709    0.415
        35 -10.9316    208.4515      4.5869   3.5805732938e+01   3.2584267698e+01    0.5099455    0.3761674 -72.00  0.002532304    1.223    0.182
        36 -11.0389    216.6216      3.3931   3.4828246926e+01   3.0825201922e+01    0.4899212    0.2992303 -59.99  0.001326196    1.513    0.339
        37 -10.7710    226.6118      7.2730   3.4898916853e+01   2.8184084999e+01    0.8048828    0.4493603  23.40  0.003154623    4.804    0.792
        38 -12.0600    214.4900     25.1160   4.0169382587e+01   2.8956027872e+01     1.388685    0.8137037 -16.67  0.006689618    2.335    0.572
        39 -10.6459    247.3891     18.9405   3.5788295656e+01   2.2414609035e+01    0.7052324    0.2575186  74.71  0.003160346    2.817    0.645
        40  -9.4773     26.4822     19.2825   8.6274608985e+01   6.9415210977e+01     0.385411    0.1733116 -22.30  0.001781144    2.625    0.619
        41 -10.6952     23.4092     28.4343   9.1743835752e+01   6.8208207199e+01    0.5816508    0.2962374 -40.19  0.003243281    1.606    0.377
        42 -11.8239     30.4425     24.9203   8.6793427743e+01   6.8094558110e+01    0.8276263    0.3222196 -35.66  0.003165646    2.268    0.559
        43 -11.0649    167.4910     28.8604   4.7227089686e+01   3.9922053344e+01    0.3664138    0.2680823 -22.36  0.000708747    1.535    0.349
        44  -9.3570     95.0609     24.6947   6.1421878285e+01   5.7566701356e+01    0.3705722    0.2160816   5.87  0.001650257    2.335    0.572
        45 -10.2074    229.7158     20.0400   3.7505263300e+01   2.6092593939e+01    0.3702522    0.3247042  61.19   0.00244862    1.318    0.241
        46  -9.4909    232.6712     17.3398   3.6641849196e+01   2.5749392045e+01    0.4205174    0.1410287 -51.49  0.001722055    2.860    0.650
        47  -9.9402     83.6347     19.7989   6.2860218230e+01   6.0484697730e+01    0.3975611    0.2699133   0.11  0.002158599    1.562    0.360
        48  -9.6534     79.9983     18.7599   6.3583612512e+01   6.1320569344e+01    0.3689215    0.2310005 -36.71  0.001962788    1.812    0.448
        49  -9.5167    242.5178     13.7127   3.5058297920e+01   2.4033738407e+01    0.4453446    0.1577137  52.09  0.001794442    3.881    0.742
        50  -9.9570    233.3492     10.6325   3.5106500124e+01   2.6344015967e+01    0.4293759    0.1992093 -64.64  0.002046061    2.254    0.556
        51 -10.0723    234.1568      7.0426   3.4263102700e+01   2.6552120607e+01    0.2438477    0.2308239 -65.55 0.0007505441    1.239    0.193
        52  -9.9324     38.7294     10.2817   7.5893023959e+01   6.9224934653e+01    0.4262242    0.2406452  -9.99  0.002189629    1.866    0.464
        53  -9.0743     36.1515      6.1150   7.4981596397e+01   7.0099767090e+01    0.1900064    0.1394196  14.59 0.0003207578    1.161    0.139
        54 -10.1618     41.7975      3.4870   7.0957318075e+01   6.9612407461e+01    0.3509683     0.202205 -16.41  0.001643043    1.622    0.384
        55 -10.0075     31.4569     11.9185   8.0252661047e+01   6.9940464142e+01    0.2664177    0.1785992 -24.68  0.001028218    1.277    0.217
        56 -12.8999    115.6574     15.3381   5.2439937859e+01   5.4016891365e+01     1.494409    0.9427709  44.35  0.007818357    1.409    0.290
        57 -11.0368    200.7379      6.7264   3.7040461515e+01   3.4180343470e+01      0.58262     0.247916 -28.50 0.0004445813    2.479    0.597
        58  -9.5112    197.5247      2.9645   3.6410743196e+01   3.5304818560e+01    0.2641978    0.1880842 -24.42  0.001549185    1.629    0.386
        59 -10.4709    132.5933      4.8647   4.5313592600e+01   5.0950650571e+01    0.5054159    0.4277048  88.04   0.00217918    1.255    0.203
        60 -10.8002    138.8979      3.6008   4.3838487594e+01   4.9527918501e+01    0.5496132    0.3161575 -14.14  0.002412715    2.076    0.518
        61  -9.9480     77.6741      8.9869   5.9982482389e+01   6.2828794746e+01    0.2499075    0.1866175  34.14 0.0001562165    1.141    0.124
        62  -8.9715     77.6077      4.6615   5.8030559314e+01   6.3253741809e+01    0.2485289    0.1471917  11.07  0.001121387    1.847    0.459
        63 -10.3059    243.7388      3.7501   3.2880748945e+01   2.4853176888e+01    0.4056474    0.1860005 -45.69  0.001756749    1.822    0.451
        64  -9.8603    250.2989      6.9166   3.3086630463e+01   2.3154340599e+01    0.3444203    0.1737864 -46.21  0.001207155    1.644    0.392
        65  -9.7572    248.8637      1.7924   3.2142609721e+01   2.3992042609e+01    0.2177961    0.1569625  82.25 0.0006209914    1.315    0.240
        66  -9.0889    189.5569      7.5299   3.8378233631e+01   3.6772745702e+01    0.2730286    0.1387993  73.08  0.001322536    1.772    0.436
        67 -10.8580    183.4088      4.3392   3.8194749724e+01   3.8562231870e+01    0.7944857    0.4135145  80.47  0.003119813    1.833    0.454
        68  -9.3729     67.6360      6.0007   6.1928093392e+01   6.5038344817e+01    0.2522947    0.1731922 -17.75 0.0007561927    1.451    0.311
        69 -10.1895     71.5806      3.6621   5.9483155997e+01   6.4519510650e+01    0.3671437    0.3069465 -48.94  0.002336524    1.718    0.418
        70  -8.9286    145.7703      3.9384   4.2881762750e+01   4.7822889628e+01    0.3423419    0.1181165 -17.94  0.001291188    3.631    0.725
        71  -8.8242     84.2939      3.6433   5.5589250496e+01   6.1991648013e+01    0.2907977    0.1448131  20.41  0.001026627    2.453    0.592
        72  -8.9351     99.3078    112.3430   8.9238264714e+01   4.0370988210e+01    0.2814785    0.1981276 -37.73  0.000782835    1.445    0.308
        73  -8.3993    162.3228    250.6748   9.9369125206e+01   7.2166333329e-01    0.1186103   0.08666997  57.98 0.0004871291    1.686    0.407
        74  -8.7427    124.9824    249.9901   1.0653979665e+02   6.4821620702e+00    0.2116712    0.1206832  19.36  0.001010008    2.606    0.616
        75  -9.3025    108.4863    114.3220   8.7039922035e+01   3.8222069894e+01    0.2680094      0.24953  33.04 0.0006798956    1.109    0.099
        76  -9.0074     84.0082    113.7707   9.4234060547e+01   4.2615100827e+01    0.3488492    0.1999894  13.16  0.001305322    2.894    0.654
        77  -9.4629    130.1210    109.2915   7.9661287918e+01   3.5013172697e+01    0.4294507    0.2973744 -83.86  0.001655842    2.484    0.597
        78  -9.8931     88.1161     96.9858   8.8670310718e+01   4.5871163370e+01    0.5958986    0.3323845  37.45  0.002574179    1.889    0.471
        79 -10.6825     74.9480    102.3073   9.4317103036e+01   4.6732376395e+01    0.6506375    0.3702528  25.09  0.002842832    2.081    0.519
        80 -11.4941     75.7318     95.1457   9.2215553073e+01   4.8281538939e+01    0.8036829    0.6216812 -40.65  0.002851315    1.200    0.166
        81  -9.4261     82.5884     89.8307   8.8479736321e+01   4.8404011750e+01    0.2622806    0.2461457  73.22 0.0005984883    1.255    0.203
        82  -9.8192     82.5274     86.2397   8.7468549529e+01   4.9208703366e+01    0.3589759    0.2448688 -34.53 0.0007871468    1.448    0.309
        83  -9.5220    113.1420    107.3377   8.3868804557e+01   3.8923679579e+01    0.3651764    0.2569785 -50.47 0.0007790867    1.410    0.291
        84  -9.3497    105.9991    102.7479   8.4720823521e+01   4.1342789439e+01    0.3851849    0.2613342 -53.22  0.001743363    1.499    0.333
        85  -8.9831    110.5104    104.4674   8.3857947143e+01   4.0085972623e+01    0.3647229    0.1530879  36.04   0.00125344    2.657    0.624
        86 -11.9470    144.1816    100.9167   7.3692231617e+01   3.3722751003e+01     1.017039    0.4896832  28.55  0.003020464    3.779    0.735
        87 -10.4698     51.9480     92.1562   9.9591287905e+01   5.2163702254e+01    0.7987896    0.4817768  -2.03  0.003593176    2.438    0.590
        88  -9.7216     52.4858     84.5477   9.7492726073e+01   5.3852687252e+01    0.8309187    0.3286367 -36.67  0.002943433    3.093    0.677
        89  -9.5418     56.8629     85.9760   9.6293433799e+01   5.2995023962e+01    0.4829761    0.2652398   0.47  0.001864341    3.240    0.691
        90  -9.5387     46.3151     98.5933   1.0301477868e+02   5.1274894576e+01     0.461271    0.2474035  40.13  0.001681995    2.152    0.535
        91 -10.5201     55.1677     96.4910   9.9511543656e+01   5.0766934512e+01    0.4737659    0.2827279   2.30  0.002081554    2.502    0.600
        92 -10.3332     49.0008    102.9688   1.0305180659e+02   4.9937744337e+01    0.4992351    0.3757795 -20.79  0.002733051    1.527    0.345
        93  -9.8988     54.0708    100.9572   1.0091365982e+02   4.9839164906e+01    0.3763086    0.2380125 -47.78 0.0008400754    1.401    0.286
        94  -9.4825    133.5758    101.8441   7.6692800406e+01   3.5880427081e+01    0.3401184    0.2581703 -56.89 0.0008569022    1.449    0.310
        95  -9.5322    132.5120     98.0254   7.5897958908e+01   3.6919683152e+01    0.3423109    0.2739281 -44.35  0.001045437    1.241    0.194
        96  -9.1962     62.6034    102.7855   9.8487000545e+01   4.8342621232e+01    0.3038014    0.2641772  -4.93 0.0009631235    1.273    0.215
        97  -9.6865     67.2271    101.7438   9.6710640529e+01   4.7970512170e+01    0.3744437    0.2424868  65.12  0.001635434    2.370    0.578
        98  -9.3837     39.0123    102.8681   1.0636266123e+02   5.0994927796e+01    0.2861495     0.202642  14.58  0.001093109    1.695    0.410
        99 -11.2714    124.3048     54.5157   6.4441790367e+01   4.6918351982e+01     1.929988     1.144405  66.06  0.008001002    2.211    0.548
       100  -9.1059    235.9706    249.4756   8.5491321087e+01  -9.7123193252e+00    0.1454262   0.09135514  48.20 0.0006858543    2.549    0.608
       101 -11.9861    102.3746     78.1202   7.8580251128e+01   4.7330849199e+01     1.316858    0.9314315  43.83  0.005145864    1.465    0.318
       102  -8.8837    108.4906    249.5105   1.0968422450e+02   8.9924043631e+00    0.1208764   0.09794501  48.20 0.0008104845    1.014    0.014
       103  -9.0889      4.0236    246.0081   1.2832105812e+02   2.2318392344e+01    0.2001791    0.1079755 -59.27  0.001290046    2.469    0.595
       104 -12.4122    117.2206     68.9223   7.1198505054e+01   4.6027741939e+01     1.797359    0.9857993  48.07  0.007322744    1.834    0.455
       105 -11.2811     69.1633     69.3340   8.6966064866e+01   5.4916450572e+01     1.798065     1.029298  -4.17  0.006762469    3.241    0.691
       106 -11.9570     55.2821     66.6290   9.1317913313e+01   5.7416865986e+01     1.237173    0.5910993 -44.80  0.005619925    1.835    0.455
       107  -8.9548    140.6627    244.6670   1.0282127992e+02   4.9744235740e+00    0.1228512   0.09076598   6.94 -6.345365e-05    1.741    0.426
       108  -8.4417     77.3156    242.6860   1.1502789217e+02   1.4565574562e+01    0.1251821   0.07253055  62.80 0.0002755504    1.643    0.391
       109 -12.0780     33.3097     70.9176   1.0116659365e+02   5.8904111077e+01     1.553271     0.709752 -23.98  0.006158443    3.275    0.695
       110  -8.5620    220.3955    237.8253   8.6413419587e+01  -6.1283787589e+00     0.168138   0.09979615 -19.09 0.0009505333    1.775    0.437
       111  -8.8716     55.6472    238.1712   1.1877337571e+02   1.8190136289e+01    0.1531211   0.09548011 -64.43 0.0009511951    1.773    0.436
       112 -12.0425     32.6808     59.0444   9.8099416176e+01   6.1501217959e+01    0.5681249    0.4775536  19.21  0.003689772    1.353    0.261
       113 -13.0695     42.5365     53.6540   9.2243277719e+01   6.1583363318e+01    0.9611111    0.3805648  34.13  0.002930077    2.773    0.639
       114 -11.6880     31.8868     41.8674   9.2809669654e+01   6.4976463870e+01     1.024992    0.5925017  15.68   0.00462876    1.868    0.465
       115  -8.9366     21.0439    232.5238   1.2476608485e+02   2.3161881810e+01    0.1613604    0.1181628  77.53 0.0006608228    1.079    0.074
       116  -8.8235     12.5172    231.8378   1.2624227563e+02   2.4140813364e+01    0.2249339   0.09323668  51.96  0.001313022    1.874    0.466
       117  -8.4304    227.0301    231.5299   8.4156732438e+01  -6.2415214180e+00    0.1729876    0.1023438  31.71 0.0003867745    1.493    0.330
       118 -11.5182     80.0203     33.4311   6.9797900899e+01   5.9409428966e+01     0.385836    0.2812073  40.54 0.0003393482    1.349    0.259
       119 -12.2067     56.4334     38.0226   8.0616070343e+01   6.2639769069e+01    0.5764045    0.3522715 -11.23  0.002206609    1.903    0.475
       120 -11.9166     49.4554     39.5368   8.4143936078e+01   6.3356270620e+01    0.4828238      0.33686  16.41 0.0004691872    1.428    0.300
       121  -9.7853     73.6148    107.8594   9.6097177089e+01   4.5611224049e+01    0.5477639    0.3336929  -4.92  0.002122098    2.950    0.661
       122  -9.5979      4.2351    100.5687   1.1739009028e+02   5.4094140633e+01     1.249453    0.2386542 -73.52  0.003744964    5.116    0.805
       123 -10.5291      3.0403     89.2413   1.1615423056e+02   5.6790045542e+01    0.3425386    0.2318723 -73.42 0.0008141092    1.250    0.200
       124 -10.2636      6.4564     86.5069   1.1454026086e+02   5.7250334282e+01    0.5314704    0.3566727  83.42  0.002594056    1.748    0.428
       125 -11.4783     20.1093     60.7874   1.0387035891e+02   6.2167202003e+01     1.086431     0.563962 -11.03  0.005361388    2.471    0.595
       126  -9.7278    156.1093     96.5854   6.9576937432e+01   3.1867884466e+01    0.3579048    0.2213807 -33.01     0.001493    1.686    0.407
       127 -10.9498    117.2296     94.3807   7.9075041650e+01   4.0948973743e+01    0.7462991    0.6059937  41.00  0.003703107    1.256    0.204
       128  -9.2137    126.2784     93.5589   7.6296959947e+01   3.9210140397e+01    0.3089199    0.2478114  -3.83  0.001456316    1.484    0.326
       129 -10.4353    119.0847     86.3421   7.6164018247e+01   4.2241058076e+01    0.4277062    0.3779616 -29.67  0.001347323    1.111    0.100
       130  -8.8466     36.8977     74.8318   1.0078870641e+02   5.7705387656e+01    0.2194929    0.1665351 -66.41  0.001052648    1.386    0.279
       131  -9.7677     39.4210     96.5321   1.0493488009e+02   5.2467220852e+01    0.3171576    0.2176938 -25.43   0.00137486    1.646    0.392
       132 -10.5636     39.2693     80.9189   1.0142822980e+02   5.6108689532e+01    0.6686333    0.4179927  84.60  0.002895756    3.026    0.670
       133  -9.8521     41.4950     78.5084   9.9986288928e+01   5.6429547308e+01    0.2980353    0.2279077 -12.34  0.001157432    1.411    0.291
       134  -9.7607     39.5218     92.0252   1.0392889861e+02   5.3520216980e+01     0.367844    0.2154206 -45.82  0.001180597    1.491    0.329
       135 -10.7481     34.2597     91.7211   1.0571780732e+02   5.4083537487e+01    0.7635739    0.3589831   4.04  0.003076286    3.510    0.715
       136  -8.7101    189.0916     94.0207   6.1847703952e+01   2.4625262365e+01    0.2456139    0.1852929   9.39  0.001115536    1.779    0.438
       137  -8.9567     11.2102     94.1934   1.1415565982e+02   5.5202888124e+01    0.2405885    0.1472149   5.33    0.0012165    2.086    0.521
       138  -8.3762    134.2660     93.3234   7.4080461053e+01   3.7508072724e+01    0.1555896    0.1222645  -3.39 0.0001970966    1.564    0.360
       139  -9.3162    109.1185     83.5435   7.8216915063e+01   4.4881044235e+01    0.2809545    0.2122756 -30.56 0.0005837049    1.333    0.250
       140  -9.4660    104.1126     92.3991   8.2375277163e+01   4.3995868582e+01    0.5248187    0.3117384  11.39  0.001817556    3.197    0.687
       141  -9.0174    107.0000     87.0063   7.9905756631e+01   4.4585006479e+01    0.3532727    0.2047814 -47.90 0.0008887864    1.738    0.425
       142  -8.1076     44.5014     93.4462   1.0249865902e+02   5.2683626395e+01    0.1369012    0.1164399 -46.50 6.685778e-05    1.029    0.028
       143  -9.2271     87.9867     91.7517   8.7256563795e+01   4.7072056734e+01    0.2903071    0.2345909  48.56  0.001122949    1.388    0.279
       144 -10.4518     90.3110     87.3631   8.5236809519e+01   4.7635853433e+01     0.574303    0.4242223  35.43  0.001910359    1.413    0.292
       145  -8.4711     68.4691     92.4883   9.3958451522e+01   4.9958062229e+01    0.2166967    0.1325157 -62.30 0.0009796781    1.771    0.435
       146  -9.0948     66.4568     88.3105   9.3536127157e+01   5.1194968137e+01    0.3316453    0.2234949 -44.53  0.001669471    1.335    0.251
       147  -9.1142    194.1128     89.3564   5.9673045967e+01   2.4288874964e+01    0.2452066    0.2024355 -20.76 0.0004877479    1.297    0.229
       148  -9.8187    112.4752     87.5012   7.8424103542e+01   4.3378695233e+01    0.6633267    0.2181489 -36.43   0.00191107    3.750    0.733
       149  -9.4083    145.9958     86.5111   6.9104618058e+01   3.6192216396e+01    0.4059174    0.2558243  36.48  0.001709857    1.737    0.424
       150  -9.7093    146.5594     82.9421   6.7911008242e+01   3.6742662162e+01    0.4757757    0.3063495 -34.20  0.001465912    1.583    0.368
       151  -9.1949    133.3693     85.7920   7.2091558889e+01   3.9225229615e+01    0.4556544    0.2782159 -18.71  0.001648631    2.338    0.572
       152 -10.2456    135.0699     80.9502   7.0182454887e+01   3.9782105982e+01     0.505443    0.3829345  83.63  0.002253933    1.867    0.464
       153  -9.3039    157.1846     82.1978   6.5207218048e+01   3.4366744971e+01    0.5833704     0.274869 -22.70  0.001791041    3.586    0.721
       154  -9.1970     74.3370     84.1422   8.9639835653e+01   5.0973696788e+01    0.4204133    0.1976259  29.61   0.00159912    2.422    0.587
       155 -10.1885    123.1360     79.6837   7.2983457300e+01   4.2698048686e+01     0.403211    0.3301124  15.93  0.001785054    1.348    0.258
       156  -9.9116    189.7011     77.3434   5.7265757565e+01   2.7404308225e+01     0.447014    0.2528569  39.36  0.001206521    2.135    0.532
       157  -8.5040    169.2792     78.3928   6.1492596174e+01   3.2143728666e+01    0.3209007    0.1925489  77.78  0.001188272    2.630    0.620
       158  -8.8208    170.0627     70.4693   5.9053043522e+01   3.3314832576e+01    0.2890226     0.171801  43.18  0.001024927    1.791    0.442
       159  -9.2292    166.4760     73.7199   6.0723435891e+01   3.3636831708e+01    0.3509942    0.2493564 -38.18  0.001649161    1.401    0.286
       160  -9.2632    164.9352     69.0371   5.9670325091e+01   3.4807494760e+01    0.3522898    0.2144642 -35.17  0.001540224    1.654    0.395
       161  -8.9573    132.0046     67.1388   6.6638308780e+01   4.3024128010e+01    0.2355323    0.1940526  23.34 0.0007912819    1.291    0.225
       162 -11.0304    139.3253     69.7011   6.5621483597e+01   4.0864673797e+01     0.835978    0.5874937  64.69  0.003060265    1.633    0.388
       163 -10.1241    144.1838     77.6397   6.6891368650e+01   3.8290258472e+01    0.3887509     0.227081 -38.60  0.001288693    1.710    0.415
       164  -9.0843    146.7468     74.9446   6.5457067751e+01   3.8175179478e+01    0.2222421    0.1982669  15.96            0    1.193    0.162
       165 -10.2888      9.9200     76.7489   1.1154213105e+02   5.9292682237e+01    0.2052414    0.1477243 -60.01  0.000336548    1.113    0.101
       166  -9.6611      5.2984     77.1788   1.1334769190e+02   5.9436439597e+01    0.2401387     0.189376  64.67 0.0008521196    1.611    0.379
       167  -9.9262      3.6688     72.8684   1.1316773017e+02   6.0482236061e+01    0.3029809    0.1368085 -54.88 0.0008556286    1.608    0.378
       168  -9.2902     70.1338     76.3805   8.8815633757e+01   5.3294173136e+01    0.2796447    0.2384925 -18.51  0.001215705    1.123    0.110
       169  -9.0834    203.6055     75.8889   5.4503712257e+01   2.4358295563e+01    0.3850603    0.1712664  39.04  0.001304593    3.400    0.706
       170  -8.6332    244.4884     75.5113   4.8584313971e+01   1.5407059412e+01    0.1338987    0.1180123 -46.13 -2.531832e-05    1.033    0.032
       171 -11.1954    161.5347     82.0250   6.4187961187e+01   3.3357956813e+01    0.2964603    0.2783971  60.46 0.0001918943    1.083    0.076
       172  -8.5526    219.2405    230.8116   8.5467211556e+01  -5.0198160095e+00    0.1708137    0.1356584  70.42 0.0006056511    2.703    0.630
       173 -10.3008    136.3186     42.1004   5.7320919071e+01   4.5934624402e+01      0.55174    0.3878244 -45.19  0.002282373    1.566    0.361
       174 -10.0715    136.4888     33.2441   5.4289767670e+01   4.7058155568e+01    0.6086434    0.3330471  20.84   0.00220307    3.002    0.667
       175 -10.7178    149.3465     34.4968   5.2119368478e+01   4.3749802843e+01     1.321929    0.4205897  53.73  0.004704376    2.702    0.630
       176 -11.2853    149.2394     65.3988   6.1945220313e+01   3.9237262774e+01     1.179345    0.5372666 -30.46   0.00436721    2.416    0.586
       177 -10.2819    158.0290     42.9215   5.3131530361e+01   4.0493057736e+01    0.5664304    0.3298981 -36.92  0.002587426    1.758    0.431
       178  -9.9810    152.8387     44.2238   5.4539780612e+01   4.1600534624e+01    0.5715426    0.3502367 -22.23  0.002515135    1.868    0.465
       179  -9.9349    139.9310     52.1079   5.9825719551e+01   4.3611244249e+01    0.4214014    0.2585404  45.80  0.001359182    1.576    0.366
       180 -10.7651    142.3811     44.4997   5.6787815428e+01   4.4130638331e+01    0.7299822    0.3393665  37.01  0.000657774    2.738    0.635
       181  -9.9002    143.8204     58.1754   6.0900210061e+01   4.1727946499e+01    0.2759587    0.2507334  34.57 0.0004234347    1.088    0.081
       182 -11.9163    147.2520     53.6920   5.8705190998e+01   4.1594890744e+01    0.5125645    0.3608283  37.89  0.000206837    1.487    0.327
       183 -11.3947    145.7792     48.4276   5.7335503992e+01   4.2739346143e+01     0.347061    0.2800709  39.60 0.0002168533    1.233    0.189
       184  -8.7462    177.5005     68.4469   5.7037814055e+01   3.1832584854e+01    0.2592204    0.1489187 -21.48  0.000947098    2.211    0.548
       185  -7.9698     46.2575     68.6536   9.5442337981e+01   5.8079304853e+01    0.1229149    0.1031565 -82.00 0.0002287691    1.595    0.373
       186  -8.9261     82.5339     66.9872   8.1444495043e+01   5.3220862024e+01    0.2936155    0.1677999  52.70  0.001238237    2.369    0.578
       187  -8.6856    202.2340    228.9915   8.8376407330e+01  -2.2084867430e+00    0.1687547    0.1424157  10.97 0.0003037737    1.056    0.053
       188  -9.9837    207.8816     60.8809   4.9965372060e+01   2.5709085872e+01    0.4539181    0.2880196 -21.44  0.001673957    1.893    0.472
       189  -9.2929    137.3618    224.7810   1.0083835213e+02   8.9062752433e+00    0.1710836    0.1196881 -39.24 0.0006187792    1.713    0.416
       190  -9.1543     41.0176    221.9293   1.2035214174e+02   2.3096568692e+01    0.1614176    0.1364212 -47.71 0.0006789872    1.658    0.397
       191 -11.0504    192.0779     55.5625   5.0946875206e+01   3.0277675888e+01    0.9377547    0.4643525  37.13   0.00281548    3.068    0.674
       192  -9.2843     13.3320    211.8667   1.2501862523e+02   2.8020131024e+01     0.231021   0.08525049 -87.66   0.00110311    2.606    0.616
       193  -9.5496    161.5025     25.1203   4.7051863309e+01   4.1845988444e+01    0.4098068    0.2562949  84.21  0.001909456    1.818    0.450
       194  -9.2036    124.0100    206.0027   1.0100576111e+02   1.4677314488e+01    0.1949823    0.1740622  50.12  -0.01509786    1.026    0.025
       195 -10.3999    179.9702     24.9920   4.4278005604e+01   3.7273225594e+01    0.3168662    0.2462078 -72.40 0.0003341572    1.319    0.242
       196  -9.4417    239.3880    196.8246   7.5672335823e+01  -3.1827623522e+00    0.1856894    0.1047952 -22.59 0.0009469578    1.724    0.420
       197  -9.3774     28.0056    193.4955   1.2081832643e+02   3.0497430680e+01    0.1711769    0.1120664  36.37  0.001043837    1.625    0.385
       198  -9.5501     11.4865    192.7518   1.2420848278e+02   3.2216499649e+01    0.2805153    0.1170729  44.29  0.001509604    2.140    0.533
       199  -8.5645    250.0372     58.9819   4.4223872733e+01   1.6695401027e+01    0.1578374    0.1364341 -59.17 0.0009980836    1.033    0.032
       200  -8.8990    212.7142     59.2491   4.8863584025e+01   2.4824786568e+01    0.1893917    0.1668901  23.04 0.0007277721    1.392    0.282
       201 -10.2477     70.6453     53.5037   8.0998219063e+01   5.7761779348e+01    0.6239319    0.3011638 -42.98  0.002552996    1.999    0.500
       202 -10.5004      3.2120     56.4132   1.0994619860e+02   6.4092263501e+01    0.3540142    0.2818219  35.76  0.002242785    1.652    0.395
       203  -9.5327      4.2037     51.6137   1.0837188626e+02   6.5055260001e+01     0.250549    0.1504271 -45.31 0.0009319028    1.258    0.205
       204  -9.6809    174.0453     57.0750   5.4414049180e+01   3.4475513135e+01    0.4733869     0.287762  -3.92  0.001808022    2.864    0.651
       205  -9.6348    233.5099     55.5802   4.5311893594e+01   2.0671262688e+01    0.2923449    0.2481573  33.50  0.001731174    1.503    0.335
       206  -8.6979    244.5174     54.5204   4.3826085902e+01   1.8466116188e+01    0.1310232    0.1123861 -56.79 5.724555e-05    1.003    0.003
       207  -8.6584     11.6931     56.2530   1.0627276516e+02   6.3679460807e+01    0.1606935    0.1075176 -36.50 0.0008155445    1.250    0.200
       208  -9.0127    211.4432     50.0188   4.6705065388e+01   2.6451300973e+01    0.2955044    0.1908971 -62.35 0.0008790383    1.653    0.395
       209  -9.8806    228.1826     49.7435   4.4561371851e+01   2.2664833190e+01    0.2448958    0.2031233  74.92 0.0004956072    1.232    0.188
       210  -9.1936    191.5864     49.7672   4.9447266751e+01   3.1235324945e+01    0.2671696    0.1561993  51.19 0.0006215136    1.750    0.429
       211  -8.7281    229.8512    187.9066   7.5666152356e+01  -3.2393179917e-01    0.1712485    0.1499428 -35.11 0.0006117824    1.338    0.253
       212 -10.1589      9.8689    185.3186   1.2405126196e+02   3.3978265109e+01    0.3218965    0.2087372   7.49  0.001896902    2.519    0.603
       213  -9.3067    223.0334     45.3846   4.4121955998e+01   2.4419536494e+01    0.3338087    0.1846745  44.81  0.001533289    2.315    0.568
       214  -9.4012    219.7258     42.8354   4.3893198915e+01   2.5516411424e+01    0.2367916    0.1945136 -48.34 0.0005564421    1.135    0.119
       215  -9.9328    206.9879     46.0790   4.6290817376e+01   2.8045993369e+01    0.4699438    0.1762176  61.13  0.001844479    2.559    0.609
       216  -9.7782    249.8197     41.2601   4.0358472396e+01   1.9155682811e+01    0.2491555    0.1691424 -26.40   0.00141037    1.644    0.392
       217  -9.1244    193.3806     44.5297   4.7763024042e+01   3.1525984167e+01    0.2781138    0.1879718 -89.11   0.00102597    1.687    0.407
       218  -9.4767     26.9577    179.2055   1.1985791365e+02   3.3799757546e+01    0.3090054    0.1754472 -48.70   0.00164728    2.151    0.535
       219  -9.8830      3.6850    177.5563   1.2484472518e+02   3.6196796119e+01    0.3724877    0.1924873 -38.43  0.001841404    3.325    0.699
       220  -8.1220     70.3209    174.3296   1.0905036090e+02   2.9913849244e+01    0.1335303    0.1028089 -33.87 0.0007048617    1.692    0.409
       221 -11.2331     15.2290     31.2956   9.6951322913e+01   6.8381766616e+01    0.4522893    0.2456629 -22.35  0.000721699    1.762    0.432
       222 -11.2373     32.1661    166.6439   1.1745332932e+02   3.6200144909e+01    0.3773969    0.2369502 -55.43   0.00141911    1.618    0.382
       223  -8.6315     16.8541    169.1483   1.2129465013e+02   3.7025519786e+01    0.1598729    0.1229148 -65.14 0.0002938945    1.291    0.225
       224  -8.6421     47.3275    165.3351   1.1359121535e+02   3.4907820234e+01     0.131524   0.09362182 -41.45 0.0007051778    1.722    0.419
       225  -9.7767     18.7554    165.3410   1.2052308161e+02   3.7742650878e+01    0.2310031    0.1195505  49.98  0.001238662    1.912    0.477
       226 -10.7786     22.9026    159.3642   1.1896981516e+02   3.8780533054e+01     0.337761     0.210019 -80.44  0.001935839    1.358    0.264
       227 -11.3820     19.2167    158.5500   1.1978967229e+02   3.9290602767e+01    0.5029759    0.2921972   2.29  0.002532094    2.938    0.660
       228  -9.9495      2.0631    160.6415   1.2402498623e+02   4.0132161374e+01    0.2763026    0.1408617 -84.19  0.001537209    1.595    0.373
       229  -8.4005    127.9627     44.4612   6.0070778956e+01   4.7593673563e+01    0.2014637     0.129716  83.53 0.0008092298    2.549    0.608
       230  -9.9671    118.3975     41.9927   6.1598033319e+01   5.0164963503e+01    0.4187371    0.3165521 -24.34    0.0021901    1.374    0.272
       231  -8.8107    238.4323     42.3479   4.1721668768e+01   2.1418166847e+01    0.2387003    0.1244474 -16.40 0.0009609747    3.283    0.695
       232  -8.9802    197.1948     41.8989   4.6521778109e+01   3.0955270914e+01    0.2015024    0.1687539 -69.94 0.0003109918    1.161    0.138
       233  -9.0812    166.7217     41.9755   5.1268970547e+01   3.8457903017e+01    0.3253424     0.195457  36.22  0.001425781    2.025    0.506
       234  -9.3796     22.8590     41.2362   9.6765896276e+01   6.5920918762e+01    0.2598065    0.1483542 -47.87 0.0009300037    1.473    0.321
       235  -8.4084     30.2670    159.6823   1.1718973064e+02   3.8030007015e+01    0.1291906   0.08276496  73.92  0.000175653    1.554    0.357
       236  -9.6386    173.3105     39.1702   4.9332064750e+01   3.7189348836e+01    0.4320661    0.2802888  16.62  0.001886466    2.386    0.581
       237  -8.7163    235.7460     39.1977   4.1280867193e+01   2.2413763958e+01    0.1614472    0.1535285  16.45 0.0007873519    1.356    0.262
       238 -11.1713    221.5062     34.2702   4.1626415556e+01   2.6222458718e+01    0.7828218    0.5230438  41.42  0.004099265    1.958    0.489
       239 -11.0843    226.6577     27.5322   3.9508279065e+01   2.5890226842e+01    0.5947441    0.4214419 -80.92  0.002783406    1.361    0.265
       240 -10.7054     31.2551    151.2417   1.1600204303e+02   3.9955172417e+01    0.3280923    0.2727837  -9.92  0.001106506    1.629    0.386
       241 -11.3453     29.7207    142.8221   1.1540278112e+02   4.2130875340e+01    0.7454848    0.4076221 -86.92  0.002585592    1.856    0.461
       242 -12.0799     22.1165    145.6503   1.1774360118e+02   4.2111576989e+01      1.03715     0.493032 -87.19  0.004823201    2.162    0.537
       243 -11.9226     14.7598    151.2361   1.2019123659e+02   4.1377036236e+01    0.6713663    0.3999681 -59.98   0.00174718    1.521    0.342
       244  -9.5318      7.9494    151.5889   1.2190355589e+02   4.1806215569e+01    0.2211915    0.1831994 -64.88 0.0006086981    1.225    0.184
       245 -13.4858     12.2171    126.5664   1.1826748678e+02   4.7441625997e+01    0.8886405    0.4911697  87.54 0.0009565862    1.844    0.458
       246 -10.8497    245.7637     33.3956   3.9024098439e+01   2.1010616538e+01     0.479779    0.2545086  63.11  0.001549168    1.972    0.493
       247  -9.0381      3.2066     34.6464   1.0412894702e+02   6.8511535725e+01    0.2957145    0.1087963 -32.18   0.00102111    2.488    0.598
       248 -12.2192     10.7189    109.0222   1.1650514556e+02   5.1730016394e+01     1.199059    0.7285379 -17.56  0.006620731    2.197    0.545
       249 -10.6492    235.6759     32.6041   3.9791723685e+01   2.3270747104e+01    0.4155083      0.33376   3.32  0.001337196    1.821    0.451
       250 -10.0442    237.9355     26.0423   3.8114125738e+01   2.3585633979e+01     0.272045    0.2220163 -81.73 0.0004105663    1.112    0.101
       251 -10.2134    242.0362     24.2697   3.7366832069e+01   2.2917812912e+01    0.3790686    0.2019741 -47.32 0.0009105678    1.611    0.379
       252 -10.4119     15.7015    100.6478   1.1369080590e+02   5.3403735542e+01    0.4449885    0.1871031 -65.55  0.001676964    1.858    0.462
       253 -10.4572     45.6435    151.3900   1.1225539047e+02   3.8455421738e+01    0.3844433    0.2565191 -78.64  0.001409779    1.375    0.273
       254 -10.5344     40.7110    146.6234   1.1293605178e+02   4.0140637828e+01     0.310986      0.27072   6.81  0.001156164    1.460    0.315
       255 -10.2461     36.7022     27.1539   8.4751330867e+01   6.7024748698e+01     0.255831    0.2110216   3.60 0.0003471706    1.155    0.134
       256  -9.9451    123.3890     35.7633   5.8123604690e+01   4.9861226376e+01    0.6845904    0.2032715  54.46  0.002323547    3.008    0.668
       257  -9.9040    172.2915     31.0166   4.7116187610e+01   3.8469095874e+01    0.4667614    0.2900299  35.41  0.002169927    1.994    0.499
       258 -10.2909     37.3457    144.0888   1.1350850912e+02   4.1099051290e+01    0.4108076    0.2645104 -45.02  0.001663605    1.693    0.409
       259  -9.5904    147.8442     23.9738   4.9002017917e+01   4.5365397717e+01    0.2917824    0.2018702  57.45 0.0007852231    1.302    0.232
       260  -9.3466    146.1202     28.6418   5.0834708517e+01   4.5258082496e+01    0.3423996    0.2073064  43.30  0.001347653    1.645    0.392
       261  -9.4608    150.9421     29.0842   5.0087537688e+01   4.4013821109e+01    0.3307157    0.2347769  27.10 0.0009715534    1.659    0.397
       262  -9.6358    153.6733     25.1913   4.8370848256e+01   4.3785230906e+01    0.3464916     0.267274 -38.11  0.001611997    1.383    0.277
       263  -8.7837    198.4951     23.4779   4.1527584352e+01   3.2926943177e+01    0.1839571    0.1332506 -13.74 3.043896e-05    1.753    0.429
       264  -9.6067    185.1315     23.8761   4.3279572598e+01   3.6129480055e+01    0.4327794    0.1779521 -33.45  0.001545048    2.396    0.583
       265 -10.0787    188.9174     19.4253   4.1599118793e+01   3.5699896572e+01    0.2900381    0.2409789 -87.54 0.0004144228    1.111    0.100
       266  -8.2029    134.4644     27.4929   5.2749952242e+01   4.8242540155e+01    0.1433752    0.1236824  38.37 0.0002447268    1.106    0.096
       267 -10.0206      4.9167    147.1262   1.2226192493e+02   4.3062324858e+01    0.2523935    0.2053829  26.68   0.00174338    1.543    0.352
       268 -10.1573      6.4247    142.4715   1.2146681973e+02   4.4052664991e+01    0.2629351    0.1832701 -86.22 0.0005165414    1.175    0.149
       269  -9.0925     10.4710    145.2652   1.2070042802e+02   4.3110474640e+01    0.2721465    0.1391378 -52.45  0.001440404    1.930    0.482
       270  -9.7311    113.8750     30.9585   5.8726730735e+01   5.2672774433e+01    0.2710416    0.1973838 -22.01 0.0007063931    1.445    0.308
       271  -8.6867     86.7771     16.5844   6.0506550347e+01   6.0214872081e+01    0.2163253    0.1142161  50.30 0.0004571528    1.749    0.428
       272  -8.9753     47.4161    139.2799   1.1005648386e+02   4.1225045488e+01    0.2567128    0.1126445 -63.01   0.00082528    1.946    0.486
       273  -9.8706     55.2206    133.3531   1.0688324542e+02   4.1794371533e+01    0.3058687    0.2476315 -63.11  0.001745373    1.101    0.092
       274  -8.8486     37.7312     21.9950   8.1983374876e+01   6.7708119299e+01    0.2214571    0.1514007  19.34  0.001368664    1.395    0.283
       275  -9.0356     74.8319     18.9374   6.5397625340e+01   6.2286249143e+01    0.2189907    0.1623452  34.88 0.0005658679    1.217    0.179
       276  -8.7177    140.0239     23.6494   5.0340023093e+01   4.7324850631e+01    0.1929804    0.1679394  54.31 0.0004296891    1.043    0.041
       277  -9.8796    198.3547     16.6569   3.9789246981e+01   3.3720608768e+01    0.2457833    0.2031396  65.22 0.0004210217    1.199    0.166
       278  -9.2795    193.7539     14.8252   3.9823783488e+01   3.5021506780e+01    0.2819065    0.1628706 -82.16   0.00091852    1.919    0.479
       279  -9.5297     70.3357     16.9444   6.6079288483e+01   6.3354092035e+01    0.2452402    0.1543359  31.17 0.0005769201    1.440    0.305
       280  -9.8597      3.3644    136.4460   1.2169454355e+02   4.5671265392e+01     0.315962    0.2109466  -6.85  0.001896313    2.185    0.542
       281 -11.4348     75.5440    120.0014   9.8242758478e+01   4.2396926565e+01    0.2642597    0.2542958  57.85  0.001532493    1.115    0.103
       282 -10.5810     61.3610    110.1279   1.0054462114e+02   4.6739030961e+01    0.9534839    0.5442962   4.75  0.003833543    2.955    0.662
       283 -11.0553     34.7978    110.1040   1.0908692592e+02   4.9643657512e+01    0.8751285    0.6252087  -4.07  0.004051825    1.802    0.445
       284  -9.6567     50.8849    117.5108   1.0535860098e+02   4.6197817476e+01    0.3496742    0.2458245 -65.43 0.0008134485    1.279    0.218
       285 -10.9768     66.4924    134.5094   1.0381915760e+02   4.0091388436e+01    0.3223245    0.2631308  85.19 5.457699e-06    1.301    0.231
       286 -11.6540     67.4904    119.7532   1.0065806497e+02   4.3589373644e+01     1.605631    0.4793252 -52.54  0.005513455    2.846    0.649
       287 -10.6980     61.5185    121.2795   1.0279956390e+02   4.3997724592e+01     0.607109    0.3360368 -62.82  0.001601554    1.670    0.401
       288 -10.3991     55.8890    125.9625   1.0539173019e+02   4.3538573487e+01    0.5273539      0.26186 -70.67  0.002232342    2.099    0.524
       289 -12.1261     41.3246    122.9274   1.0924861625e+02   4.5888673424e+01     1.480316     0.687001 -55.35  0.006791649    1.820    0.450
       290 -11.6108     47.2396    123.9089   1.0763039584e+02   4.5029429226e+01    0.8058922    0.5758016 -37.49  0.002912799    1.523    0.344
       291 -10.6590     47.6271    112.5033   1.0543113609e+02   4.7781758525e+01    0.7205493    0.3942746  -0.92  0.002906724    3.251    0.692
       292 -11.1855     33.8228    119.5143   1.1096705524e+02   4.7442832273e+01     0.692894    0.3166258 -52.15  0.003214215    1.898    0.473
       293 -10.7470     27.8911    119.4626   1.1275605540e+02   4.7973163529e+01    0.3604251    0.2575958  85.01  0.002052983    1.476    0.323
       294  -9.8280     28.8503    129.8800   1.1396634622e+02   4.5355035078e+01    0.4055674    0.1686721 -59.86  0.001855305    1.935    0.483
       295  -8.8991     72.9857    129.2319   1.0092017765e+02   4.0502803534e+01    0.2126251    0.1831086  83.49 0.0004758986    1.241    0.195
       296  -8.7290     74.7112    124.9931   9.9550121367e+01   4.1297522108e+01    0.2035005    0.1714831 -56.59 0.0003536041    1.094    0.086
       297 -10.3186     91.2986    121.1294   9.3746664522e+01   3.9664005346e+01    0.5012679    0.4360084 -32.89  0.001903843    1.183    0.155
       298 -10.1013     20.4538    118.0762   1.1479213711e+02   4.8897675579e+01    0.3099859    0.2546643  75.21  0.001851916    1.287    0.223
       299 -10.3799    116.6899    116.3292   8.5210591127e+01   3.6177405521e+01    0.3615721    0.2758562  28.26  0.001702614    1.427    0.299
       300  -9.2650    104.2727    116.3575   8.8777112205e+01   3.8531232324e+01    0.2976915    0.2028596 -49.12  0.001239858    1.409    0.290
       301  -9.3193    199.6510     59.7474   5.0895436685e+01   2.7828882780e+01    0.3284361     0.210548  45.67 0.0009176863    1.731    0.422
       302  -9.1633     66.0306     12.4105   6.5540275708e+01   6.4653718845e+01    0.2581142    0.1090006  45.63  0.001196686    2.192    0.544
       303  -9.4829     97.9932    115.5291   9.0422751934e+01   3.9854617453e+01    0.3664216    0.2414847  40.40  0.001398665    1.583    0.368
