#   1 NUMBER                 Running object number                                     
#   2 MAG_AUTO               Kron-like elliptical aperture magnitude                    [mag]
#   3 X_IMAGE                Object position along x                                    [pixel]
#   4 Y_IMAGE                Object position along y                                    [pixel]
#   5 X_WORLD                Barycenter position along world x axis                     [deg]
#   6 Y_WORLD                Barycenter position along world y axis                     [deg]
#   7 A_WORLD                Profile RMS along major axis (world units)                 [deg]
#   8 B_WORLD                Profile RMS along minor axis (world units)                 [deg]
#   9 THETA_WORLD            Position angle (CCW/world-x)                               [deg]
#  10 FWHM_WORLD             FWHM assuming a gaussian core                              [deg]
#  11 ELONGATION             A_IMAGE/B_IMAGE                                           
#  12 ELLIPTICITY            1 - B_IMAGE/A_IMAGE                                       
         1 -13.4429    247.6943     76.9410   3.5943739400e+02   1.7777393454e+01    0.8686829    0.2864916 -38.48  0.004210828    2.185    0.542
         2 -12.0934    119.7967     37.6229   5.8488539158e+00   5.0107164448e+01      0.67761    0.3510291 -51.80  0.001492828    2.059    0.514
         3 -11.9248    104.6609     12.2528   3.5915984307e+02   5.6957696751e+01    0.4845159    0.3304153 -29.43  0.001744296    1.603    0.376
         4 -11.8778     58.0621     29.4591   2.0536289073e+01   6.5861202060e+01    0.6688781    0.4256405 -12.62  0.001294432    2.322    0.569
         5 -12.7779    164.0504     27.4930   3.5604652777e+02   4.0714167986e+01    0.5872763    0.2913717  63.43  0.002839724    2.005    0.501
         6 -11.0458     20.6546     21.6852   3.7707636969e+01   7.3818686735e+01    0.5377416    0.2814851 -36.47  0.002171754    2.002    0.501
         7 -12.7794    105.5415     19.9478   2.0729032940e+00   5.5909892207e+01    0.3637996    0.2806741 -71.41 0.0006719475    1.324    0.245
         8 -11.7906     35.4437     18.3142   2.5818361734e+01   7.2025874217e+01    0.5765007       0.4649 -32.39  0.003088882    1.299    0.230
         9 -12.2515     48.6570     12.6886   1.5516721581e+01   7.0212838797e+01    0.7353411     0.260037  52.67  0.002944263    2.522    0.603
        10 -12.0634    164.3775     18.2162   3.5339136950e+02   4.1707247606e+01    0.4161567    0.2799118  41.08  0.002231245    2.085    0.520
        11 -11.6898     23.1724     10.5798   2.8905968553e+01   7.5312404521e+01     0.566461    0.3534325  19.30  0.001826612    1.810    0.447
        12 -11.8329     16.8527      9.8722   3.3309266096e+01   7.6390502808e+01    0.5567827    0.2521183  45.59  0.001807415    2.587    0.613
        13 -10.8403    137.0591     14.2189   3.5511203630e+02   4.8675494459e+01    0.3415227    0.2054825  68.30  0.001150044    1.539    0.350
        14 -11.5661    127.3963     15.9115   3.5694128142e+02   5.0887161934e+01    0.4969693    0.3407315 -17.46  0.001851161    1.802    0.445
        15 -11.0479    132.0344     15.4682   3.5616141355e+02   4.9783406907e+01    0.3612977     0.229474  42.01  0.001815808    1.985    0.496
        16 -11.2990     86.0593     14.2983   3.9130170605e+00   6.1372074860e+01    0.5407876    0.3514332 -34.01  0.002830339    1.651    0.394
        17 -10.5122    225.5874     13.4857   3.4794380961e+02   2.9371252741e+01    0.1979283    0.1304189 -46.39 8.465245e-05    1.173    0.148
        18 -11.4194    243.3196     14.3489   3.4727180091e+02   2.6097205806e+01    0.1962351     0.177025  15.19  0.001540594    1.797    0.443
        19 -11.0389    190.5814     11.8892   3.4961857961e+02   3.6543677428e+01    0.2936757   0.09238414 -33.14  0.001291877    2.645    0.622
        20 -11.4251    212.1334      9.6906   3.4781617727e+02   3.2349238854e+01    0.3774094    0.2263842 -21.54   0.00176349    2.050    0.512
        21 -10.7013    120.8731     11.3296   3.5623211386e+02   5.2984940811e+01    0.3124453    0.1519441  86.51  0.001356087    2.169    0.539
        22 -11.6573     63.7582      9.9353   8.0517104810e+00   6.7176326208e+01    0.3515742    0.2217859  57.51 0.0004148328    1.403    0.287
        23 -10.6611     62.4964      6.4995   6.5604235130e+00   6.7825038686e+01     0.300914     0.179588  47.47  0.001162245    1.525    0.344
        24 -10.7853    168.4751      9.5793   3.5062535228e+02   4.1674967448e+01    0.3423213    0.1933794  61.23  0.001620557    1.895    0.472
        25 -10.4914      1.2979      8.2229   4.6801990311e+01   7.8527717104e+01    0.3301979   0.09436432 -53.59  0.001337105    3.247    0.692
        26  -9.8603    144.9809      9.5387   3.5272962622e+02   4.7217549526e+01    0.1775509   0.08671438  52.39 0.0005898636    2.332    0.571
        27 -10.6661     88.6311      8.0753   4.8823327037e-01   6.1367333536e+01    0.2963174    0.2670537  89.94  0.001224393    1.072    0.067
        28  -9.8381      5.6677      9.0222   4.2847083830e+01   7.7948298147e+01    0.1710967    0.1434767 -23.43 0.0007545064    1.098    0.089
        29 -11.0844    185.7058      6.8533   3.4868031368e+02   3.8108970161e+01    0.1999248    0.1490046  78.03 0.0008758365    1.370    0.270
        30 -10.7563    153.9488      6.7592   3.5103203712e+02   4.5339645663e+01    0.1971357    0.1683757 -55.90 0.0003074207    1.133    0.118
        31  -9.6108     78.1472      7.3674   2.5630310659e+00   6.4011009270e+01    0.1878452    0.1164723  78.64 0.0005337265    1.642    0.391
        32 -11.0632     40.7515      4.1399   1.3775615976e+01   7.2878365625e+01    0.3386563    0.2229444  29.01  0.001218581    1.588    0.370
        33 -10.7021    247.6182      5.1629   3.4529936099e+02   2.6310064796e+01    0.1425201   0.08706055 -28.05 0.0009547727    1.732    0.423
        34 -10.1524    128.9787      4.7488   3.5287902710e+02   5.1590354933e+01    0.1843515    0.1588403  70.69  0.001152702    1.173    0.147
        35 -11.6396    133.8973      2.4826   3.5158312527e+02   5.0579677637e+01    0.5741212    0.2498448  74.34  0.002644867    2.020    0.505
        36 -11.8532    235.9217      3.4650   3.4540766585e+02   2.8517608865e+01    0.2860371    0.1904463 -63.31  0.002080203    1.154    0.134
        37 -11.3197      9.3125     19.4450   4.5618077640e+01   7.5612492292e+01    0.5863487    0.2835501   3.66  0.001076016    3.023    0.669
        38 -10.1773    223.9211      2.6865   3.4573274173e+02   3.0792798674e+01     0.210293    0.1416284 -54.41 0.0006373832    1.078    0.073
        39 -11.0909    218.7687      3.0527   3.4603335028e+02   3.1733676768e+01    0.2785999    0.1553237  81.33 0.0009229272    1.817    0.450
        40 -11.0412    207.2114      2.3784   3.4641684694e+02   3.4065815685e+01    0.3692082    0.1497519 -79.25  0.001832982    2.466    0.595
        41 -10.6218    210.5034      1.4949   3.4606325858e+02   3.3496790727e+01    0.1858674    0.1371952 -56.19 0.0006142374    1.044    0.042
        42 -11.0168    113.8849      2.2107   3.5380185347e+02   5.5572288757e+01    0.3572731    0.2156325  87.01 0.0009876925    1.531    0.347
        43 -10.5908    105.7290      2.2456   3.5495080674e+02   5.7613163573e+01    0.3053962      0.18568 -69.55  0.001064013    1.731    0.422
        44 -11.3170     16.5675     13.5036   3.5968284763e+01   7.5827355234e+01    0.3295027     0.224284 -14.76  0.001546979    1.641    0.391
        45  -9.2893     12.3360      2.2934   3.1571315637e+01   7.8219002946e+01    0.1257755   0.08515172   3.37  0.000702637    1.643    0.391
        46  -9.9985      1.9201      1.8073   4.1697649544e+01   7.9607849641e+01    0.1922404    0.1383164 -11.39  0.001014309    1.323    0.244
        47 -10.0997    152.4948      1.4396   3.4957140742e+02   4.6180029195e+01    0.2370037    0.1098387  80.91 0.0005948902    1.955    0.488
        48 -12.0411     26.7749    105.8826   6.0138126900e+01   5.2859987388e+01    0.6881715    0.6481357 -56.48  0.003807217    1.064    0.060
        49 -11.6255     22.6128    114.1176   6.3116959505e+01   5.0974000232e+01    0.5901795    0.3114866   5.98  0.002107183    2.387    0.581
        50 -11.6932     27.4803    112.3745   6.0868930344e+01   5.1002565892e+01    0.4743744    0.2954433  39.75  0.001429185    1.610    0.379
        51 -10.8562      7.9113    114.3616   6.9148748635e+01   5.2030020928e+01    0.3578759    0.2692783 -71.15 0.0007228785    1.217    0.179
        52 -11.9889      2.6128    111.6249   7.1055927148e+01   5.3098537987e+01    0.4520234    0.3156974  84.01  0.000791278    1.355    0.262
        53 -11.6743      3.3302    104.8944   7.0116090277e+01   5.4906055082e+01    0.5757493    0.3671073  62.50   0.00192751    1.620    0.383
        54  -9.9652     48.9482    111.6822   5.2081288192e+01   4.8702373179e+01    0.2198597    0.1889288  40.10 0.0005895388    1.174    0.148
        55 -11.6684     79.6891    108.1384   3.9852267199e+01   4.4778824224e+01     0.566907    0.3972036  11.77  0.002408717    1.966    0.491
        56 -11.1402     15.5129    108.9572   6.5378781801e+01   5.2988649778e+01     0.452443    0.3137695  20.97  0.002122802    1.535    0.348
        57 -10.2001    105.7000    107.6604   3.1418994027e+01   3.9917078840e+01    0.1561373    0.1238331 -13.76  0.000703584    1.666    0.400
        58 -11.1973     49.0839    101.5969   4.9896361713e+01   5.1389695221e+01    0.6995823    0.4359774 -20.72  0.002781715    2.381    0.580
        59 -11.4178     17.6291    101.6175   6.3453548366e+01   5.4843908813e+01    0.4552713    0.2355231 -88.20  0.001079155    2.122    0.529
        60 -10.3794     91.4383    102.7865   3.4536807058e+01   4.3894798089e+01    0.3831327    0.2852026   2.72  0.001652642    1.977    0.494
        61 -10.2337     85.9980    103.2865   3.6464076911e+01   4.4818660782e+01    0.2167386    0.2005052  41.68 0.0004415769    1.098    0.090
        62  -8.9101    120.3360    101.3290   2.5675349034e+01   3.8314384284e+01    0.1546132    0.1236238  -2.60 0.0007051998    1.728    0.421
        63 -10.6298      8.0585     95.9647   6.6993607218e+01   5.7073081569e+01    0.2828802    0.2616206  15.53  0.001672336    1.178    0.151
        64 -11.1951    210.3880     98.1295   7.8845161128e+00   2.0875568526e+01    0.2102485    0.1846978 -49.74 0.0002516629    1.077    0.072
        65  -9.2606    156.7262     98.9780   1.6742505049e+01   3.1087993341e+01    0.1790036    0.1192939 -42.36   0.00040871    1.398    0.285
        66  -9.2228    136.4328     99.5138   2.1218078558e+01   3.5271126835e+01    0.1492284    0.1397919 -62.19 0.0001811925    1.014    0.013
        67 -11.7998     75.3319     78.2617   3.3024885299e+01   5.2803122533e+01    0.6832738    0.6034232 -79.94  0.003137161    1.216    0.178
        68 -10.5595     77.1218     96.5288   3.7746664541e+01   4.8131302482e+01    0.2756408    0.1480971  41.52 0.0005483271    1.853    0.460
        69 -12.1379     79.5427     90.6444   3.5231124487e+01   4.9099965194e+01     1.379642    0.6169077 -49.30  0.005089639    2.212    0.548
        70 -12.1759     68.2295     95.2232   4.0694193785e+01   5.0045239548e+01    0.5120054    0.3874603  27.67 0.0007912803    1.418    0.295
        71 -10.3892     59.3475     97.1277   4.4663736044e+01   5.1034870927e+01    0.2568099    0.2064325  19.13 0.0003478196    1.374    0.272
        72 -11.5023     22.4657     94.8055   6.0169448444e+01   5.6290967295e+01    0.5032406      0.27694 -31.05  0.002090301    2.227    0.551
        73 -12.1114    248.1692     94.7359   2.8754592619e+00   1.5275880283e+01    0.3661873    0.2500787 -17.55  0.002314681    1.784    0.439
        74 -10.3496     43.2411     94.7697   5.0822574066e+01   5.3990660580e+01    0.2868649    0.2506131   0.47  0.001058475    1.266    0.210
        75 -10.0250     43.9159     90.4982   4.9517230972e+01   5.5024060574e+01    0.2161406    0.1904503 -64.22 0.0003147221    1.104    0.094
        76  -9.9654    125.8458     93.8640   2.2230846010e+01   3.8714715904e+01    0.2104501    0.2064316 -16.21 0.0003601984    1.119    0.106
        77 -10.8299     35.6790     92.1908   5.3602355888e+01   5.5618024487e+01     0.552269    0.4672651 -82.27  0.002926113    1.202    0.168
        78 -10.6750     29.9719     87.7484   5.5277638277e+01   5.7442990533e+01     0.446909      0.22155  10.31  0.001008836    2.609    0.617
        79 -11.0563     28.4147     84.0799   5.5218872788e+01   5.8579141432e+01    0.5310721    0.3883256  -3.19  0.001775105    1.589    0.371
        80 -10.7583     98.3139     90.6393   2.8970272057e+01   4.5326451306e+01     0.264396    0.2559629  31.25 0.0003261699    1.102    0.093
        81 -10.2055     50.5097     91.3487   4.6857512869e+01   5.3875057608e+01    0.2757321    0.1953631  16.61 0.0009618978    1.621    0.383
        82 -10.6345     52.1806     87.1201   4.5035284970e+01   5.4708416111e+01    0.2645924    0.2121735 -60.22 0.0004691518    1.226    0.185
        83 -10.5264     18.6858     86.2921   6.0426203809e+01   5.8916192139e+01    0.3338414    0.3051122 -32.11  0.001829351    1.118    0.105
        84 -10.2964     66.6864     88.4827   3.9433749548e+01   5.1985877505e+01    0.3303728     0.239785 -15.34 0.0009071085    1.929    0.482
        85 -11.3662      5.7259     88.0731   6.7055442167e+01   5.9351147342e+01    0.5946656     0.327536   6.88  0.002109789    2.045    0.511
        86  -9.8980    104.6877     86.9396   2.5960129537e+01   4.4784707127e+01    0.2166723     0.197521 -54.67 0.0004532683    1.085    0.078
        87 -10.2990     90.4875     85.7156   3.0011385899e+01   4.8061630647e+01    0.3823017    0.2823902 -87.69  0.001692939    1.799    0.444
        88  -9.7288    118.5572     85.6425   2.1745347207e+01   4.2012333610e+01    0.2786767    0.1466496 -40.24 0.0008037662    1.954    0.488
        89 -11.5010     44.6978     84.1098   4.7546765785e+01   5.6567864141e+01    0.4582921    0.4178176  89.97  0.002138522    1.148    0.129
        90  -9.3660    249.6505    249.7063   2.8701727857e+01  -5.3517280644e+00     0.102432   0.05322848  -7.42 0.0006243238    1.675    0.403
        91 -12.3413     60.9737     83.3920   4.0267867770e+01   5.4219915657e+01    0.2967695    0.2778226 -68.88   0.00046408    1.070    0.066
        92 -10.4946     58.1625     77.8608   3.9792945449e+01   5.6036405533e+01    0.2247352    0.2038888  84.30 0.0004633228    1.189    0.159
        93 -10.1681    112.9195     82.5350   2.2319829943e+01   4.3904747750e+01    0.3013292    0.2729897  67.09  0.001563396    1.099    0.090
        94 -10.3907     67.5202     81.1152   3.6931514476e+01   5.3614907765e+01    0.3026222    0.2462944 -11.14  0.001401156    1.529    0.346
        95 -10.5892      2.5524     81.2028   6.7700853928e+01   6.1361190536e+01     0.400872    0.2024896  63.27  0.001685259    2.399    0.583
        96  -9.3649    103.2814     79.6413   2.4154464461e+01   4.6642505051e+01     0.157871    0.1181829 -80.41 0.0003899002    1.669    0.401
        97  -9.4784    118.9632     78.2962   1.9452203687e+01   4.3396096498e+01    0.2011411    0.1892871  88.34 0.0001811814    1.029    0.028
        98 -10.8614     88.9614     77.0267   2.7807302433e+01   5.0298244105e+01    0.4918472    0.2744023  50.85  0.001738344    1.828    0.453
        99 -10.6796     94.5183     75.6038   2.5544049544e+01   4.9408801129e+01    0.4748655    0.3626692 -67.89  0.001731127    1.474    0.321
       100 -11.0305     53.1526     75.8202   4.1357487611e+01   5.7356100026e+01    0.3861572    0.3307047  39.48  0.001529357    1.176    0.150
       101  -9.9841     46.9513     75.1906   4.3997787181e+01   5.8475034929e+01    0.3703876    0.1724736 -42.35  0.001392648    2.376    0.579
       102 -10.8131     14.1790     74.7651   6.0503228703e+01   6.2326573025e+01    0.2902686    0.2490161 -76.46  0.001652157    1.145    0.126
       103 -10.1439    102.9295     74.2669   2.2557096524e+01   4.7826357929e+01    0.2732929    0.2108397 -62.34  0.001321326    1.375    0.273
       104  -9.8272     36.9722     85.5326   5.1473055908e+01   5.7216969703e+01    0.2220672     0.145447  26.23  0.001027203    1.579    0.367
       105 -10.3880     80.7434     71.5181   2.8827902794e+01   5.3206548790e+01    0.3752865    0.2109634 -37.03  0.001516801    2.042    0.510
       106 -10.8465     34.8152     71.2246   4.8760804299e+01   6.1133405285e+01    0.4898751     0.225615  36.03   0.00137532    2.156    0.536
       107 -10.7202     40.7271     72.8408   4.6274654104e+01   5.9950095826e+01    0.3189647    0.2530048  -0.33 0.0008444029    1.441    0.306
       108 -10.8702     40.3609     68.8678   4.5254747885e+01   6.0971435406e+01    0.3175071    0.2449432  35.88 0.0009889492    1.313    0.238
       109 -10.7565      2.1207     71.1013   6.6431282784e+01   6.4042411171e+01    0.3632047    0.2114654 -65.59  0.001410678    1.513    0.339
       110 -11.5842    122.6358     68.5177   1.5532818706e+01   4.4405566858e+01    0.4106278    0.2806006  45.03 0.0008717144    1.585    0.369
       111 -11.5971     27.7600     73.2497   5.2954370736e+01   6.1455206795e+01    0.3140776    0.2601248 -16.80 0.0002646484    1.288    0.223
       112 -10.5877    101.9562     66.8642   2.0404154092e+01   4.9511693401e+01    0.2592894    0.2427127 -11.53 0.0004014019    1.228    0.185
       113 -10.8785    105.5038     63.5083   1.8269901629e+01   4.9330642907e+01     0.258658    0.2435322  83.07 0.0006231848    1.017    0.017
       114 -13.1902      5.3107     61.5370   6.2837911590e+01   6.6326229926e+01    0.7447008    0.4652708 -10.41  0.002254288    1.756    0.431
       115 -10.2802      9.4862     55.5435   5.8881470933e+01   6.7549203251e+01    0.2956738    0.1983829  28.24  0.001016812    1.559    0.358
       116 -11.6448     39.6177     56.5297   4.1496082328e+01   6.3967245909e+01    0.3403968    0.2380106  37.92 0.0006119296    1.439    0.305
       117 -11.6430     43.3516     60.1668   4.0863961892e+01   6.2578453745e+01     0.528101    0.2351638 -55.14 0.0009646562    2.265    0.559
       118 -11.8177     46.4556     59.4973   3.9068870005e+01   6.2241840163e+01     0.716885    0.2708987  43.54  0.002547233    2.799    0.643
       119 -10.1671     58.3076     62.4857   3.4598307654e+01   5.9547886843e+01    0.2999529    0.2537421  68.89  0.001567049    1.353    0.261
       120  -9.6894    159.5074     62.4913   6.5232068046e+00   3.6871873137e+01    0.2310757    0.1211912  50.59 0.0009307949    2.139    0.533
       121  -9.8147    150.8984     60.8756   7.4959898503e+00   3.9102339662e+01    0.1957614    0.1903132 -11.04 0.0004929171    1.237    0.192
       122  -9.9152    113.4152     60.2906   1.5107554364e+01   4.8057554151e+01    0.2645626    0.1815752 -49.78 0.0009158166    1.461    0.315
       123  -9.7179     27.6620     59.8719   4.9203284073e+01   6.4776055796e+01    0.8030857     0.285998  40.91  0.002435478    3.075    0.675
       124  -9.9303     21.6533     57.6858   5.2014520117e+01   6.5962759811e+01    0.2529095    0.1793316 -53.57  0.001010756    1.323    0.244
       125 -10.7749     25.3337     55.5480   4.9163990736e+01   6.6073279009e+01    0.3245517    0.2367406 -30.21 0.0009114251    1.417    0.294
       126 -11.3359    110.3821     39.6099   8.5619960687e+00   5.2142538117e+01    0.6430135    0.4506717 -42.51  0.002305408    1.447    0.309
       127 -10.9523    118.2270     56.4091   1.2646632280e+01   4.7582109778e+01    0.5461816    0.3135324 -70.22  0.002087382    2.661    0.624
       128 -11.4225    124.3568     56.8078   1.1395759561e+01   4.6045578235e+01    0.4137978    0.3014917   0.89 0.0002705347    2.240    0.554
       129 -10.3742    112.5540     50.1524   1.1840985025e+01   4.9984690534e+01    0.3371458    0.3116163  23.33  0.001019505    1.279    0.218
       130 -10.8230    131.6641    240.8125   4.8405267404e+01   7.6128318546e+00    0.2167288    0.1398133  16.24   0.00090373    1.374    0.272
       131 -11.6091    116.9844     47.6965   9.9631041221e+00   4.9301547000e+01    0.4866334    0.3854797  -1.81  0.001507518    1.760    0.432
       132 -10.7528    106.4778     58.2809   1.6212762169e+01   5.0054129799e+01    0.2783865    0.2235986  76.44 0.0004829693    1.295    0.228
       133 -12.4430     73.9652     50.1337   2.3422240883e+01   5.8932016774e+01     1.262926    0.4474386 -51.82   0.00390251    3.910    0.744
       134 -11.2858     88.1207     55.7502   2.0688400301e+01   5.4764160298e+01    0.5490042    0.2146287 -35.25  0.001857371    3.101    0.678
       135  -9.5401    143.4292     84.2605   1.5548934650e+01   3.6729927455e+01    0.1950929    0.1317167 -51.89 0.0004210699    1.432    0.302
       136 -11.2438     92.6541     62.4592   2.1683436975e+01   5.2473241915e+01    0.3752781    0.2643343  68.02 0.0008242514    1.605    0.377
       137 -12.2652    244.6812     52.2147   3.5475960044e+02   2.1474991744e+01    0.4411689    0.1773389 -52.90  0.001272321    2.117    0.528
       138  -9.9474    202.1164     63.5804   1.0885675086e+00   2.7654855860e+01    0.2475439    0.1593684 -23.62  0.001311513    1.861    0.463
       139 -10.2626    156.8807     53.7645   4.4799425365e+00   3.8823170981e+01    0.3427838    0.1998778 -85.52  0.001497296    2.237    0.553
       140 -10.0026    155.3434     48.4480   3.1846375856e+00   3.9966745606e+01    0.3409823    0.1761958 -18.00    0.0012698    3.384    0.704
       141 -11.2034     31.4109     53.0357   4.4758290904e+01   6.5908846525e+01    0.4311666    0.2681928   6.31  0.001950159    2.054    0.513
       142  -9.8964     55.4771     50.0626   3.1085062868e+01   6.2679381539e+01    0.2152466    0.1870089  10.89  0.001174154    1.240    0.194
       143 -10.5976     59.6523     50.1086   2.9223008134e+01   6.1874260156e+01    0.5455859    0.3499665 -62.41  0.002441708    2.021    0.505
       144 -10.2816     61.6085     46.2244   2.6747120077e+01   6.2235931793e+01    0.3246332    0.1941396 -34.50  0.001251687    1.869    0.465
       145 -10.4949     82.5520     47.5380   1.9343487835e+01   5.7501323105e+01    0.4282386    0.2614082 -15.02  0.001657579    2.868    0.651
       146 -12.3691     41.8258     44.2663   3.5447716706e+01   6.6255527907e+01      1.06395    0.3617557  37.67  0.003630075    2.867    0.651
       147 -10.3024     23.4387     37.3144   4.3474974939e+01   7.0374837932e+01     0.470255    0.2347318  44.75  0.002053553    2.392    0.582
       148 -10.1776     28.5661     46.2640   4.3895924141e+01   6.7795815181e+01    0.2525049    0.1814865  -1.75 0.0006558663    1.601    0.376
       149 -10.7773     26.4941     43.0099   4.3882824598e+01   6.8773115793e+01    0.3375206    0.2662811 -86.08 0.0004593095    1.702    0.412
       150  -9.7135      2.3468     48.5901   6.1836547103e+01   6.9697003300e+01    0.2259513     0.118697  19.67 0.0006090585    1.954    0.488
       151 -10.2468     20.4746     45.8167   4.8814917931e+01   6.8864584500e+01    0.2322385    0.1871271  15.35 0.0005971178    1.241    0.194
       152 -10.0473     13.8425     45.8776   5.3225418873e+01   6.9509761828e+01    0.2176913    0.1632918 -31.68 0.0006748937    1.282    0.220
       153 -10.7453     18.1501     40.5229   4.8375260419e+01   7.0298662961e+01    0.3808959    0.1974392 -39.26  0.001102312    1.948    0.487
       154 -11.1109    116.5123     43.4833   8.5952318112e+00   5.0063731070e+01    0.3910334    0.2924709  11.27  0.001873343    2.018    0.505
       155  -9.9489    156.0234     42.0223   1.2194006670e+00   4.0716592038e+01    0.2088909    0.1866198 -66.50 0.0006835937    1.050    0.048
       156 -10.2423     56.9565     41.8850   2.6901904767e+01   6.3968440884e+01     0.277066    0.1839818  44.85 0.0009946759    1.451    0.311
       157 -10.7783    249.7581     38.9310   3.5178356654e+02   2.2252705003e+01    0.1883829    0.1316221 -68.47 0.0003785745    1.319    0.242
       158 -11.6113     79.1769     35.2775   1.5332479440e+01   6.0285041739e+01    0.6445413    0.4359416 -35.65   0.00233003    1.576    0.365
       159 -11.0758      3.6412     36.4040   5.7454395713e+01   7.2482483065e+01    0.4165311    0.2983323 -46.30  0.001431488    1.247    0.198
       160 -10.1256    224.3237     37.3248   3.5313685506e+02   2.6887459899e+01    0.1020838   0.09108713   9.69 0.0005594479    1.687    0.407
       161  -9.9945     60.5216     36.9514   2.3088127659e+01   6.4121885080e+01    0.2707245    0.1939499 -45.01 0.0006567923    1.485    0.326
       162 -11.0483     63.6320     33.4116   2.0138498129e+01   6.4051426519e+01    0.7177565    0.1785247  48.03  0.002233907    3.682    0.728
       163 -10.5279    153.0472     35.7433   3.5978013423e+02   4.2263087586e+01    0.2218807    0.1780156 -51.37 0.0005567308    1.154    0.134
       164 -10.3225    175.5686     34.3834   3.5669854493e+02   3.7237795479e+01    0.3132828      0.16224 -55.81 0.0009583221    1.783    0.439
       165 -10.9266    170.9356     30.1163   3.5603673091e+02   3.8814119099e+01    0.3404555    0.1694399  88.22 0.0009145213    2.241    0.554
       166 -11.3326    125.9412    240.9246   4.9629078505e+01   8.2616589504e+00     0.236633    0.1439386  30.90  0.001390548    1.385    0.278
       167 -12.2977    112.7082     25.1498   2.6944564177e+00   5.3504780148e+01     0.726375     0.323177  60.70  0.003104967    2.019    0.505
       168 -11.9017    240.3075     32.1626   3.5100301913e+02   2.4639975957e+01    0.2516544    0.2041326   7.26  0.001736236    2.071    0.517
       169  -9.8982    217.0213     31.9961   3.5249355078e+02   2.8905707648e+01    0.1467133    0.1094358 -52.31 0.0003545796    1.044    0.042
       170 -10.5773     10.4289     30.3404   4.9887996587e+01   7.3279307613e+01    0.3279316    0.2621417 -28.34  0.001994421    1.153    0.133
       171 -10.8864     72.1359    237.8670   6.1331343176e+01   1.5055299415e+01     0.205287    0.1459153  46.09  0.001256656    1.263    0.208
       172 -11.2736     48.0794     30.2450   2.5561391299e+01   6.7745619592e+01    0.7438365     0.261482  38.73  0.002650486    3.064    0.674
       173 -10.0592    177.4329     29.2170   3.5513452118e+02   3.7461140641e+01    0.2372189    0.1222424 -27.53  0.001139904    2.111    0.526
       174  -9.3515     23.6762    231.6642   7.2255154400e+01   2.1310881895e+01    0.1137155   0.09039769 -28.35 0.0007050986    1.714    0.417
       175 -12.2428    127.5543     28.3908   1.2293582497e+00   4.9407571322e+01    0.7397631    0.3800089  81.37  0.001938442    2.143    0.533
       176 -11.7533     26.5048     27.4663   3.6699287217e+01   7.1919444613e+01      0.45172    0.3299433 -58.44  0.001688564    1.644    0.392
       177  -9.5613     80.3039    229.6581   5.8686861836e+01   1.5708547535e+01    0.1326913   0.08310004  53.91 0.0007040225    1.681    0.405
       178 -10.6023    188.8012     27.4948   3.5364594027e+02   3.5180423847e+01    0.2544768    0.2122286  47.41  0.001629637    1.600    0.375
       179 -11.1048    183.4840     26.3487   3.5382028594e+02   3.6468130816e+01    0.3873117    0.1484139 -44.35  0.001577347    2.101    0.524
       180 -11.8534    148.9285     22.3159   3.5624967076e+02   4.4899801336e+01    0.4893809    0.3008932  64.11  0.002149029    1.596    0.373
       181  -9.9467    147.9461     28.0000   3.5811593671e+02   4.4463196418e+01    0.2063627    0.1404295 -72.65 0.0006407424    1.425    0.298
       182  -9.6487    151.3553     27.3058   3.5747106791e+02   4.3729148198e+01    0.2233838    0.1247442  66.74  0.001098858    1.720    0.418
       183 -12.5520    231.6241     25.3258   3.5010874356e+02   2.6961140190e+01    0.4488787    0.2797265  40.65  0.002548313    2.971    0.663
       184 -11.9587    248.7501     21.4298   3.4841017831e+02   2.4410308779e+01    0.3321195    0.1933336 -64.72  0.002270713    1.446    0.309
       185 -11.4924    244.3357     21.3105   3.4860389293e+02   2.5171727007e+01    0.2075207    0.1682456  -4.31 0.0009058206    1.948    0.487
       186 -10.2823    206.1975     25.3563   3.5176098402e+02   3.1813564784e+01    0.1844743    0.1452368 -38.97 0.0004530766    1.265    0.209
       187 -10.0383    233.5344    227.0081   2.7879344322e+01  -1.3368375589e+00    0.1545882   0.08242489 -32.59 0.0008399577    1.583    0.368
       188 -10.6485     46.4272     24.0289   2.3104999204e+01   6.9072132527e+01    0.3393841    0.2276406  26.86 0.0007936845    1.649    0.394
       189 -10.7915    134.3142     22.0036   3.5804190355e+02   4.8499462582e+01    0.3021038    0.2826124 -50.63  0.001746392    1.171    0.146
       190 -10.4623    177.4720     21.9991   3.5321984240e+02   3.8301641866e+01    0.2842574     0.211527  41.05 0.0009928892    1.887    0.470
       191 -10.6923    181.9432     19.2136   3.5211053927e+02   3.7624780734e+01    0.2786053    0.1798377  65.95  0.001112977    1.653    0.395
       192 -10.4704    169.3355     22.9374   3.5422950815e+02   4.0032920389e+01     0.220353    0.1680259  77.44 0.0003011005    1.291    0.226
       193 -10.8429     68.8051     20.6572   1.1968499084e+01   6.4743806234e+01    0.3382442     0.236168 -50.52  0.001352782    1.644    0.392
       194  -9.6491    171.5012    208.5102   3.5789929576e+01   8.0977685076e+00    0.1243419    0.1024225  -3.57 0.0008104132    1.031    0.030
       195  -9.7331     39.7009     15.0469   2.1405729422e+01   7.1713337962e+01    0.2193985    0.1838571  43.16 0.0007521061    1.127    0.112
       196 -10.8632      4.3543    204.8102   7.5834226657e+01   2.8843217739e+01    0.1720874    0.1052831 -73.05 0.0006196853    1.721    0.419
       197 -10.0709     46.6124     19.8016   2.0651622749e+01   6.9671202495e+01    0.2215839    0.1925502  67.00  0.001006551    1.309    0.236
       198  -9.6903    216.8081     19.8015   3.4980119789e+02   3.0351167997e+01    0.1705924    0.1014148 -57.92 0.0004254622    1.329    0.247
       199 -10.7788      6.5038    197.5041   7.4993849348e+01   3.0370360662e+01    0.1305172     0.107653  57.27 -9.454908e-05    1.002    0.002
       200  -9.1388    191.3125    197.3414   3.0264378404e+01   7.4143947326e+00    0.1278414   0.08070873 -11.08 0.0003655186    1.700    0.412
       201 -11.9570      5.9520    185.8392   7.4638181220e+01   3.3216544540e+01    0.3974237    0.2314948  33.50  0.002092307    1.533    0.348
       202  -9.4919     74.9838     19.1795   9.2393898594e+00   6.3486421352e+01    0.2320546    0.1323317  38.65 0.0007447746    1.958    0.489
       203 -11.8605      2.8796    181.9758   7.5323097235e+01   3.4399208394e+01     0.469278    0.2371929 -56.94  0.002219357    2.222    0.550
       204  -9.0090     34.5412    180.4821   6.6163004207e+01   3.1980074398e+01    0.1382048      0.12453  59.59 0.0002148813    1.020    0.019
       205  -9.7141    249.6835    176.3374   1.7569080943e+01   3.6447480396e+00   0.09931963   0.07716823 -48.44 0.0003867885    1.700    0.412
       206 -10.4676     16.1854    174.1512   7.1074535739e+01   3.5310192111e+01    0.2068216    0.1390581  59.61  0.001085809    1.344    0.256
       207 -11.8494    236.3642     15.7597   3.4788075934e+02   2.7165600685e+01     0.190881    0.1708339 -87.18  0.001527712    1.379    0.275
       208 -11.2146    228.7876     15.7672   3.4826159713e+02   2.8534841464e+01    0.2161205    0.1373733 -56.61 0.0005289739    1.177    0.150
       209 -12.4367      9.2969    166.7340   7.2682824424e+01   3.7775334212e+01    0.4482822    0.2991466  16.94  0.001920473    1.623    0.384
       210 -12.9500     12.8977    160.3345   7.1162338590e+01   3.9165801640e+01    0.6757495    0.4140629 -25.83  0.003137462    2.236    0.553
       211 -10.6921    186.8311     15.1057   3.5068370434e+02   3.7007962697e+01     0.201399    0.1325251 -59.11  0.000720692    1.245    0.197
       212 -10.1506    111.9626     14.6839   3.5885374548e+02   5.4876134564e+01    0.1964764    0.1553473  78.38 0.0005209798    1.134    0.118
       213 -10.3032    156.8870    165.8371   3.1476588595e+01   1.7861145189e+01    0.1769198    0.1665541 -87.07 0.0009769393    1.319    0.242
       214 -10.9976     18.1382    165.2738   6.9875157255e+01   3.7435542596e+01    0.2492545    0.1774829 -67.90   0.00101558    1.409    0.290
       215 -10.9044    205.2658    163.3132   2.1866443829e+01   1.1057478805e+01    0.2284982    0.1898469 -34.88 0.0008292458    1.148    0.129
       216 -11.7844    106.4306     31.7192   6.4842253913e+00   5.4225315456e+01    0.6088074    0.3475472  41.30  0.002691697    2.105    0.525
       217 -10.4236    214.8233    161.2025   1.9941169019e+01   1.0083686429e+01    0.1692059    0.1240132 -13.81 0.0006094272    1.328    0.247
       218 -10.5199     28.4229    160.2243   6.6227751910e+01   3.7823842403e+01    0.2077938     0.125623  83.98 0.0009533187    1.698    0.411
       219  -9.8485    104.4139    154.2195   4.2095941784e+01   2.9046732448e+01    0.2116275    0.1451181 -69.86 0.0009568916    1.700    0.412
       220 -11.7285     16.4466    147.7205   6.9048702086e+01   4.2248957680e+01    0.5559822    0.1591991 -75.87  0.001858167    3.196    0.687
       221 -12.0269     21.0586    150.3396   6.7727518819e+01   4.1149848727e+01    0.5140181    0.2977598 -39.60 0.0003932926    2.122    0.529
       222 -11.6426     24.4670    147.3165   6.6295488004e+01   4.1660994461e+01    0.3811364    0.2588662 -55.39 0.0009726774    1.518    0.341
       223 -11.3122      4.2558    153.5819   7.3490476343e+01   4.1591304873e+01    0.3180894    0.1230541  35.90  0.001320054    2.262    0.558
       224 -10.6353     44.8396    149.6851   5.9707945389e+01   3.8884377293e+01    0.4197276    0.2897118 -59.43  0.002034303    1.449    0.310
       225 -12.4418      4.5207    142.5569   7.2718203272e+01   4.4525834343e+01    0.7766128    0.3913814  46.92  0.003285944    1.861    0.463
       226 -10.8894     32.8968    143.8411   6.3033451547e+01   4.1784307880e+01     0.289309     0.243281  63.70 0.0006411201    1.132    0.116
       227 -11.0218     40.3475    137.5112   5.9619951648e+01   4.2705757273e+01    0.3079249    0.2313023 -86.52 0.0007939012    1.327    0.246
       228 -10.3441    227.7475    139.7623   1.4016050683e+01   1.1632734444e+01    0.1568721    0.1006457  59.64 0.0008884358    2.424    0.587
       229 -11.9091     23.9475    136.6672   6.5372882179e+01   4.4618192998e+01    0.5429394    0.3256462 -36.96  0.002408052    2.025    0.506
       230 -11.4635     30.1753    132.7645   6.2654508796e+01   4.5098449712e+01    0.4219455    0.2586137 -43.71 0.0009078844    1.817    0.450
       231 -11.2798     20.6451    134.0016   6.6281129197e+01   4.5644295172e+01    0.3000929    0.2599592 -42.11  0.001104977    1.266    0.210
       232 -10.9744     11.4072    125.0976   6.8826523471e+01   4.8829606887e+01    0.5286939    0.2341657 -51.04   0.00213404    2.290    0.563
       233 -12.1865     12.2974    135.5728   6.9455399426e+01   4.5882737677e+01    0.6770526    0.3080285 -51.45   0.00277686    2.284    0.562
       234  -9.9609      1.7706    124.7621   7.2461453587e+01   4.9540362008e+01    0.2069222    0.1447777  63.84  0.001070009    1.373    0.271
       235 -10.8373    104.1916    122.5040   3.5518223673e+01   3.6706137797e+01    0.3433431    0.2861322  40.86  0.001339668    1.212    0.175
       236 -10.5269     43.7805    117.6818   5.5232180749e+01   4.7735893479e+01    0.6154882    0.2234615 -76.36  0.001808167    3.788    0.736
       237 -11.7588    245.1163    118.9339   7.8548913798e+00   1.2293519338e+01    0.2367918     0.172871  72.38  0.001566079    2.090    0.522
       238  -9.8396    218.4799    116.4676   1.0677116430e+01   1.6635702711e+01    0.1255032    0.1019362 -39.52 4.904786e-05    1.019    0.019
       239 -10.2533     78.8307    114.8620   4.1761405132e+01   4.3226761900e+01    0.2579916    0.2551689 -30.20 0.0006064656    1.066    0.062
       240  -9.3892     58.6512    115.2777   4.9090917022e+01   4.6368950956e+01    0.1617244    0.1122177  61.85 0.0004232213    1.639    0.390
       241 -10.9482     35.2175    102.9403   5.6004379639e+01   5.2777106384e+01    0.3981748    0.2434381  -4.22 0.0003582938    2.267    0.559
