#   1 NUMBER                 Running object number                                     
#   2 MAG_AUTO               Kron-like elliptical aperture magnitude                    [mag]
#   3 X_IMAGE                Object position along x                                    [pixel]
#   4 Y_IMAGE                Object position along y                                    [pixel]
#   5 X_WORLD                Barycenter position along world x axis                     [deg]
#   6 Y_WORLD                Barycenter position along world y axis                     [deg]
#   7 A_WORLD                Profile RMS along major axis (world units)                 [deg]
#   8 B_WORLD                Profile RMS along minor axis (world units)                 [deg]
#   9 THETA_WORLD            Position angle (CCW/world-x)                               [deg]
#  10 FWHM_WORLD             FWHM assuming a gaussian core                              [deg]
#  11 ELONGATION             A_IMAGE/B_IMAGE                                           
#  12 ELLIPTICITY            1 - B_IMAGE/A_IMAGE                                       
         1 -14.0873    168.5364     42.8185   7.2071346981e+01   3.7262165935e+01     1.318519     1.122324  -9.24  0.004031988    1.349    0.259
         2 -14.2034    186.1168      9.9986   5.9652130705e+01   3.6527696781e+01     1.752428     1.126045  73.47  0.006161474    1.484    0.326
         3  -9.3051    108.0000    248.9300   1.2908427138e+02   1.0916179986e+01    0.1430681   0.06844769 -60.79 0.0007944402    2.887    0.654
         4 -10.6431    175.8026    250.3972   1.1589521493e+02   1.8765231413e+00    0.1941571    0.1220301  14.21 0.0005457839    1.373    0.272
         5 -11.2572    138.9977    247.2283   1.2266163846e+02   7.0948154895e+00    0.5051602    0.2667819 -56.12  0.002939892    2.807    0.644
         6 -19.8748     62.3807    168.4478   1.3210033071e+02   3.2364805533e+01     18.37216     4.898556 -71.25   0.05969893    4.263    0.765
         7  -9.9386    135.3922    199.1577   1.1747286460e+02   1.5142447250e+01    0.2557471    0.2481634  48.96  0.001253852    1.232    0.188
         8 -11.7545    160.5930    198.2718   1.1173428108e+02   1.1308976659e+01    0.4376595     0.361606  87.49  0.001498852    2.040    0.510
         9 -10.6233    152.8835    198.8294   1.1349924486e+02   1.2436821333e+01    0.3354633    0.1993507 -41.77  0.001764816    1.961    0.490
        10  -9.7133    121.4683    197.8946   1.2053051288e+02   1.7544988677e+01    0.2194362    0.1770696 -16.13  0.001001436    1.525    0.344
        11 -10.1265    180.0009    192.9728   1.0678630087e+02   9.0742488258e+00    0.1916517    0.1591762  57.30  0.001139017    1.739    0.425
        12 -11.4625    152.4008    191.9122   1.1252630013e+02   1.3680898174e+01    0.3775628    0.2458861  43.78  0.001258882    1.486    0.327
        13  -9.6207    205.6803    189.3015   1.0111454416e+02   5.6444062979e+00    0.1086928   0.09981167  47.05 0.0003051214    1.625    0.385
        14 -11.3156    172.4831    188.7162   1.0762952742e+02   1.0942713389e+01    0.2823704     0.207038  32.70   0.00161441    1.203    0.169
        15  -8.5505     10.7098    189.5777   1.4690384356e+02   3.2984700055e+01    0.1120301   0.08147713 -51.08 0.0006958171    1.859    0.462
        16 -10.6912    155.0582    187.4941   1.1121563157e+02   1.4004940462e+01     0.278294    0.2081781  42.84  0.001172776    1.319    0.242
        17 -10.8325    151.8566    184.0771   1.1137046151e+02   1.5135856202e+01    0.2213546    0.2065687  59.30 0.0005833188    1.319    0.242
        18  -9.5032    150.8106    243.8461   1.1993375797e+02   5.9792116699e+00     0.169259    0.1238911  18.86 0.0004425939    1.157    0.136
        19 -10.0183    164.2480    187.5814   1.0920277708e+02   1.2473748696e+01    0.2027249    0.1117959  26.68 0.0009599972    1.707    0.414
        20 -12.4146     28.2089    183.8854   1.4239030225e+02   3.2657192985e+01    0.2425657    0.2014849  26.53 0.0006102993    1.337    0.252
        21  -9.3049    160.1244    246.3777   1.1840215520e+02   4.4081997040e+00    0.1521824    0.1301737 -35.26 0.0009191552    1.583    0.368
        22 -11.6641    168.1054    176.5240   1.0642897790e+02   1.3690612868e+01     0.516607    0.3518632 -75.16  0.002153286    3.494    0.714
        23 -12.8786    137.6415    171.5988   1.1259164497e+02   1.9899277442e+01     0.676518    0.3184943  43.37  0.002368635    1.967    0.492
        24 -12.9873    144.0206    174.5180   1.1156346433e+02   1.8224961578e+01    0.6689735    0.5384163  65.55  0.003608964    1.602    0.376
        25 -10.4516    135.2981    179.8648   1.1454933337e+02   1.8704586505e+01    0.2547286    0.1673594  42.27  0.000629528    1.375    0.273
        26 -11.4777    204.5623    176.1032   9.8929905209e+01   7.6977682262e+00     0.391746    0.3371783   3.78   0.00114609    1.108    0.097
        27  -9.8848    197.4706    176.9011   1.0043757422e+02   8.7179462788e+00    0.2455273    0.2045942  53.97  0.001153144    1.701    0.412
        28 -10.6442      8.5862    175.4445   1.4695227680e+02   3.6228363893e+01    0.1906325    0.1300632  32.77 0.0008113694    1.408    0.290
        29 -10.5749    201.9782    167.5678   9.7794670020e+01   9.3884376062e+00    0.5238438    0.2506548  31.04  0.002396765    2.060    0.515
        30 -10.5168    230.3828    167.5558   9.2708460710e+01   4.8921685932e+00    0.2350556   0.09531039 -43.87 0.0009541585    3.473    0.712
        31 -11.5987    193.5018    165.9862   9.9136618703e+01   1.1061930130e+01    0.3768026    0.2921763 -30.38 0.0007531435    1.326    0.246
        32 -11.0251    189.9983    160.8794   9.8827283662e+01   1.2489838711e+01    0.3176053    0.2952675 -16.81 0.0007645232    1.210    0.174
        33 -11.2652    189.7317    155.6205   9.7815019673e+01   1.3400232464e+01    0.4454722    0.3632236  22.23  0.001585312    1.118    0.105
        34  -9.4924     33.8463    168.3835   1.3996814287e+02   3.5619532216e+01    0.1701833    0.1429047  43.82 0.0004891043    1.143    0.125
        35 -10.3130    168.0052    242.8580   1.1644867731e+02   3.8156572745e+00    0.1811556    0.1508982  -3.54 0.0008388661    1.301    0.232
        36  -9.0670      1.1943    165.7761   1.4853451140e+02   3.8939351170e+01    0.1099764   0.06680696  61.29 0.0006361871    1.317    0.241
        37 -10.4597    141.2802    164.0182   1.1034421024e+02   2.0741447450e+01    0.1941738    0.1861279   7.14 0.0003716217    1.098    0.089
        38 -10.5751    236.8378    158.1787   8.9829968082e+01   5.1720556603e+00    0.1787382    0.1246475   1.46 0.0005328639    1.330    0.248
        39 -13.1321    134.0000    144.9606   1.0846674935e+02   2.6021920556e+01     1.439672    0.4055468 -55.29  0.003549181    6.004    0.833
        40  -9.7249     15.7361    156.8074   1.4427363269e+02   3.9964851901e+01    0.1900035    0.1673471   9.12 0.0006185648    1.409    0.290
        41 -10.4794    166.9252    155.1950   1.0258913052e+02   1.7677143874e+01    0.3960244     0.259766  67.47  0.001506051    2.865    0.651
        42  -8.6619      7.3167    154.2678   1.4650684023e+02   4.1190494655e+01    0.1125683   0.09030528 -47.73 0.0004379734    1.554    0.356
        43  -9.8311    174.7240    149.0909   9.9597182549e+01   1.7307170038e+01    0.2423423    0.1922724  46.65 0.0006694546    1.348    0.258
        44 -12.2564    143.9160    145.5587   1.0605251012e+02   2.3967192901e+01    0.6443345    0.4026335 -70.50  0.002484321    2.848    0.649
        45 -12.0361    142.2159    139.5234   1.0519238283e+02   2.5551172247e+01    0.4094265    0.3247176 -80.41  0.001947778    1.748    0.428
        46 -12.0131    135.6629    126.8366   1.0403550614e+02   2.9588753367e+01    0.6198418    0.2372808 -50.39  0.002043591    2.921    0.658
        47 -11.2151    135.0000    120.9255   1.0279970491e+02   3.1012143990e+01    0.4478756    0.2205357 -49.85  0.001674445    2.194    0.544
        48 -12.1902    176.0542    230.6778   1.1330172452e+02   4.3022288125e+00    0.5066977    0.1812968 -37.23  0.002374186    3.412    0.707
        49 -10.6002    160.4270    127.5561   9.7999221271e+01   2.4225269664e+01    0.3829551    0.2773391 -51.48  0.001158015    1.559    0.358
        50 -11.0788    113.9060    117.8222   1.0806430356e+02   3.6110482646e+01    0.2611819    0.2583539  47.02 0.0005252704    1.031    0.030
        51 -11.0379     15.3191    246.6187   1.4751218726e+02   2.1744368615e+01     0.121341    0.0453686  53.90 0.0007022148    1.826    0.452
        52 -11.0144    134.8696    111.6291   1.0049600176e+02   3.3061750321e+01    0.5284659     0.148071 -44.35  0.001482924    3.689    0.729
        53  -9.8210    167.9472    112.8478   9.2658811251e+01   2.5437575385e+01    0.3474215    0.2464427  86.00  0.001410353    2.433    0.589
        54  -9.4949     25.6383    230.3255   1.4499039045e+02   2.3605808717e+01    0.1113757   0.07446939  49.89 0.0001675698    1.063    0.059
        55 -10.1491    205.2100    110.3427   8.4695529116e+01   1.7883721868e+01    0.3484406    0.2192671  29.67   0.00125867    1.862    0.463
        56  -9.7206     25.0656    225.5489   1.4494058952e+02   2.4534121978e+01    0.2083963    0.1097919 -65.39  0.001212374    2.356    0.575
        57  -8.8013    143.2810    209.3311   1.1713802158e+02   1.2192737266e+01     0.126411   0.09087542   2.51 0.0002372838    1.607    0.378
        58  -8.7313    126.3003    209.3020   1.2091561151e+02   1.4764113347e+01    0.1253963   0.09281706   5.21 0.0007002137    1.586    0.369
        59 -11.7613     12.0683    205.9961   1.4709973963e+02   2.9488740467e+01    0.3007311    0.1878853  33.37   0.00128506    1.427    0.299
        60 -10.0792    133.8824    246.2161   1.2357938025e+02   7.9149803893e+00    0.1655409    0.1393114  22.92  0.000380362    1.173    0.147
        61 -11.2298    196.7594    245.5528   1.1141739486e+02  -2.0869378710e-01    0.2236639   0.08191016  29.01  0.001142201    2.113    0.527
        62 -10.5268     95.7506     79.9673   1.0358567875e+02   4.8786159999e+01    0.3084539    0.2198568  46.79 0.0004461068    1.400    0.286
        63 -10.5287      9.0060    202.0330   1.4766769761e+02   3.0545392827e+01    0.1243985   0.09177515  65.44 0.0008596255    1.096    0.087
        64 -13.5043    156.4086     57.5652   7.9069183690e+01   3.8256203701e+01     1.380184     1.127547  59.90  0.002264521    1.205    0.170
        65 -11.2404    192.4275    249.6282   1.1273390189e+02  -1.2678739669e-01    0.2860112   0.07944288  30.05  0.001258477    2.882    0.653
        66 -12.2644    172.7477     35.1046   6.8961600055e+01   3.7180233728e+01    0.4449552    0.3872198 -23.36 0.0008885345    1.238    0.192
        67  -9.7239     13.3949     59.8709   1.3613633817e+02   6.4947455576e+01    0.1977042    0.1790224  40.34 0.0004070053    1.250    0.200
        68 -10.4441    140.3432    199.9719   1.1646496958e+02   1.4222222503e+01    0.4413529    0.2124217  24.90  0.001925538    2.184    0.542
