#   1 NUMBER                 Running object number                                     
#   2 MAG_AUTO               Kron-like elliptical aperture magnitude                    [mag]
#   3 X_IMAGE                Object position along x                                    [pixel]
#   4 Y_IMAGE                Object position along y                                    [pixel]
#   5 X_WORLD                Barycenter position along world x axis                     [deg]
#   6 Y_WORLD                Barycenter position along world y axis                     [deg]
#   7 A_WORLD                Profile RMS along major axis (world units)                 [deg]
#   8 B_WORLD                Profile RMS along minor axis (world units)                 [deg]
#   9 THETA_WORLD            Position angle (CCW/world-x)                               [deg]
#  10 FWHM_WORLD             FWHM assuming a gaussian core                              [deg]
#  11 ELONGATION             A_IMAGE/B_IMAGE                                           
#  12 ELLIPTICITY            1 - B_IMAGE/A_IMAGE                                       
         1 -15.5648     96.6940    123.7875   1.1502302545e+02   3.7770880919e+01     2.495173     1.049101 -67.34  0.008445701    3.793    0.736
         2 -14.5476     68.4355     97.4569   1.1806553902e+02   4.7707908347e+01     1.112996    0.6351997 -79.93  0.004854894    2.425    0.588
         3 -12.5688    186.1227     24.0520   6.4297491990e+01   3.5455003133e+01    0.2428552     0.190292  29.08 0.0009460604    1.331    0.248
         4 -15.2796    226.5629    237.0311   1.0637978578e+02  -1.4814614972e+00     1.348317    0.8459144  43.98  0.008907842    1.787    0.440
         5 -14.9204    247.5493    230.2368   1.0193743386e+02  -3.7704795726e+00    0.5779151    0.3843936  -1.27   0.00419005    1.353    0.261
         6 -19.3272     31.8268    134.8926   1.3381413551e+02   4.3086525714e+01     16.52405     2.035114 -73.00   0.04398504    7.645    0.869
         7 -13.5715    184.1467    231.7735   1.1295597164e+02   5.2412727853e+00    0.5419985    0.3837824 -66.11  0.003270484    2.995    0.666
         8 -13.1811    155.3237    235.2025   1.1852914635e+02   9.0836053216e+00     1.065486      0.24014  36.30  0.003953339    3.904    0.744
         9 -13.3586    149.2984    227.7353   1.1875590999e+02   1.0936811606e+01    0.7706677    0.4909322  24.52  0.004855318    1.583    0.368
        10 -14.9523    158.9104    216.3955   1.1555987060e+02   1.1018151903e+01     2.210068      1.10696  43.92   0.01219523    1.641    0.391
        11 -14.8706    248.5044    241.5842   1.0346996866e+02  -4.8784557906e+00    0.7851301    0.4032688 -18.04  0.005182927    2.097    0.523
        12 -15.0345    158.7693    195.0519   1.1260365121e+02   1.4108216499e+01    0.9712559    0.7211322  37.11  0.003857436    1.100    0.091
        13 -12.1494      6.0968    221.8398   1.4380445798e+02   2.8858539638e+01     0.210921   0.09960661  41.38  0.001224906    1.680    0.405
        14 -12.7847    118.0848    217.1437   1.2341600783e+02   1.6991285116e+01    0.4095604    0.2257314  40.81  0.001919887    1.416    0.294
        15 -12.6568    185.6656    211.3643   1.0983808787e+02   7.4832654361e+00    0.4249734     0.329313  -8.89  0.002866349    1.441    0.306
        16 -11.8048    180.1301    209.4413   1.1058972089e+02   8.6123293042e+00    0.3172053    0.2402478  50.07  0.002047553    1.480    0.325
        17 -14.2314    242.1387    211.0930   9.9797238025e+01  -1.1994720093e+00    0.3789687     0.228313  30.40  0.002425781    1.290    0.225
        18 -14.2817    116.7895    206.4410   1.2249398455e+02   1.8852966693e+01    0.7646641    0.4894294  65.34  0.003234608    1.838    0.456
        19 -16.4502     50.4528    194.2508   1.3452491602e+02   2.9401701389e+01     1.713544    0.7784923  42.86    0.0101645    1.786    0.440
        20 -16.8433     82.6756    227.0464   1.3089886842e+02   2.0158921516e+01     2.993727     1.864609  83.67    0.0204044    1.865    0.464
        21 -15.0555    130.3244    215.1313   1.2085209743e+02   1.5524892597e+01     1.480889    0.8516282  68.59  0.007450965    2.917    0.657
        22 -12.7224     98.4372    175.6239   1.2264713955e+02   2.6893334692e+01    0.3500216    0.3134904 -85.21  0.001601911    1.181    0.153
        23 -13.1722     98.7832    183.7910   1.2357029388e+02   2.5328252379e+01    0.7304484    0.3874094  57.75  0.003740635    2.038    0.509
        24 -13.5656    108.1472    185.7322   1.2180838757e+02   2.3627794682e+01    0.5186492     0.352713 -70.17  0.002608361    1.742    0.426
        25 -12.7384    113.3738    183.5844   1.2041926716e+02   2.3233542149e+01    0.6960815    0.4844822 -84.44  0.004001537    1.888    0.470
        26 -14.9797    132.5749    191.8494   1.1748101203e+02   1.8847015735e+01     2.085059    0.5045689  40.95  0.007574205    3.326    0.699
        27 -14.8625    121.4072    182.2932   1.1852349520e+02   2.2231033669e+01     1.108736     0.788871  66.88  0.005952051    1.642    0.391
        28 -11.6891      5.5179    190.2048   1.4284448051e+02   3.4255883782e+01    0.1602626    0.1289253   8.58  0.001296771    1.914    0.478
        29 -14.4538     81.0093    157.9900   1.2439056645e+02   3.2772239211e+01     0.846754    0.5339823  45.85  0.004805003    1.452    0.311
        30 -12.6213     82.1742    171.9366   1.2581284870e+02   2.9837342133e+01    0.9826064    0.6822433  46.35  0.006076873    1.272    0.214
        31 -15.5784     60.9421    161.4214   1.2946635827e+02   3.4555277297e+01     1.889114    0.8094751  47.00  0.009471036    2.116    0.527
        32 -13.3709    217.9753    174.0002   9.7477789282e+01   6.9008322597e+00    0.2536426    0.1551844  36.00  0.001381121    1.407    0.289
        33 -13.0791    103.8814    167.5284   1.2035479650e+02   2.7640150146e+01    0.4786152    0.3360493  58.73  0.002684826    1.428    0.300
        34 -12.8191    117.2330    161.7234   1.1643199308e+02   2.6682601689e+01    0.4722375    0.3059952  59.05  0.002439611    1.722    0.419
        35 -12.8213      5.3957    154.2445   1.4131034077e+02   4.1078232440e+01     0.357456    0.2691243 -63.68  0.002362716    1.462    0.316
        36 -14.0056     99.9901    149.6847   1.1864429212e+02   3.1776432559e+01    0.7735242     0.637325 -34.41  0.004594848    1.450    0.310
        37 -13.3970     92.5410    149.9953   1.2051280748e+02   3.2816362964e+01    0.5036348    0.3654128  49.05  0.002902068    1.294    0.227
        38 -12.7690     51.7956    145.0453   1.2989492400e+02   3.8983497013e+01    0.3379346    0.2721749  80.44  0.001587633    1.118    0.105
        39 -12.1874    135.6314    239.0872   1.2246996484e+02   1.1399071114e+01    0.2484277    0.2166713 -32.18  0.001991902    1.563    0.360
        40 -12.8122     15.2424    143.2308   1.3847681542e+02   4.2629153025e+01    0.3765119    0.3596428  63.12  0.002438113    1.272    0.214
        41 -12.9018      9.8813    137.9370   1.3938044500e+02   4.4112194867e+01    0.4062295    0.1825168 -75.31  0.001573877    1.839    0.456
        42 -13.6413     81.3060    116.3328   1.1789248996e+02   4.1702461516e+01    0.4904525    0.2733937 -61.74  0.002339067    1.775    0.437
        43 -12.9395     85.5672    142.4293   1.2111422622e+02   3.5395683388e+01    0.4030969    0.3047015  53.22   0.00202861    1.277    0.217
        44 -15.3770     80.7394    131.5362   1.2067010023e+02   3.8413143022e+01     1.627075     1.041356  70.10   0.00811112    1.956    0.489
        45 -12.8356    165.3841    246.1411   1.1800168123e+02   6.3135761077e+00    0.4562722    0.2058154  47.95  0.002552242    2.080    0.519
        46 -16.0229     84.4853     98.6504   1.1335001692e+02   4.5218332603e+01     1.839794     1.103168  37.07  0.007664927    1.727    0.421
        47 -12.1791      4.4058    133.2078   1.4037930941e+02   4.5457448776e+01     0.271943    0.1339937  77.92  0.001246719    1.824    0.452
        48 -11.5380      2.3328    129.6642   1.4066245045e+02   4.6328266303e+01    0.1806066   0.09567221  66.95   0.00110145    1.719    0.418
        49 -10.6162     17.2812    238.2780   1.4254523528e+02   2.5348644489e+01   0.07185852   0.06682511  71.35 0.0004664342    1.506    0.336
        50 -13.5623    110.2642    116.1101   1.0975850089e+02   3.7190817593e+01    0.6088213    0.3267436 -60.63  0.002549938    2.221    0.550
        51 -12.9037    150.1202    242.7849   1.2029576748e+02   8.8842509713e+00    0.4954133    0.2252673  47.63  0.002741191    1.908    0.476
        52 -14.1911      3.9057     74.4294   1.3561641209e+02   5.8417324909e+01    0.7525882    0.2637625  87.98  0.002936611    3.787    0.736
        53 -14.1965      9.0207     81.0131   1.3467884184e+02   5.6694299999e+01    0.2840828    0.2446094 -62.69   0.00181505    1.129    0.114
        54 -12.6029    198.4199    236.3032   1.1105468531e+02   2.6309384353e+00    0.2992696    0.1918606  22.36  0.002021719    1.288    0.224
        55 -14.5243     71.3543     76.9538   1.1240043900e+02   5.1982265670e+01    0.6650162    0.5592523  -2.98  0.003718924    1.332    0.249
        56 -15.5905     75.5513     55.3117   1.0454197618e+02   5.6071463770e+01     1.064396    0.7815586  24.80  0.004441238    1.461    0.315
        57 -13.9976      7.6881     55.2038   1.3156351070e+02   6.2598514870e+01    0.5195237     0.421373  64.71  0.002730355    1.460    0.315
        58 -14.9789     53.0113     49.2205   1.1139879203e+02   6.0408444689e+01    0.6637585     0.514863  53.73  0.003783411    1.710    0.415
