#   1 NUMBER                 Running object number                                     
#   2 MAG_AUTO               Kron-like elliptical aperture magnitude                    [mag]
#   3 X_IMAGE                Object position along x                                    [pixel]
#   4 Y_IMAGE                Object position along y                                    [pixel]
#   5 X_WORLD                Barycenter position along world x axis                     [deg]
#   6 Y_WORLD                Barycenter position along world y axis                     [deg]
#   7 A_WORLD                Profile RMS along major axis (world units)                 [deg]
#   8 B_WORLD                Profile RMS along minor axis (world units)                 [deg]
#   9 THETA_WORLD            Position angle (CCW/world-x)                               [deg]
#  10 FWHM_WORLD             FWHM assuming a gaussian core                              [deg]
#  11 ELONGATION             A_IMAGE/B_IMAGE                                           
#  12 ELLIPTICITY            1 - B_IMAGE/A_IMAGE                                       
         1 -13.0431    231.9778     10.9980   2.8897186928e+01   2.7618404186e+01     0.405531    0.2419567  88.06  0.002535595    1.502    0.334
         2 -13.6561    219.9339      4.2917   2.8422633708e+01   3.0751535353e+01    0.9215186    0.3267885  84.11  0.004164643    2.958    0.662
         3 -12.2118    239.8663      9.1095   2.8005069999e+01   2.6282185578e+01     0.415834    0.2121283  79.23  0.001957553    1.821    0.451
         4 -12.6820    234.0821      2.6624   2.7161528796e+01   2.8086879029e+01    0.5976249    0.3415818 -89.59  0.003823306    1.529    0.346
         5 -12.2922    249.1456      6.0769   2.6874813222e+01   2.4851982529e+01    0.6126601    0.1856701 -40.92  0.003131653    2.546    0.607
         6 -12.4314    243.2419      2.9581   2.6658440307e+01   2.6291778078e+01    0.4654399    0.3073667 -88.83  0.002791432    1.299    0.230
         7 -13.5794    247.6029     17.4017   2.9038444257e+01   2.3884318846e+01    0.9823515    0.4284923 -50.52  0.005595803    1.807    0.447
         8 -13.2822    248.1526     34.9309   3.2297307319e+01   2.1670454925e+01    0.9167364    0.2614228 -45.62  0.004157734    2.628    0.619
         9 -11.1567     87.8866     16.4274   5.0881306391e+01   5.9250414423e+01    0.2594669    0.2203517 -57.35  0.001301888    1.547    0.353
        10 -12.2991     19.8339     14.9661   7.7367450992e+01   7.0878086334e+01    0.2980262    0.1688935 -17.10  0.001734677    1.690    0.408
        11 -12.8951      6.8113     11.8801   8.3371645016e+01   7.2635024814e+01    0.4915427    0.2454057 -17.42  0.002727165    2.012    0.503
        12 -11.4203    112.8494     12.1014   4.3451590496e+01   5.4159454621e+01    0.2138143    0.1956883 -89.26 0.0005308585    1.203    0.169
        13 -12.9541    204.8141     10.8532   3.0970912652e+01   3.3246344475e+01    0.4682845    0.2354827 -35.58  0.002388448    2.012    0.503
        14 -12.7220     29.5838      9.4592   6.9532976132e+01   7.0367790573e+01     0.479206    0.2581549   3.69  0.001343814    2.255    0.557
        15 -12.9938     22.0592      7.1550   7.2253655227e+01   7.1631537149e+01    0.4654928    0.2855901  41.66  0.001859268    2.074    0.518
        16 -12.2673     22.8623      2.2615   6.9236676318e+01   7.2100229567e+01    0.5021704      0.13073  34.19  0.002076009    3.553    0.719
        17 -11.2173    155.9789     10.2889   3.5959125555e+01   4.4308531959e+01    0.1864562    0.1461701  76.42  0.001079857    1.091    0.083
        18 -10.7848    107.7034     10.1615   4.3827430531e+01   5.5494414894e+01     0.202677    0.1552712  69.86 0.0004406112    1.259    0.206
        19 -10.5087    149.0006      9.0243   3.6528978316e+01   4.6050798220e+01    0.2094449    0.1348632 -70.68  0.001142949    1.735    0.424
        20 -10.8294    128.4315      9.4803   3.9748459290e+01   5.0805249285e+01    0.1258147    0.1086695  67.77 0.0001756209    1.023    0.023
        21 -10.1595    176.1761      7.5931   3.2923608822e+01   3.9911565785e+01    0.1768299   0.09417769  62.66  0.000647997    1.679    0.404
        22 -11.5404    113.1837      5.9063   4.1273330478e+01   5.4610656362e+01    0.2868232    0.2639454  17.29  0.001137133    1.214    0.176
        23  -9.7140     74.2772      6.3465   5.0614305754e+01   6.2981023038e+01     0.128558   0.07767805  26.69 0.0007006155    1.632    0.387
        24 -11.5599     65.0670      3.7271   5.2298478416e+01   6.5015474681e+01    0.3247128    0.2053915  -0.94  0.001913768    1.733    0.423
        25 -12.7239      9.2600      2.3378   7.7026874251e+01   7.3698834697e+01    0.5547969    0.2448085  17.47  0.002964112    2.307    0.567
        26 -11.4907    169.1529      4.0168   3.2775073194e+01   4.1841816139e+01    0.3338814    0.2085939  37.96  0.001310164    2.138    0.532
        27 -11.4446    187.0292      3.9156   3.0988630497e+01   3.7822455007e+01    0.1934405     0.158418 -56.71 0.0004841332    1.214    0.176
        28 -11.0379    155.9391      4.4885   3.4394857818e+01   4.4839875386e+01       0.1937    0.1040884  70.81  0.001025556    1.570    0.363
        29 -11.9251    200.9216      3.1300   2.9619308869e+01   3.4860440665e+01    0.2209699    0.1403007  76.26  0.001376975    1.378    0.274
        30 -10.6335     40.2168      2.9063   6.1221962646e+01   6.9493292238e+01    0.2390633    0.1164156  24.60  0.001236785    2.072    0.517
        31 -12.6459    238.8569     17.5098   2.9665534511e+01   2.5543376154e+01     0.489911    0.1982957 -56.89  0.002528518    2.171    0.539
        32 -12.0287    149.2472      2.0064   3.4537919107e+01   4.6599465726e+01    0.4296359    0.1547506  69.55   0.00166083    2.304    0.566
        33 -10.2130    246.9864    191.0101   6.3489747799e+01  -2.8925150599e+00    0.1567563     0.122966 -20.91   0.00051677    1.008    0.008
        34 -12.6069    243.0089    245.7442   7.3819242037e+01  -1.0542459098e+01    0.5842091    0.2504911 -26.48  0.003016482    2.220    0.550
        35 -12.2826    247.7334    239.2302   7.1921743566e+01  -1.0189247624e+01    0.4352978    0.2316483 -20.26  0.002121057    1.696    0.410
        36 -11.8132    249.5026    232.9871   7.0567390381e+01  -9.5280384733e+00    0.3830972    0.1569162 -28.58  0.001909899    2.233    0.552
        37 -11.3604    249.3139    250.0342   7.3426870677e+01  -1.1798823248e+01    0.3770061    0.1608375  24.29  0.002048372    2.242    0.554
        38 -11.2441    249.0286    245.4967   7.2736191736e+01  -1.1174007353e+01    0.3120557    0.1672531 -28.78  0.001232548    1.590    0.371
        39 -11.5245    232.9224    250.2744   7.6344189010e+01  -1.0007648370e+01    0.2678554    0.1450852  26.07  0.001590475    1.687    0.407
        40 -12.5307    234.0940    244.0854   7.5125526501e+01  -9.2954066182e+00    0.4552704    0.2568499  -8.23  0.002425032    1.824    0.452
        41 -12.5215    241.2549    238.1730   7.2871663895e+01  -9.3061972899e+00    0.5824229    0.2729116 -14.29  0.002693888    2.798    0.643
        42 -11.7353    225.8728    248.4641   7.7331281432e+01  -8.9318620663e+00    0.3309011    0.2113738  -6.81  0.002046542    1.416    0.294
        43 -12.6816    226.7235    241.3642   7.6013507414e+01  -8.0309021984e+00    0.3938719    0.2617981 -24.03  0.002492029    1.324    0.245
        44 -11.9589     65.4240    248.9722   1.1050545982e+02   1.3029319474e+01    0.4475884    0.1890956  48.30   0.00214483    2.055    0.513
        45 -11.3637     50.8347    250.0650   1.1358440500e+02   1.4613386076e+01    0.4246053    0.1338342  35.98  0.001872274    2.587    0.613
        46 -11.9965     36.0703    248.3976   1.1641583741e+02   1.6658630172e+01    0.4812416    0.2013822  55.46  0.002404129    2.138    0.532
        47 -11.6382     20.5314    249.0886   1.1947636053e+02   1.8194397244e+01    0.3639924    0.1865174  48.47  0.001848899    1.568    0.362
        48 -11.2087     12.8447    249.0391   1.2092516412e+02   1.8982975006e+01    0.2986398    0.1505915  59.14   0.00176863    1.621    0.383
        49 -11.2345      3.5738    250.3124   1.2269677819e+02   1.9628056275e+01    0.2908591    0.1345544  31.61  0.001669187    2.178    0.541
        50 -11.2469      4.3150    188.6368   1.1906669536e+02   3.3016713502e+01    0.2077306    0.1154318  64.61  0.001112442    1.703    0.413
        51  -9.9002      5.6590    183.3121   1.1836639238e+02   3.4183199740e+01    0.1349877   0.07656364  64.10 0.0007046188    1.698    0.411
        52 -11.7724      6.1018    172.3212   1.1739931400e+02   3.6821044403e+01    0.2360318    0.1472299 -68.42  0.001040869    1.379    0.275
        53 -10.0795    123.5569    165.4785   8.4648715934e+01   2.3054948945e+01    0.1535391    0.1474978  81.28 0.0002732668    1.107    0.097
        54  -9.3773     57.2997    155.6947   1.0141622743e+02   3.5972362475e+01    0.1474992    0.1061637  70.46 0.0003235403    1.591    0.372
        55 -10.7292      2.0703    127.0438   1.1410924774e+02   4.8384037794e+01    0.2047928    0.1666226 -75.41  0.001289482    1.050    0.047
        56  -9.9931    131.9878    125.9999   7.3471303704e+01   3.0767626536e+01    0.1829708    0.1778035 -31.38            0    1.001    0.001
        57  -9.9374     29.3388    124.6863   1.0505186137e+02   4.7011487359e+01    0.1401779   0.09950876  67.68 0.0007046869    1.696    0.410
        58  -9.6134     69.0128    122.7862   9.1534364901e+01   4.2866647747e+01    0.1784257     0.122517  30.18  0.000289587    1.551    0.355
        59 -10.0726    105.0472    111.5354   7.7342821480e+01   3.9489983908e+01    0.2295619    0.1534927  39.23 0.0005958882    1.529    0.346
        60 -12.6079    248.0540    105.3558   4.6341796647e+01   1.1331516458e+01    0.6278399    0.1277334 -46.23  0.001908491    4.525    0.779
        61 -10.4261    204.1557     98.3162   5.1145825210e+01   2.0935661386e+01    0.2694194    0.1203701  47.04  0.001085469    2.545    0.607
        62 -10.4733    121.5442    104.1127   7.0562748774e+01   3.7828035366e+01    0.2811551    0.2199474  65.27 0.0009732934    1.532    0.347
        63 -11.8816    238.1544     96.8639   4.5862909704e+01   1.4498863900e+01    0.2485016    0.1774966  82.25  0.001088232    1.754    0.430
        64  -9.7621    150.2770     97.2867   6.1391015085e+01   3.2961399264e+01    0.1464713    0.1205477   4.39 0.0002265064    1.514    0.340
        65 -12.5178    238.2381     90.8880   4.4598331697e+01   1.5457903466e+01    0.3040623    0.2197816  21.76  0.001597839    2.336    0.572
        66  -9.8714    210.6760     91.3338   4.8505764956e+01   2.0799834196e+01    0.1455836   0.09854088 -68.16  0.000453467    1.709    0.415
        67  -9.6873     19.3312     91.7000   1.0256315104e+02   5.5975515259e+01    0.1254588   0.09896224  67.13 0.0004859329    1.647    0.393
        68  -9.8635     99.0196     90.5029   7.3304157394e+01   4.5317808230e+01    0.2166825    0.1477633  40.96 0.0006057453    1.479    0.324
        69 -10.2507     27.7707     88.7727   9.8627879043e+01   5.5985268172e+01    0.2091715    0.1072953 -72.94 0.0007266001    2.456    0.593
        70 -10.5713    249.3123     87.6742   4.2599800204e+01   1.3949845616e+01    0.1312569   0.08201813 -62.99 0.0007041178    1.662    0.398
        71 -10.4280    147.7917     84.9518   5.8569477742e+01   3.5886192655e+01    0.2569884    0.1903405  68.66 0.0004862772    1.530    0.346
        72 -10.3191    135.4125     83.2616   6.1008766568e+01   3.9017606504e+01    0.2106016    0.1390185 -51.46 0.0007707925    1.637    0.389
        73 -10.4616    195.7135     82.1751   4.8676600797e+01   2.5533174360e+01    0.2189803    0.1763363  78.32 0.0002367729    1.313    0.238
        74 -10.0609     88.7551     82.2141   7.4097945901e+01   4.8998386946e+01    0.1989933    0.1647119  -0.98 0.0005609642    1.288    0.223
        75 -10.4053    248.8488     80.3269   4.1170586694e+01   1.5172081118e+01    0.2192626    0.1138513  73.33  0.001077153    2.549    0.608
        76  -9.9404    149.3594     76.7091   5.5905071948e+01   3.7010763013e+01    0.1520056    0.1145975 -82.89 0.0003524776    1.692    0.409
        77 -11.6163    234.1203     74.8495   4.1726197671e+01   1.8773632616e+01    0.3022858    0.1905552  89.99  0.001438671    1.982    0.495
        78  -9.6450    217.6607     73.6844   4.3519100643e+01   2.2247699925e+01    0.1244291    0.1052513  14.76 0.0007048011    1.702    0.413
        79 -11.1899    241.7214     72.6215   4.0393970729e+01   1.7660478668e+01    0.1612509    0.1123504  84.98 0.0006206104    1.606    0.377
        80  -9.5717    147.6943     71.7118   5.4845236334e+01   3.8258025126e+01    0.1438115    0.1138088  20.80 0.0002778891    1.569    0.363
        81  -9.6531    128.7526     71.0327   5.9029105780e+01   4.2735670274e+01      0.18209    0.1251262 -38.71 0.0003415057    1.493    0.330
        82 -10.7403      2.9718     66.2357   1.0381572210e+02   6.2790210113e+01    0.2260601    0.1487283 -56.16 0.0008807386    1.263    0.208
        83 -13.4582    246.5854     61.7043   3.7673163667e+01   1.8353720724e+01    0.6067341    0.3627823 -50.27  0.003549028    1.366    0.268
        84 -11.1587    229.1932     64.9058   4.0189076681e+01   2.1245516294e+01    0.2230405    0.1587786  38.01  0.001230019    2.072    0.517
        85 -10.0926    238.6450     64.2982   3.9017450525e+01   1.9483082134e+01    0.1325281    0.0805657 -67.33 0.0003887156    1.698    0.411
        86 -10.1898    145.2330     64.3747   5.3254587703e+01   4.0043218712e+01    0.2093031    0.1341639  66.63   0.00078561    1.689    0.408
        87 -10.0895    118.8119     64.4142   5.9508498189e+01   4.6101322118e+01    0.2085222     0.128159  39.63 0.0009357192    1.649    0.393
        88  -9.8887     41.4992     63.4878   8.5983500499e+01   6.0109566995e+01    0.1354161    0.1146983 -20.03 0.0008105683    1.004    0.004
        89 -10.2403    100.4910     62.5117   6.4020776456e+01   5.0382108300e+01    0.1437292     0.133793  18.59 0.0008105097    1.004    0.004
        90  -9.9158    141.7075     61.3337   5.3116253779e+01   4.1350854133e+01    0.1458224    0.1097128 -72.92 0.0003511723    1.636    0.389
        91 -10.4054    134.3156     60.0875   5.4377436595e+01   4.3268371118e+01    0.1967694    0.1823457 -43.18 0.0006390547    1.126    0.112
        92 -10.2310     34.0565     59.6823   8.7998627456e+01   6.1719441977e+01    0.1838157    0.1531934  -7.19 0.0008501118    1.102    0.092
        93  -9.4839    158.2976     59.3204   4.9209187904e+01   3.7767206902e+01    0.1390163    0.1096573  23.66 0.0003078811    1.618    0.382
        94 -11.8248    235.1881     55.7057   3.7607116917e+01   2.1389990898e+01    0.3257609    0.1897039 -36.30  0.001789203    1.677    0.404
        95 -12.9276    244.4338     50.3269   3.5615585683e+01   2.0351478471e+01    0.4070821      0.14967 -40.60  0.001919043    2.249    0.555
        96 -10.1272    212.9314     47.3130   3.8202239835e+01   2.7112268043e+01    0.1751246    0.1497564 -85.64 0.0004233824    1.086    0.079
        97 -10.9997     30.7840     46.2014   8.4875990707e+01   6.4646570505e+01    0.2520092    0.1654004 -53.89  0.001219379    1.793    0.442
        98 -10.8565    233.8320     45.1779   3.5574869114e+01   2.3104583571e+01    0.1471948    0.1423539 -73.95 0.0005087124    1.314    0.239
        99 -12.3734    212.4307    245.6237   7.9381371473e+01  -6.8696885186e+00    0.3592788    0.2286906  12.59  0.002143242    1.417    0.295
       100 -11.7667    142.1642    246.0103   9.3763236157e+01   2.8481772955e+00     0.248556    0.1683648  30.58  0.001108832    1.279    0.218
       101 -12.2166      2.9541    243.2090   1.2248372471e+02   2.1098891146e+01    0.4152181    0.1999322  76.86  0.002187178    1.846    0.458
       102 -11.7578     45.0297    244.5048   1.1433703291e+02   1.6420811686e+01    0.3151147    0.1843824  49.43  0.001556431    1.430    0.301
       103 -11.6853    194.2561    243.2873   8.2539837578e+01  -4.1267884266e+00    0.4050494    0.1014002  28.34  0.001225448    5.159    0.806
       104 -11.7428     84.7592    243.5632   1.0588851898e+02   1.1559177735e+01    0.3241945    0.1028342  35.91   0.00129997    2.622    0.619
       105 -11.4795     56.6641    241.6209   1.1169432989e+02   1.5613976425e+01     0.478488     0.145129  48.96  0.001897456    3.010    0.668
       106 -11.9912     30.3616    241.6230   1.1709657967e+02   1.8665943562e+01    0.3317521     0.199404  85.57  0.001971019    1.579    0.367
       107 -11.6327    159.0777     42.7197   4.4447940010e+01   3.9940284803e+01    0.2357338    0.2110138  67.48 0.0002738477    1.063    0.059
       108 -10.4253    134.5247     42.4734   4.8923635871e+01   4.5768125764e+01    0.2356177    0.1171908 -44.53 0.0008103815    2.219    0.549
       109 -10.4322    223.4226     40.7080   3.5656246473e+01   2.5798569487e+01    0.2464592   0.09654757 -41.52  0.001150913    2.192    0.544
       110 -11.0919      2.0000     41.0328   9.7524758210e+01   6.8017614347e+01    0.1924373   0.05686875 -57.35 0.0008043215    2.956    0.662
       111 -11.5265    237.7675     39.5116   3.4064819391e+01   2.3075993355e+01    0.2385096    0.1734632  14.62  0.001272387    2.974    0.664
       112 -10.0086     19.6489     40.3007   8.8160326162e+01   6.6838402479e+01    0.1077347   0.09644597  49.61 0.0007038137    1.695    0.410
       113 -10.0688    210.0488     37.7067   3.6378492125e+01   2.8998888218e+01    0.1749381    0.1439482 -88.88 0.0002920018    1.103    0.094
       114  -9.6336     61.6741     38.3424   6.8400206506e+01   6.1604940159e+01    0.1192173    0.1079409 -88.72 0.0007051053    1.736    0.424
       115 -10.3026    154.9861     33.9758   4.2673174087e+01   4.2011604296e+01    0.2199558    0.1478851 -67.98  0.001127733    1.714    0.417
       116 -10.1756    213.3222     32.2990   3.4850651046e+01   2.8980883425e+01     0.112191   0.09362399  42.41 0.0007024292    1.625    0.385
       117 -11.0752    237.1871     30.8394   3.2388934956e+01   2.4286681255e+01    0.1871391    0.1271386 -64.14 0.0006019844    1.216    0.178
       118  -9.6824    105.3461     29.7186   5.1294670693e+01   5.4040476720e+01    0.1286054    0.1027469 -85.38 0.0007013098    1.640    0.390
       119  -9.7734    118.4099     27.5294   4.7515465023e+01   5.1337103579e+01    0.1323786    0.1166464  46.20 8.472685e-05    1.048    0.046
       120 -11.9453      8.8586     26.8031   8.8724458072e+01   7.0116333100e+01    0.2703039    0.1707896   6.15   0.00158046    1.474    0.322
       121 -10.8706    137.0589     25.7155   4.3286746803e+01   4.7194071549e+01    0.1963992    0.1868847 -41.90 0.0004365691    1.173    0.148
       122 -11.1373    222.3226     25.5956   3.2586555635e+01   2.7910725055e+01    0.2170095    0.1045867  79.57 0.0006521594    2.068    0.516
       123 -10.8417    215.2108     24.7943   3.3052118852e+01   2.9486439543e+01    0.1493749    0.1343912  68.96 0.0004507344    1.321    0.243
       124  -9.6077     65.2632     25.2813   6.1661995997e+01   6.2746662684e+01    0.1256169   0.08561601  15.08 0.0001892594    1.482    0.325
       125 -10.3753    141.8080     22.8322   4.1604751755e+01   4.6386562932e+01    0.1803881    0.1443591 -75.19 0.0007661569    1.335    0.251
       126 -11.7530    224.0699     22.2191   3.1740992709e+01   2.7948935440e+01    0.2587768    0.1215154  70.31  0.001106603    2.025    0.506
       127 -11.8421     16.4524     21.6710   8.2327640646e+01   7.0258365540e+01    0.3192163    0.1730854  35.86  0.001790218    2.238    0.553
       128  -9.6172     97.5538     21.5109   5.0276802275e+01   5.6661797918e+01    0.1286518    0.1143131  45.19 0.0002526408    1.052    0.049
       129 -10.1837    199.5385     20.5112   3.3596845658e+01   3.3347379819e+01    0.1240734    0.1016417 -78.28 3.372753e-05    1.020    0.020
       130 -12.3277    230.2682     18.5736   3.0509641309e+01   2.7114883857e+01    0.3020426    0.1738357  75.64  0.001833781    1.642    0.391
       131  -9.9832     62.3050     19.3086   6.0172327761e+01   6.3990923642e+01    0.1305162   0.08285831  18.26 0.0003251871    1.609    0.378
       132 -10.5277    169.0532     17.7190   3.6283593381e+01   4.0538704068e+01    0.1847329    0.1442271  74.37  0.000678174    1.125    0.111
       133 -11.5558     72.4595    240.2726   1.0820628200e+02   1.3876189505e+01    0.2865591    0.1823481  56.85  0.001296223    1.480    0.324
       134 -10.8248     25.0442     18.0000   7.6031309186e+01   6.9847848394e+01     0.323707     0.144563  37.11  0.001552597    2.389    0.581
       135 -10.9518     26.5914     15.1931   7.3889484102e+01   7.0038901696e+01    0.2340365    0.1640866  -6.25 0.0005889091    1.209    0.173
       136 -11.6677    135.0473     16.3271   4.0767511506e+01   4.8633231555e+01    0.3604018    0.1458259  52.91  0.001602166    2.131    0.531
       137 -10.5821     38.3246    240.6561   1.1541925058e+02   1.7983446212e+01    0.1334952   0.07156803  62.32 0.0007050615    1.737    0.424
       138 -10.9241     31.7999     16.1383   7.1719685108e+01   6.9234795996e+01    0.2792791    0.1458649  48.08   0.00134661    3.028    0.670
       139 -11.0581    169.5117    249.0000   8.8440792659e+01  -1.6074229594e+00    0.2870097   0.06294462  33.99 0.0009405431    3.982    0.749
       140 -11.6473      6.7521    236.4700   1.2143270596e+02   2.2121614164e+01    0.3120467    0.1628485  80.29  0.001558933    1.702    0.413
       141  -9.9362    101.4540     13.5332   4.6398650456e+01   5.6589128171e+01    0.1294163     0.107443  44.57 7.624972e-05    1.042    0.041
       142 -10.2673     58.5121     12.4951   5.8527055491e+01   6.5415950018e+01    0.1236627     0.101056  23.21 0.0008104183    1.026    0.025
       143 -12.2810    244.4390     23.5696   3.0416931118e+01   2.3764373085e+01    0.3204471     0.238431 -70.61  0.001336798    1.062    0.058
       144 -10.2255     41.4948     11.4867   6.4932664468e+01   6.8388294698e+01    0.1223828   0.09467191  12.98 1.982694e-05    1.022    0.021
       145 -10.9655     44.7569    236.8626   1.1379972805e+02   1.8036200408e+01    0.2601487     0.114056  54.21  0.001240425    2.120    0.528
       146 -10.5054     81.6617    236.3353   1.0579444922e+02   1.3453811048e+01     0.140434   0.08594589  61.58 0.0007051599    1.750    0.429
       147 -12.3789    232.0936    233.5238   7.3719933233e+01  -7.5518846799e+00    0.3621812    0.2153561   4.42  0.002045641    1.721    0.419
       148 -11.7218    248.7881    223.8612   6.9122275320e+01  -8.1504606533e+00    0.3210135    0.1616977 -31.59  0.001788873    1.674    0.403
       149 -10.7810    209.3058     10.2927   3.0473918509e+01   3.2346553146e+01    0.1064485   0.08544579  52.14 0.0006995224    1.578    0.366
       150 -10.6321     12.4806    231.4947   1.2003885764e+02   2.2619362707e+01    0.2261988    0.1051498  31.58  0.001209147    2.158    0.537
       151 -10.6735     39.6463    230.3218   1.1435977741e+02   2.0019350402e+01    0.1378006   0.07444303  61.27 0.0007047019    1.755    0.430
       152 -11.5723      5.1129    228.6563   1.2134275482e+02   2.3913218247e+01      0.37372    0.1581438  60.28  0.001930245    2.086    0.521
       153 -11.6844    171.9646    234.4116   8.5681080210e+01   4.9685898125e-01    0.3029561    0.2724029  49.70  0.001909105    1.406    0.289
       154 -13.3051    243.9300     40.2618   3.3676542400e+01   2.1788027690e+01    0.6127982    0.2086175 -48.03   0.00286905    2.357    0.576
       155 -10.6965    110.8140    249.4665   1.0094126034e+02   6.7663820122e+00    0.2484663    0.1814031  61.83  0.001279745    1.526    0.345
       156 -12.0667     17.7687    240.9021   1.1953995413e+02   2.0133601003e+01    0.3754592    0.1873904  54.73  0.001335752    1.661    0.398
       157 -12.5735    245.1606    228.7903   7.0597597882e+01  -8.4341535207e+00    0.3514631    0.2535858 -36.21  0.001925281    1.494    0.331
       158 -10.8322     10.5238    225.3999   1.2007821547e+02   2.4109794152e+01    0.2769571    0.1490703  59.04  0.001589969    1.594    0.373
       159 -11.3660    238.8776    217.7234   6.9762565923e+01  -6.0356663038e+00    0.3849159    0.2023367 -21.46  0.001994132    1.888    0.470
       160 -10.8798      1.8998    219.9902   1.2152044984e+02   2.6065367503e+01    0.1853502    0.1415966  78.58 0.0009025747    1.034    0.033
       161 -12.3244    248.0754    215.2977   6.7739651678e+01  -6.8065812296e+00    0.5367194     0.225785 -30.31   0.00261147    2.130    0.531
       162 -11.3512      2.4348    212.9019   1.2101707502e+02   2.7580828977e+01    0.3093229    0.1542767  78.59  0.001652933    1.823    0.451
       163 -10.9389    234.4675    210.7733   6.9298494101e+01  -4.3912365367e+00    0.2460231    0.1727956   2.93 0.0008496857    1.359    0.264
       164 -11.5411     12.6210    217.3301   1.1915272742e+02   2.5681184418e+01    0.3184907    0.1897016  54.22  0.001885636    1.464    0.317
       165  -9.8141    220.4582    193.5493   6.8646302700e+01   4.2170849182e-01    0.1335178    0.1122448 -15.63 0.0002301404    1.017    0.016
