#   1 NUMBER                 Running object number                                     
#   2 MAG_AUTO               Kron-like elliptical aperture magnitude                    [mag]
#   3 X_IMAGE                Object position along x                                    [pixel]
#   4 Y_IMAGE                Object position along y                                    [pixel]
#   5 X_WORLD                Barycenter position along world x axis                     [deg]
#   6 Y_WORLD                Barycenter position along world y axis                     [deg]
#   7 A_WORLD                Profile RMS along major axis (world units)                 [deg]
#   8 B_WORLD                Profile RMS along minor axis (world units)                 [deg]
#   9 THETA_WORLD            Position angle (CCW/world-x)                               [deg]
#  10 FWHM_WORLD             FWHM assuming a gaussian core                              [deg]
#  11 ELONGATION             A_IMAGE/B_IMAGE                                           
#  12 ELLIPTICITY            1 - B_IMAGE/A_IMAGE                                       
         1 -10.2992    185.2216      3.4942   6.1161851196e+01   3.7867396680e+01       2.2047    0.8963489 -72.14  0.005437277    6.706    0.851
         2 -12.9802    242.1036    112.1639   8.4234773721e+01   1.0926678050e+01     6.837926    0.4482307 -32.98   0.01551347    7.656    0.869
         3 -12.9159    218.5396     35.7491   6.7138483730e+01   2.5976901713e+01     2.194359        1.017 -44.66  0.008471007    2.307    0.566
         4 -11.5686    165.8793     54.5684   8.1674992435e+01   3.6818961374e+01     1.713891    0.9305757 -66.23  0.004879698    4.805    0.792
         5 -10.4781    204.7605     58.2662   7.5792081515e+01   2.6575329982e+01     1.108422    0.5906177 -63.83  0.003556498    3.935    0.746
         6 -12.0657    178.7209     74.6094   8.5379278643e+01   3.0539636493e+01     1.799213    0.9615308 -50.94   0.00593108    2.499    0.600
         7 -11.0933    240.4176     14.2815   5.8731658746e+01   2.2931354321e+01    0.6734363    0.3167749 -56.49   0.00142203    2.564    0.610
         8  -9.6509    234.5578      7.6326   5.7431560425e+01   2.4945095732e+01    0.3532155    0.2337049 -31.66 0.0009716863    1.381    0.276
         9 -10.0115    221.7047     13.9336   6.0403649309e+01   2.7493299131e+01    0.6000226    0.2588545 -51.95  0.002267906    2.772    0.639
        10  -9.5654    211.5309     16.2998   6.2183600671e+01   2.9820918142e+01    0.3693752    0.2349285 -49.30  0.001044079    1.655    0.396
        11 -10.3682    143.9070      8.5078   6.9128375851e+01   4.8336988319e+01    0.6513466    0.3080935  -5.73  0.002432698    2.570    0.611
        12 -10.2347    144.1240      2.3420   6.6616329016e+01   4.8855217232e+01    0.5308351    0.2570173  66.27  0.002176125    2.049    0.512
        13 -10.0585    136.6095     12.2361   7.2042545515e+01   4.9826919539e+01    0.2860611    0.2225722  88.45   0.00135569    1.619    0.382
        14  -9.4774    187.6322     10.9374   6.3339271522e+01   3.6552542799e+01    0.3216628    0.2453154 -52.83 0.0006364572    1.415    0.293
        15  -9.4147      8.0249      8.5197   1.1911380984e+02   7.2554365989e+01    0.1408664   0.08895377  48.69  0.000810343    2.616    0.618
        16  -8.9691    155.4607      6.4829   6.6358442621e+01   4.5506733978e+01    0.2786181    0.1109587 -32.52  0.001034223    2.437    0.590
        17  -8.1356    238.5308      5.4883   5.6518164263e+01   2.4192903041e+01    0.1980895    0.1782247 -39.85 0.0003369943    1.031    0.030
        18  -9.4714    235.9443      1.7029   5.5701657216e+01   2.5141852523e+01    0.2952871    0.2170718 -68.06 0.0007432229    1.421    0.296
        19 -10.4282    247.3006      3.1683   5.5225996132e+01   2.2354500154e+01    0.3797132    0.3084804  81.11  0.001218576    1.306    0.235
        20 -10.2124    212.0444      3.9090   5.8411465087e+01   3.0847895308e+01     0.615997    0.2090672 -44.92  0.001635562    3.106    0.678
        21  -9.7855    172.3083      2.3533   6.2389385556e+01   4.1398303008e+01    0.4262949    0.3197473  82.60  0.001351361    1.425    0.298
        22 -12.1675    119.7911      9.8499   7.4672842831e+01   5.4254718795e+01    0.8162645    0.7645022  84.86  0.003040595    1.286    0.222
        23  -9.2741    250.3995    113.0251   8.3168565154e+01   9.1913132862e+00    0.2044655    0.1633971  -2.13  0.001196163    1.066    0.062
        24  -8.6395     52.9001    250.6628   1.3913184549e+02   2.0804230023e+01    0.1284823   0.06358793  43.48 0.0002936993    1.524    0.344
        25 -11.2275    245.0969     84.6548   7.6973630049e+01   1.3826182048e+01    0.9274532    0.6950599  73.58  0.004864745    1.843    0.457
        26  -9.8448    234.8656     35.1812   6.5026596414e+01   2.2087371135e+01    0.9632221    0.3884205  66.88   0.00350608    2.729    0.634
        27 -11.6271    227.8448     48.2875   6.9551141906e+01   2.2244420551e+01     1.556857     0.466189 -40.70  0.005027169    3.387    0.705
        28  -7.8723    120.4356    240.4940   1.2781364636e+02   1.4095092091e+01    0.1035255   0.07678971  48.26 0.0001989785    1.012    0.012
        29  -7.3647    162.2774    122.7170   1.0173236752e+02   2.5938801920e+01    0.1330366    0.1150375 -88.43            0    1.508    0.337
        30  -8.2901    179.4529    116.7507   9.6672268220e+01   2.3383918651e+01     0.198587    0.1371243 -19.36 0.0009374653    1.583    0.368
        31  -8.6131    215.5713    116.2456   8.9637170927e+01   1.5796631540e+01     0.200766    0.1284911 -14.47 0.0008304459    1.621    0.383
        32  -9.8130    167.6534    113.1302   9.8269169787e+01   2.6517586946e+01    0.3269113    0.2952372 -82.90 0.0007994528    1.388    0.280
        33  -9.6133    185.4949    111.7583   9.4209667554e+01   2.2914605965e+01     0.468358    0.1959706  54.74  0.001666434    2.834    0.647
        34  -8.4469     44.1010    111.5185   1.2928685008e+02   4.7165881948e+01    0.1991021    0.1401985 -82.88  0.001212662    1.283    0.220
        35  -8.8434    203.4586    111.0566   9.0558902189e+01   1.9136229020e+01    0.2587989    0.1689312  10.04  0.001154647    1.883    0.469
        36 -11.6929    187.5906    100.7003   9.0946403263e+01   2.4257295470e+01     1.383427    0.3907224 -35.44  0.004310481    3.401    0.706
        37 -11.1831    138.2680     34.6704   8.0592691851e+01   4.6612597594e+01    0.9854305    0.5277072  21.13  0.003465346    2.882    0.653
        38 -11.7837    148.5197     43.8625   8.1678815780e+01   4.2749014987e+01      1.72345    0.8291069  73.91  0.005025542    4.425    0.774
        39  -7.8436    207.6848    239.7019   1.1356732413e+02   1.9151348898e+00    0.1083504   0.06342993  20.72 0.0003935097    1.608    0.378
        40 -11.7489    177.2526     53.4588   7.9082491390e+01   3.4127818349e+01    0.6174696    0.3919345   3.55  0.001653298    2.047    0.511
        41  -8.8454    149.6031     94.7354   9.7551768744e+01   3.3743001958e+01    0.3154609    0.2341477   5.75  0.001335911    1.704    0.413
        42  -8.2529    135.3295     92.9516   1.0052155292e+02   3.7111192541e+01    0.2444275    0.2081169  85.91 0.0007137789    1.481    0.325
        43 -10.7426    158.6696     73.7179   8.9347683876e+01   3.5468985526e+01    0.6434792    0.3171704 -27.78 0.0005837568    2.161    0.537
        44 -10.1162    162.3775     84.1840   9.1652282635e+01   3.2794505782e+01    0.7043407    0.4056502  21.86  0.002578042    2.668    0.625
        45  -9.4520    160.1710     79.9861   9.0908506012e+01   3.4035834640e+01       0.4044    0.2645113 -56.68  0.001065421    2.027    0.507
        46  -9.3969    143.4857     83.4873   9.5832385800e+01   3.7178152274e+01    0.3238841    0.2723579 -36.13 0.0006638642    1.167    0.143
        47  -8.5393    249.8664     76.1288   7.4137142995e+01   1.3877149283e+01    0.1900419    0.1469497   8.44 0.0003272763    1.283    0.221
        48  -8.0360    150.9989     72.0094   9.0567283144e+01   3.7557994105e+01    0.2271955    0.1752437  12.72  0.001064576    1.480    0.324
        49  -8.9998    168.6635     70.0123   8.6039915319e+01   3.3704466933e+01    0.2269773    0.1918881 -27.76  0.001141768    1.152    0.132
        50  -7.7875    217.3484     69.2928   7.6985749654e+01   2.2049325891e+01    0.1563703    0.1058389  22.29 0.0003916596    1.670    0.401
        51  -8.6676    210.3008     68.6614   7.7928412722e+01   2.3807697589e+01    0.2692655    0.2202818 -61.44 0.0006922677    1.507    0.336
        52  -9.2792    207.4853     65.9981   7.7620020946e+01   2.4852601541e+01    0.4949846    0.3029759 -66.93   0.00187813    2.870    0.652
        53  -8.5575    188.2012     69.0846   8.1895983562e+01   2.9096776964e+01    0.2214404    0.1905796  11.03 0.0003133617    1.156    0.135
        54  -7.7293    243.2824     67.3540   7.2727865003e+01   1.6376591802e+01    0.1471962   0.09992246  12.76 0.0007016712    1.660    0.398
        55 -11.2880    229.5968     26.9695   6.3308043042e+01   2.4236142571e+01    0.5846449    0.3577563  34.10  0.001668435    1.900    0.474
        56  -9.7985    184.5979     64.9126   8.1304723575e+01   3.0607064679e+01    0.2912723    0.2570274  -1.25 0.0003921483    1.099    0.090
        57  -7.9906    199.8619     62.2755   7.7791086177e+01   2.7227917694e+01    0.3160464     0.209483 -39.97  0.001442464    1.535    0.349
        58  -8.9239    125.5314    234.9490   1.2645835811e+02   1.4134177120e+01    0.1266756    0.1042942 -64.40 0.0006075362    1.568    0.362
        59 -10.4581    200.6498     51.3581   7.4370193468e+01   2.8519643862e+01    0.4310683     0.312617  26.72  0.001062328    1.492    0.330
        60  -7.8476    145.6986     61.3324   8.8370588192e+01   4.0639648507e+01    0.1541821    0.1209972 -64.96 0.0002640433    1.653    0.395
        61  -7.4231    244.6269     60.2862   7.0683025392e+01   1.6938111612e+01    0.1419792    0.1019488 -57.10 0.0007018398    1.714    0.417
        62  -9.5998    243.7588     56.7846   6.9859766692e+01   1.7550061578e+01     0.255046    0.2117034  30.17 0.0005621216    1.255    0.203
        63  -8.4685    129.2238     56.5202   9.0822227669e+01   4.5262535658e+01    0.2435512    0.2105963  22.51 0.0003198014    1.172    0.147
        64  -8.0432    248.1023     52.5393   6.8206738616e+01   1.7080345617e+01    0.1865975    0.1366658  57.30 0.0004274684    1.501    0.334
        65  -8.2071    119.1554    132.3363   1.1365511080e+02   3.2296095971e+01    0.1797644    0.1551766  49.81 0.0003582306    1.126    0.112
        66 -10.1573    183.7554    123.9881   9.7526764829e+01   2.1278589607e+01     0.369979    0.2299211  -5.52  0.001554516    2.322    0.569
        67  -8.0672    185.3027     42.6744   7.4151144756e+01   3.3560606665e+01    0.1563565    0.1140626 -56.93 0.0002846787    1.640    0.390
        68 -10.2823    195.0064     55.9910   7.6711906295e+01   2.9305519765e+01    0.4174068    0.3803777  59.27 0.0007470366    1.179    0.152
        69  -8.5991     30.9109    229.0565   1.4147433775e+02   2.6155874222e+01    0.1391508     0.100142  64.68 0.0004436198    1.048    0.046
        70  -8.1557    250.6060     34.8243   6.3250391506e+01   1.8496708010e+01    0.2009455    0.1203758 -20.73 0.0009224084    1.527    0.345
        71  -9.1755    101.1067     29.6113   8.8380247100e+01   5.5857940528e+01    0.2572682    0.1901024 -36.10  0.001316388    1.331    0.249
        72  -7.3560    150.6469     28.7027   7.5662797020e+01   4.4312140382e+01    0.1648244    0.1072465  27.96 0.0007034956    1.692    0.409
        73 -10.2561    128.4483     22.6475   7.8111021878e+01   5.0636215503e+01    0.3023192    0.2866671 -33.07  0.001020706    1.159    0.137
        74 -12.0768      4.4232    220.4728   1.4525242133e+02   2.9864041280e+01    0.6035617    0.3237893  89.28   0.00467224    1.586    0.370
        75  -7.3887     50.5224    206.4854   1.3700820670e+02   2.7749348052e+01    0.1018023   0.07846818  65.16 0.0001600648    1.036    0.035
        76  -8.3785    232.1458     16.9029   6.0216877231e+01   2.4647031771e+01    0.2162793    0.1621843 -47.41 0.0005883655    1.312    0.238
        77 -12.6788     46.1725    183.4845   1.3620170509e+02   3.2223192917e+01    0.8519917    0.7616017  45.84  0.004409089    1.351    0.260
        78 -10.8651     38.0490    191.0316   1.3824245707e+02   3.1699761306e+01    0.2908567    0.2594976 -49.16  0.001130969    1.650    0.394
        79  -9.9524    175.6541    202.1720   1.1378446638e+02   1.1014405768e+01    0.2023025    0.1543011  35.71 0.0003205262    1.055    0.052
        80  -7.3855    176.4895    187.4978   1.1138797589e+02   1.2867229032e+01    0.1252049     0.102454  28.60 0.0001888697    1.046    0.044
        81 -12.7552     31.0047    196.8200   1.3985596764e+02   3.1377091411e+01    0.7371705    0.5718387  73.20  0.003236025    1.076    0.070
        82  -8.1558     51.0385    165.4675   1.3374798661e+02   3.5100194367e+01    0.1543543    0.1005288  40.87 0.0003556749    1.511    0.338
        83  -8.4122      4.2558    154.6142   1.4260705480e+02   4.1452541947e+01    0.1144118   0.09833824  28.25 0.0007644449    1.570    0.363
        84  -9.0546    121.8703    147.3452   1.1578944923e+02   2.8895110427e+01    0.2049801    0.1812783 -46.57 0.0002507778    1.218    0.179
        85 -10.2526     67.6493    144.2786   1.2778916600e+02   3.7449488632e+01    0.5306605    0.2921225  56.87  0.001830783    1.870    0.465
        86  -8.7071    186.9787    138.9902   1.0026895479e+02   1.8211578794e+01    0.2087489    0.1817801  15.79  0.001210519    1.052    0.049
        87 -10.3009    233.1041    131.7846   9.0254734730e+01   1.0148337135e+01    0.2805944    0.2288564  31.97  0.000436053    1.198    0.166
        88  -8.5179    237.4758    249.4777   1.1027467788e+02  -3.0408522063e+00    0.1039766   0.07033136  25.47 1.945217e-05    1.028    0.027
        89  -8.2420     77.7050    248.3189   1.3522642880e+02   1.8379632253e+01   0.09942156   0.05271553  61.05 0.0002392229    1.610    0.379
