#   1 NUMBER                 Running object number                                     
#   2 MAG_AUTO               Kron-like elliptical aperture magnitude                    [mag]
#   3 X_IMAGE                Object position along x                                    [pixel]
#   4 Y_IMAGE                Object position along y                                    [pixel]
#   5 X_WORLD                Barycenter position along world x axis                     [deg]
#   6 Y_WORLD                Barycenter position along world y axis                     [deg]
#   7 A_WORLD                Profile RMS along major axis (world units)                 [deg]
#   8 B_WORLD                Profile RMS along minor axis (world units)                 [deg]
#   9 THETA_WORLD            Position angle (CCW/world-x)                               [deg]
#  10 FWHM_WORLD             FWHM assuming a gaussian core                              [deg]
#  11 ELONGATION             A_IMAGE/B_IMAGE                                           
#  12 ELLIPTICITY            1 - B_IMAGE/A_IMAGE                                       
         1 -15.6168     86.3293    113.3988   5.6898620402e+01   4.2304885277e+01     3.761704     2.266854  85.88   0.01327401    3.076    0.675
         2 -15.4719    217.7697     60.8957   1.8241972959e+01   2.5702534704e+01     2.366898     1.130576 -88.77   0.01079132    3.379    0.704
         3 -14.8346    246.1429     59.6034   1.5531691395e+01   2.1143389219e+01     1.436508    0.5829939 -49.46  0.008182579    1.863    0.463
         4 -13.5249     93.8105     34.1209   3.0998409379e+01   5.6562632223e+01    0.8842305        0.558 -52.18   0.00443569    1.768    0.434
         5 -13.2366     40.0154     30.6492   5.0758420583e+01   6.8317392310e+01    0.9587242    0.5506494  32.60  0.004762114    1.655    0.396
         6 -12.5829     31.1423     27.5226   5.4551183246e+01   7.0287196155e+01     0.553412    0.3846491 -55.02  0.003000656    1.720    0.419
         7 -14.9075    151.4724     18.2178   1.5413099023e+01   4.4905794024e+01     1.024888    0.6212612 -65.32  0.005631092    1.540    0.351
         8 -13.9285     87.6379     18.9760   2.6918988934e+01   6.0019956732e+01    0.5063334    0.3897268  86.69  0.002294519    1.313    0.238
         9 -14.8136    136.4764     11.9273   1.5460639477e+01   4.9102491329e+01     0.797704    0.6200795 -82.82  0.005009291    1.080    0.074
        10 -13.2585     18.9980     10.6170   5.4434144341e+01   7.4893142382e+01    0.8457446    0.5793274  55.49  0.004743046    2.020    0.505
        11 -14.1379     95.3843      7.6017   2.0661099381e+01   5.9432253879e+01     0.735855    0.5311534  77.03  0.003491214    1.191    0.160
        12 -14.0594     70.2777      4.6389   2.5609815515e+01   6.5661733316e+01    0.5964027    0.5429606  23.52  0.003975876    1.278    0.218
        13 -13.2615     52.9096      3.3175   3.0928434454e+01   6.9669128279e+01    0.6325775    0.3411041  57.76   0.00329618    1.579    0.367
        14 -12.3179     81.9888    197.7642   7.2343213907e+01   2.2431462588e+01    0.6058938    0.3300666 -59.95  0.002656037    1.987    0.497
        15 -15.1936    139.8677    243.1272   6.4002176741e+01   6.2930707976e+00     1.187644    0.7539399  45.57  0.005903582    1.899    0.473
        16 -13.3623    114.6610    246.3047   6.9852317193e+01   8.6070956842e+00    0.9909347    0.3749602  40.90  0.004386324    2.583    0.613
        17 -14.2119    103.0274    232.6422   7.1039510842e+01   1.2466971944e+01     1.357117    0.5576011  45.60   0.00572934    2.678    0.627
        18 -13.7150     68.5092    202.8314   7.6581205173e+01   2.2977372585e+01     1.316075    0.7037694  75.97  0.005357013    2.819    0.645
        19 -13.0886     77.2360    248.0012   7.8619604309e+01   1.2506027471e+01    0.8503925    0.3791618  39.88  0.004195351    1.856    0.461
        20 -13.3894     59.7993    220.9607   8.0621905807e+01   1.9943176167e+01     1.440301     1.164675  -3.53  0.008480201    1.419    0.295
        21 -13.4531     98.3366    246.0813   7.3532288157e+01   1.0502640060e+01      1.02245    0.4090077  47.97  0.004267476    3.056    0.673
        22 -14.7085     81.3174    236.3425   7.6613315095e+01   1.4297100301e+01     2.110255    0.9728869  52.23  0.009347386    2.555    0.609
        23 -14.1690     38.7001    215.6563   8.5743820874e+01   2.3386938913e+01      2.03433     1.112611  81.90  0.009203756    2.140    0.533
        24 -13.8219     27.9825    194.5327   8.7237378736e+01   2.9411944164e+01      0.88243    0.5202435  60.40  0.004135968    1.645    0.392
        25 -12.1875     61.0381    248.6055   8.2487776726e+01   1.4136785696e+01    0.4963617    0.2052437  43.90  0.002335771    2.052    0.513
        26 -11.7660     49.7495    250.5705   8.5285410577e+01   1.4925668530e+01    0.4166473    0.1568582  23.43  0.001609012    2.245    0.555
        27 -13.1935     39.9380    247.2492   8.7406722822e+01   1.6557362642e+01    0.8812642     0.244958  41.78  0.003698769    2.566    0.610
        28 -12.8577      8.6361    232.9590   9.4275824831e+01   2.2360057569e+01     1.053032      0.32563  67.98  0.004058445    3.643    0.726
        29 -15.1122      6.4975    189.8902   9.3128014217e+01   3.2395421072e+01     3.000019    0.8571277  72.41  0.009246119    4.642    0.785
        30 -13.2272     26.5943    246.8923   9.0545642179e+01   1.7902422722e+01    0.9237314    0.5080264  18.49  0.005010861    1.725    0.420
        31 -12.8648     15.4683    223.2522   9.2203038188e+01   2.3878547861e+01    0.7002574    0.4105913  70.20  0.002958042    1.673    0.402
        32 -14.7242      4.3193    215.1294   9.4730177500e+01   2.6616653439e+01     1.555208    0.6381328 -72.53  0.007187789    2.563    0.610
        33 -13.4424     29.1072    239.3917   8.9583948088e+01   1.9191942460e+01    0.7402299    0.4186825  62.38  0.003093193    1.734    0.423
        34 -13.0550     21.7238    235.8321   9.1208045522e+01   2.0615614669e+01    0.8148488    0.3075471  89.76  0.003509081    3.212    0.689
        35 -14.4306      4.2934    244.9492   9.5680916661e+01   2.0237225060e+01    0.9010749    0.3297739  65.51   0.00418734    2.658    0.624
        36 -12.8296     37.8936    164.5117   8.1674149942e+01   3.6011135378e+01    0.7459293    0.4175162 -85.71  0.001979224    1.964    0.491
        37 -12.7949     37.7641    177.8087   8.3002521851e+01   3.2597950638e+01    0.5922129    0.5107036 -85.56   0.00227516    1.192    0.161
        38 -11.8338     51.8833    180.9436   7.9023606988e+01   3.0235000252e+01    0.6539183    0.5103956  37.49  0.003509463    1.153    0.133
        39 -13.7515     46.8795    192.5084   8.1635189746e+01   2.7954204461e+01     1.109416    0.6202535 -82.93  0.004286894    2.026    0.506
        40 -12.2322     45.0879    180.8922   8.1065021026e+01   3.1025450075e+01    0.4898179     0.289214  75.26  0.001887854    1.961    0.490
        41 -14.1802     14.4356    181.2673   9.0354606263e+01   3.3907065608e+01     1.406345    0.5542951  86.83  0.004578858    2.845    0.648
        42 -14.3396    120.3569    182.6352   6.0166266631e+01   2.0397353115e+01     1.080816    0.7786285 -69.31  0.005541689    1.694    0.410
        43 -12.0535     33.2333    184.2829   8.4933344835e+01   3.1429853339e+01    0.4282731    0.2815917 -76.78  0.001929586    1.583    0.368
        44 -11.5966     27.2731    181.8371   8.6531550815e+01   3.2626068368e+01    0.3423479    0.2586098 -68.86  0.001457514    1.396    0.284
        45 -11.4803     28.3229    166.0418   8.4918460002e+01   3.6580275464e+01    0.3600942    0.2792535  60.92  0.001211137    1.221    0.181
        46 -11.9279     24.5236    164.4938   8.6016558809e+01   3.7340592058e+01    0.6335986    0.2534585  57.98  0.002311155    2.789    0.641
        47 -11.7612     17.3251    161.5590   8.8135010673e+01   3.8737708418e+01    0.5208694    0.2449518  76.15  0.002095988    2.391    0.582
        48 -12.9728     13.4269    153.6248   8.8845105595e+01   4.1141117894e+01    0.7685286    0.6620985 -70.81  0.004422748    1.184    0.155
        49 -13.9712      3.6285    157.9421   9.2400255728e+01   4.0707437080e+01     1.345095    0.5264382 -86.54  0.004208356    2.553    0.608
        50 -12.6136      7.6062    142.5664   9.0062618888e+01   4.4501931508e+01    0.5739538    0.4832664  73.75  0.003283401    1.119    0.106
        51 -10.7264     46.2495    159.9250   7.8440998416e+01   3.6278777409e+01    0.1966783    0.1596962 -42.21  0.000701841    1.381    0.276
        52 -13.3573     43.3424    149.1675   7.8106563021e+01   3.9452501170e+01    0.8605822    0.6008461  54.34  0.001658367    1.418    0.295
        53 -11.6576     24.4744    154.2113   8.5133554893e+01   4.0055874448e+01    0.4828269    0.2316247  75.18   0.00187601    2.495    0.599
        54 -11.1011     37.4801    154.6497   8.0757977334e+01   3.8649669144e+01    0.3411664    0.1957838  60.90  0.001472345    1.879    0.468
        55 -10.2049     59.8153    152.3944   7.2984761859e+01   3.6552060961e+01    0.1991186    0.1421628  13.20 0.0005708947    1.561    0.359
        56 -13.5875     91.2417    146.7111   6.2085604832e+01   3.3303726568e+01      0.75595     0.722341 -80.69  0.002600173    1.079    0.073
        57 -10.9964     69.3671    146.7325   6.8977399681e+01   3.6686746458e+01    0.4335417    0.2820741 -23.49   0.00180181    2.200    0.545
        58 -12.3812     22.2016    135.3315   8.4086098874e+01   4.5315649599e+01     1.549995    0.6089526  70.37   0.00482714    3.913    0.744
        59 -11.7575     20.0260    120.8364   8.3308318714e+01   4.9405628352e+01    0.9018102     0.393989  89.36   0.00327909    2.834    0.647
        60 -14.8073    103.8928    136.1413   5.6327653443e+01   3.3700041696e+01     1.098686    0.8334498 -79.38  0.005284229    1.559    0.359
        61 -13.6101    158.2780    246.9055   6.0683997006e+01   3.6718483511e+00    0.3835096    0.3195325 -38.95  0.002768276    1.405    0.288
        62 -12.4565      2.8777    118.4170   9.0005545160e+01   5.1244308428e+01    0.6300501    0.3488397 -78.01  0.002666095    1.715    0.417
        63 -13.1294    110.9052    124.2114   5.1831638745e+01   3.5199179783e+01    0.4946581    0.4461422  15.55  0.002646279    1.241    0.194
        64 -13.3023     35.5575    112.5764   7.5795233832e+01   5.0106175145e+01     1.618029    0.7190247 -78.25   0.00589545    2.695    0.629
        65 -12.0312     50.5355    136.8351   7.3871672101e+01   4.1857335137e+01    0.4506143    0.2765972 -84.15   0.00194037    1.879    0.468
        66 -14.7030    243.9565    103.7287   2.3619416998e+01   1.5454574295e+01     1.401848    0.6169581 -35.96  0.007612318    2.033    0.508
        67 -11.6567     74.0649    133.7896   6.5180204294e+01   3.9296936954e+01    0.2578675    0.2182015 -53.03 0.0003579207    1.235    0.190
        68 -12.2703     22.4723    104.3654   8.0088613246e+01   5.3591663538e+01    0.6714206    0.3667497  31.10  0.003014824    1.752    0.429
        69 -11.4017      2.3383    127.4286   9.0915129580e+01   4.8870293193e+01      0.54202     0.184286  82.49  0.001776757    3.613    0.723
        70 -12.5394      2.2587     97.3040   8.8325147113e+01   5.6858428559e+01    0.7439573    0.2754617 -84.99  0.002751109    2.906    0.656
        71 -11.0043     10.8484     99.1917   8.4596581133e+01   5.5860936221e+01    0.2179529    0.1855604  51.82  0.001230323    1.202    0.168
        72 -13.9876      8.2597     57.1524   7.9020595567e+01   6.6554837735e+01     1.583773    0.6508856  27.69  0.006895442    2.286    0.562
        73 -13.7220     13.9165     73.6942   7.9114260332e+01   6.2164798381e+01    0.8943506    0.7926828  52.79  0.005056053    1.209    0.173
        74 -13.3258     11.6004     66.9316   7.9080857592e+01   6.3991053949e+01    0.6855367    0.2910149  15.24  0.002453448    2.351    0.575
        75 -12.7082    102.3441     91.4557   4.6438730606e+01   4.4206345455e+01    0.6504143    0.5184822  80.51  0.003249236    1.410    0.291
        76 -14.0067     63.7623     75.0069   5.5333027985e+01   5.5351831766e+01     1.441784    0.9362942 -67.22  0.005944258    1.863    0.463
        77 -11.7233     41.0246     81.2823   6.7077559772e+01   5.7444135202e+01    0.3352076    0.1857545 -52.48  0.001467267    1.806    0.446
        78 -12.4435      1.9063     79.7025   8.6447551506e+01   6.1403802011e+01    0.6265199    0.2241934 -68.10  0.002473215    2.463    0.594
        79 -12.5482     51.7366    242.4440   8.4280827738e+01   1.6323249130e+01    0.5554752    0.2905157  63.00  0.002169309    2.194    0.544
        80 -14.0991    241.0264     48.1802   1.3843390597e+01   2.3410088077e+01    0.5436656    0.3834049  58.03  0.002850584    1.896    0.473
        81 -11.7269     36.1029     71.8058   6.7062426331e+01   6.0355402672e+01    0.4785038    0.2449708 -62.91  0.002059073    2.073    0.518
        82 -11.5559     25.9925     70.3923   7.1929428400e+01   6.1873041970e+01    0.3424953    0.2491971 -81.80  0.001764505    1.602    0.376
        83 -14.5376    124.6793    235.5856   6.6399855441e+01   9.3424187118e+00    0.7448843    0.6990188  64.27  0.003060055    1.359    0.264
        84 -13.1525     15.1061     88.7116   8.1100556913e+01   5.8284295554e+01     1.116978    0.6398037 -89.88  0.005012475    2.035    0.509
        85 -12.4227     55.0204     44.7428   4.9006909168e+01   6.3130266581e+01    0.4992829    0.4037511 -55.50  0.002805174    1.397    0.284
        86 -11.3936     25.0430     46.3176   6.5668558677e+01   6.7436525437e+01    0.2473753    0.2086946 -69.14  0.001425843    1.370    0.270
        87 -12.3826     39.4014     44.0673   5.6562702372e+01   6.5928876122e+01    0.5222828    0.4011318  63.81  0.002820599    1.643    0.391
        88 -11.2400     17.8418     41.4922   6.8643372586e+01   6.9253356823e+01    0.3235591    0.1948937  -9.47  0.001564515    1.997    0.499
        89 -11.1293     10.4569     41.3844   7.3596377506e+01   6.9955191276e+01    0.2463243    0.1954882   0.17  0.001310063    1.184    0.156
        90 -13.5900    115.9185    227.8785   6.7473346819e+01   1.1811067348e+01    0.7943968    0.5011422 -12.33  0.004050165    2.038    0.509
        91 -11.7535      2.6945     38.2881   7.8230312846e+01   7.1177412766e+01    0.4732623     0.251088 -72.74  0.002356592    2.116    0.527
        92 -12.8171     66.7293     30.0291   3.8132060220e+01   6.3255077401e+01    0.8706342    0.4780461  69.76  0.003587821    2.662    0.624
        93 -14.0900    111.8912    222.6604   6.7788411591e+01   1.3309308366e+01    0.8721798    0.5664619   8.95  0.004609793    1.636    0.389
        94 -13.6115    108.4476    216.8123   6.7897300810e+01   1.4900947605e+01    0.5687928    0.4806426  -1.13  0.003470961    1.198    0.165
        95 -12.9218    248.6284    220.4382   4.1682778029e+01  -1.4012853413e+00    0.3163763    0.1861299 -42.74  0.002259298    1.751    0.429
        96 -13.0251     95.6052    221.5112   7.1593621889e+01   1.5567712604e+01    0.5846458    0.3423509  38.09  0.003011454    1.503    0.334
        97 -12.6066     85.2823    220.8803   7.4096478557e+01   1.6966430177e+01    0.6515567      0.39754  39.95  0.002848863    1.447    0.309
        98 -11.1783     23.3672    216.3315   8.9830126800e+01   2.4719578506e+01    0.2854246    0.1758875  45.47 0.0009322449    1.347    0.258
        99 -13.5371     95.6297    208.4613   7.0057633571e+01   1.8286858573e+01    0.9252455    0.7125007  56.50    0.0051735    1.419    0.295
       100 -13.8380    118.2687    203.5355   6.3772783164e+01   1.6299952201e+01    0.8493187    0.4502538  24.61  0.003955267    1.808    0.447
