#   1 NUMBER                 Running object number                                     
#   2 MAG_AUTO               Kron-like elliptical aperture magnitude                    [mag]
#   3 X_IMAGE                Object position along x                                    [pixel]
#   4 Y_IMAGE                Object position along y                                    [pixel]
#   5 X_WORLD                Barycenter position along world x axis                     [deg]
#   6 Y_WORLD                Barycenter position along world y axis                     [deg]
#   7 A_WORLD                Profile RMS along major axis (world units)                 [deg]
#   8 B_WORLD                Profile RMS along minor axis (world units)                 [deg]
#   9 THETA_WORLD            Position angle (CCW/world-x)                               [deg]
#  10 FWHM_WORLD             FWHM assuming a gaussian core                              [deg]
#  11 ELONGATION             A_IMAGE/B_IMAGE                                           
#  12 ELLIPTICITY            1 - B_IMAGE/A_IMAGE                                       
         1 -12.6157    175.9805     51.6138   5.8094206550e+01   3.4658405120e+01     2.193482     1.337188  23.36  0.006438423    2.604    0.616
         2 -12.4885    190.6298     37.9817   5.1641606101e+01   3.2826928237e+01    0.9851774    0.7948288 -12.80  0.003996781    1.448    0.309
         3 -12.4364    195.9988     31.9692   4.9159485003e+01   3.2238714310e+01    0.8965426    0.7871192 -21.14  0.001961344    1.267    0.211
         4 -12.4983    216.3297      6.2921   4.0004818666e+01   3.0122077109e+01    0.9213623    0.7792955  89.53  0.004966494    1.073    0.068
         5 -11.0873     57.3909      3.2229   6.9994271819e+01   6.7498445665e+01    0.3836104    0.2915588  47.96  0.002439917    1.578    0.366
         6 -10.7311    114.3431    207.2561   1.0824475174e+02   1.6364135862e+01    0.4765374    0.2350432 -65.98  0.002211348    2.437    0.590
         7  -9.9743    140.1423    249.9265   1.0848733149e+02   4.9132044838e+00    0.2603261    0.1510059  50.97  0.001236623    1.468    0.319
         8 -10.5079    138.5164    246.5185   1.0839064214e+02   5.6806232267e+00    0.3931552    0.2276021 -30.07  0.001958671    3.324    0.699
         9 -19.5865     16.2618    148.2675   1.2325027797e+02   4.2045612539e+01     18.91753      2.71657 -74.95   0.05094012    6.742    0.852
        10 -11.9881     68.3534    185.7527   1.1535343586e+02   2.7792369771e+01     0.821046    0.7600588 -78.33  0.004297946    1.256    0.204
        11  -9.6878     96.6489    190.2920   1.0975071377e+02   2.2651957157e+01    0.3280828    0.2851206  -9.20  0.001088192    1.697    0.411
        12  -9.7095    107.2844    210.5469   1.1011044500e+02   1.6868136692e+01    0.3589144    0.1147301  38.83  0.001389386    2.905    0.656
        13 -10.0561    115.8355    186.1807   1.0494633783e+02   2.0356818792e+01    0.2817304     0.191239 -76.75  0.001429246    1.704    0.413
        14  -9.4842     99.3394    180.7510   1.0782644405e+02   2.4268724352e+01     0.275666    0.2186721  47.86 0.0006615968    1.207    0.171
        15  -8.0800    189.6546    178.3461   8.7677080520e+01   8.0694603757e+00     0.139932    0.1136438  83.80 -0.0004806045    1.801    0.445
        16  -9.6149    142.2683    175.8650   9.7335131814e+01   1.7716008754e+01    0.2347483    0.1868668 -81.92  0.001219954    1.497    0.332
        17  -9.9432    115.0023    175.1694   1.0339757071e+02   2.2846273244e+01    0.3881323    0.1450718 -63.05  0.001321158    3.481    0.713
        18  -9.5556     49.3780    151.8381   1.1565545365e+02   3.7922332499e+01    0.5368364    0.1710043 -60.64  0.001327195    2.626    0.619
        19 -11.7962     81.4260    169.6566   1.1035722136e+02   2.9523514426e+01     1.080273    0.8339053  -2.74  0.003819945    2.175    0.540
        20 -12.0476     78.6809    154.2129   1.0872469425e+02   3.3504829765e+01    0.5554864    0.4319576 -59.80  0.001199891    1.263    0.209
        21 -10.7935     55.5148    145.2531   1.1323010978e+02   3.8750317688e+01    0.8410015    0.3674678 -56.54  0.003777324    2.084    0.520
        22 -13.4016     68.1922    144.1575   1.0980478874e+02   3.7376631454e+01     2.919695     1.339217  65.64  0.003544462    3.903    0.744
        23  -8.4510    123.6845    170.3081   1.0057255650e+02   2.2350294734e+01    0.1473933     0.106684  74.77 0.0007029196    1.630    0.387
        24 -12.8005     59.1748    130.6420   1.1001114478e+02   4.1805126991e+01     1.288109    0.7583972 -71.44  0.006374795    1.578    0.366
        25  -9.8961     72.4487    163.0073   1.1154884964e+02   3.2346222503e+01    0.4867538    0.2833788  79.47  0.002246487    2.107    0.525
        26  -9.8792     90.1501    159.2882   1.0670183853e+02   3.0569787703e+01    0.2545108    0.2401012  61.28 0.0003751488    1.137    0.121
        27 -10.8847     96.0498    152.5270   1.0410406722e+02   3.1191288205e+01    0.5983986    0.4647951 -17.16  0.002279828    1.936    0.484
        28 -10.0430    134.5682    149.2702   9.3961415747e+01   2.4901892297e+01    0.5525337    0.2062834 -52.84   0.00187532    2.847    0.649
        29 -10.9246    108.1792    138.7559   9.8387530727e+01   3.2324524871e+01    0.5276923      0.45812 -63.18  0.002846826    1.112    0.101
        30 -10.7798     95.8159    138.1778   1.0150515464e+02   3.4613338725e+01    0.2977721    0.2849306 -74.20 0.0003976665    1.073    0.068
        31  -9.8241    105.8530    131.2017   9.7410963791e+01   3.4519202200e+01    0.4348342    0.3595207 -52.06  0.001820186    1.184    0.155
        32 -10.0814    114.7315    129.2915   9.4637535823e+01   3.3321981803e+01    0.3106587    0.2817881 -29.88 0.0008010475    1.219    0.180
        33 -10.0502    134.9982    121.5199   8.7538806744e+01   3.1019810144e+01    0.6684377    0.1554096 -50.97  0.001578765    5.276    0.810
        34  -9.4990    102.4385    125.3244   9.7047221811e+01   3.6518400793e+01    0.3072697    0.2430505 -32.18 0.0009108743    1.466    0.318
        35  -9.7413    119.6333    123.7393   9.2062281917e+01   3.3658982865e+01    0.2772125    0.1939635  28.96 0.0008350179    1.692    0.409
        36 -10.2870    108.2196    204.1759   1.0911202736e+02   1.7962106977e+01    0.2474105     0.235214   1.80  0.001488034    1.387    0.279
        37  -8.8741    110.1152    118.6174   9.3403229079e+01   3.6683988852e+01    0.2494614    0.1985585 -63.23 0.0004410119    1.262    0.207
        38  -8.2422     87.5002    202.4736   1.1320947798e+02   2.1523902909e+01    0.1237584    0.1113751  67.92  0.000166325    1.139    0.122
        39  -9.4924     61.8907    113.1530   1.0604803494e+02   4.5683982941e+01    0.2087566    0.1758247  88.20 0.0005068153    1.223    0.183
        40 -10.3247    119.0161    110.9478   8.9069885555e+01   3.6711472584e+01    0.3824297    0.3062246 -68.03  0.001854807    1.360    0.265
        41  -8.4851    205.2788    110.5332   6.9105839704e+01   1.7262197752e+01    0.2145448    0.1432532  39.52  0.000654856    1.623    0.384
        42  -8.8628    134.5069    105.9396   8.3630268457e+01   3.4570372495e+01    0.2454699    0.1524893 -45.92 0.0007191461    1.579    0.367
        43  -9.6856     43.7579    171.7806   1.1925332494e+02   3.3973240980e+01    0.5647998    0.1840791  32.25  0.002341624    3.420    0.708
        44  -8.8386    167.5623    112.5578   7.7403726855e+01   2.5656915166e+01    0.3655992    0.2465741 -79.40  0.001379715    2.491    0.598
        45  -8.7763    107.0928    250.5094   1.1449222244e+02   9.8497371348e+00    0.1792937   0.09051065  43.76  0.001021011    1.555    0.357
        46 -10.7612    110.5327    197.6094   1.0774964718e+02   1.8897722073e+01    0.6487251    0.2297736  53.69  0.002288622    3.393    0.705
        47  -9.3348    114.2131    194.6039   1.0654136346e+02   1.8895184988e+01    0.2148495    0.1622812   9.49 0.0009462789    2.064    0.516
        48  -9.4407    192.2963    193.6540   9.0060668431e+01   4.9527770579e+00    0.4489066    0.2623331 -65.17  0.001692147    3.943    0.746
        49  -8.8026     82.2215    195.0297   1.1344894762e+02   2.3844688989e+01    0.2279052    0.1701753  54.38  0.001369732    1.190    0.160
        50  -8.0295     78.1219    192.8330   1.1406448428e+02   2.4902720650e+01    0.1523367    0.1457202 -80.79  0.001017803    1.286    0.222
        51  -8.7414     68.9836     71.9862   9.3543491809e+01   5.4213427383e+01    0.2077717    0.1866066 -36.87 0.0003570681    1.017    0.017
        52 -10.3164    160.8866     62.3004   6.4344670776e+01   3.6813367019e+01    0.5562003    0.3569257 -79.19  0.001605272    2.541    0.606
        53 -10.8537    126.3872    248.2965   1.1079938814e+02   7.2918647943e+00    0.4006206    0.3122647 -82.14  0.002768799    1.548    0.354
        54  -8.4978    157.8606    235.8628   1.0346749492e+02   4.2008858533e+00    0.1655931    0.1321705  60.03 0.0008164907    1.331    0.249
        55 -10.3593    160.6960    224.9273   1.0140963393e+02   5.4336759299e+00     0.369356    0.2100609  52.30  0.001911514    1.758    0.431
        56  -9.2212    184.7657    211.3934   9.4636844339e+01   3.4356904810e+00     0.197889    0.1081642  32.92  0.000963101    1.710    0.415
