#   1 NUMBER                 Running object number                                     
#   2 MAG_AUTO               Kron-like elliptical aperture magnitude                    [mag]
#   3 X_IMAGE                Object position along x                                    [pixel]
#   4 Y_IMAGE                Object position along y                                    [pixel]
#   5 X_WORLD                Barycenter position along world x axis                     [deg]
#   6 Y_WORLD                Barycenter position along world y axis                     [deg]
#   7 A_WORLD                Profile RMS along major axis (world units)                 [deg]
#   8 B_WORLD                Profile RMS along minor axis (world units)                 [deg]
#   9 THETA_WORLD            Position angle (CCW/world-x)                               [deg]
#  10 FWHM_WORLD             FWHM assuming a gaussian core                              [deg]
#  11 ELONGATION             A_IMAGE/B_IMAGE                                           
#  12 ELLIPTICITY            1 - B_IMAGE/A_IMAGE                                       
         1 -11.8688    104.1787     80.9398   6.2833564455e+01   4.6064038864e+01     3.282135      1.40945 -25.83  0.008945119    5.199    0.808
         2 -10.5686     81.7577     26.5636   5.1445543075e+01   5.8886826686e+01    0.4774639    0.4370208  79.41  0.003108005    1.454    0.312
         3 -11.5339    148.9458     38.2196   3.9466341062e+01   4.2732452249e+01      1.16737    0.7131785  13.01  0.004952788    3.226    0.690
         4 -13.1510    138.2313     46.9767   4.3972765110e+01   4.4075169336e+01     0.677728    0.5465053  45.95  0.000960441    1.191    0.161
         5 -10.8103    170.4309     32.0949   3.4482828469e+01   3.8541671690e+01     0.559743    0.3391842 -12.00  0.001733761    2.746    0.636
         6 -11.2209     16.1483     26.8332   7.9152656890e+01   6.8809727089e+01    0.7932818    0.3909169 -28.07   0.00434237    1.843    0.457
         7 -10.4272      6.9332     22.2777   8.2363662338e+01   7.0322402058e+01     0.407793    0.2546007 -20.71  0.002052391    1.278    0.218
         8 -10.0802      1.6998     20.6614   8.4706565650e+01   7.0967923186e+01    0.3238987    0.1252123 -43.91  0.001724553    2.159    0.537
         9 -11.5762     28.2581     18.4821   6.9350747551e+01   6.8684864075e+01    0.9399373     0.420139 -11.22  0.003515693    4.473    0.776
        10 -11.8099     36.0065     18.6647   6.5695022719e+01   6.7639928245e+01     1.230857    0.5951041  11.41  0.005458595    2.974    0.664
        11 -11.7367     23.6545     12.0088   6.8745549110e+01   7.0084623131e+01    0.4232313    0.2549554  24.74  0.000507066    1.422    0.297
        12 -10.9288     10.1040     15.1854   7.7577495158e+01   7.1111552915e+01    0.3215618    0.2085888  -2.54 0.0006722266    1.246    0.198
        13 -12.3405     15.9926     13.5208   7.3535212847e+01   7.0760086829e+01      0.24724    0.1718405   4.27 0.0001599296    1.123    0.109
        14 -10.8058    226.9766     18.2564   2.5442249653e+01   2.8075973307e+01    0.4616953    0.3053811  31.67  0.002503841    3.290    0.696
        15 -11.7392    238.9054     21.2354   2.5065904390e+01   2.5439327780e+01     0.680455    0.3215702 -50.23  0.003808589    1.754    0.430
        16 -10.9584    236.5775     16.7850   2.4432307007e+01   2.6386980573e+01     0.456711    0.1978911 -61.19  0.002314886    2.135    0.532
        17 -11.0254     55.1265     19.3474   5.7813617927e+01   6.4611164884e+01    0.6031938    0.2879321  23.09  0.002212052    2.505    0.601
        18 -11.2890     58.7986     13.0544   5.3759919716e+01   6.4654135691e+01    0.5085191    0.3578259  37.16  0.002356259    1.184    0.155
        19 -10.8421    164.9816     21.7997   3.2672176646e+01   4.0932051087e+01     0.460398    0.2562397  49.64  0.001869767    1.858    0.462
        20 -12.0509    111.5357     19.0318   4.1047500414e+01   5.3372833956e+01    0.4681789    0.3325543  14.69  0.002685439    1.719    0.418
        21  -9.2312     84.6772     13.6770   4.5759073835e+01   5.9629474681e+01    0.2935883     0.195061  82.00  0.001049216    2.486    0.598
        22 -10.1601    153.0867      3.1520   2.9501830008e+01   4.5403186141e+01     0.403581    0.2821858  36.03  0.001771516    1.771    0.435
        23 -10.7142    150.8035     18.0114   3.3694484528e+01   4.4554902820e+01    0.3064911    0.2813646 -80.46  0.001731269    1.136    0.120
        24 -10.6755    154.6713     16.5894   3.2762426807e+01   4.3812857168e+01    0.4518437    0.2646482 -22.27  0.001801164    2.195    0.544
        25 -10.2618    156.5167      9.5324   3.0694575035e+01   4.4066200834e+01    0.2645706    0.1684648 -48.16 0.0009443744    1.698    0.411
        26 -10.7237    153.1188      9.5219   3.1138553342e+01   4.4837016999e+01    0.3922228    0.2007087  57.18  0.001884929    1.684    0.406
        27  -9.6966     98.1740      7.2317   4.0040169965e+01   5.7351578429e+01    0.2412827    0.1981888  32.80 0.0008776406    1.172    0.147
        28 -11.0160    100.6178     16.3963   4.2646610487e+01   5.6017470830e+01    0.4678147    0.3138078  38.87   0.00178648    1.347    0.258
        29 -11.6760     89.8208      3.0150   4.0486355007e+01   5.9462162765e+01    0.4501861     0.314488  58.29  0.001082222    1.234    0.190
        30  -9.9673     98.7899     11.1847   4.1273441564e+01   5.6885091902e+01    0.2153732    0.1749581  10.93 0.0002514525    1.360    0.264
        31 -10.8841     93.4060     10.1970   4.2210720238e+01   5.8121113804e+01    0.5103587    0.3121998  63.60  0.002344263    1.571    0.363
        32 -10.6572    197.9587      3.0761   2.4841389082e+01   3.5576614514e+01     1.132446    0.2805168  71.97   0.00462556    3.394    0.705
        33  -9.2483    176.3308     12.1502   2.8949001893e+01   3.9372516599e+01    0.3279123    0.1872539 -79.83 0.0003236772    1.876    0.467
        34 -12.5329    187.1057     13.6727   2.8134973109e+01   3.6851496660e+01     0.333089    0.3148189 -26.68 0.0003778324    1.394    0.283
        35 -11.7724    182.5188     12.9243   2.8450266650e+01   3.7930221538e+01    0.3446945    0.2746572 -28.24  0.001146361    1.568    0.362
        36  -9.8512    116.7937      8.6954   3.6673147974e+01   5.3138628726e+01    0.2470741    0.1788356  81.78 0.0005677769    1.461    0.316
        37  -9.0258    141.0491      3.4583   3.1180039551e+01   4.8097755981e+01     0.168633    0.1263684  71.93 0.0004416723    1.097    0.088
        38  -9.1046    135.9735      1.5041   3.1364984893e+01   4.9402284241e+01    0.4819265    0.1227652  64.18  0.001924371    2.858    0.650
        39 -11.8761    122.4371     11.4203   3.6470286443e+01   5.1636876516e+01    0.5954342    0.2392476  47.30  0.001200078    2.238    0.553
        40 -12.0157    128.0411      4.6929   3.3492064404e+01   5.0939576018e+01    0.4079387    0.2919214  83.33  0.001175477    1.378    0.274
        41  -9.4766    143.2291     11.4326   3.3042939588e+01   4.6912689065e+01    0.4044597    0.2370609 -69.62  0.002073668    2.193    0.544
        42 -10.2258    131.5445     13.2377   3.5411030467e+01   4.9410608175e+01    0.3147129    0.1763868  61.85  0.001265749    1.466    0.318
        43  -9.7602     75.9337     13.1349   4.8082466484e+01   6.1435896090e+01     0.267669    0.1934628 -27.85  0.001293188    1.614    0.380
        44  -8.8334     72.2536      7.6171   4.7008677418e+01   6.2656228692e+01    0.2885553     0.221195  76.63  0.001763161    1.863    0.463
        45 -12.2601     45.9954      9.2180   5.7049451972e+01   6.7215421565e+01    0.2837274    0.2090628   2.24   0.00033129    1.234    0.190
        46  -9.6101     48.1059      2.4597   5.3117730438e+01   6.7513856075e+01    0.1930142     0.139911   1.09 0.0002593712    1.321    0.243
        47 -11.4527    216.6978      6.5531   2.4017632660e+01   3.1375777494e+01    0.3812405    0.3303207 -31.75  0.001158712    1.551    0.355
        48 -10.5098    208.7228     10.1773   2.5371342395e+01   3.2626070995e+01    0.3686715    0.2334795  52.96   0.00161865    1.913    0.477
        49 -10.0438    211.6361      6.2817   2.4360214474e+01   3.2427708597e+01     0.264456    0.1503944 -65.45  0.001136732    1.580    0.367
        50  -9.0110     30.1482      6.6105   6.2927698384e+01   6.9872885095e+01    0.1760617    0.1303724  -5.92 0.0006302361    1.198    0.165
        51 -10.5658     35.1810      9.4875   6.1907178525e+01   6.8844219172e+01    0.3616522     0.269964  -7.26  0.002359924    1.223    0.182
        52 -10.5143     34.9375      2.3945   5.8640739376e+01   6.9621351325e+01    0.5846083    0.1869263  40.58  0.002735707    2.601    0.616
        53 -11.6160      8.6306      8.1074   7.5194863294e+01   7.2223573323e+01    0.5214332    0.1921188 -29.29   0.00139745    2.673    0.626
        54 -11.4470     14.1211      3.7314   6.9910060753e+01   7.2206388705e+01    0.5471755    0.3063073  31.86  0.003463488    1.764    0.433
        55  -8.3974     85.2664      8.9469   4.3827455064e+01   5.9930547100e+01    0.1310213    0.1056637 -13.82 0.0003713075    1.421    0.296
        56  -9.4181    248.7579      5.7716   2.1687089490e+01   2.5330916992e+01     0.334648   0.09021682 -54.94  0.001564644    3.127    0.680
        57  -9.9230    245.8608      1.9481   2.1214718170e+01   2.6258143060e+01    0.2219816    0.1547369  82.94  0.001569139    1.316    0.240
        58  -9.2790    241.6813      1.3136   2.1357785757e+01   2.7090986509e+01    0.1905666    0.0867209  84.18  0.000695976    1.977    0.494
        59  -9.9698    238.6628      7.4268   2.2612882920e+01   2.7015226780e+01    0.2730265    0.1250627 -57.73  0.001621362    1.826    0.452
        60 -10.7083    167.9504      5.8574   2.8405656164e+01   4.1832459201e+01    0.3265527     0.243472 -46.81   0.00158687    1.445    0.308
        61  -8.6557    103.8285      8.1888   3.9119486872e+01   5.6047317518e+01    0.1707912    0.1159034  43.22 0.0004575849    1.285    0.222
        62  -9.2552     77.6601      6.3527   4.4920025047e+01   6.1695499991e+01    0.2939101    0.1930713 -41.87  0.001730021    2.056    0.514
        63  -9.1817    177.9548      6.1845   2.7399985525e+01   3.9587783786e+01    0.3931882    0.1849124 -84.95 0.0007391801    2.521    0.603
        64 -10.6832    105.7756      3.3013   3.7078484567e+01   5.6011073749e+01    0.5045056    0.3055815 -84.27  0.002093078    2.557    0.609
        65  -9.4553     40.8762      5.1539   5.7332420518e+01   6.8439322370e+01    0.1593662     0.131655  22.45 0.0002746917    1.201    0.167
        66 -11.3973      3.2783      3.8866   7.6379845545e+01   7.3272895626e+01    0.4877415    0.3103787  23.32  0.003393334    1.569    0.363
        67  -8.9146    230.2016      2.2135   2.2245596895e+01   2.9163428911e+01    0.1553774   0.09439959 -71.26 0.0005296382    1.342    0.255
        68 -10.7367    118.0559      1.4931   3.4202788365e+01   5.3430994759e+01    0.2974114    0.1258535  69.11 0.0007875614    2.114    0.527
        69  -9.5022     62.5753    111.9711   8.5245057966e+01   4.6404140853e+01     0.250843    0.2004336  47.45 0.0003991754    1.449    0.310
        70 -10.3041     46.6385    109.5719   9.0345255202e+01   4.8967837007e+01    0.4673227    0.2159924 -51.35 0.0005144808    1.877    0.467
        71 -10.1360     45.8643    102.5731   8.9041759062e+01   5.0733919656e+01     0.470955    0.2811358 -74.62  0.001399605    2.320    0.569
        72  -8.7644    138.9756    107.7290   6.0707892999e+01   3.3387824538e+01    0.2063616    0.1963209  42.67 -0.000275831    1.055    0.052
        73  -9.7808    126.9941    106.2116   6.3450018452e+01   3.6249976168e+01     0.296559    0.2126326 -43.73            0    1.399    0.285
        74  -9.7849      1.4628    105.6615   1.0588304756e+02   5.3490829710e+01    0.3923456    0.1142342 -67.60  0.001372517    2.711    0.631
        75  -8.8017    121.8023    107.8175   6.5306673999e+01   3.6986451017e+01    0.3500213    0.1145075  37.31  0.001017443    3.519    0.716
        76  -9.6497     74.2315    106.3013   7.9804144205e+01   4.6052606192e+01    0.4826031    0.2853997   1.20  0.001076547    2.700    0.630
        77 -11.5751     80.6222    103.1488   7.6798108630e+01   4.5755820668e+01    0.3585303    0.2777494   4.90 0.0006316277    1.418    0.295
        78  -9.0144     58.6225    106.7838   8.5402681551e+01   4.8175857039e+01    0.1979481    0.1358021 -64.25 0.0004537211    1.609    0.378
        79 -11.4002    107.9921    103.2964   6.8085139772e+01   4.0747191155e+01    0.4400733    0.3177185  50.07  0.002047488    1.496    0.332
        80  -9.6884    112.5192    101.4401   6.6236336638e+01   4.0243643021e+01    0.2344629    0.2228178  37.70 0.0005329357    1.074    0.069
        81  -9.4855    131.0523    104.5128   6.1910537576e+01   3.5749370316e+01    0.2313144    0.2081136 -36.35 0.0006631615    1.114    0.102
        82 -10.1265     66.6947    104.2485   8.1906758168e+01   4.7659010746e+01    0.2803093    0.2346864  14.40   0.00145151    1.213    0.175
        83  -9.2996     53.0048    100.7787   8.5977729513e+01   5.0310587258e+01    0.2502199    0.1886612 -32.58 0.0007343745    1.243    0.196
        84  -9.9084     68.1062     99.2111   8.0100716896e+01   4.8612768517e+01    0.3082101    0.2209404 -26.16 0.0006444852    1.441    0.306
        85  -9.0715     70.4701     96.1504   7.8438688630e+01   4.8946625719e+01    0.3137206    0.2111433  61.65  0.001345402    2.365    0.577
        86 -10.6726    115.4900     97.4949   6.4285007867e+01   4.0465995495e+01    0.9612362    0.2321406  47.98  0.002426913    4.941    0.798
        87 -10.5332    116.9929     93.9795   6.2872945866e+01   4.0873757780e+01    0.3375375    0.2962901  62.95  0.001203868    1.275    0.215
        88 -11.7086    101.6332     97.8756   6.8525299537e+01   4.3149383753e+01     0.397402    0.2907217  30.22 0.0002111511    1.381    0.276
        89  -9.9198     96.6668     95.4342   6.9396307136e+01   4.4613925563e+01    0.2857904    0.2449167  45.45  0.000715494    1.236    0.191
        90 -10.5908     61.3840     97.0364   8.1952066016e+01   5.0072073824e+01    0.3744719    0.2975909 -43.27  0.001139954    1.182    0.154
        91 -10.0396     37.5973     97.8478   9.1045624251e+01   5.2728439952e+01      0.46499    0.3227169  51.19  0.002352645    1.920    0.479
        92 -10.1753     25.9183     96.5316   9.5210747857e+01   5.4102080776e+01    0.4674128     0.229258  32.27  0.001384465    2.273    0.560
        93  -9.0407    147.3531     96.2625   5.5642102819e+01   3.3864012229e+01    0.1507217    0.1167959  17.38 0.0002331485    1.618    0.382
        94 -10.1774     15.6661     94.6238   9.8754333810e+01   5.5310529654e+01      0.35878    0.2221943  46.65  0.001353944    2.155    0.536
        95 -10.5148    137.8971     93.3553   5.7146881558e+01   3.6510391760e+01    0.3762195    0.2911108  53.87   0.00143289    1.312    0.238
        96  -8.8539      5.0142     93.7861   1.0266741961e+02   5.6131159621e+01    0.1703176     0.141273 -32.85 0.0004601391    1.133    0.117
        97  -8.8513      1.3802     94.0804   1.0409022730e+02   5.6238565953e+01    0.1869599    0.1011297 -63.61 0.0004009371    1.518    0.341
        98  -8.7695     78.5577     93.8224   7.4955434095e+01   4.8171134628e+01    0.2827986    0.1112224  32.07 0.0009977565    2.679    0.627
        99 -10.5323    126.3863     91.4118   5.9570706384e+01   3.9393920678e+01    0.3694037    0.2738385  55.67 0.0002589237    1.431    0.301
       100 -12.2511    131.3500     85.8884   5.6729811383e+01   3.9369935892e+01    0.5557495    0.3142408  45.13 0.0002800665    1.720    0.419
       101  -9.3884     53.1467     91.9000   8.3663484873e+01   5.2328226171e+01    0.2419366    0.1899444  34.32  0.001255928    1.395    0.283
       102  -9.6294     56.0181     88.7063   8.1716804968e+01   5.2664694168e+01    0.3733112    0.2547708  50.07  0.001800911    1.943    0.485
       103  -9.3441     42.4346     91.0508   8.7553265813e+01   5.3789361588e+01    0.3683517    0.2131969  32.17  0.001774401    1.855    0.461
       104 -12.1558     34.9039     89.7088   9.0166150593e+01   5.4875348663e+01    0.3628262    0.2753725 -64.50 0.0002511938    1.433    0.302
       105 -10.2885     30.3758     85.7998   9.1018159202e+01   5.6186266363e+01    0.2780548    0.2381681  28.27 0.0009782643    1.348    0.258
       106  -9.1549     63.3623     89.5780   7.9206784543e+01   5.1454795586e+01    0.2559466    0.2109008 -10.83 0.0009737015    1.178    0.151
       107  -8.7571     83.5373    249.4550   1.0122358639e+02   1.0211187582e+01    0.1289328    0.1105853  47.81 0.0001508798    1.015    0.014
       108 -11.3002    112.8344     81.4118   6.0432906205e+01   4.4192432856e+01    0.8070154     0.336334  40.02  0.002957659    2.427    0.588
       109 -11.0907    100.3671     69.5680   6.0497647925e+01   4.8913484485e+01    0.7711679    0.4373518  42.90  0.002442684    1.668    0.401
       110 -10.7792    103.1105     59.3754   5.6435928375e+01   5.0052565548e+01    0.8454624    0.4945779  18.10  0.002788221    2.680    0.627
       111 -10.6189    108.2862     62.7044   5.6015141727e+01   4.8428564030e+01    0.2505342    0.2168124 -13.92 0.0007624738    1.220    0.180
       112  -9.9112     12.4922     88.3813   9.8748967805e+01   5.6962677646e+01     0.310589    0.2054809  14.42  0.001045014    1.671    0.401
       113 -10.5338    120.3100     86.6575   5.9867122130e+01   4.1616467892e+01    0.3457291    0.3149976 -81.85  0.001238627    1.284    0.221
       114 -10.2771    124.1933     86.1790   5.8678720153e+01   4.0874408707e+01    0.3939016    0.2744587 -49.63  0.001855348    1.553    0.356
       115  -9.8265    110.3840     88.0727   6.3090696719e+01   4.3418974368e+01    0.2741256    0.2134151  46.86 0.0005990607    1.294    0.227
       116  -8.4239     48.2848     88.6700   8.4670875602e+01   5.3651818976e+01    0.1294736    0.1117681  76.54 0.0007009218    1.612    0.380
       117 -10.5477     86.3267     86.0226   7.0051973286e+01   4.8475756907e+01    0.5605702    0.3400562  35.86   0.00255429    1.622    0.383
       118 -10.9339     79.1050     81.5389   7.1186189412e+01   5.0652725360e+01    0.7158077    0.4387903  10.94  0.001325108    2.217    0.549
       119 -10.6667     83.4347     74.4323   6.7500359142e+01   5.1278831771e+01     0.337345    0.2776768  11.36 0.0006420398    1.188    0.158
       120 -10.5878     78.2273     74.8954   6.9451390633e+01   5.2111815478e+01    0.6035005    0.2424168  32.93  0.002246171    2.612    0.617
       121 -10.6314    158.4721     84.2896   5.0017143844e+01   3.3597544654e+01    0.4503971    0.2419418  56.32  0.001920023    1.895    0.472
       122  -8.8955     95.7175     84.6049   6.6555968639e+01   4.7018144863e+01    0.2288997    0.1792672 -65.74 0.0003222275    1.684    0.406
       123  -8.8868     70.7665     82.9477   7.4580864273e+01   5.1742432325e+01    0.2030579    0.1791805 -17.19 0.0006956971    1.044    0.043
       124  -9.0128     59.4101     82.2574   7.8607350779e+01   5.3589389709e+01      0.31953    0.2008159 -66.36   0.00126422    2.374    0.579
       125 -10.8026     54.0557     80.9679   8.0297676436e+01   5.4594373895e+01    0.3101898    0.2248092 -22.03 0.0003110747    1.349    0.259
       126  -9.6362     60.3808     76.9702   7.6669121268e+01   5.4545489360e+01     0.386214    0.2705309 -21.76 0.0006054672    1.450    0.310
       127  -9.8932     56.8307     72.5218   7.6687104631e+01   5.5947668884e+01     0.360622    0.2090758 -24.93 0.0005532302    1.933    0.483
       128 -11.1737     43.8438     78.5703   8.3669563391e+01   5.6374141434e+01    0.4523003    0.3414176 -59.40 0.0003757079    1.515    0.340
       129 -11.6728     46.2927     72.9831   8.1053233095e+01   5.7245796146e+01    0.5598533    0.4050092  58.57 0.0007479072    2.244    0.554
       130  -9.1040     20.0456     82.3325   9.4392436675e+01   5.7819284143e+01    0.3060296    0.1681912 -57.30  0.001554585    1.610    0.379
       131  -9.3679      1.8473     82.9832   1.0193628658e+02   5.8768538218e+01     0.184433    0.1493761 -48.44 0.0004284746    1.042    0.040
       132  -9.1402     91.9490     80.0170   6.6388699037e+01   4.8635030054e+01     0.221241    0.2048872   4.26 0.0004860637    1.010    0.010
       133  -8.5222      6.8853     80.6589   9.9432051605e+01   5.9039122509e+01    0.1545359    0.1102945  22.65 0.0005112119    1.626    0.385
       134 -10.3451    154.8665     79.3155   4.9464633720e+01   3.5280822917e+01    0.2763563    0.1692434  50.67 0.0008293815    1.590    0.371
       135 -11.1336    121.2656     77.5136   5.6955042061e+01   4.3107875261e+01    0.5074978    0.2893089  45.38  0.002231174    1.676    0.403
       136  -9.1607     87.9306     75.9304   6.6453068825e+01   5.0171345418e+01    0.4931081    0.1880094 -45.17  0.001030021    2.756    0.637
       137 -10.7638    131.5365     60.6310   4.9415426912e+01   4.3637133204e+01    0.7127783    0.4318598 -58.18  0.002260413    2.241    0.554
       138 -11.5522    140.0275     72.4990   5.0862677947e+01   3.9805445713e+01    0.5039956    0.3824255  39.75  0.001840496    1.337    0.252
       139 -10.7836    136.4371     74.0938   5.2148533158e+01   4.0346358729e+01    0.3827038    0.3009726 -68.14  0.001838177    1.542    0.352
       140 -10.4675    136.6016     69.7358   5.0870967894e+01   4.1040106783e+01    0.3066994    0.2694615 -50.32 0.0008468589    1.208    0.172
       141 -10.5697    136.4932     66.4369   4.9953225854e+01   4.1601451920e+01    0.3904878    0.2481723  63.17 0.0006799719    1.681    0.405
       142 -10.9811    152.1839     73.3745   4.8438945253e+01   3.6895882113e+01    0.4116439     0.249909 -38.38  0.001917869    1.709    0.415
       143  -8.8659     11.2361     74.9780   9.6376980679e+01   6.0044376564e+01    0.2110563     0.132021 -35.90 0.0005041535    1.335    0.251
       144  -9.1459      8.0338     74.0092   9.7521444546e+01   6.0445092806e+01    0.1951306    0.1551653 -37.76 0.0005490453    1.008    0.007
       145  -9.2600      4.1262     73.6396   9.9105932349e+01   6.0734941746e+01    0.3186485    0.1665764 -67.92  0.001409498    1.934    0.483
       146  -9.1230     92.7671     74.3630   6.4381122249e+01   4.9550577919e+01    0.3285837    0.1710334  37.37   0.00118091    1.869    0.465
       147 -10.3493     17.3464     71.1791   9.2831267857e+01   6.0453581519e+01    0.3849337     0.205788 -37.61  0.002003685    1.579    0.367
       148  -9.1258     22.0282     70.0000   9.0487386146e+01   6.0342581327e+01    0.3162155    0.1055821  25.25  0.001141489    3.011    0.668
       149 -11.1992    163.9510     71.0806   4.5482633041e+01   3.4591390146e+01    0.3953451    0.2862175  31.15  0.001536923    1.747    0.428
       150 -12.4392    152.3974     64.6898   4.6047281192e+01   3.8244228869e+01     1.083943    0.6694163 -83.62  0.004386687    2.767    0.639
       151 -11.4257    154.6480     50.8031   4.1862284161e+01   3.9768676644e+01    0.7484723    0.4908482  80.74  0.003698673    1.768    0.434
       152 -11.0708    147.1683     61.7860   4.6317389374e+01   3.9891853395e+01    0.4411364    0.3130548  26.50 0.0004692144    1.825    0.452
       153 -13.0878    150.7706     57.7206   4.4473685469e+01   3.9673623219e+01    0.4255052    0.3830819 -78.10 0.0005149093    1.145    0.126
       154 -10.0334    129.0455     70.9246   5.3025472956e+01   4.2539948825e+01    0.2116081    0.2009391  31.56 0.0003614252    1.038    0.036
       155  -9.6964     64.1433     70.4605   7.3209955169e+01   5.5271858238e+01    0.3616644    0.2192722  29.89  0.001216598    1.609    0.379
       156  -9.2629     55.0852     67.2342   7.5714981095e+01   5.7227500090e+01    0.2481399    0.1725111  26.83 0.0007263389    1.404    0.288
       157 -10.2986     60.3526     65.1806   7.2967754279e+01   5.6849445486e+01    0.4032707    0.2867853 -12.40  0.001976078    1.455    0.313
       158 -10.6564     35.4361     67.7955   8.4055646003e+01   5.9543232621e+01    0.3722067    0.2426277 -48.71 0.0007321641    1.471    0.320
       159  -9.4678     33.9921     62.7558   8.3157101791e+01   6.0701129743e+01    0.5096323    0.1850712  20.37   0.00201389    3.070    0.674
       160  -9.2513      9.8047     66.4610   9.4966598083e+01   6.1957503692e+01    0.2884117    0.2010635  60.32  0.001568264    2.399    0.583
       161  -9.8897    180.4956     64.9951   4.1044933676e+01   3.1812059097e+01    0.3874761    0.2661726 -16.67  0.001895155    2.110    0.526
       162  -9.5077    177.4706     64.4458   4.1406109290e+01   3.2573188180e+01    0.4782245     0.208632 -41.37  0.002032692    2.249    0.555
       163 -10.0461     89.1462     63.3135   6.2020087895e+01   5.2211897726e+01    0.7480518    0.2805563 -47.40   0.00263257    3.396    0.706
       164 -11.5061     82.5159     63.7997   6.4390494286e+01   5.3377342309e+01    0.5838082    0.3784807   6.84 0.0007051685    2.042    0.510
       165  -8.8898     48.7678     67.0340   7.8212936753e+01   5.8121266438e+01    0.2522223    0.1569487  38.22  0.001273727    1.799    0.444
       166 -10.4957     42.6886     62.9853   7.9470292427e+01   5.9669305139e+01    0.4851063    0.3633609 -48.35   0.00198058    1.438    0.305
       167  -8.9465     27.1723     66.4565   8.7255300897e+01   6.0632470443e+01    0.2837444    0.2019638  57.66  0.001478417    2.382    0.580
       168  -9.7750    120.8087     66.1978   5.3708386768e+01   4.5150339695e+01    0.3892885    0.1851127  40.04    0.0015554    2.178    0.541
       169 -10.0085     19.8066     64.5548   8.9989404176e+01   6.1651409853e+01    0.2261507    0.1975592 -55.33 0.0002466818    1.331    0.249
       170  -9.6519     22.2530     60.9358   8.7854559783e+01   6.2182229247e+01    0.2226622    0.1572788 -20.21 0.0001820679    1.235    0.191
       171  -8.3110    212.0165     63.9796   3.6264546931e+01   2.5171843551e+01    0.1514469    0.1314479 -75.83 0.0003232351    1.026    0.025
       172  -9.3345     72.0361     65.3117   6.8593309273e+01   5.4959209121e+01    0.3722661    0.1993534  22.72  0.001584377    2.192    0.544
       173  -8.9887      1.6005     64.2131   9.8098146377e+01   6.2878095604e+01    0.1766502    0.1206593 -43.97  0.001095686    1.140    0.122
       174  -9.2322    203.3787     62.5233   3.7080816187e+01   2.7194006029e+01    0.2812731      0.16291 -61.03 0.0008884799    1.837    0.456
       175  -9.9695    193.6415     61.5087   3.8208018455e+01   2.9435528801e+01    0.6126547    0.2446276  57.49  0.002610999    2.428    0.588
       176 -10.6304    200.5626     54.9877   3.5776037141e+01   2.8883886698e+01    0.3514627    0.2695057  37.43  0.001836854    1.761    0.432
       177  -9.9336    171.9480     62.9171   4.1954927345e+01   3.4050833800e+01    0.2725741    0.2388112 -72.45  0.001036486    1.117    0.105
       178  -9.7674    168.4701     60.5185   4.1946642389e+01   3.5200746401e+01    0.2367614    0.2227104  37.05  0.001441746    1.207    0.171
       179 -12.1517    110.9933     65.8104   5.6227071006e+01   4.7342550632e+01    0.2892647    0.2681932  17.06 0.0003429507    1.050    0.048
       180  -9.5388     67.0138     63.0384   6.9702720287e+01   5.6200282843e+01    0.2053113    0.1807134  -3.72 0.0003974533    1.032    0.031
       181 -10.1399    219.1154     59.4686   3.4435139572e+01   2.4380468533e+01    0.2972295    0.2110487 -43.28 0.0008220534    1.349    0.259
       182  -9.4584    222.6255     55.3611   3.3182161519e+01   2.4258363148e+01    0.2450394    0.1644754 -60.46 0.0008615389    1.338    0.252
       183 -10.6838     60.5391     57.6669   7.0373147090e+01   5.8179353594e+01    0.4532253    0.2760598  21.95  0.002267033    1.647    0.393
       184  -9.5789     28.2146     41.4575   7.8658621724e+01   6.5216098881e+01    0.2216688    0.1687695 -39.10  0.000288978    1.375    0.273
       185 -11.3355     17.4392     49.2156   8.6526521441e+01   6.4850094220e+01    0.4786177    0.2565727 -33.52   0.00108393    1.582    0.368
       186 -10.0719     35.0563     51.3631   7.8974812306e+01   6.2729934003e+01    0.2094254    0.1738625 -22.84  0.000369273    1.118    0.106
       187  -9.5925     29.3952     59.1681   8.4088133636e+01   6.1872199558e+01    0.3669415    0.1932405   0.61  0.001716179    2.273    0.560
       188  -9.2661     26.9476     56.2953   8.4299427702e+01   6.2664428443e+01    0.2261562    0.1615262   9.74 0.0007120557    1.338    0.253
       189 -11.3848     30.2999     52.4648   8.1517710010e+01   6.3048184703e+01     0.584537    0.3158894 -52.51  0.002044687    2.030    0.507
       190 -10.5128     24.9585     49.5320   8.3031555927e+01   6.4122211202e+01    0.5601553    0.2475119 -22.62  0.001632207    2.876    0.652
       191  -8.6158      1.5678     51.5084   9.4921652437e+01   6.5467689351e+01    0.1630032   0.09617025 -12.91 8.358155e-05    1.585    0.369
       192 -10.2888      7.6726     57.6736   9.3672818073e+01   6.3896768237e+01    0.6258337     0.261441 -26.87  0.002895801    2.396    0.583
       193 -10.3182      6.0558     49.8082   9.2256659286e+01   6.5547830498e+01    0.3606985    0.2775377 -48.13  0.001605948    1.274    0.215
       194  -9.8778      9.7028     49.9314   9.0509338822e+01   6.5291282774e+01    0.2135547    0.1541131 -42.20 0.0004279023    1.208    0.172
       195  -9.1669    213.7513     57.5003   3.4662185867e+01   2.5756249660e+01     0.221811    0.1582965 -46.35 0.0006220744    1.312    0.238
       196 -11.3391    161.2254     55.3888   4.1893757183e+01   3.7608140294e+01     0.463075    0.3860761 -23.92  0.001418638    1.406    0.289
       197 -10.0581     96.0144     57.3068   5.7874610550e+01   5.1840112022e+01    0.4032369    0.3307496  58.70  0.002231956    1.388    0.280
       198  -9.7737     93.2158     54.0581   5.7653115919e+01   5.2911719381e+01    0.4993972    0.2572543 -16.06  0.001757018    3.396    0.706
       199  -9.3392     45.1716     54.1531   7.5474336152e+01   6.0994094564e+01    0.5716985    0.1838314 -50.53  0.002027045    3.881    0.742
       200 -10.4324     73.4876     25.6316   5.3739790782e+01   6.0597800735e+01     0.478809    0.3965181 -71.88    0.0028437    1.998    0.500
       201  -9.3643     75.4607     20.8091   5.1225916210e+01   6.0756155748e+01     0.281201    0.1904372  24.43  0.001636067    1.399    0.285
       202 -10.4236     77.9686     55.4171   6.3131367042e+01   5.5618981027e+01    0.2667787    0.2197983  -4.44 7.723592e-05    1.181    0.153
       203  -9.3371    106.5414    245.4950   9.5642191058e+01   7.8095432062e+00    0.2326386    0.1915644 -80.46   0.00138781    1.445    0.308
       204 -11.2177     83.4372     49.8367   5.9336408065e+01   5.5473770874e+01    0.6947554    0.5178276 -19.21  0.003788309    1.411    0.291
       205 -10.1549     82.8401     44.9333   5.7807396879e+01   5.6310774430e+01    0.3161457    0.2750083  60.72  0.001036424    1.422    0.297
       206 -11.1015     84.8250     39.1014   5.5084267793e+01   5.6730691801e+01    0.5391122    0.2829291 -40.48 0.0002638118    2.220    0.550
       207 -10.6017     82.6174     31.7551   5.3105905543e+01   5.8103959349e+01    0.4750886    0.3091089  32.20  0.001785035    1.403    0.287
       208 -11.5172     90.9286     43.9422   5.4898996953e+01   5.4854184235e+01    0.2937017      0.24506  28.76  0.000297725    1.061    0.058
       209 -10.2727     91.2715     40.3014   5.3524619661e+01   5.5279371864e+01    0.2191284    0.1781186  38.35            0    1.083    0.077
       210 -10.3838    246.0146     55.7477   3.0835373780e+01   1.9724757368e+01    0.1948158     0.141634 -52.54 0.0002436446    1.158    0.136
       211  -9.3950    239.1292     56.0010   3.1558656676e+01   2.0966635453e+01    0.1831342     0.146602 -63.15 0.0006560843    1.024    0.024
       212 -11.6324    175.1202     54.0168   3.9211745827e+01   3.4635063925e+01    0.4692732    0.3942634  71.97 0.0009225052    1.109    0.098
       213  -9.6297    165.5040    243.5069   8.2196773454e+01  -4.0969956402e-01    0.1338377      0.11319  11.17 0.0008106371    1.006    0.006
       214  -9.6322    160.4909    242.4959   8.3133993718e+01   4.9578193143e-01    0.1340843     0.115038  14.47 0.0008104634    1.027    0.026
       215 -12.1408    140.2414     37.9301   4.0979243331e+01   4.4775959709e+01    0.3094099    0.2457142  58.08 0.0002873361    1.120    0.107
       216 -11.0935    122.0825     49.0875   4.8172870948e+01   4.7459733981e+01    0.3882532    0.2868843 -42.98  0.001640813    1.505    0.335
       217  -8.3225     51.9609     54.6402   7.2782354841e+01   5.9982366068e+01    0.2093127   0.09651614  50.20 0.0007043497    4.515    0.778
       218  -9.5339    206.7209     52.3433   3.4411850403e+01   2.7946251766e+01    0.2135533    0.1908278 -33.41  0.001058655    1.344    0.256
       219 -10.6036    211.5577     49.4206   3.3205978493e+01   2.7336477910e+01    0.2737005    0.2068829  89.97 0.0006448733    1.236    0.191
       220 -10.3532    209.1364     43.4429   3.2213337234e+01   2.8640281787e+01    0.3671306    0.2130847 -53.96   0.00203092    1.599    0.375
       221  -9.4173     64.9045     52.0586   6.6722612285e+01   5.8431877689e+01    0.1995341     0.171051   0.24 0.0004217105    1.038    0.036
       222  -9.6721    201.4241     49.8599   3.4525529350e+01   2.9412644325e+01    0.2480233    0.1952505  78.21  0.001050493    1.191    0.160
       223 -10.4954    107.2931     48.3341   5.1683379289e+01   5.0820660885e+01    0.5405293     0.275577  44.36  0.001133515    1.775    0.437
       224  -8.7623    111.2694     48.6830   5.0741761623e+01   4.9909850363e+01    0.2027379    0.1815976  61.48 0.0004818888    1.166    0.143
       225  -9.1721     55.2529     49.6798   6.9674245907e+01   6.0344595270e+01    0.2088843    0.1603723 -16.05 0.0005067523    1.209    0.173
       226 -10.3070    246.3378     47.9420   2.9350082615e+01   2.0726092840e+01    0.2289919    0.1975179 -42.29  0.001129366    1.372    0.271
       227 -10.5812    232.8797     48.2863   3.0687155060e+01   2.3214196033e+01    0.2132623    0.1850284  86.69 0.0002249934    1.196    0.164
       228 -11.2866    127.7695     52.5919   4.7903694506e+01   4.5683601081e+01    0.6095709      0.39719 -29.72  0.002158402    1.721    0.419
       229  -9.1218     62.4527     47.9089   6.6173868232e+01   5.9501565542e+01    0.1905405    0.1244138 -34.46  0.001018363    1.562    0.360
       230 -12.3776    163.3082     42.3321   3.8142266976e+01   3.8906789013e+01    0.4903421    0.3324679 -65.06 0.0004643077    1.656    0.396
       231  -9.2756     38.0137     46.4746   7.5917958193e+01   6.3238054901e+01    0.3267097    0.1471162 -36.99  0.001132467    2.087    0.521
       232  -9.1833    227.9669     45.3495   3.0599732946e+01   2.4564026666e+01    0.2067845     0.138393 -57.09  0.001282634    1.283    0.221
       233  -9.6605     72.5361     43.7508   6.0904907692e+01   5.8402769667e+01     0.330557    0.3049694  49.58  0.002082645    1.352    0.260
       234  -9.1292     67.1841     44.9524   6.3295490760e+01   5.9165973022e+01    0.1789393    0.1712044   3.64  0.000259112    1.259    0.206
       235  -9.1327    218.4380     42.7766   3.1060026647e+01   2.6808818951e+01    0.3151949    0.1106576 -36.48  0.001376874    2.834    0.647
       236 -10.9875    108.2548     43.3028   4.9786099150e+01   5.1302236289e+01     0.426509    0.2454748  53.69  0.002077405    1.598    0.374
       237  -9.5615     33.4273     43.3679   7.6893483036e+01   6.4311535129e+01    0.2229335    0.1971195 -17.99  0.001328217    1.240    0.193
       238 -10.3918    184.9433     54.8613   3.7917388905e+01   3.2312484707e+01    0.5089464    0.2257664 -43.23  0.001209354    2.184    0.542
       239  -9.8044    157.6447     39.1315   3.8228499536e+01   4.0613638823e+01    0.2400227    0.1662078  58.25 0.0004029142    1.312    0.238
       240 -10.6564     56.5940     41.8349   6.6235601751e+01   6.1381141439e+01    0.2680502    0.1996098   6.86 0.0002259132    1.236    0.191
       241 -10.7945     54.3940     36.1589   6.4946891221e+01   6.2564405025e+01    0.4157322     0.213409 -40.23  0.001699917    2.164    0.538
       242  -9.6558     61.4668     41.4597   6.4169311873e+01   6.0651450751e+01    0.2278623    0.1634521  34.08 0.0006047002    1.295    0.228
       243 -11.8377     62.7938     37.2888   6.2074410470e+01   6.1031122158e+01    0.6137624     0.303296  35.38  0.001705636    1.826    0.452
       244 -10.5642     18.3742     42.7303   8.3917170605e+01   6.5953761327e+01    0.3006871    0.1922688  14.06 0.0008819134    1.489    0.328
       245  -9.1909     98.4417     41.4639   5.1838525643e+01   5.3642730558e+01    0.2912844    0.1899871  58.58 0.0009581798    1.618    0.382
       246  -9.9204    230.7121     39.5887   2.9204825951e+01   2.4777337294e+01    0.2280281    0.1582468 -57.84 0.0005578513    1.217    0.178
       247 -10.5805    194.9087     37.3793   3.2549150585e+01   3.2453315774e+01    0.2734582    0.2015381 -66.46 0.0005818479    1.269    0.212
       248 -10.4757    127.8563     37.6086   4.3370505704e+01   4.7654657220e+01    0.3701956    0.2386208  63.99  0.000755092    1.473    0.321
       249  -8.9641     44.5046     38.5138   7.0047918255e+01   6.3681549804e+01    0.2293039    0.1029987 -28.61  0.001026999    2.436    0.590
       250 -10.6330    201.9473     37.3735   3.1724813306e+01   3.0939057086e+01    0.2301703    0.1836096 -78.89 0.0003369359    1.093    0.085
       251  -8.8375    168.9728     37.9675   3.6155945261e+01   3.8163005892e+01    0.1744186     0.138909 -80.44            0    1.235    0.190
       252  -8.9122    116.9843    237.0228   9.2157501732e+01   7.9955891306e+00    0.1642344    0.1445652  30.95 0.0003590459    1.015    0.015
       253  -9.8421     43.4138     30.2549   6.7249653015e+01   6.5051177901e+01    0.3692377     0.190128 -23.70   0.00153383    2.080    0.519
       254  -9.6063     47.2954     28.6341   6.4897432366e+01   6.4705030824e+01    0.2192516    0.1773152  13.44 0.0007097752    1.059    0.056
       255  -9.1641     38.4608     37.5140   7.2366884966e+01   6.4647127722e+01    0.2166365    0.1850411 -25.65  0.000769548    1.296    0.228
       256 -10.2154     40.0600     33.2171   6.9948413456e+01   6.5089667433e+01    0.2221648    0.1775116  -3.65 0.0002488825    1.048    0.046
       257  -9.5713     32.8585     37.2388   7.4864758458e+01   6.5385357475e+01     0.187042    0.1485794 -30.18 0.0002028382    1.290    0.225
       258  -9.4665      2.2799     38.0196   9.0581373509e+01   6.7981186344e+01    0.1931874    0.1247706 -13.77 0.0002382694    1.315    0.240
       259  -8.9870      5.3110     36.6603   8.8538947582e+01   6.8034986228e+01    0.1992746    0.1559109  17.39 0.0007155591    1.454    0.312
       260  -9.4334    250.4941     36.9829   2.7000034817e+01   2.1390333801e+01    0.2204872   0.08143656 -45.04  0.001137245    2.165    0.538
       261 -11.1363    246.5485     32.5659   2.6521998448e+01   2.2661064897e+01    0.3948282    0.1985406 -54.41  0.001020229    1.637    0.389
       262  -8.9367     27.9899     36.6762   7.6983884142e+01   6.6033572237e+01    0.1774593    0.1298098   6.91  0.001123466    1.179    0.152
       263  -9.7167    115.1011     35.1955   4.5464216840e+01   5.0821773925e+01    0.3045802    0.1860609 -30.07  0.001230768    1.847    0.459
       264 -10.4114     96.8477     33.4262   4.9520014646e+01   5.4995306983e+01    0.3518736    0.2053632  32.45 1.697789e-05    1.766    0.434
       265 -10.0291     74.4900     33.8376   5.6539093656e+01   5.9406538640e+01     0.389882    0.2370335  -8.04  0.001945951    2.074    0.518
       266  -8.6143    185.6135     34.8293   3.3114682774e+01   3.4807627740e+01    0.1739155    0.1045806 -49.40 0.0009422115    1.639    0.390
       267  -9.3569    106.7224     34.9816   4.7437618010e+01   5.2692519518e+01    0.2190856     0.155044  34.31 0.0003674373    1.369    0.270
       268  -9.0360    119.2468    230.9553   9.0785526281e+01   8.9040229698e+00    0.1667268    0.1196278 -56.68 0.0005602148    1.552    0.356
       269  -8.8555    140.1924    227.5102   8.5381400500e+01   6.4066929548e+00    0.2059275    0.1263976  32.07  0.000996312    1.484    0.326
       270  -8.8946     98.3098    225.3076   9.4962393897e+01   1.3228496686e+01    0.1358285    0.1060984 -14.93 0.0002825623    1.617    0.381
       271 -11.4210     76.7797    219.6472   9.9410814194e+01   1.7548013429e+01    0.9005061    0.5163423  30.65   0.00353672    1.702    0.412
       272 -11.0544     73.3195    213.9754   9.9560201321e+01   1.9327713028e+01     0.757875    0.4005426  27.28  0.003413257    1.973    0.493
       273  -8.9963     91.4069    214.5301   9.5183947258e+01   1.6657520503e+01    0.2849736    0.1310416  32.63 0.0006747538    2.054    0.513
       274 -12.3598     34.8076     27.4381   7.0021624238e+01   6.6623104689e+01    0.3716083    0.2270876  20.46 0.0002862867    1.446    0.308
       275  -9.2615    148.9887    210.7857   8.0560606762e+01   8.4569984637e+00      0.22278    0.1973951 -33.32  0.000382607    1.153    0.133
       276  -9.6562     90.2304    205.1409   9.4161418498e+01   1.9020972195e+01    0.4484048    0.2633364 -73.73  0.001963089    2.060    0.514
       277  -8.5338    215.4789     34.4757   2.9666799341e+01   2.8469837615e+01    0.1203222   0.09898838 -77.11   0.00013285    1.010    0.010
       278 -11.6677    132.1286     29.5864   4.0109152390e+01   4.7618463545e+01    0.3272996    0.2709841 -45.50  0.002012779    1.362    0.266
       279  -9.7369    123.9769    206.0034   8.5801011752e+01   1.3569607254e+01    0.2041045    0.1921234  19.09  0.001149918    1.004    0.004
       280  -9.7925    244.4211     18.9247   2.4246841035e+01   2.4674517363e+01    0.2608935    0.1643403 -83.98 0.0008181416    1.373    0.272
       281 -11.2124    236.1825     29.3626   2.6776667030e+01   2.4995462435e+01     0.414199    0.3307507 -38.70  0.001674156    1.471    0.320
       282  -8.4956     41.5973    201.5319   1.0594950257e+02   2.6216945497e+01    0.1327845     0.117366  83.72 4.116806e-05    1.019    0.018
       283  -8.3046    152.5023    199.0050   7.7619143680e+01   1.0379284124e+01     0.199342    0.1431686 -45.22 -0.0003341918    1.415    0.293
       284  -9.0261     59.3452     31.9675   6.1328661152e+01   6.2340342224e+01    0.1788418    0.1437071  -2.71 0.0009003773    1.151    0.131
       285  -9.1575    201.1119     29.9463   3.0211366820e+01   3.2025911988e+01     0.200919     0.142713 -54.91 0.0008105051    1.312    0.238
       286 -12.2173    117.8851     51.3684   4.9903049762e+01   4.8073849129e+01    0.3216748    0.2552567  44.61 0.0002754741    1.146    0.127
       287 -10.1227    124.0669     30.5474   4.2018051005e+01   4.9347693455e+01    0.2633032    0.2038333  59.54 0.0004564866    1.138    0.121
       288  -9.8463    216.2215     29.1545   2.8513449554e+01   2.8966144169e+01    0.2815378    0.1815701 -87.44   0.00103549    1.437    0.304
       289  -9.9185    179.8720     28.7351   3.2414935341e+01   3.6808404161e+01    0.2727131    0.2079532  77.36 0.0006081854    1.150    0.130
       290  -9.7574    183.4373     25.2906   3.1174347499e+01   3.6408808323e+01    0.2595499    0.1828457 -73.88 0.0009005764    1.375    0.273
       291 -10.4007    179.6288     21.6865   3.0790971777e+01   3.7651994792e+01    0.3333421     0.201284 -66.39  0.001789334    1.749    0.428
       292  -9.3092    110.6767     29.7129   4.4731853816e+01   5.2440801973e+01     0.227913    0.1813985  29.76 0.0008513184    1.262    0.207
       293  -8.4434     66.2701     30.6926   5.8224679735e+01   6.1310204831e+01    0.1081641    0.1034656  85.49 0.0002526719    1.540    0.351
       294  -9.8952    206.9192     25.8624   2.8744786735e+01   3.1278743625e+01    0.2355081    0.1677381 -34.99 0.0007478584    1.599    0.375
       295 -10.2640     66.0621     25.1120   5.6097022855e+01   6.2032483861e+01    0.3536158    0.3117794 -42.59  0.001373999    1.539    0.350
       296 -10.7827     63.7697     19.8617   5.4798365575e+01   6.3045521945e+01    0.2348039    0.1906675  40.01 0.0002651624    1.224    0.183
       297  -8.8389    167.1270    198.1867   7.4051449976e+01   8.0984434055e+00    0.2128919    0.1768609  -7.01 0.0003040813    1.184    0.156
       298  -9.6175      1.3119    184.7601   1.1425335676e+02   3.4001302383e+01    0.3776034   0.09284099 -74.62  0.001379861    3.301    0.697
       299  -9.2878    119.5693     26.2774   4.1639889313e+01   5.0834545940e+01     0.273459    0.1427848  50.33 0.0009975983    1.631    0.387
       300  -9.1472    224.5362     13.4578   2.4727753147e+01   2.9086450467e+01    0.1431804    0.1295345  60.76 1.934685e-05    1.492    0.330
       301  -9.2444    221.7516     15.6227   2.5361107420e+01   2.9402224197e+01    0.2523298    0.1476042  85.59 0.0009088938    1.525    0.344
       302  -9.8606    225.0014     22.9945   2.6508707428e+01   2.7925164922e+01    0.2791219    0.2072113  82.78 0.0003442817    1.220    0.180
       303  -9.8624    222.3223     19.8840   2.6134993750e+01   2.8813489583e+01    0.2169364     0.178898 -52.61  0.001099655    1.266    0.210
       304  -8.2430     77.5080    185.5793   9.4602624053e+01   2.5641144108e+01    0.1427935     0.138926  73.13 7.929956e-05    1.013    0.013
       305  -9.6219    158.8353     22.8429   3.3791263309e+01   4.2220675580e+01    0.2071207    0.1545818  64.61 0.0007151485    1.173    0.148
       306  -9.7211     98.8200     23.4416   4.5527583798e+01   5.5701830593e+01    0.2328011    0.2075173  77.70 0.0008279636    1.315    0.240
       307  -9.5530    212.1434     22.2556   2.7502128147e+01   3.0608098628e+01    0.2210757    0.1905653 -40.24 0.0007658501    1.395    0.283
       308  -8.9623    213.5519     18.5345   2.6625911803e+01   3.0737054974e+01    0.1761378    0.1094676 -68.32 1.449401e-05    1.446    0.308
       309  -9.1912     25.0006    173.9612   1.0728889630e+02   3.4738683451e+01    0.1963182    0.1740724 -85.45  0.001209611    1.016    0.016
       310  -9.4232    117.8238     19.3220   3.9815800824e+01   5.1940911017e+01    0.3483658    0.1565245  52.60  0.001237203    1.816    0.449
       311  -9.2073    248.9114     22.3559   2.4530019730e+01   2.3454331767e+01    0.1523074    0.1106168 -87.26  0.001110407    1.200    0.167
       312  -8.1251    205.6785     21.2558   2.7907416014e+01   3.2064527648e+01    0.1206832   0.07430147 -74.38 0.0002887046    1.543    0.352
       313  -8.5273    143.1711     21.6304   3.5864875905e+01   4.5937566222e+01    0.1829806   0.09852437  56.68 0.0009334565    1.582    0.368
       314  -8.9591    131.5210     19.9672   3.7386272591e+01   4.8773783956e+01    0.2115124    0.1468827  62.48 0.0009569782    1.222    0.182
       315  -8.1247    102.3477    172.7453   8.5621221722e+01   2.5049583981e+01     0.154982    0.1154916  61.38 0.0004450517    1.592    0.372
       316 -10.2040     81.0993     19.8253   4.9107660441e+01   5.9750228697e+01    0.2094828    0.1894514  27.98 0.0002716276    1.127    0.113
       317  -8.9310     81.0093     15.5073   4.7492098487e+01   6.0200077189e+01    0.1848961    0.1412257  40.34  0.001164139    1.068    0.064
       318  -8.7985     29.6333    165.7842   1.0509605293e+02   3.6388493547e+01    0.2003677    0.1186216 -82.06 0.0009520607    1.675    0.403
       319 -10.7124     10.4358    163.0911   1.1007228240e+02   3.8673056056e+01    0.4045063    0.2751522 -34.81  0.002238114    1.722    0.419
       320 -11.6276     17.4996    159.0266   1.0770280864e+02   3.9159666097e+01    0.4531181    0.2624231 -62.91  0.002321842    1.471    0.320
       321  -8.2028      6.3016    159.3470   1.1082437426e+02   3.9904110038e+01    0.1372467   0.08094281 -48.16 0.0001516806    1.687    0.407
       322 -10.7554      2.3451    154.1006   1.1139908903e+02   4.1473640480e+01    0.4097617    0.2243674 -67.28  0.001345746    1.487    0.327
       323  -9.1055     72.3839    149.2546   8.9919357769e+01   3.5665188352e+01    0.2295059    0.2022137   2.37  0.001205622    1.232    0.188
       324 -10.2160     23.8275    149.1025   1.0468328314e+02   4.1175754719e+01    0.2308347     0.191208 -37.24 0.0005995938    1.271    0.213
       325  -9.4814      3.4592    131.3966   1.0864519432e+02   4.7078738949e+01    0.3711668    0.1548822  30.56  0.001454797    2.648    0.622
       326 -10.8454      6.3575    148.0389   1.0965884509e+02   4.2736908471e+01    0.3234516    0.2432209  28.30  0.001234091    1.537    0.349
       327 -10.9970      2.6451    143.2423   1.1021894702e+02   4.4168241890e+01    0.4381658    0.2503121 -80.74  0.002036209    1.568    0.362
       328  -9.0436     19.1048     19.1249   7.4352243642e+01   6.9657622825e+01    0.1692622    0.1168633  -5.42 0.0002910737    1.161    0.139
       329  -9.5231    193.3195     16.9571   2.8217831672e+01   3.5162463510e+01    0.1972654    0.1427903  79.12 0.0004509188    1.186    0.157
       330  -8.4602     60.5297    148.4129   9.3403755130e+01   3.7482196297e+01    0.1456552    0.1371463 -49.83 8.866299e-05    1.023    0.022
       331 -10.7156     30.6513    146.9487   1.0234222753e+02   4.1132069145e+01    0.2672217    0.2374684  46.26            0    1.236    0.191
       332 -10.8452     16.0601    104.2839   1.0041631364e+02   5.2988433866e+01    0.4267716    0.3623003  48.01  0.001339782    1.438    0.304
       333 -10.4971     11.9179    145.1770   1.0772306738e+02   4.3086497650e+01    0.3428826    0.2044192 -51.04 0.0002356234    1.522    0.343
       334 -11.3467     21.2819    141.9227   1.0450315504e+02   4.3218423766e+01    0.5752981     0.267816  36.86 0.0007556834    2.330    0.571
       335 -11.8062     14.7179    134.6221   1.0555573348e+02   4.5561241787e+01    0.6961511    0.4563653 -13.49  0.001020518    1.872    0.466
       336 -10.2310      9.8001    100.7390   1.0208871012e+02   5.4229332012e+01    0.8761385    0.1600976 -48.55  0.002996404    3.484    0.713
       337 -10.7499     12.0368    128.5942   1.0559265010e+02   4.7259360441e+01    0.5464722    0.2383506  32.70   0.00148458    2.529    0.605
       338 -11.7269      9.6574    120.2904   1.0521117480e+02   4.9478657628e+01     0.770948    0.6171436 -33.91  0.004729129    1.248    0.199
       339  -8.5830    141.4997     14.4737   3.4144519030e+01   4.7025490206e+01    0.2265049    0.1061804  66.12 0.0006610055    1.803    0.445
       340 -10.2484      2.7919    116.6217   1.0698232945e+02   5.0766633909e+01    0.3522437    0.2790533  84.09  0.001539549    1.375    0.273
       341  -9.6159      2.1187    111.9523   1.0656444239e+02   5.1939685400e+01     0.285131    0.1949338 -22.27  0.001650149    1.575    0.365
       342 -10.6592      8.4808    108.5001   1.0384540063e+02   5.2438903233e+01    0.5786945    0.2885059 -14.93  0.002670892    2.508    0.601
       343 -10.2679     36.6484    141.4683   9.9676048997e+01   4.1976409999e+01    0.4834633    0.1578497 -48.81  0.001727397    2.782    0.640
       344  -9.2646    189.1261     25.9566   3.0662762805e+01   3.5081332243e+01    0.1811638    0.1538725  86.24 0.0004288815    1.052    0.050
       345  -8.9394     56.3080    142.4718   9.3655411132e+01   3.9547545985e+01     0.194775    0.1362739  40.79 0.0009393237    1.535    0.349
       346  -9.8744     44.3835    141.6490   9.7273267029e+01   4.1135011950e+01     0.271633    0.2284306   9.67 0.0008546489    1.326    0.246
       347 -11.5368     28.6841    137.9837   1.0164624793e+02   4.3608863303e+01     0.774364    0.3763442 -72.19  0.001596028    1.986    0.497
       348 -10.9816     23.7118    125.0850   1.0126338459e+02   4.7298968809e+01    0.6173723    0.2198054 -60.77  0.001112786    2.224    0.550
       349 -10.4657     34.2096    132.6570   9.9039339417e+01   4.4469732610e+01    0.3253095    0.2725031  42.34  0.001212857    1.337    0.252
       350  -9.6346     27.4639    130.4680   1.0088222553e+02   4.5630076384e+01    0.2469059    0.2228199 -21.09 5.980552e-05    1.182    0.154
       351 -11.7536     29.3353    125.0874   9.9386512795e+01   4.6831279313e+01    0.5397462    0.4889551  41.37  0.002248612    1.258    0.205
       352  -8.2677     53.3188    133.6282   9.2977148253e+01   4.2182482068e+01    0.1521696    0.1102877  71.69 0.0001213186    1.797    0.444
       353 -10.4895     41.2399    127.5474   9.5833526573e+01   4.5077765033e+01    0.4072042    0.2071863 -62.73  0.001774959    1.792    0.442
       354 -11.2777     47.2090    126.3241   9.3603216625e+01   4.4746588145e+01    0.5506366    0.2609811  28.50  0.001039147    2.222    0.550
       355  -9.9147     97.7577    125.9815   7.7047436376e+01   3.7456279094e+01    0.2463158    0.2189078  24.54 0.0004632045    1.139    0.122
       356 -10.1304    230.6902    124.3869   4.6377518545e+01   1.1547537025e+01    0.4238818    0.2993497 -74.77  0.002204621    1.945    0.486
       357 -10.2815     83.2610    119.3341   8.0030762694e+01   4.1527477751e+01    0.3738974    0.2811746 -34.50  0.001108158    1.331    0.248
       358  -8.8096    136.1729    120.1316   6.4613497822e+01   3.1324956035e+01    0.2088698    0.1870564 -79.11 0.0004309565    1.285    0.222
       359  -9.9513     57.9652    117.8862   8.8193799018e+01   4.5569294145e+01    0.3531362    0.2689248  65.02  0.001590985    1.733    0.423
       360  -9.2195     67.2808    118.0307   8.5040021630e+01   4.4277968592e+01    0.2086971     0.185176 -44.87 0.0004129577    1.066    0.062
       361  -8.7600     98.5632    117.5103   7.4708744985e+01   3.9324545961e+01     0.154967    0.1466028 -18.73 0.0001226703    1.015    0.015
       362  -8.8991     46.2280    116.7873   9.2033247066e+01   4.7244141619e+01    0.2077059     0.152031 -34.45  0.001063444    1.324    0.244
       363 -11.4263     25.2378    115.9786   9.9218523730e+01   4.9452402160e+01    0.6112411    0.5011651 -56.78  0.002498213    1.067    0.062
       364 -11.3825     30.6458     30.9330   7.3443511130e+01   6.6628983473e+01    0.2786504    0.2591091  -7.47  0.000311954    1.430    0.300
       365 -10.9056     22.8298    110.2189   9.9039979781e+01   5.1060345254e+01    0.7000776    0.2864814  11.92  0.002835603    3.016    0.668
       366 -11.0134     34.8454    109.1968   9.4520419184e+01   5.0280333817e+01    0.5482867    0.3843516 -64.73  0.002010514    1.388    0.280
       367  -9.4268     84.4165    112.9157   7.8065338729e+01   4.2867167685e+01    0.2983964    0.2161855  19.10 4.861563e-05    1.495    0.331
       368 -10.0987     25.3290    107.0238   9.7544171321e+01   5.1642169838e+01    0.2603897     0.219158  36.51 0.0004494108    1.389    0.280
