#   1 NUMBER                 Running object number                                     
#   2 MAG_AUTO               Kron-like elliptical aperture magnitude                    [mag]
#   3 X_IMAGE                Object position along x                                    [pixel]
#   4 Y_IMAGE                Object position along y                                    [pixel]
#   5 X_WORLD                Barycenter position along world x axis                     [deg]
#   6 Y_WORLD                Barycenter position along world y axis                     [deg]
#   7 A_WORLD                Profile RMS along major axis (world units)                 [deg]
#   8 B_WORLD                Profile RMS along minor axis (world units)                 [deg]
#   9 THETA_WORLD            Position angle (CCW/world-x)                               [deg]
#  10 FWHM_WORLD             FWHM assuming a gaussian core                              [deg]
#  11 ELONGATION             A_IMAGE/B_IMAGE                                           
#  12 ELLIPTICITY            1 - B_IMAGE/A_IMAGE                                       
         1 -14.4606    151.8490     56.0361   8.7172323715e+01   4.0041268558e+01     1.305009     1.211596  17.09 0.0009578714    1.102    0.093
         2 -14.9338    163.4948     41.2082   7.9766666669e+01   3.9137776259e+01      1.48116     1.101256 -11.93  0.003771828    1.509    0.337
         3 -14.7097    178.4722      7.8411   6.6387725976e+01   3.8863471170e+01     1.689865    0.9505404  64.08  0.006097551    1.657    0.396
         4 -10.6068    150.7731    245.7567   1.2662487037e+02   8.1183754146e+00     0.151784    0.1094174  27.32 0.0004157816    1.077    0.072
         5 -19.9469     74.3197    172.1090   1.3525156454e+02   3.0969781850e+01     16.10939     7.115866 -71.00   0.07345571    2.601    0.615
         6  -7.5220     13.8828    239.5465   1.5226273824e+02   2.5013403347e+01    0.2252124   0.05614353 -85.96    0.0010959    4.401    0.773
         7 -10.5690     11.0613    240.8401   1.5279764489e+02   2.5054390458e+01     0.102986     0.067747  66.98 0.0008263596    1.259    0.206
         8 -13.6432    209.9914    187.2690   1.0712258646e+02   6.8068211392e+00    0.7167117    0.3868448 -51.47  0.003019489    4.362    0.771
         9 -12.7927    206.5568    178.9619   1.0628695538e+02   8.4215754525e+00    0.4148552    0.2557726  21.38  0.001729848    1.455    0.313
        10 -12.7416    209.7720    176.0114   1.0515225386e+02   8.2874057516e+00    0.5238985    0.2666731 -39.80  0.001920165    2.372    0.578
        11 -10.0879    131.6856    235.8455   1.2924425659e+02   1.1999461510e+01    0.1384787     0.104457  48.55            0    1.316    0.240
        12 -11.4264     36.5554    186.3454   1.4561576715e+02   3.2387450065e+01    0.2465671    0.1926312  -0.92 0.0006341142    1.847    0.459
        13 -11.3682     25.9259    184.8365   1.4798994298e+02   3.3695433260e+01    0.1778262    0.1392556  50.21 0.0003152534    1.091    0.083
        14 -12.2052     30.8192    183.0510   1.4676901670e+02   3.3601023458e+01     0.378069       0.1861  28.16  0.001367204    1.933    0.483
        15 -11.9987    154.0020    185.4782   1.1808376340e+02   1.6191054989e+01    0.2116531    0.1954547  84.02 0.0007670514    1.477    0.323
        16 -10.9583    108.3435    182.6073   1.2812195650e+02   2.4032302415e+01    0.2663213    0.1719528  58.29 0.0005115598    1.675    0.403
        17 -11.5793      3.8498    179.5129   1.5281242821e+02   3.6560545865e+01    0.2322236    0.1769311  54.29 0.0009414852    1.080    0.074
        18 -10.5884     28.4429    179.4986   1.4714125581e+02   3.4541353763e+01    0.2059898    0.1561731  20.18  0.001377683    1.541    0.351
        19 -10.6851    139.3753    250.0234   1.2920253204e+02   9.1071609123e+00    0.2154091    0.1135047  37.78 0.0008671196    1.338    0.252
        20 -13.4984    195.5312    170.8030   1.0689906942e+02   1.1375040810e+01    0.7056828    0.3971212 -43.72  0.003039567    2.267    0.559
        21 -12.9703    177.5127    171.5285   1.1067831875e+02   1.4384209170e+01    0.4408036    0.3299853 -58.38  0.002389189    2.060    0.514
        22 -14.1815    140.7780    170.5341   1.1863650253e+02   2.0974802809e+01     1.142989    0.5754899  39.02  0.004724984    1.688    0.408
        23 -11.7086    203.0701    172.3043   1.0572411303e+02   9.8897697084e+00    0.2270852    0.1870581 -26.18 0.0009073163    1.374    0.272
        24 -10.8741     13.4597    233.2560   1.5219407243e+02   2.6058910908e+01    0.1139746   0.07802281  68.71 0.0003676438    1.247    0.198
        25 -10.3282     11.3134    174.1837   1.5093869391e+02   3.7076179388e+01    0.1536961    0.1143962 -83.43 0.0006185783    1.350    0.259
        26 -11.1872     21.8881    244.2792   1.5093798557e+02   2.3554715959e+01    0.1460184    0.0937466  61.92   0.00106377    1.227    0.185
        27 -12.0163    230.2681    166.9587   9.9811731442e+01   6.1425394972e+00    0.3362771    0.1492396 -40.65  0.001529371    2.942    0.660
        28 -11.3681    201.0504    164.8922   1.0470687540e+02   1.1265034831e+01    0.2415244    0.1899977 -52.97  0.000878651    1.944    0.486
        29 -11.5695    122.5284    165.8226   1.2224428710e+02   2.4969928630e+01    0.3914514    0.1899375  50.94  0.001093586    2.245    0.555
        30 -10.3735     25.5060    165.0027   1.4708123651e+02   3.7832846283e+01    0.2218891    0.1454631  -6.46  0.001228921    2.443    0.591
        31 -10.7644    222.8059    162.3245   1.0020707517e+02   7.9304821238e+00     0.275324    0.1558631 -43.10  0.001023665    2.402    0.584
        32 -11.6290     25.0999    225.5307   1.4977304159e+02   2.6290806021e+01    0.2299932    0.1273176 -69.80  0.001342998    2.183    0.542
        33 -12.7714    164.0961    157.2333   1.1089225460e+02   1.9122564469e+01    0.3547023    0.2798707  20.80  0.001038013    1.172    0.146
        34 -14.5886    133.9111    145.0475   1.1570263752e+02   2.7028581284e+01     1.901195    0.5524355 -55.22  0.005072346    5.875    0.830
        35 -11.4811     22.9599    155.3806   1.4719357826e+02   4.0139497234e+01    0.3330363    0.2029762 -81.86  0.001975218    1.541    0.351
        36 -10.9946    219.1513    224.4140   1.1143803383e+02   1.2387618956e+00    0.1597094    0.1330002  11.43 0.0005458578    1.345    0.256
        37 -13.9638    135.8361    127.2240   1.1147618644e+02   3.0241999830e+01     2.464669    0.3732007 -49.03  0.004861514    9.202    0.891
        38 -11.9023    174.0043    149.0925   1.0708353388e+02   1.8633344649e+01    0.3287348     0.314086   1.06  0.001488275    1.173    0.147
        39 -13.9921    143.6201    143.6164   1.1299178464e+02   2.5467600700e+01    0.9048572     0.479843 -59.64  0.003526441    2.886    0.653
        40 -11.1162    174.1512    140.2216   1.0518030347e+02   2.0101088292e+01    0.1887155    0.1710787  59.50  0.000871775    1.349    0.258
        41 -10.4884     19.5843    223.0690   1.5076462373e+02   2.7211704819e+01    0.1152925   0.08725431 -72.65 0.0008962149    1.666    0.400
        42 -10.5009      7.7762    220.7642   1.5297859265e+02   2.8623297413e+01   0.07684881   0.07005389  61.81  0.000278136    1.361    0.265
        43 -11.3905      5.3102    138.2342   1.5109942412e+02   4.5248325990e+01    0.2414627    0.1655036  63.42  0.001224355    1.222    0.182
        44 -10.5989    218.0000    218.9527   1.1082354819e+02   1.9659768636e+00    0.1558084   0.06046297 -32.11 0.0007977797    2.910    0.656
        45 -11.9897     27.0972    136.2751   1.4478220428e+02   4.4131685340e+01    0.4190319    0.2206331   0.29  0.001892578    3.110    0.679
        46 -10.8232     23.7357    214.4970   1.4966537516e+02   2.8321055016e+01    0.2261421    0.1232017 -63.85  0.001448218    2.310    0.567
        47 -12.5830    160.4109    127.9532   1.0554936783e+02   2.5061277355e+01    0.4202452    0.3278179 -55.19  0.001914842    1.576    0.366
        48 -11.8665    116.2276    212.0101   1.2986544718e+02   1.7726514266e+01    0.2935898    0.1697702  58.03  0.001581238    2.040    0.510
        49 -10.6645    101.9794    207.8970   1.3251213200e+02   2.0417362335e+01    0.5341886    0.2248734  48.60   0.00255375    2.160    0.537
        50 -11.8389    140.2902    120.4787   1.0876420183e+02   3.0696464724e+01    0.3206178    0.2373461  71.49 0.0006477729    1.873    0.466
        51 -11.5076    110.7533    212.3653   1.3107761431e+02   1.8444746367e+01    0.1858854    0.1196985  45.10   0.00112658    1.269    0.212
        52 -12.8959    110.1605    208.6153   1.3080258464e+02   1.9148237708e+01    0.3877244    0.2709931  35.86  0.001154159    1.134    0.118
        53 -13.1757     11.6693    206.0299   1.5185036908e+02   3.0895783854e+01    0.4237421    0.2404039  23.29  0.002110213    1.906    0.475
        54 -10.7521    167.4122    112.2873   1.0015621978e+02   2.6416937485e+01    0.2536974    0.1915048  67.97 0.0008009585    1.739    0.425
        55 -11.5220    157.7995    202.6757   1.1986837320e+02   1.2925210306e+01    0.5015927    0.2663493  56.27  0.002173646    3.214    0.689
        56 -12.3378    163.8146    203.2119   1.1870739444e+02   1.1909710475e+01    0.3190697    0.2570737 -49.84  0.001152869    1.703    0.413
        57 -10.0211    180.5331    106.4877   9.5828498945e+01   2.4517087344e+01    0.1464827    0.1424109   9.92 0.0008078427    1.096    0.087
        58 -10.8334    205.4247    110.1692   9.1921396373e+01   1.8539720486e+01    0.3088039    0.1919848  37.48 0.0009723171    1.602    0.376
        59 -12.7942    161.3401    197.7493   1.1840986021e+02   1.3098114779e+01    0.3029031    0.2982955  67.49  0.001682496    1.391    0.281
        60 -11.8449    168.8556    202.4233   1.1756518453e+02   1.1236577056e+01    0.2217261    0.1863904  62.51 0.0006865131    1.721    0.419
        61 -10.5322    137.4209    198.3089   1.2358986885e+02   1.6782420819e+01    0.4936552     0.273975  65.13  0.001942806    4.047    0.753
        62 -11.3939    125.0837    243.5741   1.3129400376e+02   1.1834457998e+01    0.1359856    0.1198257  33.73 0.0004796728    1.241    0.194
        63 -11.5315    154.6289    196.2778   1.1960056850e+02   1.4388795761e+01    0.2791661    0.2273125 -86.97  0.001669387    2.010    0.502
        64 -10.1228    160.0022    248.2144   1.2517481034e+02   6.5874501145e+00    0.1520069    0.1104104  27.86 0.0008428288    1.054    0.052
        65 -11.8416    133.7641    247.3968   1.3000225903e+02   1.0181422452e+01    0.1497043    0.1265648  35.89 0.0003334149    1.219    0.180
        66 -13.0295    167.2416     32.8960   7.6291468580e+01   3.9209657158e+01    0.4339012     0.391856  -1.87 0.0008720461    1.191    0.160
        67 -11.0495     13.4035     59.8860   1.4178411523e+02   6.3766638660e+01    0.1894968    0.1720026  50.47 0.0004150461    1.240    0.194
        68 -10.5496    144.3427     33.8617   8.0882306685e+01   4.5343342080e+01    0.2672698    0.2050795  76.74 0.0007010301    1.388    0.280
