#   1 NUMBER                 Running object number                                     
#   2 MAG_AUTO               Kron-like elliptical aperture magnitude                    [mag]
#   3 X_IMAGE                Object position along x                                    [pixel]
#   4 Y_IMAGE                Object position along y                                    [pixel]
#   5 X_WORLD                Barycenter position along world x axis                     [deg]
#   6 Y_WORLD                Barycenter position along world y axis                     [deg]
#   7 A_WORLD                Profile RMS along major axis (world units)                 [deg]
#   8 B_WORLD                Profile RMS along minor axis (world units)                 [deg]
#   9 THETA_WORLD            Position angle (CCW/world-x)                               [deg]
#  10 FWHM_WORLD             FWHM assuming a gaussian core                              [deg]
#  11 ELONGATION             A_IMAGE/B_IMAGE                                           
#  12 ELLIPTICITY            1 - B_IMAGE/A_IMAGE                                       
         1 -14.2472    229.0929      7.5675   3.2248043925e+01   2.7790403243e+01     1.630103    0.9438081  54.01  0.005384396    2.133    0.531
         2 -13.9495    196.4643     42.3015   4.3580404993e+01   3.0996199071e+01     1.069533    0.8994153 -63.33  0.003138938    1.099    0.090
         3 -14.3720    204.7460     34.1818   4.0545083881e+01   3.0118420722e+01     1.174572    0.9032403 -26.21  0.001351644    1.529    0.346
         4 -11.3341     64.5168      9.0755   6.0292123458e+01   6.5231778064e+01    0.2201243    0.1705152  59.27 0.0008877005    1.602    0.376
         5 -13.3269     58.9808      3.2413   5.9469858816e+01   6.6806776555e+01    0.8022197    0.2936352  48.04  0.003734257    2.341    0.573
         6  -9.0151     44.2600    216.7258   1.1659662541e+02   2.3196737830e+01    0.1481598    0.1057815  35.66 0.0001863954    1.487    0.328
         7 -13.5992     52.2278    201.3557   1.1343293589e+02   2.5650017669e+01     2.512755     1.035375  69.81  0.008318503    4.041    0.753
         8 -16.6677     69.0828    145.2764   1.0148348982e+02   3.7143193366e+01      15.4153     7.735956  75.55   0.02467469    5.278    0.811
         9  -9.8680     82.1919    194.9706   1.0567547488e+02   2.3030834563e+01    0.2381468     0.196329  44.35  0.001077301    1.181    0.153
        10 -10.4991    151.5104    193.5059   8.9010444500e+01   1.1676019216e+01    0.2521085    0.2394467 -57.87  0.001026257    1.150    0.131
        11 -12.1975    147.6368    187.7601   8.8850255125e+01   1.3582305287e+01     0.669727    0.3801315 -63.28   0.00272518    2.405    0.584
        12 -12.5139     49.3094    250.0284   1.1815727709e+02   1.5810108025e+01    0.1994879    0.1510893  60.33 0.0006390441    1.025    0.025
        13  -9.9893     21.1131    191.9560   1.1958904219e+02   3.1278795807e+01    0.1802838    0.1444825  76.96 0.0003627652    1.036    0.035
        14 -11.9721    185.1785    212.0331   8.5020764653e+01   2.2901186606e+00    0.3723497    0.2163048  26.79  0.001803907    1.713    0.416
        15 -10.9649     49.2761    217.9106   1.1563811308e+02   2.2332844358e+01    0.4899598     0.180596  33.97  0.001423837    2.628    0.619
        16 -10.5683     67.0050    180.5053   1.0747091988e+02   2.8637813470e+01    0.2456846    0.1999741  32.94 0.0006400592    1.347    0.258
        17  -9.3877     72.1898    188.2234   1.0720528624e+02   2.6063984311e+01    0.1876647    0.1406894  73.31 0.0004497341    1.321    0.243
        18 -10.1767    210.3296    187.6447   7.5382260421e+01   2.3579084290e+00    0.1297118    0.1123846 -82.09 0.0007045234    1.781    0.439
        19 -13.6012     58.8099    184.5368   1.1001565684e+02   2.8758392266e+01    0.9752253    0.7649605  21.35  0.005500094    1.574    0.365
        20 -10.7045     89.4070    211.3333   1.0610350648e+02   1.8274477985e+01    0.2661756    0.2044691  77.22 0.0005882712    1.325    0.245
        21 -11.7954     99.2882    180.9962   9.9410997094e+01   2.3635888310e+01    0.2944312    0.2884557   4.92 0.0006181921    1.153    0.132
        22 -10.9488    163.7175    210.8393   8.9346378714e+01   6.1188206456e+00      0.25164      0.17851  24.82  0.000817945    1.379    0.275
        23 -18.3138     18.7808    231.2371   1.2271208703e+02   2.2980538430e+01     5.871065     3.957745  55.23   0.03996362    1.220    0.180
        24  -9.5159     40.9526    178.1308   1.1366144558e+02   3.2468242675e+01    0.1907773    0.1463663  74.16   0.00111388    1.188    0.158
        25 -11.5646    186.9694    175.2124   7.7611085634e+01   8.8177040187e+00    0.4088798    0.3176722 -44.79  0.001151925    1.325    0.245
        26 -10.8165    147.9292    174.2090   8.6182763998e+01   1.6452334347e+01    0.3097979    0.2156748 -66.31 0.0006874335    1.799    0.444
        27 -12.6734    235.7291    173.2778   6.7808066733e+01   6.2140934239e-01    0.4876447    0.2265772  34.21  0.002175477    2.418    0.586
        28 -10.6748     42.1862    208.4065   1.1632685810e+02   2.5271092747e+01    0.3080681    0.1613532  75.22  0.001088282    2.017    0.504
        29 -10.2255     48.6128    171.2242   1.1094165057e+02   3.3269152954e+01    0.4201347    0.2219153 -38.44  0.001747285    2.873    0.652
        30 -12.3326    241.0162    169.6767   6.6169150074e+01   3.7276529760e-01    0.3370708    0.2481577  51.76   0.00179434    1.796    0.443
        31  -9.8451    193.3017    170.0211   7.5208471206e+01   8.6442243213e+00    0.2068507    0.1810766 -31.55 0.0005377809    1.105    0.095
        32 -11.4792    230.5842    167.3800   6.7507269511e+01   2.4718144852e+00    0.4461953    0.1721964 -48.99  0.001579955    3.413    0.707
        33 -10.4351    184.9626    167.5324   7.6432168454e+01   1.0714691038e+01    0.2815837    0.2055808 -54.81  0.001094587    1.566    0.361
        34 -10.2456     45.2916    166.0265   1.1115508194e+02   3.4943479637e+01     0.371191     0.235903 -33.53   0.00177279    2.255    0.557
        35 -10.3073     32.6618    165.5222   1.1435823187e+02   3.6438936986e+01    0.3022693    0.1954271  87.51 0.0008510211    1.465    0.318
        36 -10.2983     37.8063    162.0298   1.1262311153e+02   3.6766028303e+01    0.3837306    0.2163426  17.71  0.001813971    2.406    0.584
        37  -9.5303    135.5962    164.8045   8.7286475332e+01   2.0928849551e+01    0.2594696    0.1747721  43.61  0.001168908    1.468    0.319
        38  -9.3997    132.1639    161.3653   8.7440751990e+01   2.2383794694e+01    0.2218784    0.1383307  49.34 0.0009388857    1.671    0.402
        39  -9.6182     49.8546    161.1459   1.0931666610e+02   3.5625906335e+01    0.2037173    0.1674768  76.81 0.0003603976    1.160    0.138
        40 -12.5029    203.6823    200.2535   7.9120417179e+01   1.2747342402e+00    0.5702798    0.2739077  22.63  0.002251479    2.824    0.646
        41 -12.4311     91.6064    151.3317   9.6214111319e+01   3.2156822352e+01    0.7451202    0.5659102 -16.15  0.002530909    1.808    0.447
        42 -11.8704    133.8759    145.6158   8.3602874277e+01   2.5722608218e+01     1.300386    0.3472987 -54.75   0.00305502    5.436    0.816
        43  -9.8934    111.4607    149.7265   9.0432830179e+01   2.9075620057e+01    0.3853044    0.2218948  69.26  0.001293284    3.182    0.686
        44 -10.4396    174.6559    149.1729   7.4639665175e+01   1.6534744278e+01    0.2759083    0.2202121  44.08 0.0006464284    1.290    0.225
        45  -9.6389    164.4276    149.1802   7.6952825446e+01   1.8644016990e+01    0.2132838    0.1461944 -56.08  0.000430605    1.612    0.380
        46  -9.9870    144.3179    146.6624   8.1197916476e+01   2.3357011987e+01    0.1607095    0.1258464  87.12 0.0005483331    1.704    0.413
        47 -11.0309    104.2431    137.8745   8.9881149444e+01   3.3303684415e+01    0.6233328    0.3628413 -28.93  0.002289122    2.599    0.615
        48 -11.1242    106.0489    130.8830   8.7781033272e+01   3.4682927591e+01    0.3868167    0.3318533 -64.31  0.001245071    1.177    0.150
        49 -12.4050     91.9107    137.3612   9.3306987896e+01   3.5599389632e+01    0.2980317    0.2694058 -43.59 0.0003736128    1.119    0.106
        50 -11.4584    135.7338    127.7255   7.8882812662e+01   2.9490498894e+01    0.7642174    0.1767544 -50.86   0.00177157    5.256    0.810
        51 -11.0001    112.8437    128.9011   8.5382357019e+01   3.3869911035e+01    0.3655132    0.3083043  -4.29 0.0009247996    1.425    0.298
        52 -10.0277    160.7893    128.0708   7.2785183029e+01   2.3997860659e+01    0.3557586    0.2165637 -55.18  0.001439183    1.831    0.454
        53 -11.1697    100.1182    124.7883   8.8069076879e+01   3.7262473928e+01    0.3079984    0.2574785  -8.09 0.0006974422    1.436    0.304
        54 -11.7337    119.5600    122.8282   8.2012133060e+01   3.3982267702e+01    0.5668514    0.3840806   8.30  0.002199228    2.371    0.578
        55 -10.0559    108.8263    118.0986   8.3870769796e+01   3.7230115922e+01    0.2241875    0.2182168 -39.73  0.000403525    1.013    0.013
        56 -10.7437    231.3322    113.8337   5.5758532760e+01   1.1775931345e+01    0.2629099    0.2451186 -50.24  0.000759304    1.078    0.072
        57  -9.5756    167.5014    112.6244   6.7340919300e+01   2.5761656834e+01    0.2907307    0.1966347  81.74  0.001133038    2.347    0.574
        58 -10.5503    134.5888    106.2678   7.3580634483e+01   3.4545890682e+01    0.3732946    0.1495362 -44.00   0.00125206    2.461    0.594
        59 -11.9142    118.5038    109.4965   7.8840514085e+01   3.7282049058e+01    0.5372925    0.3558331  70.31   0.00210302    2.295    0.564
        60 -10.3256    205.5396    110.1713   5.9168873781e+01   1.7754318586e+01    0.2942588    0.2162619  43.92 0.0009560423    1.498    0.332
        61 -13.3546     28.4011    216.0447   1.1984117105e+02   2.5146015694e+01    0.5136492    0.2399092  88.50  0.002569457    2.136    0.532
        62  -9.0761    141.2883    107.7318   7.2254814358e+01   3.2737332196e+01    0.1523176    0.1252283 -87.98 0.0002322764    1.502    0.334
        63 -16.3280      2.3981     99.0262   1.1488307381e+02   5.5146329068e+01     13.54151    0.8089684 -70.72   0.02675436   11.231    0.911
        64 -11.8360    119.8633    104.0977   7.6980680196e+01   3.8209770288e+01    0.4431861    0.2835187 -34.81  0.001736357    1.677    0.404
        65 -11.8136     56.2264     95.8024   9.5178099259e+01   5.1178500820e+01    0.4454579    0.3074839  41.45  0.002037407    1.637    0.389
        66 -11.8627     61.7728    199.1682   1.1100961630e+02   2.4926848578e+01    0.3422051    0.2301138 -60.28  0.001867906    1.530    0.346
        67  -9.3532    129.0975     96.5258   7.2304836669e+01   3.7848919127e+01    0.2272872    0.1544654  46.64 0.0004253799    1.487    0.327
        68  -9.4816    157.3866     89.6541   6.3397355673e+01   3.2704525547e+01    0.2304962    0.1775381 -77.76 0.0005349105    1.619    0.382
        69 -10.4964     66.0528    194.4910   1.0946606493e+02   2.5438254891e+01    0.2717987    0.2182946  47.80 0.0005748924    1.200    0.167
        70  -9.3674    157.5092     82.9863   6.1484166460e+01   3.3934924286e+01    0.2285209    0.1499625 -39.00 0.0005005875    1.521    0.342
        71  -9.3309    184.6033     77.2095   5.4536694401e+01   2.8469757775e+01    0.1993601    0.1413778 -25.84  0.000510195    1.605    0.377
        72  -9.5309     83.7709    244.9597   1.1101008890e+02   1.2241303034e+01    0.2017212    0.1193248  73.09  0.001068653    1.960    0.490
        73 -13.7059    184.4111     52.0355   4.7834900678e+01   3.2519575490e+01    0.9058138     0.871428   8.45  0.000809986    1.236    0.191
        74  -9.7318    250.6910    237.3222   7.7067526101e+01  -1.0966956628e+01    0.0958498   0.09053378  -4.89  0.000260766    1.647    0.393
        75 -12.0159    192.8615    194.7992   8.0269754667e+01   4.0641178822e+00     1.241759    0.6421276 -62.37  0.003784713    5.496    0.818
        76 -11.7528    224.5046     27.9914   3.7051641961e+01   2.6424707850e+01    0.2413345    0.2118158  73.41  0.001343003    1.261    0.207
        77 -10.3382    168.1046    232.8101   9.1985255996e+01   1.4952363956e+00    0.2385736    0.1821897  33.20 0.0009626117    1.144    0.126
        78 -10.0713    189.6706     14.9919   3.7469188874e+01   3.5925623771e+01    0.1788523    0.1550345 -60.43 0.0006601991    1.141    0.123
        79 -10.0199     58.5314    226.1408   1.1442342243e+02   1.9415711155e+01    0.3812968    0.1867595  62.84  0.001845197    2.106    0.525
