#   1 NUMBER                 Running object number                                     
#   2 MAG_AUTO               Kron-like elliptical aperture magnitude                    [mag]
#   3 X_IMAGE                Object position along x                                    [pixel]
#   4 Y_IMAGE                Object position along y                                    [pixel]
#   5 X_WORLD                Barycenter position along world x axis                     [deg]
#   6 Y_WORLD                Barycenter position along world y axis                     [deg]
#   7 A_WORLD                Profile RMS along major axis (world units)                 [deg]
#   8 B_WORLD                Profile RMS along minor axis (world units)                 [deg]
#   9 THETA_WORLD            Position angle (CCW/world-x)                               [deg]
#  10 FWHM_WORLD             FWHM assuming a gaussian core                              [deg]
#  11 ELONGATION             A_IMAGE/B_IMAGE                                           
#  12 ELLIPTICITY            1 - B_IMAGE/A_IMAGE                                       
         1 -13.3747    191.6662     29.9785   6.9027711540e+01   3.3479170198e+01     1.992612     1.441625   2.00  0.009527806    1.509    0.337
         2 -13.0057    207.7669      9.1422   6.0423649500e+01   3.1469504530e+01      0.96678    0.6528875  30.41  0.001423886    1.658    0.397
         3 -12.8566     13.2584      5.1610   1.1463333473e+02   7.2841582513e+01    0.9927034    0.6425057  -4.69  0.006351276    1.734    0.423
         4 -12.4067     14.0086     12.6217   1.1744867343e+02   7.1354162473e+01    0.6127187    0.2559753  27.13  0.003211369    2.871    0.652
         5 -12.5761      2.2956      5.4784   1.2122278378e+02   7.3477893333e+01     2.340968    0.1392412 -59.69  0.005554757    9.568    0.895
         6 -10.9857    223.4745      3.3454   5.7193945409e+01   2.8028880663e+01    0.3935594    0.2473443  31.74  0.001899634    1.874    0.466
         7 -13.4817    203.0857     15.3997   6.2877506915e+01   3.2076516758e+01     1.312988     1.129139 -73.02   0.00494236    1.253    0.202
         8  -8.5087     92.9838    215.0319   1.3019334910e+02   2.1330551697e+01    0.1243908   0.09931649  59.43 0.0003290752    1.042    0.040
         9 -11.0624    249.4567    247.8611   1.0828245880e+02  -4.4913706081e+00    0.2976061    0.1373684 -34.93  0.001873129    3.178    0.685
        10 -11.9929    139.7846    249.2520   1.2549774839e+02   1.0414536725e+01    0.4308932    0.2134341  43.00  0.002871069    1.453    0.312
        11 -11.0160    125.8542    250.0643   1.2778862877e+02   1.2173539878e+01    0.2689475    0.1103982  43.07  0.001652755    1.741    0.426
        12 -11.7194    105.9608    246.5038   1.3065624033e+02   1.5192517941e+01    0.2861201    0.1391284  44.81  0.001183254    1.485    0.326
        13 -11.9971     99.0155    249.1456   1.3195705016e+02   1.5717390637e+01    0.4337167    0.1970872  40.36   0.00285783    1.690    0.408
        14 -10.8899    100.6807    245.6602   1.3143126339e+02   1.5967346773e+01    0.1873939    0.1270095  31.77 0.0009027248    1.594    0.373
        15 -10.3252     88.4383    249.2206   1.3361812276e+02   1.6994528023e+01    0.1590676    0.1012307  47.64  0.000593522    1.144    0.126
        16 -11.5948     82.5387    248.6350   1.3449702161e+02   1.7772856613e+01    0.3662873    0.1915642  34.09  0.002499347    1.941    0.485
        17 -11.3933     82.5422    243.8245   1.3417603940e+02   1.8424853180e+01    0.2565895    0.1894637  37.12  0.002114807    1.420    0.296
        18 -11.5377     51.9809    198.3628   1.3619765360e+02   2.8965814637e+01     1.620105      0.43927  39.30  0.005470414    2.897    0.655
        19 -14.3692     31.5258    247.0894   1.4213499214e+02   2.3460017241e+01     8.500207     2.801857  28.53    0.0318839    8.606    0.884
        20 -13.2690      6.3989    244.0416   1.4565544777e+02   2.6181977249e+01     1.012117    0.6234123  77.67  0.009319677    1.284    0.221
        21 -15.6649      6.9872    199.2787   1.4410686082e+02   3.3095223296e+01     6.882088     1.187169 -77.64   0.02631403    4.780    0.791
        22 -14.5359     47.6942    221.1744   1.3838462800e+02   2.5678990454e+01     1.391684     1.084491  31.71   0.00755377    1.638    0.390
        23 -11.5891     71.7207    188.8392   1.3174388274e+02   2.8358437749e+01    0.2215441    0.1954668 -67.21 0.0007605753    1.361    0.265
        24 -10.8580     80.9234    176.4978   1.2869505526e+02   2.9435698388e+01     0.201041    0.1807133  68.35 0.0003640646    1.106    0.096
        25 -13.0257     68.0452    174.4398   1.3110082906e+02   3.1432342793e+01    0.3805986    0.2411305 -46.73  0.001381293    2.133    0.531
        26  -9.1834    119.6528    174.6805   1.2054732552e+02   2.4230324316e+01    0.1185819   0.09542192   3.48 0.0007048966    1.732    0.423
        27 -11.9600     87.9189    167.3852   1.2619254919e+02   3.0211680094e+01    0.7635438    0.4509164  58.43  0.004318353    1.676    0.403
        28 -12.7496     67.3188    144.1254   1.2784641132e+02   3.7521875763e+01    0.9017962    0.5139416  80.76  0.003656707    2.178    0.541
        29 -12.3975     58.6064    134.4076   1.2866613350e+02   4.0603637912e+01     1.137892     0.439865 -80.66  0.004136194    4.097    0.756
        30  -8.9567    152.7107    212.9666   1.1934614348e+02   1.3161109750e+01    0.1449058    0.1269965  41.58 0.0003004442    1.111    0.100
        31  -9.3283    102.9716    147.0670   1.2002451077e+02   3.1988290628e+01    0.2327964    0.1605664 -30.87   0.00121392    2.066    0.516
        32 -12.0687     88.8605    150.6413   1.2377652142e+02   3.3349772924e+01     0.238509    0.2248753 -43.54 0.0005766727    1.268    0.211
        33  -9.7898     99.9932    151.2317   1.2134700700e+02   3.1615063732e+01    0.2455409    0.2241032 -64.03 0.0008092617    1.160    0.138
        34 -10.8959    148.7725    229.6145   1.2200135471e+02   1.1561836553e+01    0.2581711     0.114241  31.86  0.001350854    2.344    0.573
        35  -8.6129    192.2300    144.0544   1.0033037340e+02   1.6394342124e+01    0.1637147    0.1114734 -29.21 0.0003555984    1.526    0.345
        36  -9.7256    110.9499    136.6918   1.1640943199e+02   3.2800900491e+01    0.2943223    0.2164898 -24.43  0.001155489    1.879    0.468
        37 -10.8034     50.2377    129.7700   1.3012419845e+02   4.2526676580e+01    0.2501371    0.1813177  61.42 0.0006123689    1.344    0.256
        38  -9.8991     33.3605    207.5300   1.4003141025e+02   2.9335401430e+01    0.1844544   0.09648626  57.88 0.0007521168    1.469    0.319
        39 -10.3617     98.3733    133.8943   1.1891619194e+02   3.5368821707e+01    0.2357568    0.2051012 -25.89 0.0004503402    1.409    0.290
        40  -9.4426    107.8183    123.6258   1.1469408293e+02   3.5992701218e+01    0.1989927    0.1763154 -43.89 0.0004037897    1.177    0.151
        41 -12.7046     41.1169    230.1529   1.3992379723e+02   2.4978786237e+01    0.2652681    0.2236304  70.20  0.000791234    1.272    0.214
        42  -8.6920     71.6469    163.2935   1.2917402404e+02   3.3124686006e+01    0.1251161   0.07555064  65.56 0.0004285725    1.683    0.406
        43 -10.6751    168.1051    113.1291   9.8171547122e+01   2.6421723386e+01    0.3172903    0.2939017  88.77 0.0006713208    1.316    0.240
        44  -8.9303    203.4820    111.5062   9.0666691631e+01   1.9062869737e+01    0.1482126    0.1300935   8.32 1.167156e-05    1.037    0.036
        45 -11.2516     51.8741    108.5172   1.2671269583e+02   4.7028732990e+01    0.3693871     0.236785 -72.11  0.002104675    1.394    0.283
        46 -10.1391    193.2394    195.3948   1.0961621730e+02   9.0270952038e+00    0.5862975    0.3004535 -59.31  0.001755444    9.203    0.891
        47 -11.4534     66.3369    196.2805   1.3340580234e+02   2.7701558403e+01    0.2803617    0.2092101 -45.08  0.001484224    1.964    0.491
        48  -8.9226    156.6688     76.6711   9.0700258604e+01   3.5426295437e+01    0.1627672    0.1169825  12.59  0.000705167    1.715    0.417
        49 -10.9600    238.9008    248.6462   1.0995173623e+02  -3.1639187589e+00    0.1747938    0.1388348  -2.31   0.00149491    1.414    0.293
        50 -10.5316    125.1526    244.1946   1.2738007587e+02   1.2994243318e+01    0.1469073   0.09502951  55.39  0.001082787    1.354    0.261
        51 -10.7292    119.9467    237.9152   1.2766065131e+02   1.4497257829e+01    0.2433276    0.1275062 -76.34  0.001398169    3.345    0.701
        52 -10.3018     68.3870    234.8246   1.3584063388e+02   2.1344126795e+01    0.1817493     0.155502  66.10  0.001632587    1.237    0.191
        53 -11.0600     19.6914    229.6312   1.4323030587e+02   2.7122298916e+01    0.2624334    0.1075598  45.67  0.001873427    1.757    0.431
        54  -9.4299    229.4125    229.2492   1.0871834615e+02  -2.0261631044e-01    0.1216713   0.09861235 -26.06  0.000628804    1.669    0.401
