#   1 NUMBER                 Running object number                                     
#   2 MAG_AUTO               Kron-like elliptical aperture magnitude                    [mag]
#   3 X_IMAGE                Object position along x                                    [pixel]
#   4 Y_IMAGE                Object position along y                                    [pixel]
#   5 X_WORLD                Barycenter position along world x axis                     [deg]
#   6 Y_WORLD                Barycenter position along world y axis                     [deg]
#   7 A_WORLD                Profile RMS along major axis (world units)                 [deg]
#   8 B_WORLD                Profile RMS along minor axis (world units)                 [deg]
#   9 THETA_WORLD            Position angle (CCW/world-x)                               [deg]
#  10 FWHM_WORLD             FWHM assuming a gaussian core                              [deg]
#  11 ELONGATION             A_IMAGE/B_IMAGE                                           
#  12 ELLIPTICITY            1 - B_IMAGE/A_IMAGE                                       
         1 -14.6916    192.1211     42.1614   4.5567699951e+01   3.1838560798e+01     1.274603     0.994449  32.08  0.004218516    1.631    0.387
         2 -14.3884    218.3277     11.2132   3.4999498883e+01   2.9370025235e+01    0.8908407    0.7719711 -69.73  0.003911403    1.083    0.077
         3 -13.0537     40.1996      6.4485   7.0356380729e+01   6.9557139715e+01    0.5754433    0.1878635 -27.39  0.002486158    3.115    0.679
         4 -13.2027     57.8313      3.9062   6.1790525796e+01   6.6952982743e+01     0.654227    0.2250498  33.07  0.002597127    3.265    0.694
         5 -13.4282    197.2385     36.3978   4.3371551773e+01   3.1354991816e+01    0.5594008    0.4728896  88.78  0.001268598    1.095    0.087
         6 -17.1535     72.0252    147.8982   1.0276005400e+02   3.6060766051e+01     10.26818      5.31405  77.74   0.03214209    4.313    0.768
         7 -13.0111     57.2577    193.2662   1.1281909391e+02   2.7129543605e+01    0.5194343    0.2999782 -44.18  0.001445273    2.379    0.580
         8 -11.3110     60.6822    187.7263   1.1139737614e+02   2.7960889951e+01    0.1935543    0.1889443  70.20 0.0002295733    1.227    0.185
         9 -11.8851    193.0237    195.1331   8.2392340487e+01   4.0762000449e+00    0.9874852    0.4957382 -61.62  0.002740877    6.744    0.852
        10 -10.4928     38.4386    199.2828   1.1759714448e+02   2.8043368072e+01    0.1731449    0.1210777  65.34 0.0002223497    1.243    0.195
        11  -9.6975    223.2492    198.6497   7.7165676902e+01  -1.6036089069e+00    0.1164342    0.1032802 -54.60 0.0005528738    1.588    0.370
        12 -10.4500     34.2671    197.0932   1.1830813088e+02   2.8997625929e+01    0.1568058    0.1220351  78.22 0.0002564511    1.049    0.047
        13 -12.2083    149.6817    192.3454   9.1204315592e+01   1.2454112369e+01    0.3326411    0.2505995  58.14  0.001288869    1.486    0.327
        14 -13.3388    147.0005    187.7066   9.0972255393e+01   1.3898788837e+01    0.6602501    0.3667961 -60.34  0.002595298    2.296    0.564
        15  -9.5494     53.2715    187.2603   1.1307597661e+02   2.9017055260e+01    0.1146598    0.0981729 -45.03 0.0001890506    1.462    0.316
        16 -10.9483     71.8116    243.5423   1.1467758684e+02   1.4701557800e+01    0.3223397    0.1923937  88.97  0.001129234    1.855    0.461
        17 -11.0994     62.9451    214.1735   1.1374408210e+02   2.1771046931e+01    0.2213394    0.1650397  43.81 0.0003056894    1.287    0.223
        18 -11.5738    186.3416    174.2747   7.9631265456e+01   9.1478596581e+00     0.359791    0.3386524  60.74  0.001104539    1.249    0.199
        19 -11.2611    148.2983    174.6910   8.8199150860e+01   1.6401307718e+01     0.262946     0.226613 -52.92 0.0007287359    1.219    0.180
        20 -11.5386    146.3359    171.6966   8.8066670850e+01   1.7424697151e+01    0.2784406    0.2345877  89.91 0.0006496204    1.453    0.312
        21 -11.7349     89.4600    211.1923   1.0767638372e+02   1.8651737075e+01    0.3138578    0.2267371  76.66 0.0006267225    1.442    0.306
        22 -11.5288     44.4644    173.1893   1.1359030922e+02   3.3394080137e+01     0.521253     0.234247  35.88  0.002046414    2.245    0.555
        23 -10.6439     40.6389    170.3171   1.1420028367e+02   3.4515214120e+01    0.2607986    0.1339049  51.00  0.001263728    1.947    0.486
        24 -19.0756     11.1035     99.8023   1.1324719647e+02   5.4298212637e+01     16.05437    0.8139121 -68.91   0.02619346   16.079    0.938
        25 -11.6302     56.2061    175.0285   1.1093368925e+02   3.1533874928e+01    0.3969088    0.2065909  52.33  0.001566339    1.941    0.485
        26 -13.1883    133.8451    145.5879   8.5600094380e+01   2.5761035997e+01     1.407237    0.3521692 -54.34  0.003149084    6.092    0.836
        27 -12.8109    112.4856    150.5437   9.2233214666e+01   2.8730035557e+01    0.6082193    0.3754144  81.36  0.002025234    3.053    0.672
        28 -11.7385    109.6351    148.1879   9.2503601759e+01   2.9819512644e+01    0.2592756    0.2149866 -77.44 0.0002169279    1.296    0.228
        29 -13.7995     95.6782    150.1291   9.6662929259e+01   3.1805547738e+01    0.6854961    0.5892488 -22.50  0.003578415    1.389    0.280
        30 -10.2915    174.4593    149.2142   7.6745202041e+01   1.6538640633e+01    0.2135851    0.1450831 -53.58 0.0005985911    1.624    0.384
        31 -13.2047    107.2910    136.6471   9.0655529149e+01   3.3037539091e+01     0.572361    0.3897428 -31.46  0.002232188    1.789    0.441
        32 -12.4376    105.9025    130.8182   8.9720632516e+01   3.4702513270e+01     0.449629    0.3743316 -60.03  0.001193751    1.187    0.158
        33 -12.8014     95.2154    136.4502   9.4000122197e+01   3.5242449628e+01     0.351469    0.3119385 -63.63 0.0004806368    1.084    0.077
        34 -18.3429     32.1011    234.2866   1.2150868028e+02   2.1413042532e+01     7.848442     4.583367  37.45   0.03316578    1.707    0.414
        35 -12.1442    135.7065    128.4395   8.1070902678e+01   2.9313242835e+01    0.8070101    0.1409729 -49.83  0.001587558    7.298    0.863
        36 -10.5175    160.4826    127.9801   7.4853213312e+01   2.4035292616e+01    0.2293716    0.1360144 -64.51 0.0008103487    2.571    0.611
        37 -11.3933    102.0837    124.0853   8.9229104177e+01   3.7030070912e+01    0.3171835    0.2621844 -14.58 0.0007975028    1.450    0.310
        38 -12.5551    120.4663    122.9010   8.3751513180e+01   3.3751559411e+01    0.4309466    0.3345344 -23.62  0.001986481    1.512    0.338
        39 -12.1502    114.5163    128.5106   8.6768690274e+01   3.3615690739e+01    0.3307779    0.2815147   5.45 0.0007274722    1.393    0.282
        40 -10.8407    109.9422    117.9488   8.5453488148e+01   3.7003153196e+01    0.2315042    0.2229984 -54.72 0.0003491045    1.019    0.019
        41 -10.7676    231.2376    113.8183   5.7584606569e+01   1.1453148385e+01    0.2389946     0.229036  -9.25 0.0007585863    1.116    0.104
        42 -10.6168    167.4060    112.9680   6.9422296798e+01   2.5624523418e+01    0.3299716    0.2397772  60.53  0.001483152    1.535    0.348
        43 -13.1823    118.5023    110.2929   8.1023273030e+01   3.7054794896e+01    0.6134869    0.4700373  64.20  0.002403952    1.557    0.358
        44 -10.2975    205.3856    110.1891   6.1071861655e+01   1.7556195559e+01    0.2441485    0.2029853  38.39 0.0006875311    1.315    0.239
        45 -11.5076    134.5604    105.8619   7.5454730726e+01   3.4593528266e+01     0.409553    0.1514707 -46.31   0.00131044    2.711    0.631
        46 -11.7457     75.5407    247.4385   1.1430231666e+02   1.3473808044e+01    0.4175983    0.1551155 -58.21  0.001990255    3.053    0.672
        47  -9.9134    184.3600     77.3012   5.6343686277e+01   2.8345834093e+01      0.15345    0.1170724  22.79 0.0007036853    1.718    0.418
        48 -13.4854    176.6897     55.4332   5.1603951936e+01   3.3756345223e+01    0.5412554    0.5028901  17.63  0.000842831    1.237    0.192
        49 -12.2342    249.2192    244.5570   8.0670474846e+01  -1.1596009158e+01    0.3009585    0.1519034 -31.57  0.001775528    1.957    0.489
        50 -11.7901     43.1079    209.2780   1.1747316595e+02   2.5308231890e+01    0.4148175    0.2126689  55.76  0.001496426    1.749    0.428
        51 -12.3201     52.7078    199.9447   1.1454171765e+02   2.6196080937e+01    0.2774263    0.2444479 -50.81 0.0008764429    1.430    0.301
        52 -13.5599     31.9493    206.6436   1.1957954595e+02   2.7147345352e+01    0.3824854    0.2636723  65.79  0.001848931    1.218    0.179
