#   1 NUMBER                 Running object number                                     
#   2 MAG_AUTO               Kron-like elliptical aperture magnitude                    [mag]
#   3 X_IMAGE                Object position along x                                    [pixel]
#   4 Y_IMAGE                Object position along y                                    [pixel]
#   5 X_WORLD                Barycenter position along world x axis                     [deg]
#   6 Y_WORLD                Barycenter position along world y axis                     [deg]
#   7 A_WORLD                Profile RMS along major axis (world units)                 [deg]
#   8 B_WORLD                Profile RMS along minor axis (world units)                 [deg]
#   9 THETA_WORLD            Position angle (CCW/world-x)                               [deg]
#  10 FWHM_WORLD             FWHM assuming a gaussian core                              [deg]
#  11 ELONGATION             A_IMAGE/B_IMAGE                                           
#  12 ELLIPTICITY            1 - B_IMAGE/A_IMAGE                                       
         1 -13.5636    226.8919      7.5707   3.4595148764e+02   3.0144541319e+01     1.765325    0.3742083 -52.90  0.007512774    3.323    0.699
         2 -13.7199    244.6512     38.6215   3.5133272113e+02   2.3611012976e+01     1.550268    0.8317553 -51.95  0.007915189    1.411    0.291
         3 -12.9251    226.7857     46.0450   3.5412645928e+02   2.5782387562e+01     1.404188    0.4947858 -38.96  0.006890563    2.086    0.521
         4 -13.2535    246.3491     15.9827   3.4676357052e+02   2.5865070575e+01    0.7540427    0.4762367 -61.08  0.003937671    1.241    0.194
         5 -13.0709    246.6707      4.4197   3.4450492130e+02   2.6998255714e+01     0.713099    0.4435715 -83.58  0.005033659    1.570    0.363
         6 -12.1939    207.1250     42.1661   3.5489498896e+02   2.9944407996e+01      1.03103    0.4805681 -74.99  0.004643167    2.923    0.658
         7 -11.4401    162.6945     28.9476   3.5593434719e+02   4.1045419876e+01    0.8886928    0.3903603 -67.27  0.003520956    2.973    0.664
         8 -11.4039    142.4390     29.1051   3.5853329504e+02   4.5772631904e+01    0.5383244    0.3920912  84.92  0.002385578    1.312    0.238
         9 -12.1776    185.4687     23.7431   3.5230278875e+02   3.6613942363e+01    0.8887019    0.6487337 -73.38  0.005589046    1.211    0.175
        10 -11.7005    205.0958     21.2335   3.5019619673e+02   3.2847625234e+01      0.62759    0.2927268 -44.94  0.003440477    1.653    0.395
        11 -13.1315    205.3103      7.1816   3.4694003984e+02   3.4297226966e+01     1.246632     0.608225 -77.70  0.006921894    1.971    0.493
        12 -12.3841    168.0998     10.0357   3.5012337234e+02   4.1909442186e+01     1.317249    0.5149591 -71.40  0.005341146    3.072    0.674
        13 -11.2616     22.4704     12.3841   2.9740091813e+01   7.4921936596e+01    0.3187959    0.2425433 -18.49  0.001922723    1.331    0.249
        14  -9.8338     45.2023     11.8237   1.5877158549e+01   7.0842806785e+01    0.2163782    0.1434171 -73.31 0.0009611577    2.950    0.661
        15 -11.6598    166.2170      2.0412   3.4806719002e+02   4.3103867616e+01    0.6978454    0.2295267  79.23  0.002965953    2.858    0.650
        16 -10.4288    180.0000      4.9835   3.4791279964e+02   3.9777085620e+01    0.2473932    0.1445816 -32.36 0.0008725755    1.655    0.396
        17 -11.2205    180.2975      1.5758   3.4701902528e+02   4.0037212610e+01    0.4295108    0.1911447 -86.17  0.002137698    2.199    0.545
        18 -10.3299    116.6455      8.2359   3.5506051034e+02   5.4335582951e+01    0.2166263    0.1804764  -9.15  0.001302854    1.471    0.320
        19 -10.3960     29.3402      8.9713   2.2745538749e+01   7.4273217112e+01    0.2474256    0.1724619  39.75 0.0005457993    1.312    0.238
        20 -10.7116     39.1152      2.5989   1.2824689085e+01   7.3170080705e+01    0.3984804    0.2555021  62.85  0.002160786    1.678    0.404
        21 -12.6313     93.7203     11.9844   5.1932336042e-01   5.9636326164e+01    0.9457771    0.6207782 -49.35  0.003754222    1.630    0.386
        22 -10.6945    116.4565      2.3838   3.5291503502e+02   5.4902710182e+01    0.3360915    0.1171054  80.68  0.001269975    2.943    0.660
        23 -10.0217     80.3842      1.6101   3.5860088850e+02   6.3848488240e+01    0.3342874   0.09083438  62.98  0.001245308    2.825    0.646
        24 -10.8193    228.9819    211.0081   2.5534741169e+01   1.4556348147e+00    0.2100452    0.1644647 -41.10  0.001120905    1.653    0.395
        25  -9.3743    199.4934    214.9808   3.1011653710e+01   3.9845876707e+00    0.1377928    0.1013011 -60.38 0.0008096403    2.473    0.596
        26 -10.3387    187.0113    213.3089   3.2995453373e+01   5.6390353808e+00    0.2240701    0.1663609 -40.34  0.001468859    1.454    0.312
        27 -10.3767     21.9991    208.9976   7.0971065629e+01   2.6032168645e+01    0.2269838    0.1194281  54.85   0.00114288    1.703    0.413
        28  -9.1848     71.5231    206.4616   5.7980715439e+01   2.1410713382e+01    0.1341925    0.1197914  37.50 0.0002248833    1.004    0.004
        29  -9.4611     40.9986    205.8312   6.5856691569e+01   2.4940487274e+01    0.2417705    0.1093036  48.04  0.001081312    2.007    0.502
        30  -9.2787     51.6482    204.3280   6.2943558245e+01   2.4162023491e+01    0.1494077   0.08415033  54.25 0.0007047664    1.767    0.434
        31  -9.7770    185.4986    202.3894   3.1545637321e+01   7.5431077204e+00    0.2410474    0.1065885 -41.41 0.0009256072    2.106    0.525
        32 -11.4135    248.7276    196.6272   2.0358272143e+01   1.4203779316e+00     0.517673    0.2217505 -40.08  0.002993734    2.033    0.508
        33 -11.3637    166.1243    199.4396   3.4825625087e+01   1.0476769654e+01    0.4075196    0.2878044   7.59  0.002386481    1.401    0.286
        34 -10.5802    227.4312    198.2701   2.3745847655e+01   3.3693824698e+00    0.2180805   0.08575529 -34.98  0.001138095    2.087    0.521
        35 -10.5030    231.1674    188.6149   2.1586535988e+01   4.3314546674e+00    0.3435562    0.1717954   0.26   0.00154229    3.667    0.727
        36 -10.5101    206.5818    189.0409   2.5574475027e+01   7.0980944968e+00    0.3801034    0.2287257 -29.75  0.002081505    1.414    0.293
        37 -11.2938    249.7699    181.4297   1.7737438694e+01   3.3420938044e+00    0.6492939    0.1482766 -42.43  0.002523458    4.230    0.764
        38 -10.0916     97.9927    187.5325   4.8728325761e+01   2.2241593032e+01    0.2202146    0.1295513  30.54 0.0006817283    1.588    0.370
        39  -9.8366    122.8017    181.7741   4.1556200899e+01   1.9949665345e+01    0.2485118    0.1841794  89.08  0.001171926    2.062    0.515
        40  -9.7989     86.1636    181.0277   5.0950628805e+01   2.5372467725e+01    0.2682295    0.1854873   9.95  0.001286666    1.675    0.403
        41 -10.5649    244.1368    171.4499   1.6817061439e+01   5.3260170479e+00    0.2244495    0.1237806 -46.12  0.001218323    1.933    0.483
        42  -8.8835    135.3250    172.6441   3.6969464301e+01   1.9994955278e+01    0.1392415    0.1115522  74.90 0.0007045715    1.770    0.435
        43 -10.5385    179.4353    170.1319   2.7089529470e+01   1.3848769026e+01     0.293856    0.2599853 -48.94  0.001860015    1.310    0.236
        44 -11.7125    124.5010    167.3619   3.8637228320e+01   2.2812148447e+01    0.7339569    0.4776047 -68.07  0.003129458    2.011    0.503
        45 -10.6266      8.7243    168.9549   7.2366305905e+01   3.6911020228e+01    0.3240715     0.133385  78.57  0.001269497    2.586    0.613
        46  -9.8526    192.8649    164.1283   2.3489137597e+01   1.2974607500e+01    0.2436928    0.1519171 -32.73  0.001221932    1.414    0.293
        47 -10.7637    240.6251    160.8665   1.5448295138e+01   7.2394601686e+00    0.3561383    0.2664916  84.74  0.001984453    3.520    0.716
        48 -10.4351    206.8760    161.8668   2.0674135952e+01   1.1397955257e+01    0.1984086    0.1477993 -16.42 0.0009889957    1.258    0.205
        49 -11.4036    247.0885    150.1809   1.2691766345e+01   8.0017058299e+00    0.4186073    0.3301826 -43.75   0.00307737    1.342    0.255
        50 -10.7102    180.4679    157.8717   2.4558423815e+01   1.5906647929e+01     0.412955    0.3565828   1.80  0.002572958    1.159    0.138
        51 -11.3618    214.3774    155.8839   1.8354429475e+01   1.1341590800e+01    0.2969294     0.198812 -37.91  0.001349399    1.255    0.203
        52 -10.3007    188.7079    156.2471   2.2722870051e+01   1.4952651141e+01    0.2380576    0.1438717 -42.90  0.001094458    1.497    0.332
        53 -10.9102    111.1337    155.5427   3.9897217959e+01   2.7638008759e+01    0.4117465    0.3103522 -85.87  0.001426253    1.763    0.433
        54 -11.3335    207.8480    155.5234   1.9320548660e+01   1.2301773133e+01    0.3948362     0.240105  37.41  0.002250031    1.904    0.475
        55  -9.5795     72.2853    155.7015   5.1165847579e+01   3.3568307751e+01    0.3724505     0.199825 -31.73  0.001357283    2.810    0.644
        56 -10.8311      4.6031    155.3396   7.2837231001e+01   4.0775183845e+01    0.3434381    0.1617133  89.77  0.001481303    2.027    0.507
        57 -10.7214     10.9828    152.4807   7.0589322336e+01   4.1092224093e+01    0.2065305    0.1350688  21.84  0.001034658    1.598    0.374
        58 -11.0668    188.8514    149.4798   2.1363614116e+01   1.6126789563e+01    0.4387545    0.2288399 -54.41  0.001949867    2.441    0.590
        59 -10.1955    204.0000    140.9745   1.7101406229e+01   1.5278600437e+01    0.2190768   0.06205278 -40.69 0.0008063118    2.969    0.663
        60  -9.7335    149.2484    141.3720   2.7589548933e+01   2.4245435792e+01    0.2479102    0.1859111  48.16 0.0008889868    1.477    0.323
        61  -9.8185     20.5916    140.3921   6.6295346958e+01   4.3626617335e+01    0.2973135    0.1163849  84.04 0.0009585711    3.390    0.705
        62 -10.7866    230.5946    137.6231   1.2532022785e+01   1.1978085318e+01    0.4061919    0.1916958 -38.17    0.0021725    1.661    0.398
        63 -11.6321    246.9208    136.1570   1.0163501305e+01   1.0034952357e+01    0.4575146    0.3711259 -64.84  0.003273266    1.698    0.411
        64 -10.1101    189.3047    135.8687   1.8506039825e+01   1.8471108542e+01    0.2075693    0.1520381 -52.60 0.0006825287    1.423    0.297
        65 -10.4211    204.7668    133.8239   1.5536646400e+01   1.6360432599e+01    0.3336806    0.2040741 -56.97  0.001699262    2.046    0.511
        66 -10.7676    133.2725    130.4580   2.8914714671e+01   2.9462244154e+01    0.5883936    0.2967688 -47.17  0.002058084    1.897    0.473
        67 -10.2747    223.0131    126.9933   1.1491590771e+01   1.4699343533e+01    0.3020187    0.1473898 -43.63    0.0015694    1.714    0.416
        68 -11.0810    107.8951    124.8147   3.4333770097e+01   3.5485329710e+01    0.5750527    0.4565509   6.00   0.00274096    1.580    0.367
        69 -10.9410    100.0370    124.1678   3.6481437808e+01   3.7082126667e+01    0.9409585    0.6326476  24.04  0.004117296    1.756    0.430
        70 -12.0081    243.2009    121.9027   7.9384807603e+00   1.2592136649e+01    0.5820073    0.2684846 -45.26  0.003151513    1.837    0.455
        71 -13.1073    236.2199    107.3353   5.9193301262e+00   1.5723583320e+01     1.430763     0.316469 -45.62  0.004886543    4.331    0.769
        72 -12.2083    247.0374    112.4873   5.7041595223e+00   1.3420031585e+01    0.5998115    0.4784526 -70.23  0.004289233    1.606    0.378
        73 -12.0085    248.1223    103.5340   3.8696493819e+00   1.4537726804e+01    0.9105436    0.3295219 -46.29  0.004401812    2.346    0.574
        74 -10.1896    183.5960    124.2720   1.7021161496e+01   2.1510681311e+01    0.2488481    0.1897315  44.71  0.001411797    1.497    0.332
        75  -8.8598    126.6696    124.2573   2.9129331915e+01   3.2075583050e+01    0.1464408    0.1178327  78.61 0.0002789643    1.562    0.360
        76  -9.8256    144.9355    120.7118   2.3903261743e+01   2.9330943945e+01    0.1979849    0.1893746  53.90 0.0004237322    1.119    0.106
        77 -11.7022      8.3922    118.7880   6.8674184077e+01   5.0510992980e+01    0.6592916    0.2455338 -36.47  0.002207084    3.613    0.723
        78  -9.6048     78.5174    118.9965   4.2153281497e+01   4.2146349868e+01    0.2461215    0.1508247 -58.13  0.001038474    1.609    0.378
        79 -10.2500    194.5178    113.9569   1.2940577439e+01   2.1420660404e+01    0.2423774    0.2134802 -17.14 0.0008143128    1.204    0.169
        80 -10.3143    227.7897    115.0809   8.4835739052e+00   1.5827186298e+01    0.3334873    0.1211069 -44.68  0.001500434    2.323    0.570
        81  -9.0420    136.5208    116.5548   2.4852364099e+01   3.1842601064e+01    0.1486823    0.1393224 -68.05 0.0001362611    1.090    0.082
        82  -9.6273    127.1423    113.8907   2.6495943258e+01   3.4273352888e+01    0.2346987    0.2025963 -76.06  0.000913057    1.274    0.215
        83 -12.0999      6.4784    110.4486   6.8601891377e+01   5.2939100866e+01    0.5455979    0.2535002 -80.83  0.002265288    2.010    0.502
        84 -12.2799    107.3034    107.9199   3.0349722766e+01   3.9564577206e+01    0.7892743    0.5681889 -78.95   0.00346123    1.841    0.457
        85  -9.3590     63.0000    109.9808   4.5633533209e+01   4.6988638128e+01    0.2619371   0.08594865 -59.75  0.000806785    2.973    0.664
        86  -9.4989    189.6710    104.3152   1.1542524544e+01   2.3937795013e+01    0.1357245   0.09656855 -66.35 0.0003530721    1.676    0.404
        87 -10.0715    167.4639    103.5097   1.5133861760e+01   2.8304198651e+01    0.3670389    0.2107692 -58.26  0.001608261    2.051    0.513
        88  -9.4580    150.8709    104.2643   1.8585173955e+01   3.1481292607e+01    0.2490341    0.1577217 -79.37 0.0009543861    2.860    0.650
        89  -9.7242    128.0685    102.1518   2.3243777227e+01   3.6611649770e+01    0.2328078    0.2106399  -3.94  0.001228914    1.279    0.218
        90 -11.0279     46.2470     99.2842   4.9847139968e+01   5.2227195581e+01    0.4866703    0.3439707  73.31  0.001640546    1.746    0.427
        91 -10.2390    110.9392    100.0547   2.7213265300e+01   4.0615693581e+01    0.3547485    0.2249212  53.44  0.001273064    1.699    0.411
        92  -9.7121     59.7160     98.0091   4.4037408875e+01   5.0619576590e+01    0.2245261    0.2077375 -60.77   0.00118632    1.054    0.051
        93 -10.8841     33.0436     96.5631   5.4968466885e+01   5.4553832163e+01    0.2996486    0.2081845  88.09  0.001387363    1.648    0.393
        94 -12.5185     19.7155     94.3718   6.0600660835e+01   5.6432463997e+01    0.6709645    0.4101821  40.61    0.0021894    1.719    0.418
        95 -10.7628      2.6949     94.5489   6.8502927953e+01   5.7519278126e+01    0.2610845    0.1540621  74.05  0.001199129    1.836    0.455
        96 -10.6277    205.7371     91.5182   6.3384066972e+00   2.3126537179e+01    0.2836409    0.1663895 -56.48   0.00146756    1.773    0.436
        97 -12.8069    229.7797     86.2785   2.3583460353e+00   1.9803022029e+01    0.8290667     0.369216 -49.24  0.004193781    1.981    0.495
        98 -13.3779    235.9373     75.8866   3.5959041665e+02   2.0266357092e+01     1.323922    0.6651807 -47.75  0.007505904    1.591    0.372
        99 -11.5903    178.8183     85.1213   8.6888024871e+00   2.9282168822e+01    0.6311084    0.2883945 -50.69  0.002672142    2.170    0.539
       100 -10.8942    163.8630     72.0916   7.7384127208e+00   3.4575425745e+01    0.3289971    0.2377239 -49.24  0.001303407    1.250    0.200
       101 -12.2993    175.7215     76.8783   7.1056534336e+00   3.1278131400e+01    0.9420547     0.501771  73.10   0.00411573    2.543    0.607
       102 -11.6747    164.0359     77.4450   9.1321755847e+00   3.3642871682e+01    0.4783553    0.3560434  66.04  0.002143979    1.452    0.311
       103 -11.6574    249.6112     79.3282   3.5902206968e+02   1.7655186334e+01    0.9063151    0.2044446 -35.07  0.003490044    3.581    0.721
       104 -10.2579    191.6299     96.1217   9.3601186125e+00   2.4959572265e+01    0.2394347    0.2021566  42.95  0.001459328    1.416    0.294
       105 -10.1621    156.4062     82.7337   1.1890416882e+01   3.4359203397e+01    0.2499689    0.1745048  72.29 0.0009887684    1.666    0.400
       106 -11.0621    159.8754     68.3712   7.3913981378e+00   3.6056756134e+01    0.4560279     0.224336 -50.70  0.001818307    1.997    0.499
       107 -11.3757    210.3967     78.0294   2.7451133785e+00   2.4351570573e+01    0.6350616    0.2947689 -54.30  0.002963635    2.229    0.551
       108 -10.9096    205.6235     71.6196   1.8488690627e+00   2.6181418632e+01    0.3916706    0.2682061  89.71  0.002252689    1.770    0.435
       109  -9.4096    113.3220     77.6389   2.0029648695e+01   4.4848633280e+01     0.290265    0.1438265 -48.22  0.000927526    2.019    0.505
       110  -9.6055     89.5399     81.0869   2.8206066565e+01   4.9249320625e+01    0.2865793    0.2054354  61.37 0.0007613013    1.580    0.367
       111 -10.9994    132.0910     78.7040   1.5741225505e+01   4.0443323115e+01     0.468449    0.3357342 -84.92  0.001543357    1.807    0.447
       112  -9.7055    136.5099     79.4978   1.4992122160e+01   3.9308130005e+01    0.2299286    0.1447319  55.00 -3.896096e-05    1.649    0.393
       113  -9.8509    114.3151     80.6692   2.0692486356e+01   4.4021200286e+01     0.246827    0.2174124 -79.25  0.001290619    1.186    0.157
       114  -8.9919     74.3521     73.7121   3.1202017175e+01   5.3927807604e+01    0.1541881    0.1187044  76.93 0.0007024275    1.668    0.400
       115 -10.8988     54.3584     72.3969   3.8997794726e+01   5.7831215810e+01    0.4320473    0.2863092  59.80  0.001186484    1.948    0.487
       116  -9.4966     39.4991     68.0098   4.4635956579e+01   6.1124616282e+01    0.2162795    0.1047649 -37.47 0.0007235931    2.460    0.593
       117 -10.4159      2.6409     67.6854   6.4669553451e+01   6.4686062178e+01    0.2419485    0.1316217 -41.33  0.001136411    1.734    0.423
       118 -11.6533    123.2432     62.1825   1.2691543160e+01   4.5463135447e+01    0.9694055    0.4090011 -53.96  0.003320379    3.064    0.674
       119  -9.0487     81.7019     70.3436   2.7379180189e+01   5.3185636584e+01    0.1536709    0.1192948 -87.82 0.0007034896    1.671    0.402
       120 -10.8333    231.7534    245.8128   3.0225585864e+01  -3.2055120680e+00    0.2711661    0.1211423 -44.26  0.001569043    2.898    0.655
       121 -10.2525    242.0133    244.6182   2.8509686535e+01  -3.9156971710e+00    0.2669966     0.126314 -12.70  0.001666657    2.054    0.513
       122 -13.1359    241.5375     54.9395   3.5483399902e+02   2.2125185708e+01    0.9650883    0.6896943 -61.29  0.006816744    1.247    0.198
       123 -12.1478    247.7706    237.3919   2.6650725261e+01  -3.5488854773e+00    0.6723907     0.263985 -37.94  0.004104469    2.276    0.561
       124 -11.2275    224.5214    244.1698   3.1126059217e+01  -2.3869282345e+00     0.249646    0.1138724   6.51  0.001395681    2.504    0.601
       125 -11.9366    208.6133    240.7601   3.3240741977e+01  -5.1193328793e-01    0.4854622    0.3564338 -31.52  0.003657178    1.438    0.304
       126  -9.6160     99.5990     64.4019   1.9555751322e+01   5.0506299845e+01    0.2153512      0.17053 -84.15 0.0007589261    1.504    0.335
       127 -10.9779    132.6778     65.5225   1.1668218297e+01   4.2693210862e+01    0.4201519    0.3391132  86.54  0.001215345    1.315    0.240
       128 -10.4203     78.1829     60.3689   2.5099173135e+01   5.5967560525e+01    0.3810102    0.3053997  10.29  0.001884476    1.577    0.366
       129 -11.1482    176.0833     57.6324   2.0950186911e+00   3.4196557637e+01    0.4804621    0.4475428 -52.92  0.003075694    1.136    0.120
       130 -10.8119    207.7513     54.9564   3.5778975644e+02   2.8138905704e+01    0.3482628    0.2702551  48.47  0.001751227    1.696    0.410
       131 -10.0082    137.0017     55.0098   7.5610532685e+00   4.3426210788e+01    0.2400709    0.1611202 -69.04  0.001138155    1.693    0.409
       132 -11.1459    108.1021     53.6972   1.3494547404e+01   5.0469630919e+01    0.6092124     0.343704  64.14  0.002620887    1.895    0.472
       133 -11.1014     96.9087     49.6267   1.5030539031e+01   5.3777207645e+01    0.5267552    0.2795859 -47.12  0.001567635    1.973    0.493
       134 -10.2899    144.0190     46.7290   3.7666379982e+00   4.3031717142e+01    0.3795253    0.2130814 -64.75  0.001459598    2.131    0.531
       135  -9.4936     37.2310    243.3870   6.9207873857e+01   1.7344015369e+01    0.1820321   0.08226161  35.75 0.0009490447    1.674    0.403
       136 -11.7158    179.7085     38.6822   3.5670500880e+02   3.6034916007e+01    0.7987748     0.306589 -47.38  0.003498933    2.239    0.553
       137  -9.6791    106.8602     41.3112   9.3266049046e+00   5.2740105656e+01     0.235237    0.1768268  85.51  0.001194532    1.448    0.309
       138 -10.3818    133.0914     38.6649   3.0627321995e+00   4.6775404788e+01    0.3310438    0.2129224 -57.68  0.001283187    1.583    0.368
       139 -10.3672    118.1564     35.9986   4.9246054312e+00   5.0762845459e+01    0.2240107    0.1656167  13.86   0.00109416    1.987    0.497
       140  -9.4882    104.6027     35.7687   7.7762260031e+00   5.4090625518e+01    0.2013422    0.1247593 -45.57  0.000926274    1.654    0.395
       141  -9.4910    128.5979     34.2196   2.3645994336e+00   4.8461111641e+01    0.1792736    0.1352551 -19.30 0.0006690465    1.604    0.377
       142 -10.4516     37.5124     33.3091   3.1973568739e+01   6.8911414073e+01    0.4786123    0.1872299  44.19   0.00187069    2.661    0.624
       143 -10.1129    155.2775    239.9496   4.2920410040e+01   5.0890648138e+00    0.1625576    0.1315944 -11.86 0.0006333325    1.137    0.120
       144 -10.1430    217.8201     30.8442   3.5148761256e+02   2.9280425765e+01    0.2966129     0.135244 -49.48  0.001618444    1.696    0.410
       145  -9.6803     68.8258    239.6127   6.1721706155e+01   1.4867504247e+01    0.1905787   0.08695507  36.00 0.0009510848    1.740    0.425
       146 -11.2126    223.0343    235.6703   3.0161381060e+01  -1.1999085129e+00    0.3116785    0.1151985 -32.59  0.001712132    2.327    0.570
       147  -9.7645     56.0403     26.5333   1.9196082312e+01   6.6566094358e+01    0.1904946    0.1202828  74.14 0.0008095975    2.564    0.610
       148  -9.8006    172.4980    233.9436   3.8753852823e+01   4.1161005331e+00    0.1657214    0.1053167 -38.87  0.001037549    1.605    0.377
       149 -12.0621    227.7891    228.5372   2.8375219205e+01  -7.3105236447e-01    0.4922682    0.3435173 -39.84  0.003582665    1.721    0.419
       150  -9.8439     35.6882     22.9291   2.7550677544e+01   7.1040074818e+01    0.2236646    0.1691355  26.07 0.0005823672    1.276    0.217
       151 -10.5682     12.8538     20.8590   4.2347697033e+01   7.4740177727e+01    0.2462045    0.2036122 -44.36 0.0008875313    1.244    0.196
       152 -10.6065     94.4960    230.8962   5.4969069507e+01   1.3657475674e+01     0.372555    0.1584825  15.31  0.001481586    3.007    0.667
       153 -10.5642      4.9771     16.0556   4.6561220664e+01   7.6486606793e+01    0.2127941     0.128219 -23.45 0.0009353286    1.708    0.415
       154 -11.2901    248.1755    225.3298   2.4846960525e+01  -2.1526328530e+00    0.3884058    0.2628825 -46.02  0.002738484    2.271    0.560
       155 -10.5631    191.8437    227.0623   3.4187658715e+01   3.0464873674e+00    0.1623181    0.1435218  -5.43 0.0009026011    1.300    0.231
       156 -10.1848     33.8430    225.5009   6.8979866516e+01   2.1303653303e+01    0.2558998    0.1403204  70.16  0.001326817    1.948    0.487
       157  -9.6204    173.8735    220.4117   3.6548874479e+01   6.0442954855e+00    0.1936893    0.1277768 -30.70 0.0008187934    1.415    0.293
       158  -9.6214      1.5034    221.5043   7.6528148861e+01   2.4958313434e+01    0.1235927   0.09697223  52.48 0.0008106076    1.018    0.017
       159 -10.7847    249.4724    216.4234   2.3332468321e+01  -1.1757763606e+00    0.2542421    0.1669961 -32.67  0.001915765    1.396    0.284
       160 -11.7541    238.2722    215.0115   2.4744752719e+01   2.7803758408e-02    0.4416748    0.2688721 -34.67  0.002485505    1.461    0.315
       161 -10.5974    239.4289    205.9841   2.3173380125e+01   1.0956889627e+00    0.2994906    0.1591814 -23.18  0.001598835    1.560    0.359
       162  -9.2456    181.4779    217.5063   3.4667395629e+01   5.6239356768e+00    0.1196532   0.09625562  -5.44 3.225953e-05    1.008    0.008
       163  -9.9901    141.4499    216.4472   4.2590611080e+01   1.0619553004e+01    0.2067354    0.1262836 -64.04 0.0009793031    2.447    0.591
