#   1 NUMBER                 Running object number                                     
#   2 MAG_AUTO               Kron-like elliptical aperture magnitude                    [mag]
#   3 X_IMAGE                Object position along x                                    [pixel]
#   4 Y_IMAGE                Object position along y                                    [pixel]
#   5 X_WORLD                Barycenter position along world x axis                     [deg]
#   6 Y_WORLD                Barycenter position along world y axis                     [deg]
#   7 A_WORLD                Profile RMS along major axis (world units)                 [deg]
#   8 B_WORLD                Profile RMS along minor axis (world units)                 [deg]
#   9 THETA_WORLD            Position angle (CCW/world-x)                               [deg]
#  10 FWHM_WORLD             FWHM assuming a gaussian core                              [deg]
#  11 ELONGATION             A_IMAGE/B_IMAGE                                           
#  12 ELLIPTICITY            1 - B_IMAGE/A_IMAGE                                       
         1 -12.0241    248.8920     55.9737   3.5354612886e+02   2.1134551747e+01    0.7185495    0.1534681 -42.52    0.0031335    2.864    0.651
         2 -10.2569     23.5974     16.7659   3.1648121216e+01   7.4459238358e+01    0.2395556    0.2078017 -84.23 0.0009538967    1.696    0.410
         3 -10.6660    250.1432     14.6091   3.4546531327e+02   2.5750448826e+01    0.1767418     0.102145 -36.70 0.0009856379    1.444    0.308
         4 -11.0859     49.6202     14.1134   1.4559863677e+01   7.0063818772e+01    0.3080764    0.2533363  46.98 0.0007848988    1.101    0.092
         5 -10.2899     45.4983     12.0511   1.5267777770e+01   7.1187366907e+01    0.2510938    0.1885713  36.37 0.0007169775    1.240    0.194
         6 -11.0953     27.9819     12.6246   2.5851826470e+01   7.4420663769e+01    0.3844967    0.2593817 -40.27  0.002170568    1.606    0.377
         7 -10.5587     34.9816     13.7299   2.2055424798e+01   7.3017538584e+01    0.2845593    0.2132976  43.04  0.000519182    1.244    0.196
         8 -11.1302     32.1530     10.3704   2.1596390862e+01   7.4014486246e+01    0.2747203    0.2196433 -11.40 0.0005073905    1.322    0.244
         9 -10.4846    162.3586     11.8702   3.5019565975e+02   4.3361973541e+01    0.2228005    0.1465302 -82.62 0.0006178922    1.367    0.269
        10  -9.6774     79.0275     11.8253   2.9875023014e+00   6.3617632185e+01    0.2062685    0.1678523 -88.22  0.001194947    1.279    0.218
        11 -11.9938    178.3301      8.5672   3.4804645997e+02   4.0128540388e+01    0.4146619    0.2365874 -57.90  0.001964557    1.459    0.314
        12 -11.5896    174.3973      3.6842   3.4704072426e+02   4.1473607990e+01    0.3760111    0.2299834 -65.86  0.001147286    1.372    0.271
        13  -9.8303     69.6637      9.7041   4.5697265900e+00   6.6073078607e+01    0.2064294    0.1655055 -15.85 0.0007381491    1.434    0.303
        14 -10.3843     54.6695      8.6781   9.1845044908e+00   6.9622152986e+01     0.350497    0.2567825 -52.98  0.001965957    1.666    0.400
        15  -9.7578    218.7790      8.7720   3.4571758980e+02   3.1884078262e+01    0.1539074    0.1280229 -61.03  0.000539597    1.169    0.145
        16 -11.4602     85.4974      7.2544   3.5924584737e+02   6.2499739011e+01    0.2887875    0.2536877 -89.09  0.001018933    1.104    0.094
        17 -10.4429     79.7086      7.5311   7.3023698938e-01   6.3885373030e+01    0.3633437    0.1605864  56.52  0.001633309    1.926    0.481
        18  -9.3359    212.7169      8.4498   3.4595169998e+02   3.3071252601e+01    0.1386189   0.09755602  74.97 0.0009396423    1.579    0.367
        19 -11.1282    124.6871      7.0707   3.5262547770e+02   5.2819198302e+01    0.5146637    0.2460592 -85.51  0.002011228    2.295    0.564
        20  -9.5270    120.7454      3.6667   3.5190376674e+02   5.4098990101e+01    0.1803807    0.1314355  48.58  0.000267736    1.534    0.348
        21 -10.5048     97.5405      6.3881   3.5644551726e+02   5.9608057731e+01    0.4409487    0.1978873 -43.45  0.001625649    2.313    0.568
        22 -11.1518    236.6646      7.0996   3.4456595894e+02   2.8814809032e+01    0.2159149    0.1385182 -85.19  0.001548496    1.514    0.339
        23  -9.4563     23.6530      5.3268   2.3811213166e+01   7.6216643254e+01    0.1661666    0.1453398  76.33  0.000582576    1.634    0.388
        24 -10.0835     16.1202      4.5087   2.9220479875e+01   7.7541378976e+01    0.1986962    0.1529845   2.90 0.0006175362    1.275    0.216
        25  -9.3204      7.3650      5.3015   3.8090769710e+01   7.8588400509e+01    0.1299332   0.08356926  -8.59 0.0007034988    1.732    0.423
        26  -9.1092    101.3049      4.2965   3.5491937310e+02   5.8861072797e+01    0.1315796   0.08989464  45.15 0.0003022491    1.584    0.369
        27  -9.1571    131.4403      3.4906   3.5061221334e+02   5.1495481877e+01    0.1288171    0.1095523 -82.47 0.0002457519    1.015    0.015
        28 -11.1745    113.9214      1.8859   3.5211382913e+02   5.5938301469e+01    0.2906768    0.1882941  84.17 0.0009289643    1.375    0.273
        29  -9.7349    229.9801      1.7222   3.4374996706e+02   3.0539157766e+01    0.1497647    0.1094687 -65.97 0.0005621679    1.115    0.103
        30  -9.5748    102.9896    105.9588   3.0063943775e+01   4.1088304934e+01    0.2546158     0.189491  75.93  0.001130499    1.714    0.417
        31 -10.2924     12.5617    105.7533   6.5054010515e+01   5.4059658762e+01    0.3605443    0.1896308  38.92  0.001075621    1.931    0.482
        32 -10.2896      1.8316    105.0362   6.9677327687e+01   5.4876945763e+01    0.2197218    0.1862397 -61.03   0.00083664    1.118    0.105
        33  -9.1773    117.3227    102.2881   2.4987782714e+01   3.9021427681e+01    0.1496243    0.1230871  -2.02 0.0003577904    1.604    0.376
        34  -9.0771    108.0519    101.0054   2.7247376339e+01   4.1215658750e+01    0.1816531    0.1762635 -79.57 0.0003572482    1.007    0.007
        35 -11.3104     28.3133     99.5679   5.7096972641e+01   5.4480371791e+01    0.4508275    0.2356458 -34.09   0.00156535    2.340    0.573
        36 -10.4617    102.9599     95.5724   2.7261710632e+01   4.3495055587e+01    0.3135719    0.2231367 -45.64 0.0009821329    1.401    0.286
        37 -11.4814     64.2541     95.7597   4.0834930662e+01   5.0738079479e+01    0.5290556    0.3842178  69.42 0.0006012293    1.703    0.413
        38 -10.7664     38.4637     94.2653   5.1454349732e+01   5.4821847466e+01    0.4049368    0.2013547 -80.65  0.001453928    2.661    0.624
        39 -10.7691     16.2491     94.0083   6.1745939981e+01   5.7053619230e+01    0.3430687    0.2839501 -30.80 0.0009795938    1.261    0.207
        40  -9.2973      5.2285     95.1948   6.7117116030e+01   5.7426839186e+01    0.2540429    0.1003367 -40.49 0.0009374717    2.710    0.631
        41 -10.1387    108.2952     89.8872   2.4068272719e+01   4.3641513496e+01    0.3245285     0.215074 -74.91   0.00132178    2.124    0.529
        42 -10.5204     90.1068     94.2311   3.0964656504e+01   4.6400937189e+01    0.2901444    0.2467003  57.23 0.0004702672    1.204    0.170
        43  -8.9477      2.3073     88.3243   6.7715447387e+01   5.9452146622e+01    0.1520469   0.08930514 -44.68 0.0004802908    1.648    0.393
        44  -9.2069    160.0283     81.0168   9.7154141038e+00   3.4122097680e+01    0.1706594    0.1503853 -55.81 0.0003739484    1.023    0.023
        45 -12.1734     54.3942     78.7738   4.0245967398e+01   5.6604597486e+01    0.3370764    0.3056713  71.36 0.0003974395    1.188    0.158
        46  -9.9210    152.0234     76.0024   9.8288486853e+00   3.6741219843e+01    0.2291525    0.1620661 -73.33 0.0007535632    1.623    0.384
        47  -9.8366    134.6689     75.6756   1.3241269755e+01   4.0675394557e+01    0.1443847    0.1185411  11.48 0.0004427279    1.704    0.413
        48 -10.1434    130.3968     74.2604   1.3774117610e+01   4.1905032623e+01    0.2067844    0.1316574 -50.92 0.0006608871    1.538    0.350
        49  -9.4259      2.9798     74.7753   6.5566712958e+01   6.3064886392e+01    0.1742149    0.1140524   7.58 0.0004388377    1.646    0.393
        50  -9.8609    143.8046     77.2191   1.1763111170e+01   3.8344118184e+01    0.2481308    0.2252109 -77.87 0.0007620393    1.056    0.053
        51  -9.6504     64.0199     69.5526   3.3110001107e+01   5.7130487285e+01    0.2166461    0.1955882 -50.24 0.0003905534    1.114    0.102
        52  -9.8146      7.9260     68.9251   6.1798274734e+01   6.4340322944e+01    0.2064538    0.1936488 -60.14 0.0005749809    1.037    0.036
        53  -8.9628     33.5668     68.4860   4.7350292582e+01   6.2107656559e+01    0.1424557    0.1364651 -38.43 2.561899e-05    1.010    0.010
        54  -9.7632     70.0016     66.7653   2.9683250491e+01   5.6616104027e+01    0.2221689    0.1970812   9.88 0.0004793158    1.262    0.207
        55 -11.0696    192.2115     65.7624   1.0638561368e+00   2.9918720651e+01    0.2258435    0.1831414 -55.98 0.0002832359    1.034    0.033
        56  -9.0515     40.2657     66.0085   4.3079195771e+01   6.1831775411e+01    0.1808082    0.1238233 -56.23 0.0003646213    1.441    0.306
        57  -9.2667    204.4819     65.4928   3.5956853890e+02   2.7568733359e+01    0.1286798    0.1022138 -53.95 0.0008102233    1.027    0.026
        58 -10.9283     99.8299     62.7689   1.7962971019e+01   5.1058943162e+01    0.4175277    0.2394512 -53.35  0.001634892    1.896    0.473
        59  -9.8344     75.3548     64.7067   2.6862673772e+01   5.5987829605e+01    0.2704431    0.1451706  49.33 0.0005427158    1.886    0.470
        60 -10.4760     78.3000     62.9695   2.5136068989e+01   5.5740234500e+01    0.2656858    0.2138929  37.89 0.0002796366    1.267    0.211
        61 -10.2399      4.2441     63.7801   6.3002536051e+01   6.5875723378e+01     0.246442    0.2115954 -51.32  0.000732478    1.054    0.051
        62 -10.6717      2.2795     60.0098   6.3500458785e+01   6.6936540484e+01    0.4097497    0.2536106 -32.53  0.001117917    1.581    0.368
        63  -9.3919      1.2823    181.6202   7.4474227219e+01   3.4223319741e+01    0.1496134   0.07671581  57.55 0.0007010515    1.721    0.419
        64 -10.5670    114.2812     60.5000   1.3278675346e+01   4.8133216216e+01    0.3836182    0.2520075 -55.49  0.001350535    1.599    0.374
        65 -10.6102     14.1112     60.9977   5.6408223238e+01   6.5946149483e+01    0.3848517     0.183854  12.45  0.001637489    2.261    0.558
        66 -10.0183    124.8571     59.8492   1.0576087293e+01   4.5763508124e+01    0.2015304    0.1978238  34.63 0.0003790715    1.175    0.149
        67 -10.4762     66.1004     57.9271   2.8054563378e+01   5.9253018339e+01    0.3216047    0.1967792  69.81  0.001220216    2.779    0.640
        68 -10.6117     22.2966     57.8796   5.0588893765e+01   6.5981346318e+01    0.2549749    0.2210243  57.10 0.0004839618    1.315    0.239
        69  -9.9675     29.7840     56.4167   4.5682368076e+01   6.5491799584e+01    0.4043087    0.2089833 -22.47  0.001474824    3.123    0.680
        70  -8.8592    152.6835     56.6415   4.2765591772e+00   3.9806939692e+01    0.1350268    0.1107288  18.07 0.0006273056    1.754    0.430
        71 -10.1895    119.9540     55.5005   1.0265503204e+01   4.7657862292e+01     0.262057     0.204721 -43.10 0.0004738015    1.285    0.222
        72  -9.8171     78.5986     55.8504   2.2386987867e+01   5.7093100853e+01    0.2572963     0.194355  36.44 0.0006684579    1.388    0.280
        73  -9.1785     45.4496     56.5015   3.7114390231e+01   6.3256027791e+01    0.1412503     0.137367  -4.36 0.0001058045    1.010    0.010
        74  -9.0557    133.4478     55.5287   7.4077198236e+00   4.4457651637e+01    0.1447049     0.129075 -74.74  0.000807384    1.036    0.035
        75  -9.0388     39.4550     54.4297   3.9516813528e+01   6.4640091948e+01    0.1383128     0.135178  22.66 0.0001069095    1.062    0.058
        76  -9.7146     88.6335     52.8433   1.7814428697e+01   5.5438812083e+01    0.2383805    0.1927241  45.46 0.0005417786    1.234    0.189
        77 -11.0528     16.1764     50.3562   5.2142829060e+01   6.8377444873e+01    0.3614652    0.2534885  -7.43  0.001548816    1.520    0.342
        78  -9.0279    145.6595     49.7220   3.4093629110e+00   4.2489611888e+01    0.1329711    0.1072587  34.53 0.0007004404    1.621    0.383
        79 -11.0694     94.0058     48.6212   1.4558418534e+01   5.4944771675e+01    0.2471001    0.2091082 -44.76 0.0002420344    1.220    0.180
        80 -10.1330      5.5809     46.7046   5.8305104272e+01   7.0054856112e+01    0.4229422    0.1520462 -27.72  0.001446961    3.714    0.731
        81 -11.1779    230.6357     60.0804   3.5582223721e+02   2.3601386157e+01    0.3208846    0.1898822 -67.42  0.001908912    1.776    0.437
        82 -10.7325     39.1360     43.5471   3.5338607231e+01   6.7030957540e+01    0.3220723    0.3061479  15.36  0.001940925    1.037    0.036
        83  -9.5362     31.4829     43.6980   3.9921064421e+01   6.8134214630e+01    0.2410055    0.1212554  29.59 0.0007827724    1.969    0.492
        84 -10.2174    119.2216     40.7758   5.4217454639e+00   5.0141637299e+01    0.3395611     0.252036  -0.41  0.001203323    2.030    0.507
        85 -10.6248    158.6914     39.2206   3.5839130357e+02   4.0954797545e+01    0.2372002    0.2025577 -76.67 0.0003284504    1.043    0.041
        86  -8.9503     29.6973     39.3008   3.9166831804e+01   6.9309953524e+01    0.1303859    0.1066222  64.89  0.000299965    1.588    0.370
        87  -9.2941     96.0249     38.0041   9.8679280610e+00   5.6166258729e+01    0.1708917    0.1525398  68.54 0.0003861631    1.048    0.046
        88 -11.0218    119.1829     35.0566   3.4255768452e+00   5.0959289583e+01    0.2512604    0.2213371  74.33 0.0003063822    1.078    0.072
        89 -10.8109     46.9425     26.7886   2.2990036330e+01   6.8756231319e+01    0.2308421    0.2230527 -42.11 0.0003095204    1.151    0.131
        90  -9.9354     47.1502     35.8247   2.7445102069e+01   6.7160304938e+01    0.1908445    0.1773434 -26.34 0.0002367289    1.107    0.097
        91 -11.3778     48.9243     32.0261   2.4676471727e+01   6.7500361753e+01    0.6265852    0.3130718  58.20  0.002228124    2.849    0.649
        92 -10.5303     40.3048     35.6292   3.1072126275e+01   6.8404469938e+01    0.3561248    0.2159156  49.35  0.001148545    1.824    0.452
        93  -9.9201     82.3047     35.6883   1.2933194566e+01   5.9754716658e+01    0.1422759    0.1081996 -78.44 0.0002709054    1.615    0.381
        94  -9.2139    174.0173     34.5171   3.5526359856e+02   3.8114326571e+01    0.1803073     0.118841  78.59  0.000553416    1.507    0.336
        95  -9.5261    153.6956     31.9885   3.5694219203e+02   4.3058486507e+01    0.1819789    0.1567478 -64.48 0.0004504648    1.046    0.044
        96  -8.8362    189.7285     31.7070   3.5299642000e+02   3.5084372230e+01    0.1046662     0.097623  22.81 0.0002053921    1.516    0.340
        97 -10.0737    167.5247     30.9128   3.5499398214e+02   4.0016191869e+01    0.2289644    0.1664136 -88.20 0.0003239005    1.296    0.228
        98 -10.1432     92.5743     31.1216   8.0078406898e+00   5.7988469555e+01    0.2573773    0.1866562  57.55 0.0004607966    1.281    0.219
        99  -9.8593     17.8308     31.1345   4.3706891600e+01   7.2504401136e+01    0.1832622    0.1757673  25.66 0.0004551278    1.172    0.147
       100  -9.8417      3.8291     31.1277   5.4821966003e+01   7.3773641392e+01    0.1785394    0.1691997  21.61 0.0004413569    1.186    0.157
       101 -10.9357     59.3894     28.3088   1.7948073404e+01   6.5991796768e+01      0.41241    0.2739203 -27.10  0.001370171    1.720    0.418
       102  -9.7025    104.0111     28.2767   4.0739521084e+00   5.5585527192e+01    0.1974594    0.1625987  71.61 0.0003917646    1.118    0.106
       103  -9.6716    160.6644     27.0291   3.5466763751e+02   4.2054547532e+01    0.1792124    0.1476539 -56.30 0.0004019508    1.096    0.087
       104 -10.1104     13.9933     26.4808   4.4511725059e+01   7.3882998188e+01     0.198328    0.1203607  21.34  0.001034973    1.599    0.375
       105  -9.4477    121.2088     25.3861   3.5962760647e+02   5.1710275454e+01    0.1939784    0.1199232  83.99  0.000936694    1.648    0.393
       106 -10.4650    110.7814     24.9628   1.3861892989e+00   5.4334897128e+01    0.2970492    0.1865602  69.12 0.0007576997    1.472    0.321
       107 -10.0566     88.0968     24.5502   6.4120508853e+00   5.9944028138e+01    0.2261079    0.1831087 -50.94 0.0006115055    1.309    0.236
       108  -9.2456    128.9606     23.9722   3.5787575734e+02   4.9976010320e+01    0.1624686    0.1424416 -84.28 0.0003855947    1.005    0.005
       109 -11.4637     98.4801     22.5740   3.0266711198e+00   5.7658527733e+01     0.252711    0.2432433 -70.15 0.0004927852    1.103    0.093
       110  -9.2779    196.3166     23.3384   3.5041228010e+02   3.4712902620e+01    0.1074866   0.09386257  30.59 0.0004134041    1.703    0.413
       111  -9.8879    135.6969     23.6679   3.5678195263e+02   4.8369892366e+01     0.129841    0.1005071  37.75 0.0007036006    1.656    0.396
       112  -9.8674     43.8126     22.8815   2.2503416476e+01   6.9980260680e+01    0.2044592    0.1695738  17.92 0.0004523702    1.222    0.182
       113  -9.6707     38.4951     22.8748   2.5465564571e+01   7.0969160637e+01    0.1806908    0.1300111 -37.85 0.0004054499    1.466    0.318
       114 -10.4412     66.5390     20.7858   1.1333830496e+01   6.5491930878e+01    0.2411541    0.2006186  74.72 0.0002911792    1.265    0.209
       115  -9.2133    159.4436     20.5300   3.5293979452e+02   4.3095090753e+01    0.1305349    0.1081449 -69.97 4.995635e-05    1.009    0.009
       116 -10.4016    109.1343     19.1327   3.5947307417e+02   5.5427809965e+01    0.2719325    0.1889615 -38.67 0.0009884111    1.491    0.330
       117  -9.9141     79.4328     19.9507   6.7467107623e+00   6.2596257228e+01    0.2849613    0.1573749 -75.08 0.0007421101    3.434    0.709
       118  -9.4425      5.3082     19.3107   4.8535907449e+01   7.6176008373e+01    0.1334673   0.08224316 -25.26 0.0003735758    1.620    0.383
       119 -10.1133     16.4768     18.4820   3.8260957179e+01   7.5146561865e+01    0.2048202    0.1574382 -20.65  0.000557794    1.274    0.215
       120 -10.2849     20.3398    174.8869   6.8532798587e+01   3.4479209560e+01    0.2582852    0.1612759  38.43 0.0009649719    1.448    0.310
       121 -10.5051     19.8520     15.8706   3.3965124936e+01   7.5160417786e+01    0.2925224    0.2183482   6.89 0.0009123556    1.353    0.261
       122  -9.3649      6.9741     15.9811   4.5236587922e+01   7.6683940019e+01      0.15271    0.1318649 -12.14 0.0005449248    1.005    0.005
       123 -10.0545    224.0000    172.0004   1.8580404145e+01   7.7753563638e+00    0.1945622   0.05440497 -40.47 0.0007997622    2.924    0.658
       124 -10.7180    183.3477     14.9376   3.4931577461e+02   3.8375229364e+01    0.2122629    0.1390517 -76.88 0.0005446848    1.354    0.261
       125  -9.3469    132.8830     15.1488   3.5434863097e+02   5.0005960544e+01     0.173965    0.1440661  59.05 0.0003867408    1.297    0.229
       126 -10.4932     21.5003    170.2405   6.7850857871e+01   3.5591854193e+01     0.254907     0.227583  55.95 0.0004643728    1.035    0.033
       127  -9.8842     27.6777    159.0623   6.4977901018e+01   3.8017556499e+01    0.2069456    0.1730884 -85.90 0.0006197551    1.146    0.128
       128 -10.6374      3.1422    156.4586   7.2764989258e+01   4.0638549428e+01    0.2800724    0.1993591  85.94 0.0004414752    1.281    0.220
       129  -9.3036     73.5682    153.4834   4.9408729282e+01   3.4073922107e+01    0.1494582    0.1435311  68.22 7.122065e-05    1.017    0.017
       130  -9.7921     39.9972    147.7056   5.9641374433e+01   3.9878113875e+01    0.2064177    0.1837164  41.28 0.0003944354    1.109    0.098
       131  -9.4476     24.2456    146.5833   6.4955114493e+01   4.1734362840e+01    0.1938449    0.1411188   0.28 0.0009481119    1.630    0.387
       132  -8.6863     75.2894    144.2849   4.7305076645e+01   3.6230834620e+01    0.1504978    0.1171504 -25.66  0.000227748    1.533    0.348
       133 -10.6787     22.3290    141.9028   6.5169298474e+01   4.3195234399e+01    0.2909704    0.2712055  47.69 0.0008074606    1.086    0.079
       134  -9.8930      7.1158    141.5692   7.0522787639e+01   4.4428851572e+01    0.3902449    0.1274739 -61.40  0.001413354    2.754    0.637
       135 -10.2379     28.2550    138.1902   6.2648923180e+01   4.3698180213e+01    0.2363668    0.2301463 -69.53 0.0006032152    1.085    0.078
       136  -9.1528     91.9807    137.7904   4.0812029541e+01   3.5266502505e+01    0.2000431    0.1230429  33.74 0.0003572392    1.636    0.389
       137 -10.0343      3.5216    136.0218   7.1424846355e+01   4.6180205566e+01      0.22181    0.1278153 -82.63 0.0005846219    1.586    0.369
       138 -10.3357     26.2073    134.1160   6.2932295204e+01   4.5023811876e+01    0.2270775    0.1925565 -46.72 0.0008143073    1.247    0.198
       139  -9.8014     11.3418    133.9412   6.8415944968e+01   4.6258521625e+01    0.2007045    0.1727263 -82.66 0.0005967691    1.078    0.072
       140  -9.7827     17.7571    132.1545   6.5868038298e+01   4.6285449170e+01    0.2178816    0.1777503  66.93  0.000426483    1.180    0.153
       141  -9.1653      5.4889    125.4616   6.9923876948e+01   4.8995103829e+01    0.1419222    0.1289909  89.14 0.0001148304    1.007    0.007
       142 -11.0161    136.3698    123.6301   2.5445559872e+01   3.0527970406e+01     0.423665    0.2572844  25.10  0.001742332    2.291    0.564
       143 -10.1758     62.5139    121.2338   4.7346502095e+01   4.4282578735e+01    0.3923603    0.1946136  60.02  0.001288783    3.068    0.674
       144 -10.1081      2.2940    118.1247   7.0597298884e+01   5.1215506303e+01    0.2448274    0.1944872  36.59  0.000453797    1.303    0.233
       145  -9.8688     91.3873    116.3180   3.6281610267e+01   4.0781605548e+01    0.2532148    0.2292184 -25.19 0.0007484499    1.210    0.174
       146  -9.5706     55.8388    117.5038   4.9093911811e+01   4.6249342819e+01     0.217474    0.1525048  28.83 0.0004243252    1.462    0.316
       147  -9.6294     13.7542    117.3858   6.5891713555e+01   5.0722634491e+01    0.1930647    0.1375484  -6.66 0.0008146564    1.643    0.391
       148  -9.4691     20.6190    116.1660   6.2937608883e+01   5.0542605722e+01    0.2238903    0.1167633 -60.99 0.0009462907    1.749    0.428
       149 -10.2512     79.5982    111.6118   3.9101750606e+01   4.4071039271e+01    0.4349166    0.2581802 -77.64  0.001619894    2.403    0.584
       150  -9.2789     95.9838    111.7093   3.3693910544e+01   4.1066499728e+01    0.2093386    0.2048269  61.65 0.0005065024    1.032    0.031
       151 -10.5993    113.8438     14.0516   3.5671658362e+02   5.4810221840e+01    0.4618565    0.1336758  65.92  0.001697976    2.880    0.653
