#   1 NUMBER                 Running object number                                     
#   2 MAG_AUTO               Kron-like elliptical aperture magnitude                    [mag]
#   3 X_IMAGE                Object position along x                                    [pixel]
#   4 Y_IMAGE                Object position along y                                    [pixel]
#   5 X_WORLD                Barycenter position along world x axis                     [deg]
#   6 Y_WORLD                Barycenter position along world y axis                     [deg]
#   7 A_WORLD                Profile RMS along major axis (world units)                 [deg]
#   8 B_WORLD                Profile RMS along minor axis (world units)                 [deg]
#   9 THETA_WORLD            Position angle (CCW/world-x)                               [deg]
#  10 FWHM_WORLD             FWHM assuming a gaussian core                              [deg]
#  11 ELONGATION             A_IMAGE/B_IMAGE                                           
#  12 ELLIPTICITY            1 - B_IMAGE/A_IMAGE                                       
         1 -12.0010     67.6683    144.4287   1.2538977355e+02   3.7854339627e+01     1.268689    0.7062694 -87.15  0.004976212    2.775    0.640
         2 -11.9690    190.7633     29.2968   6.6196014283e+01   3.4126094920e+01    0.9466749    0.7004631 -68.96  0.004058204    1.351    0.260
         3 -12.0874    197.7991     22.1744   6.3569463972e+01   3.3298147032e+01    0.9991931    0.7214756 -76.13  0.004296272    1.330    0.248
         4 -11.0856    204.1136     14.6311   6.1087935198e+01   3.2670906774e+01      0.46514    0.4194114  23.13  0.001248796    1.540    0.351
         5  -9.9488     16.6690     30.8052   1.1422094772e+02   6.6939982360e+01    0.3560261   0.05422913 -42.00    0.0012802    4.543    0.780
         6  -9.7943     32.6583     16.9911   1.0198277442e+02   6.7338012792e+01    0.2492316   0.09008142 -36.18  0.001247375    2.549    0.608
         7 -11.5108    213.0913      3.9133   5.7813991978e+01   3.1752540382e+01    0.7412603    0.4070445  76.12  0.003124344    1.540    0.351
         8 -10.4829     22.0349      7.5304   1.0255927737e+02   6.9671939331e+01    0.2411321    0.1367441 -11.32  0.001548415    1.623    0.384
         9  -9.7592     33.0698      3.3259   9.5874126149e+01   6.8883537177e+01    0.2598668    0.1308343 -29.40  0.001601532    1.895    0.472
        10  -8.7325     51.0194      2.0000   8.8292806595e+01   6.6543840563e+01     0.178113   0.05484734  45.02 0.0008042174    2.955    0.662
        11 -10.0952     70.7255    189.1501   1.3159744820e+02   2.6661892077e+01    0.4311147     0.258064 -42.99  0.002022124    2.247    0.555
        12 -12.8439     33.3082    247.7374   1.4477473227e+02   1.8988559932e+01     2.487833     1.201797  44.45   0.01469735    1.852    0.460
        13 -12.3705     47.7959    220.4674   1.3994725477e+02   2.2745258431e+01     0.978188    0.7445503  35.39   0.00381229    1.622    0.384
        14 -10.0270     75.0814    182.9288   1.2972950107e+02   2.7489328754e+01    0.3600274    0.2519732 -47.57 0.0007094924    1.638    0.390
        15  -8.9327    115.0015    174.0207   1.1870894034e+02   2.2962321227e+01    0.1859494    0.1733314  76.04  0.001017144    1.017    0.017
        16  -9.7093     83.6932    171.6905   1.2594894061e+02   2.8863850160e+01    0.3035338    0.2384013 -56.54 0.0005585988    1.268    0.212
        17 -11.6467     71.3763    168.6380   1.2848412068e+02   3.1450436164e+01    0.6550509    0.3050438 -47.33  0.001269752    2.428    0.588
        18  -7.8617    157.6704    249.6776   1.2159102080e+02  -2.5453361546e-01    0.1268892   0.09567046  10.78  0.000704928    1.695    0.410
        19 -10.0899     83.4277    162.7290   1.2451448718e+02   3.1072474393e+01     0.545063    0.3593229 -85.59  0.002536501    1.768    0.434
        20 -10.7464     33.0859    158.5909   1.3642674432e+02   3.8586039341e+01    0.9564259    0.1958548 -71.06  0.002572477    5.883    0.830
        21  -9.0709    102.2060    147.5975   1.1680156003e+02   3.1610273111e+01    0.2882088    0.2446225  -6.19 0.0007134327    1.524    0.344
        22  -8.5500    104.3286    144.3493   1.1556485710e+02   3.2013168669e+01    0.3241247    0.2126027 -19.13  0.001254238    2.672    0.626
        23 -10.4855     90.9531    146.9475   1.1964345373e+02   3.3698995377e+01    0.3008252     0.264562 -38.46 0.0004645885    1.242    0.195
        24  -8.1355     44.3104    148.6654   1.3224622989e+02   3.9752323069e+01    0.1374354   0.09211241  77.21 0.0003425647    1.679    0.404
        25 -11.9907     32.5113    140.4743   1.3410138665e+02   4.2944920433e+01    0.7704563    0.4000553 -54.51  0.003929784    1.674    0.403
        26 -10.6577     33.0000    131.4653   1.3260283126e+02   4.5028642819e+01    0.7239373     0.163708 -65.03  0.002399772    3.702    0.730
        27 -10.2812     33.0000    122.4798   1.3113112034e+02   4.7136623637e+01    0.6784218    0.1713197 -67.43  0.002117884    4.300    0.767
        28  -8.2703    134.0000    144.0037   1.0782493528e+02   2.6328006103e+01    0.2576748   0.08811127 -49.19 0.0007465627    2.891    0.654
        29  -8.9590     22.9868    142.4803   1.3684359955e+02   4.3354185829e+01     0.165173    0.1254026  31.93  0.001034685    1.599    0.375
        30  -9.3672     95.5736    169.4643   1.2264964019e+02   2.7472198553e+01    0.4238264    0.2242233  67.53  0.001513793    3.049    0.672
        31  -8.9052    112.7149    133.6204   1.1096560708e+02   3.3013979831e+01    0.4346157    0.2879113  -9.03  0.001602716    2.924    0.658
        32 -12.9317     10.8152    206.4444   1.4585487097e+02   2.9923791357e+01     1.124994    0.8724779  61.73  0.005527236    1.257    0.205
        33 -10.1575     43.1679    126.6816   1.2897146473e+02   4.5127065210e+01    0.3105147    0.2492364  49.23  0.001665076    1.418    0.295
        34  -8.1543    108.6308    121.9832   1.0932230030e+02   3.6511399268e+01    0.2125998    0.1846764 -48.79 0.0004060773    1.111    0.100
        35  -8.9099    167.9342    112.7406   9.2065471199e+01   2.5735576989e+01    0.3346949    0.2706082  78.78 0.0007906883    1.416    0.294
        36 -10.0325     33.0000    109.1114   1.2872511854e+02   5.0218669899e+01    0.7484174    0.1054151 -63.34  0.001672301    8.352    0.880
        37  -9.0790     99.7851    131.0564   1.1388642745e+02   3.6007388607e+01    0.3487547    0.2602902 -11.45  0.001186104    1.920    0.479
        38 -10.5018     53.2293    109.6811   1.2267255247e+02   4.7958584111e+01    0.6993567    0.3357756 -77.64    0.0022405    4.607    0.783
        39  -7.7312    206.9405    110.3095   8.3575983014e+01   1.7156526445e+01    0.2451157    0.1244392  74.90 0.0007035804    4.412    0.773
        40 -10.6576     89.5871    164.2020   1.2321927979e+02   2.9732479826e+01    0.6277006    0.4977885 -31.37  0.001121797    1.604    0.377
        41 -13.7810     55.2029    209.2837   1.3736053549e+02   2.4215909618e+01     5.062307     1.766027  55.68   0.01976897    3.183    0.686
        42  -9.4798     33.0000     68.0408   1.1931198153e+02   5.8964971454e+01    0.6214666   0.05992256 -54.23   0.00142675    8.949    0.888
        43 -15.0690      3.6946    237.6525   1.4909190107e+02   2.4223906571e+01     23.49631          nan -74.64    0.0462126   17.747    0.944
        44 -11.0138    184.1587     38.7704   6.9528189550e+01   3.4517025682e+01    0.4462675    0.4058388 -13.07  0.002686194    1.366    0.268
        45  -9.6462    140.6293    249.3337   1.2489648233e+02   2.6886128854e+00    0.3966832    0.1397751  39.07  0.001610727    2.514    0.602
        46  -8.6008     91.1165    246.8601   1.3422642343e+02   1.1205213617e+01    0.1908608    0.1399242  67.77 0.0005338593    1.178    0.151
        47  -8.3466     49.8252    243.5728   1.4157341255e+02   1.7733423620e+01    0.1985459    0.1241854  75.51 0.0005924362    1.362    0.266
        48  -9.8495     32.4661    227.5448   1.4344068651e+02   2.3133618082e+01    0.2779726    0.1637327 -79.86 0.0008282525    1.464    0.317
        49  -8.9593    106.0856    241.5053   1.3072222176e+02   9.8710456468e+00    0.1916559    0.1101024  44.56 0.0004372796    1.504    0.335
        50 -10.5388     31.4135    206.0698   1.4185303999e+02   2.7841970574e+01    0.4843317      0.25937  63.16  0.001970527    1.745    0.427
        51  -7.9142    192.5677    192.8056   1.0476841677e+02   3.7352705202e+00    0.1964008    0.1373776 -55.70 0.0007775308    1.679    0.404
        52 -10.7397    134.1845    231.0417   1.2366710711e+02   7.1506919226e+00    0.4593439    0.3467766 -53.28  0.002619903    1.498    0.332
        53  -9.8416     97.5272    235.0697   1.3165945668e+02   1.2508479950e+01    0.2530586    0.2213333 -82.09 0.0006096201    1.203    0.169
        54 -10.5917    126.3384    230.5618   1.2521947800e+02   8.6072110999e+00    0.3990241     0.316068  68.57  0.002175449    1.246    0.198
