#   1 NUMBER                 Running object number                                     
#   2 MAG_AUTO               Kron-like elliptical aperture magnitude                    [mag]
#   3 X_IMAGE                Object position along x                                    [pixel]
#   4 Y_IMAGE                Object position along y                                    [pixel]
#   5 X_WORLD                Barycenter position along world x axis                     [deg]
#   6 Y_WORLD                Barycenter position along world y axis                     [deg]
#   7 A_WORLD                Profile RMS along major axis (world units)                 [deg]
#   8 B_WORLD                Profile RMS along minor axis (world units)                 [deg]
#   9 THETA_WORLD            Position angle (CCW/world-x)                               [deg]
#  10 FWHM_WORLD             FWHM assuming a gaussian core                              [deg]
#  11 ELONGATION             A_IMAGE/B_IMAGE                                           
#  12 ELLIPTICITY            1 - B_IMAGE/A_IMAGE                                       
         1 -14.2236    107.2272     92.7874   7.7458967617e+01   4.3207817083e+01     3.148322     2.072145  56.55   0.01000838    1.838    0.456
         2 -15.3299     50.3323     48.6901   8.2895123750e+01   6.1661469363e+01     7.394073     2.573975 -40.74   0.02976867    2.633    0.620
         3 -10.3705     19.4823     26.2817   8.8343464317e+01   6.9084537994e+01    0.6046193    0.3220468 -44.92  0.003445597    1.726    0.420
         4 -14.5777     46.0017     96.1128   9.8727567630e+01   5.2119725138e+01     2.508431     1.726535 -45.83   0.01011274    1.279    0.218
         5 -11.8494    123.8250     14.6944   4.7009183988e+01   5.1796704805e+01    0.9544427     0.488805 -35.16  0.004593815    2.132    0.531
         6 -11.3666    121.8164      2.6976   4.3220422213e+01   5.3313838301e+01     0.755245     0.420639  55.36  0.002943286    1.489    0.328
         7 -11.8358    241.4703     11.9227   3.2192642351e+01   2.4754691157e+01    0.6318365    0.4068731 -60.36  0.002928773    1.284    0.221
         8  -9.3155     32.3920      8.5447   7.3456260984e+01   7.0199594731e+01    0.2178481    0.1920748 -25.94  0.001218171    1.511    0.338
         9  -9.8586     76.3776    213.6211   1.0920106720e+02   1.9794777941e+01    0.3006103    0.2712544  13.11  0.001266657    1.407    0.289
        10 -10.9176    175.1766    246.6631   9.2723842084e+01  -1.4668945417e+00    0.4665555    0.2700878 -33.20  0.002064927    2.002    0.501
        11 -12.7522    175.7808    238.2594   9.1345279913e+01  -2.5336575306e-01     1.522798     1.332986  13.11   0.01013217    1.065    0.061
        12 -12.7319    200.8814    241.7914   8.6983132825e+01  -4.5292187246e+00    0.9027608    0.6694191 -42.82   0.00565595    1.672    0.402
        13 -12.9504    194.1800    235.8113   8.7322378437e+01  -2.6624327643e+00     1.040766     0.831647  40.86  0.004602921    1.393    0.282
        14 -11.6482     49.2887    247.5303   1.1781160966e+02   1.6434021159e+01    0.5438089    0.3438258  55.12  0.002365162    1.262    0.208
        15 -12.6286     47.0774    236.8042   1.1744324936e+02   1.8780521770e+01    0.7057705    0.4841551 -64.81  0.002940818    1.614    0.380
        16 -10.7908     12.1323    250.2011   1.2465061488e+02   2.0042638552e+01     0.439507    0.1566201  32.46  0.002273687    2.910    0.656
        17 -10.3166      2.1967    248.7002   1.2627133131e+02   2.1293692223e+01    0.3425692    0.1542646 -82.28  0.002110511    1.967    0.492
        18 -10.6915      1.7601    239.5937   1.2595594667e+02   2.3057627701e+01    0.4367823    0.1265572 -86.49  0.001976156    3.395    0.705
        19 -11.2816     10.7524    225.9681   1.2366984489e+02   2.4900415031e+01    0.4649631    0.2887194  70.37  0.002136774    1.276    0.216
        20 -10.5654    219.0790    233.3531   8.2171790794e+01  -5.9167196771e+00     0.260387    0.2016366  18.56  0.001112723    1.126    0.112
        21 -13.3015     84.3878    226.9195   1.0894091249e+02   1.5882145978e+01     1.693231    0.6666359  57.51  0.005938853    3.361    0.702
        22 -10.4981    105.6510    249.9487   1.0706659203e+02   8.4301211578e+00     0.244516    0.1867115  42.38  0.001574628    1.101    0.092
        23 -11.8189    227.6196    216.3221   7.7634697406e+01  -4.6613823035e+00    0.8717955    0.6685123 -81.75   0.00409887    3.807    0.737
        24  -9.4691    124.7005    221.9431   9.9628038104e+01   1.0751328992e+01    0.1809907    0.1728125  68.45 0.0007844538    1.106    0.096
        25 -12.7921      4.6921    211.4214   1.2402512436e+02   2.8484735618e+01    0.7994367    0.4990743 -65.00  0.004171165    1.669    0.401
        26 -11.6114     21.9971    208.0585   1.2034938083e+02   2.7565915747e+01    0.5326523     0.411432  51.36  0.001672084    1.250    0.200
        27 -13.1677     44.5187    214.5018   1.1616480115e+02   2.3706801731e+01     1.077356      0.52324  43.83  0.003826527    1.812    0.448
        28 -12.1270     30.9920    207.7571   1.1845524718e+02   2.6697547203e+01    0.9763946    0.4050775 -82.59   0.00324632    2.401    0.584
        29 -12.3453     39.4254    202.4142   1.1619967918e+02   2.6955835969e+01    0.7736011    0.5440395  88.84  0.002948033    1.261    0.207
        30 -11.3817     58.3304    205.4129   1.1231481474e+02   2.4011015104e+01    0.6265355    0.3139164 -74.46  0.002170604    2.003    0.501
        31 -10.8649     50.2012    198.4492   1.1342533451e+02   2.6592828941e+01    0.6283772    0.2985377  61.00  0.002804249    2.299    0.565
        32 -11.0637    214.0341    202.8109   7.7702377253e+01  -5.0504196790e-01    0.6223557    0.3082886 -35.10  0.002949267    1.961    0.490
        33 -12.9146    225.3177    198.8142   7.4824199696e+01  -1.6194043712e+00     1.235987     0.782522  42.77  0.004985858    1.807    0.446
        34 -11.2252     59.6473    173.9415   1.0831625498e+02   3.1199349575e+01    0.5494315    0.4215478 -44.51  0.001820783    1.500    0.333
        35 -13.2731     42.7619    165.6908   1.1157132115e+02   3.5239062960e+01     1.649087    0.9777638  49.68  0.008199155    1.713    0.416
        36 -11.5652     56.5441    161.5522   1.0742210855e+02   3.4637202547e+01    0.5549049    0.3248583 -39.87  0.001699662    2.166    0.538
        37 -10.9597     27.5646    175.8655   1.1644793301e+02   3.4365255856e+01    0.4774601    0.2910752  81.87  0.001556771    1.571    0.363
        38 -10.6824     28.1310    171.1036   1.1584139182e+02   3.5448782208e+01     0.407067    0.2685412 -74.78  0.001731961    1.300    0.231
        39 -11.0348    232.1706    174.4677   6.8788679294e+01   1.2889546359e+00    0.5100757    0.3990776  38.41  0.002747147    1.434    0.303
        40 -12.3819    235.4008    165.9205   6.6471913094e+01   2.1971576357e+00     1.377334    0.6108443 -46.86  0.005724377    2.510    0.602
        41 -11.0059     17.0464    168.4240   1.1827574535e+02   3.7114014860e+01    0.3908865    0.2792104 -80.78   0.00134523    1.157    0.135
        42 -13.0705     15.9176    157.6928   1.1754268764e+02   3.9789386156e+01     1.013014    0.5971224  74.97  0.003349521    1.708    0.415
        43 -11.5842      2.4968    162.0357   1.2122880419e+02   3.9787512186e+01    0.5006588    0.2320293 -75.86  0.001858289    1.718    0.418
        44 -11.8685      2.0000    156.4641   1.2089987713e+02   4.1142689791e+01    0.6793743    0.1740576 -75.05  0.002432882    3.056    0.673
        45  -8.7928     70.8634    164.4881   1.0405952680e+02   3.2015409354e+01    0.1883019    0.1399721  34.44 0.0003929201    1.433    0.302
        46  -8.9382     77.8141    158.7830   1.0127939355e+02   3.2430891149e+01    0.2124191    0.1924502 -43.58 0.0005776989    1.192    0.161
        47  -9.6269     69.6882    145.3383   1.0121088106e+02   3.6959506075e+01    0.3001283    0.2655568  69.35   0.00111468    1.161    0.139
        48  -9.5620     67.5258    142.5224   1.0132841288e+02   3.7967343654e+01    0.3541634    0.2304111  53.45   0.00147142    1.711    0.416
        49  -9.1197    127.4895    144.5580   8.5070135893e+01   2.7308925629e+01    0.3295774    0.1519842 -50.19  0.001205437    2.148    0.534
        50 -12.3492      4.8355    137.7401   1.1845679495e+02   4.5449596190e+01     1.390476    0.4956897 -82.85  0.005484884    2.772    0.639
        51  -9.7261      6.9178    124.6841   1.1644020097e+02   4.8486343453e+01    0.3550858    0.2025324 -45.92  0.001015037    1.741    0.426
        52  -9.7975     82.0115    141.8329   9.7028044339e+01   3.6025360216e+01     0.258273    0.2009765 -51.70 0.0004074216    1.231    0.187
        53  -9.9131     94.9715    137.0268   9.2322188616e+01   3.5114139624e+01    0.3483978    0.3249037 -85.43  0.001883119    1.094    0.086
        54 -10.3239     92.3495    131.0107   9.1767830270e+01   3.7039786221e+01    0.5333116    0.2867131 -58.42  0.002168891    1.858    0.462
        55  -9.7685     80.8770    133.7014   9.5720809298e+01   3.8230557933e+01    0.2944678    0.2130173 -65.67  0.000861017    1.370    0.270
        56 -13.7731     77.1273    113.3328   9.2344283133e+01   4.3830693716e+01     2.358538     2.089808  74.78   0.01278157    1.291    0.225
        57 -10.3986     29.0969    121.6308   1.0931642307e+02   4.7565938571e+01      1.76165    0.8410345  89.52  0.006679334    3.229    0.690
        58 -11.1688     84.3290    248.9172   1.1118492675e+02   1.1634344994e+01    0.3603606    0.1580476  45.51   0.00182608    1.849    0.459
        59 -14.2555     73.5838     85.9226   8.6293740035e+01   5.0756189016e+01      2.55581      1.27599  44.40    0.0105807    2.307    0.567
        60 -10.4038     60.4379    247.9545   1.1573318430e+02   1.4974577782e+01    0.3357377    0.1807112 -88.99  0.001855276    2.094    0.522
        61 -10.6334    110.7623    126.2151   8.5345611998e+01   3.4889688575e+01    0.3867244    0.3435369 -87.11  0.001965066    1.260    0.206
        62  -9.8561    104.7015    119.6846   8.5485643888e+01   3.7584571832e+01    0.2376885     0.217366 -19.83 0.0004312904    1.145    0.126
        63 -11.2611    101.6116    115.4383   8.5328482284e+01   3.9163629144e+01    0.6774834    0.5786414  28.08  0.003455635    1.239    0.193
        64  -9.9157     13.0048    107.0408   1.1217865796e+02   5.2377483029e+01    0.3882788    0.2030225 -62.06  0.001747313    1.495    0.331
        65 -10.1792      2.0983    101.6638   1.1497264839e+02   5.4303173522e+01    0.3764447    0.1930553 -71.16   0.00118143    1.570    0.363
        66  -9.7982      1.3905     91.8088   1.1375924811e+02   5.6659635787e+01    0.8265744    0.1069912 -70.43  0.002142931    6.661    0.850
        67  -9.6121     20.4038     88.2539   1.0628150819e+02   5.6336832859e+01    0.3012964    0.1813663 -58.81  0.001342024    1.351    0.260
        68 -10.6058     15.4083     83.2247   1.0712162395e+02   5.7852397104e+01    0.5524859    0.3878967 -84.36  0.002385007    1.639    0.390
        69 -10.7466    123.7137     74.5244   6.7201854956e+01   4.3365239007e+01    0.5605016    0.2841439 -35.94  0.002228193    2.029    0.507
        70 -10.9553     86.6877     67.7883   7.6101516828e+01   5.2259624214e+01    0.6966012    0.4924068  46.21  0.003482551    1.527    0.345
        71 -10.1064     26.7174     66.8138   9.8725445392e+01   6.0659077411e+01    0.6027748    0.3611309   8.65   0.00322377    1.924    0.480
        72 -12.4911    129.8110     57.3568   6.0137520053e+01   4.4933873206e+01     1.340565     1.011793 -62.36  0.005592573    1.638    0.390
        73  -9.6730     14.2297     42.3413   9.6969283672e+01   6.6638478882e+01    0.2686799     0.168688 -34.76  0.001330744    1.277    0.217
        74  -9.5153     17.6332     34.9377   9.2697957259e+01   6.7748445164e+01     0.500657    0.2763301 -43.53  0.002896499    1.499    0.333
        75 -11.1696    113.6596    240.2727   1.0434531885e+02   8.9939490320e+00    0.3494684    0.2435265  58.85  0.001605435    1.450    0.310
        76 -11.3402    224.0047     27.8745   3.7045604008e+01   2.6603595495e+01    0.4663342    0.2895576  35.60  0.001773643    2.727    0.633
        77 -12.2047     70.8364    233.5045   1.1242829984e+02   1.6424970830e+01     0.883384    0.4260909  84.22  0.003788233    3.180    0.686
        78 -10.8096     65.9320    225.0197   1.1263178337e+02   1.8801858616e+01    0.3972412    0.2941286 -77.35   0.00184899    1.353    0.261
        79 -11.7865    226.8160    234.5941   8.0957781409e+01  -7.1594930189e+00    0.5348632    0.3865349 -11.50  0.002508021    1.227    0.185
        80 -10.6839    213.7877    237.5742   8.3859657503e+01  -5.7688458788e+00    0.2885596    0.2700372 -10.43  0.002054425    1.384    0.277
