#   1 NUMBER                 Running object number                                     
#   2 MAG_AUTO               Kron-like elliptical aperture magnitude                    [mag]
#   3 X_IMAGE                Object position along x                                    [pixel]
#   4 Y_IMAGE                Object position along y                                    [pixel]
#   5 X_WORLD                Barycenter position along world x axis                     [deg]
#   6 Y_WORLD                Barycenter position along world y axis                     [deg]
#   7 A_WORLD                Profile RMS along major axis (world units)                 [deg]
#   8 B_WORLD                Profile RMS along minor axis (world units)                 [deg]
#   9 THETA_WORLD            Position angle (CCW/world-x)                               [deg]
#  10 FWHM_WORLD             FWHM assuming a gaussian core                              [deg]
#  11 ELONGATION             A_IMAGE/B_IMAGE                                           
#  12 ELLIPTICITY            1 - B_IMAGE/A_IMAGE                                       
         1 -11.6480    209.2708     34.3617   4.3215242627e+01   2.9066561146e+01    0.8083562    0.6521641 -70.30  0.003987178    1.161    0.139
         2 -11.3979    216.6559     27.0578   4.0582976144e+01   2.8242339134e+01    0.7138556    0.4980259  47.57  0.001608376    1.707    0.414
         3  -9.8683     32.8484     22.6210   8.4545418637e+01   6.8282217239e+01    0.4141318    0.1075578 -46.84   0.00142117    4.701    0.787
         4 -11.4068    228.2005     17.7806   3.7287215557e+01   2.6702795722e+01    0.6026353    0.3872932 -23.69  0.002492131    1.844    0.458
         5 -11.3993    224.4414     16.4900   3.7323539222e+01   2.7693418986e+01    0.5845042    0.3986394 -22.20  0.002683209    1.768    0.434
         6  -9.8159     32.6019      4.8959   7.5943458915e+01   7.0806951603e+01    0.4137543   0.09774308 -35.12  0.001605038    3.946    0.747
         7 -10.2180     11.4462      3.4434   8.6628745248e+01   7.3343890945e+01    0.2557696    0.1254105  13.66  0.001466501    2.119    0.528
         8  -8.4490    248.1836      1.3661   3.2238201503e+01   2.4186209419e+01    0.1681932   0.09256183 -85.45 0.0009493774    1.708    0.415
         9  -9.2131     57.1538    238.8792   1.1865977375e+02   1.7802778730e+01    0.2193442    0.1802315  44.90 0.0008166942    1.288    0.224
        10  -8.3403    141.4771    250.4683   1.0362246614e+02   3.8015120713e+00    0.1224515   0.09946829  37.73 0.0008093137    1.019    0.019
        11 -12.2696     99.1560    244.2202   1.1112244796e+02   1.1159830272e+01     1.120403    0.4593313  35.25  0.005290458    2.275    0.560
        12 -11.4863     58.6149    248.8736   1.1913930737e+02   1.5777467931e+01     1.256637    0.4112632  32.25  0.004882835    3.620    0.724
        13 -10.1919     73.0533    250.3810   1.1662057784e+02   1.3660740893e+01    0.6588672    0.2056435  34.53  0.002800797    3.232    0.691
        14 -11.3940     84.7963    247.1146   1.1414889827e+02   1.2664538083e+01    0.6705836    0.5369553  83.85  0.002445458    1.251    0.200
        15 -11.5207     83.7806    228.1452   1.1252335852e+02   1.6338351872e+01     1.102272    0.5503874  82.18    0.0046928    3.280    0.695
        16 -10.9292     88.0491    226.8412   1.1152332510e+02   1.5987514234e+01    0.5290871    0.2782398 -82.03  0.001930448    2.503    0.601
        17 -11.4748     39.9801    234.3313   1.2152063357e+02   2.0720730306e+01     1.195079     0.438049  74.26  0.002264054    4.128    0.758
        18 -12.6111     32.8130    207.0771   1.2095958644e+02   2.7034617939e+01     1.189997    0.6164843 -63.04  0.004217174    1.940    0.485
        19 -12.3665     30.3368    247.4131   1.2404084734e+02   1.9349572895e+01     1.435438    0.7858429  51.72  0.009542721    1.409    0.290
        20 -12.6046     20.0571    221.0926   1.2436578090e+02   2.5470801390e+01     1.275522    0.6758669  70.79  0.006956104    1.604    0.377
        21 -14.1137     37.9050    192.4809   1.1869985642e+02   2.9655879859e+01     5.821935     2.288278  70.68   0.02190008    3.767    0.735
        22 -10.9386     95.4776    227.7083   1.1010307411e+02   1.4744927352e+01     0.477016    0.2224186  45.70  0.002357037    1.819    0.450
        23 -12.8661     10.1033    207.0174   1.2541819478e+02   2.9303694274e+01      1.00369    0.8630585  24.29  0.004981721    1.639    0.390
        24 -10.0718    121.2816    223.8110   1.0429616857e+02   1.1546892532e+01    0.2893339    0.1961658  15.68  0.001482555    2.041    0.510
        25  -9.2653    167.5888    222.7707   9.4548462626e+01   4.1752170418e+00    0.1628909    0.1286911 -57.26 0.0009109679    1.602    0.376
        26 -13.6907      2.4872    150.5461   1.2319242959e+02   4.2462128799e+01     12.80925      0.50484 -75.64   0.01949978   20.786    0.952
        27  -8.1115    177.6470    220.6777   9.2173382073e+01   2.8641352555e+00    0.1373069   0.09426558   6.06 0.0006926617    1.755    0.430
        28 -13.6015      4.2652    242.5234   1.2819511978e+02   2.2902568326e+01     2.253623    0.9839779 -77.85   0.01409071    2.052    0.513
        29  -9.6764    164.4297    227.2624   9.5884253180e+01   3.9432102371e+00    0.2288243     0.124248 -40.91  0.001145613    2.117    0.528
        30 -11.8467    116.3738    231.8123   1.0631737811e+02   1.0830883593e+01    0.6912499    0.3387049  30.27  0.003216601    2.228    0.551
        31  -7.6262    113.2941    207.6418   1.0382481431e+02   1.5990360530e+01    0.1393414   0.09659579  71.14 0.0007031271    1.696    0.411
        32 -10.0493     60.7404    179.9252   1.1221503100e+02   2.9818418130e+01     0.393902    0.2699302 -33.43  0.001745782    2.168    0.539
        33 -10.0291     66.1912    174.0870   1.1017054024e+02   3.0476847861e+01    0.3129402    0.2551369 -45.10  0.000530056    1.439    0.305
        34 -11.6986    109.1763    229.2608   1.0748004529e+02   1.2404059615e+01    0.6597118    0.3579161  33.83  0.003368616    1.783    0.439
        35  -8.2484    104.6609    172.6705   1.0047968654e+02   2.5038700287e+01     0.144397    0.1137418 -17.97 0.0007051807    1.737    0.424
        36  -9.8878     75.8088    164.4177   1.0640250725e+02   3.1459854357e+01    0.3125007    0.2585146  34.33 0.0005093492    1.322    0.244
        37 -11.2050     82.7083    158.3538   1.0365682471e+02   3.1915632507e+01    0.7274939    0.5377488 -50.68  0.002443215    1.376    0.273
        38 -10.4663     73.9911    154.6814   1.0534803576e+02   3.4076557267e+01    0.5188445    0.3407598  57.54  0.002384913    1.644    0.392
        39 -11.5943     68.5126    144.6692   1.0517130222e+02   3.7293429270e+01      0.83045    0.5616945  87.07   0.00318841    1.734    0.423
        40 -11.6614     63.1527    160.5226   1.0906994829e+02   3.4120775355e+01    0.5165389    0.3056806 -44.76  0.001405628    1.962    0.490
        41  -9.4095     32.1950    142.4102   1.1477030986e+02   4.2013604751e+01     0.337825    0.2326523 -84.54  0.001917823    1.309    0.236
        42 -11.3428     32.7105    154.6180   1.1610423670e+02   3.9005067881e+01      1.02089     0.277265 -66.77  0.003892938    2.895    0.655
        43  -9.2473     32.5431    146.5282   1.1519039851e+02   4.0978239335e+01    0.3347221    0.1174678 -74.37  0.001303772    2.705    0.630
        44  -9.4323     97.3760    143.7951   9.7069447461e+01   3.3124243785e+01    0.3419163     0.250651 -31.59  0.001621106    1.645    0.392
        45  -8.5858    100.4787    140.4648   9.5542315029e+01   3.3404366165e+01    0.2332027    0.1829837 -23.03  0.001123968    1.582    0.368
        46 -10.5701     85.6908    141.9413   9.9920983897e+01   3.5465998281e+01    0.3039533    0.2707562 -47.87 0.0004430117    1.141    0.124
        47 -10.5173     58.7850    133.9806   1.0608366841e+02   4.1202511290e+01    0.6339133    0.2596791 -72.83  0.002249164    3.022    0.669
        48  -9.6295     32.7661    133.0056   1.1336618972e+02   4.4260151016e+01    0.5857298   0.09399126 -68.07  0.001603205    5.235    0.809
        49  -9.1706     24.5418    134.4892   1.1585633369e+02   4.4625356382e+01    0.2159102   0.09893702  41.12  0.001031322    2.353    0.575
        50  -9.2356    108.0036    131.4192   9.1498571699e+01   3.4248469597e+01    0.5023781    0.2782825  36.04  0.001989448    1.916    0.478
        51  -8.9875     96.4612    127.7801   9.3935438848e+01   3.7166626648e+01    0.3028286    0.2439331 -16.13 0.0007864406    1.530    0.347
        52  -7.8664    106.5461    120.1530   8.9257598881e+01   3.7197656747e+01    0.2058595    0.1392123 -38.17 0.0003616418    1.541    0.351
        53  -9.5274     32.8900    112.4375   1.1017373321e+02   4.9284827441e+01     0.577661   0.06287951 -65.24  0.001353364    6.926    0.856
        54  -7.4903    205.6910    110.3406   6.3206570309e+01   1.7814552967e+01     0.153772    0.1146285 -67.44 0.0007044081    1.690    0.408
        55 -11.6946      2.3340    184.7844   1.2563973864e+02   3.4719587956e+01    0.8950951    0.4255535 -82.43 0.0008519928    1.693    0.409
        56  -7.8535    134.5025    114.4889   8.0120689057e+01   3.2906743080e+01    0.1566319    0.1530414 -32.86 0.0008105872    1.002    0.002
        57  -8.5987     33.0000     69.0372   1.0083527423e+02   5.9412998681e+01    0.2209119   0.06342218 -57.51 0.0008059497    2.967    0.663
        58  -9.5931     13.0683     60.3427   1.0671348386e+02   6.2815728831e+01    0.2828652    0.1451399 -58.19  0.001160404    1.556    0.357
        59  -8.3761     33.0000     51.9444   9.5773147072e+01   6.2997614769e+01    0.2128561   0.06228182 -52.85 0.0008049408    2.960    0.662
        60  -9.8100    193.7919     49.1968   4.9164472654e+01   3.0795576682e+01    0.3818428    0.2396915 -53.77   0.00180443    1.649    0.394
        61 -11.1009    200.5710     40.0272   4.5762728851e+01   3.0409794939e+01    0.6396152    0.5102593  79.10  0.002791811    1.216    0.178
        62  -8.9923    114.4094    248.2975   1.0860218520e+02   8.2262198462e+00    0.1980205    0.1520659 -85.18  0.001286973    1.552    0.356
        63 -12.3884    129.5169    237.9075   1.0441597805e+02   7.7143610144e+00    0.8374555    0.4242027  40.48  0.004309872    1.642    0.391
        64 -12.1438    127.4022    231.2712   1.0400106945e+02   9.2121912716e+00    0.9962302    0.6651813   6.87  0.004914904    2.494    0.599
        65 -10.7337    142.7043    228.3906   1.0048046549e+02   7.2816280808e+00    0.4333408    0.2750663  61.95  0.002204877    2.029    0.507
        66 -10.5833    114.5635    240.6284   1.0771825805e+02   9.5263057419e+00    0.4556576    0.1952269 -58.08  0.002196323    2.737    0.635
        67  -9.4873     60.9394    234.8211   1.1762300646e+02   1.8098988516e+01    0.3070121    0.1952736  68.70 0.0009675846    1.408    0.290
        68 -10.1651     53.4392    241.1867   1.1952240614e+02   1.7827300942e+01    0.3059407    0.2031275 -64.17  0.002014328    1.719    0.418
