#   1 NUMBER                 Running object number                                     
#   2 MAG_AUTO               Kron-like elliptical aperture magnitude                    [mag]
#   3 X_IMAGE                Object position along x                                    [pixel]
#   4 Y_IMAGE                Object position along y                                    [pixel]
#   5 X_WORLD                Barycenter position along world x axis                     [deg]
#   6 Y_WORLD                Barycenter position along world y axis                     [deg]
#   7 A_WORLD                Profile RMS along major axis (world units)                 [deg]
#   8 B_WORLD                Profile RMS along minor axis (world units)                 [deg]
#   9 THETA_WORLD            Position angle (CCW/world-x)                               [deg]
#  10 FWHM_WORLD             FWHM assuming a gaussian core                              [deg]
#  11 ELONGATION             A_IMAGE/B_IMAGE                                           
#  12 ELLIPTICITY            1 - B_IMAGE/A_IMAGE                                       
         1 -10.8173     35.1623     22.3448   8.2633898499e+01   6.8075982696e+01    0.3370939    0.2159956 -22.92  0.001246773    1.356    0.262
         2 -11.6388     44.0377     26.9736   8.0446975445e+01   6.6244129125e+01    0.6169561    0.5238604 -77.26  0.003638463    2.335    0.572
         3 -11.3493     40.0262     20.7209   7.9535495842e+01   6.7715044933e+01     0.349731    0.2843757  -7.60  0.002355715    1.076    0.071
         4 -11.4751      2.1548     22.0780   1.0011978106e+02   7.0975654632e+01    0.3527109    0.1732432 -52.58 0.0006426082    1.742    0.426
         5 -10.9655     30.3124     21.2467   8.4571354913e+01   6.8803319891e+01    0.2497533    0.1738499  14.82 0.0009601132    1.345    0.256
         6 -11.0516     14.0790     16.1494   9.1010464589e+01   7.1178152107e+01    0.2741787    0.2243852  26.34  0.001271373    1.612    0.380
         7 -10.3409     15.2218      8.8788   8.6988242020e+01   7.2208470548e+01    0.3692824     0.163763 -17.96  0.001223147    2.755    0.637
         8  -9.5060     11.2173      7.2399   8.8542542191e+01   7.2804226308e+01    0.1867579    0.1311833 -58.75 0.0007830643    2.500    0.600
         9  -9.1159      8.4371      5.4732   8.9354408788e+01   7.3297310514e+01    0.1123133   0.08323909 -16.99 0.0008061638    1.050    0.048
        10 -11.5949     66.9000     13.8525   6.4848102086e+01   6.4400186800e+01     0.359761    0.2148933  43.33 0.0005204625    1.549    0.354
        11  -9.5623     22.5394      9.9265   8.3366357630e+01   7.1337394215e+01    0.3759269     0.222845   6.88  0.002282088    1.607    0.378
        12 -11.3263     34.7968     12.6452   7.8260629115e+01   6.9533346694e+01    0.3216657    0.2434594 -29.88  0.001139353    1.389    0.280
        13 -11.4194     37.0447      8.1090   7.4868521344e+01   6.9835494479e+01    0.4460098    0.2618549  25.01  0.002189989    1.533    0.348
        14 -11.6194     30.3083      7.1442   7.7785171395e+01   7.0831048370e+01    0.4412071    0.2802714  17.86  0.002795377    1.394    0.283
        15 -10.4587    208.0816     12.9854   3.6492845799e+01   3.1512146788e+01    0.1925429    0.1636291 -80.24 0.0003254451    1.013    0.013
        16 -10.2570     85.9806     11.5548   5.7405069850e+01   6.0919854754e+01    0.2439964    0.1824965 -12.76   0.00137271    1.392    0.281
        17  -9.2949     45.9491     10.1983   7.1717906499e+01   6.8306338171e+01    0.2229839    0.1198747  23.15 0.0007240071    1.806    0.446
        18 -10.2313    135.0111     11.4851   4.5827954063e+01   4.9643040774e+01    0.2214031    0.1763685  24.74 0.0003316375    1.364    0.267
        19 -10.3470    126.0048     11.0141   4.7372631450e+01   5.1882252706e+01     0.199255    0.1695733  49.00            0    1.032    0.031
        20 -10.1008      3.7765     10.7605   9.4645894062e+01   7.2810797707e+01    0.1294187    0.1089058 -11.23 0.0003398281    1.270    0.212
        21  -9.4194    104.1927     10.1659   5.1867456606e+01   5.7083825940e+01    0.1623559    0.1531903 -76.58 0.0004849984    1.313    0.238
        22  -9.5879     93.0513      9.9644   5.4689021387e+01   5.9573312099e+01    0.2163975    0.1504622   8.34 0.0003494176    1.526    0.345
        23 -10.6716     57.4891      8.4645   6.5925169957e+01   6.6657663965e+01    0.2987943    0.2368933 -42.27  0.001869083    1.791    0.442
        24 -11.4336     57.3781      3.0964   6.3309484937e+01   6.7238005743e+01    0.4454312    0.2568077   4.84 0.0008869882    1.882    0.469
        25  -9.9062    188.3937      6.7696   3.6959644683e+01   3.6856511031e+01    0.1578926    0.1273682  -3.89  0.000365028    1.640    0.390
        26 -10.4600     71.0159      6.7645   6.0073111888e+01   6.4382709818e+01    0.3423226    0.2578444  53.29  0.002085344    1.465    0.318
        27  -9.6611    151.2291      5.9882   4.1401026767e+01   4.6120040724e+01    0.1503691    0.1126931 -23.35 0.0002230455    1.548    0.354
        28  -9.5575      2.4770      6.5257   9.3532128165e+01   7.3572485686e+01    0.1963452   0.09512036  13.95  0.000749677    2.048    0.512
        29  -9.1343    120.5356      4.4721   4.6115637208e+01   5.3763354507e+01    0.1353144    0.1111216  48.36 9.672026e-05    1.049    0.046
        30 -10.6402    101.8845      2.4025   4.9336957808e+01   5.8273132084e+01    0.3158824    0.2448582  76.04   0.00111965    1.471    0.320
        31  -9.6704     74.5057      4.5510   5.7875606327e+01   6.3914686295e+01    0.1862632    0.1391426  11.03 2.615197e-05    1.242    0.195
        32 -11.0668     20.3305      2.1582   8.0601100215e+01   7.2641347806e+01    0.4397278    0.1960706  39.84  0.002228682    3.071    0.674
        33  -9.6108    176.2093      2.7815   3.7247315058e+01   4.0207641906e+01    0.1789108    0.1335645  52.95  0.000454538    1.349    0.258
        34  -9.4510    129.9660      3.4798   4.4011082079e+01   5.1570488125e+01    0.2000188    0.1144914  65.16 0.0003652125    1.505    0.335
        35 -11.0540     80.3694      1.6677   5.4729669183e+01   6.2987550861e+01    0.2952809    0.1665051  55.15 0.0007496735    1.641    0.391
        36  -9.3540      1.3471      2.4787   9.2321056080e+01   7.4273362320e+01    0.1767275   0.08324077 -43.98  0.001052552    1.820    0.451
        37 -10.3863     11.8870      1.9235   8.5448622843e+01   7.3516331757e+01    0.1703102    0.1361107   3.30 0.0004212195    1.272    0.214
        38  -9.5374     67.1689      1.3412   5.8827372597e+01   6.5623172991e+01    0.1538969    0.1056578  52.95  0.000188746    1.526    0.345
        39 -10.9652     13.6656    192.5200   1.2298396150e+02   3.2114426392e+01    0.2499959    0.1482394  61.62 0.0006043746    1.476    0.322
        40 -10.8016     28.3246    250.4346   1.2362456961e+02   1.9016859365e+01    0.3552988   0.02706497  39.65  0.001357841    4.385    0.772
        41 -12.0628     17.6294    249.3284   1.2541765823e+02   2.0344755304e+01    0.3579683    0.2355469  26.95  0.002452143    2.005    0.501
        42 -11.4405      3.0342    248.8960   1.2785006590e+02   2.1858042597e+01    0.4499945    0.2416713  54.79  0.003173484    1.371    0.270
        43 -12.0816      9.4922    245.3811   1.2662480589e+02   2.1876465784e+01    0.3509535    0.2575779  49.31  0.002314509    1.294    0.227
        44 -12.6412      4.8446    240.8319   1.2722080233e+02   2.3159388325e+01     0.520494    0.3113684  41.70  0.003695546    1.554    0.356
        45 -10.3780      6.1782    191.8065   1.2450120623e+02   3.2916287523e+01    0.1826393    0.1235992  71.89  0.001210206    1.208    0.172
        46  -9.8275      1.2846    191.1252   1.2546773377e+02   3.3462622629e+01    0.1670007   0.07943614  88.32  0.000748271    1.788    0.441
        47  -9.4395     22.2340    179.8595   1.2017194127e+02   3.4159102491e+01    0.1555103    0.1304239 -62.64 0.0006131229    1.317    0.241
        48  -9.2178     13.3440    180.6616   1.2222880087e+02   3.4770449068e+01    0.1317002   0.06975701  65.49 0.0005269732    1.774    0.436
        49 -10.3290      5.0668    167.1489   1.2311681885e+02   3.8494895834e+01     0.177683    0.1414212 -70.08 0.0008894425    1.228    0.186
        50  -9.4161    226.4626    163.9998   6.9542632812e+01   3.8654093879e+00    0.2069621    0.1257408 -33.33 0.0008554491    1.529    0.346
        51  -8.9103    247.4847    155.4494   6.4052202575e+01   1.6389325847e+00    0.1344426    0.1140077 -16.44  0.000249054    1.005    0.005
        52 -10.6898      2.7638    153.5500   1.2263944411e+02   4.1788617433e+01    0.2559215    0.1093357  26.63  0.001311987    2.649    0.623
        53 -10.1315     16.0091    150.4771   1.1905923067e+02   4.1547340807e+01    0.1608853    0.1231137  28.95 0.0005387781    1.545    0.353
        54  -9.4375     37.1886    146.1225   1.1293964334e+02   4.0723492859e+01    0.1750509    0.1342481  82.38 0.0002690652    1.266    0.210
        55 -10.0922    212.6206    133.8651   6.5467881541e+01   1.1846747265e+01    0.2595328    0.2148782  56.45 0.0008596926    1.386    0.278
        56  -9.5659     95.8706    133.8154   9.3925357598e+01   3.5884601380e+01    0.2057758    0.1759383  72.81  0.000508896    1.301    0.231
        57  -9.6619      1.7718    132.4167   1.2108597308e+02   4.6801792217e+01    0.1435795    0.1132357 -20.10 0.0009433012    1.641    0.391
        58 -10.2553     12.1331    129.8585   1.1796312293e+02   4.6758660659e+01    0.1934039    0.1454001  80.00 0.0006896238    1.293    0.227
        59  -9.8572    248.6691    129.6661   5.8359529881e+01   5.6292639933e+00     0.138637   0.09925863  -1.44 0.0007052161    1.727    0.421
        60  -9.9771     28.6881    128.0709   1.1295279329e+02   4.5925752585e+01    0.1841786    0.1421852 -69.33 0.0003663449    1.099    0.090
        61  -9.7842      1.7767    123.0168   1.2016479755e+02   4.9021448424e+01    0.1698577   0.08127641 -74.82 0.0007215657    1.662    0.398
        62 -11.4091     23.7796    121.3411   1.1348693981e+02   4.7967793186e+01     0.403284    0.2310504  63.24  0.001350782    2.175    0.540
        63 -10.8055      8.1930    121.2829   1.1812713585e+02   4.9062816669e+01    0.2484408    0.1702123  69.95 0.0008814594    1.564    0.361
        64  -9.2324     76.0004    120.7415   9.7090630321e+01   4.2249901398e+01    0.1706517    0.1278119  32.43 0.0002325077    1.420    0.296
        65  -9.9432     69.2796    117.0128   9.8405242357e+01   4.4126552944e+01    0.2092982    0.1737075 -56.32 0.0003056298    1.118    0.106
        66 -10.7449     65.8735    110.8998   9.8170004549e+01   4.6080704643e+01     0.330453    0.2515746  67.01  0.001524782    1.647    0.393
        67 -10.8994      2.4937    109.2167   1.1842752897e+02   5.2242680506e+01    0.2165644    0.2023286  17.81  0.000796292    1.340    0.254
        68 -10.5386     17.2188    104.6530   1.1311839930e+02   5.2464307790e+01    0.1576699    0.1151229 -10.83   0.00039815    1.667    0.400
        69 -10.0749     28.2620    106.1990   1.0972061844e+02   5.1277454813e+01    0.2610599    0.1871792 -18.20 -5.119154e-05    1.660    0.398
        70 -11.4197     57.8646    107.4115   1.0005202827e+02   4.7961143673e+01    0.3307702    0.2308233 -29.94  0.000935926    1.586    0.370
        71  -9.9440    186.9070    103.0427   6.2934582290e+01   2.3227132770e+01    0.2250216    0.2219031 -37.80 0.0005419572    1.012    0.012
        72  -9.3474    113.6599    102.6950   8.1003288575e+01   3.9866266041e+01    0.1610232    0.1226503  -2.15 0.0007040828    1.679    0.404
        73 -10.1579    246.4944    101.5437   5.2490621354e+01   1.0619716030e+01    0.1350476    0.1192693 -36.49 8.315254e-05    1.028    0.028
        74  -9.5230     55.8250     97.2157   9.8439284885e+01   5.0647196232e+01    0.1973983    0.1485174 -32.65 0.0006374543    1.325    0.245
        75 -10.8850      3.0597     95.4622   1.1647132444e+02   5.5438429728e+01    0.2693858    0.1757447 -46.21 0.0004828403    1.374    0.272
        76  -8.9557      7.2589     91.3545   1.1443300735e+02   5.6185437858e+01    0.1321765   0.06864553 -48.06 0.0001367592    1.614    0.380
        77 -10.8139     10.8293     92.0238   1.1329526935e+02   5.5836881004e+01    0.4374976     0.206475 -81.11  0.002020772    2.340    0.573
        78 -11.6297     11.3283     86.6147   1.1221293864e+02   5.7063937456e+01    0.4045868    0.2458016  86.46  0.002128866    2.074    0.518
        79  -9.9303     29.1735     92.1768   1.0681454644e+02   5.4541639752e+01    0.2349976    0.1805509  20.71 0.0008023451    1.501    0.334
        80 -11.0743     24.6836     87.7993   1.0756863967e+02   5.5915705064e+01    0.4269612    0.2205654 -53.98  0.001230069    1.545    0.353
        81 -12.1420     20.6971     92.8179   1.0996025176e+02   5.5030825400e+01    0.3714537    0.2335732 -39.15 0.0004711242    1.510    0.338
        82 -10.1553     19.5322     87.2282   1.0934239907e+02   5.6415020981e+01    0.3576949    0.1866003 -61.37   0.00132072    1.551    0.355
        83 -12.0124    125.1933     93.3147   7.5008462510e+01   3.9454898225e+01    0.2777504    0.2661744  30.55  0.000241131    1.037    0.035
        84 -11.4875     57.5930     91.8754   9.6516160710e+01   5.1677890612e+01    0.3378727     0.260676   1.03 0.0006769637    1.468    0.319
        85 -10.6602     44.1605     90.2292   1.0096562273e+02   5.3606134009e+01    0.3960569     0.281636 -89.67  0.001343052    1.928    0.481
        86 -10.2038     64.5221     88.1451   9.3069164480e+01   5.1621391877e+01    0.2593929    0.2219394  69.11  0.001422818    1.497    0.332
        87 -12.2739     55.4732     85.8432   9.5739441119e+01   5.3327436812e+01     0.252015     0.248394 -38.87 0.0002773543    1.145    0.127
        88 -10.3990     78.8211     93.9739   8.9662388007e+01   4.8172997458e+01    0.2299737    0.2031459  13.28 0.0003110002    1.174    0.148
        89  -9.9721     72.4806     85.5310   8.9512965415e+01   5.1056803580e+01     0.143386    0.1330465 -29.68 9.974376e-05    1.033    0.032
        90  -8.8764     34.6552     84.6625   1.0319724085e+02   5.5819827178e+01    0.1453283   0.08339507 -33.63  0.000704886    1.774    0.436
        91 -10.6746      3.0684     81.9236   1.1442508614e+02   5.8556436528e+01    0.3155469    0.1587403 -72.04  0.001672445    1.714    0.417
        92  -9.0370     76.6922     82.7113   8.7211126011e+01   5.1021652604e+01    0.1469905     0.107391 -14.09 0.0003825342    1.574    0.365
        93  -9.8182    250.2440     80.9696   4.7435409461e+01   1.3108674245e+01     0.178247   0.09860214 -38.00 0.0006713123    1.573    0.364
        94 -10.7957     64.2296     80.4537   9.1038515883e+01   5.3380485848e+01     0.305627    0.2281409 -34.08 0.0009249398    1.251    0.201
        95  -9.8183     24.1609     79.4641   1.0602436127e+02   5.7871080659e+01    0.2285977    0.1388431 -43.48 0.0009668308    1.401    0.286
        96 -11.4328      9.3936     78.2214   1.1142299647e+02   5.9088872620e+01     0.313832    0.1596111 -58.67  0.001694814    1.503    0.334
        97 -11.3731     15.8173     75.5840   1.0842986095e+02   5.9316394053e+01    0.3096131    0.2304608  28.27  0.001945094    1.615    0.381
        98 -10.4862     20.9152     72.2265   1.0568007534e+02   5.9732086366e+01    0.3830181    0.1286379 -52.87   0.00115034    2.180    0.541
        99  -9.4430    124.4528     79.2859   7.0993726653e+01   4.2438862164e+01    0.1963132    0.1479877 -50.46 0.0004930795    1.448    0.309
       100  -9.7714    176.6844     76.9188   5.7951371097e+01   3.0383560893e+01    0.2124589    0.2009387 -50.58 0.0008450767    1.057    0.054
       101  -9.3389     28.0376     77.2560   1.0402509746e+02   5.8071032803e+01    0.1663178     0.147353 -24.61 0.0003646431    1.134    0.118
       102 -10.4654     55.3916     76.1550   9.3117024548e+01   5.5497284070e+01    0.3536901    0.2146574  12.50  0.001677828    1.992    0.498
       103 -10.7688     37.1471     75.1710   9.9939792608e+01   5.7736603123e+01    0.4331416    0.2155212 -61.09  0.001678247    1.955    0.488
       104 -10.2457     33.1924     73.3654   1.0104524595e+02   5.8502896095e+01    0.2506306    0.2099406   3.82   0.00077569    1.286    0.222
       105  -9.3140     70.0000     74.9807   8.7290297642e+01   5.3720467801e+01    0.2367696   0.07611589 -48.89 0.0004845746    2.941    0.660
       106  -9.9413     89.5208     80.7067   8.2193220015e+01   4.9270470315e+01    0.2794058    0.2077229 -63.55 0.0005497333    1.702    0.412
       107 -10.1793     41.2921     74.9931   9.8262416302e+01   5.7365366568e+01    0.4659618    0.2872052 -86.25  0.001954667    3.161    0.684
       108  -9.3337    217.0130     72.0421   4.9820559777e+01   2.1588135352e+01    0.1671202    0.1489009 -49.92 0.0003654465    1.051    0.048
       109 -11.5510    106.2015     71.2621   7.3791521555e+01   4.7924481240e+01    0.3586823    0.3064985  67.72  0.001205716    1.440    0.306
       110  -8.6044     92.3151     72.3104   7.8598215873e+01   5.0470531288e+01    0.1521028    0.1116345  -2.49 0.0007031292    1.634    0.388
       111 -10.7923     80.5251     67.0094   8.0916887850e+01   5.3642699401e+01    0.2674318    0.2085863 -31.30  0.001287758    1.218    0.179
       112 -10.2290     46.1428     69.6071   9.4842249978e+01   5.8017215519e+01    0.2703983    0.1509391  16.78  0.001053461    2.063    0.515
       113 -10.5130      1.3733     66.6148   1.1236445529e+02   6.2051704786e+01    0.1956599   0.09587658 -68.50 0.0003825406    1.751    0.429
       114 -11.0161     10.1507     69.3642   1.0937812927e+02   6.1030730624e+01    0.3441675    0.1789158 -55.88  0.001406544    1.470    0.320
       115 -11.3539      5.4773     68.6604   1.1111346672e+02   6.1421180420e+01     0.299913    0.2131943  87.15  0.001291578    1.755    0.430
       116  -9.6377     51.7529     67.1541   9.1870626560e+01   5.7876259023e+01    0.2718396    0.2405237 -72.81  0.001621682    1.442    0.307
       117 -10.0439     16.5157     67.5243   1.0638284105e+02   6.1063334510e+01    0.2282063    0.1654232  67.20 0.0007617184    2.024    0.506
       118 -10.4803     14.1042     63.7802   1.0651155681e+02   6.2028112303e+01    0.3121555    0.2300511  -3.45   0.00120892    1.477    0.323
       119  -9.5126     96.8381     64.3406   7.4446948859e+01   5.1123727003e+01    0.2018495    0.1288902  32.35 0.0001144196    1.596    0.373
       120  -9.6750     72.7993     63.7617   8.2637560904e+01   5.5568435501e+01    0.1733286     0.164627 -57.89 0.0004224335    1.292    0.226
       121 -11.1445      2.1047     59.3322   1.1058561807e+02   6.3600113755e+01    0.3693426     0.136558 -37.66 0.0005961314    2.333    0.571
       122 -10.3157      7.5269     63.4960   1.0920063695e+02   6.2451878166e+01    0.2895797    0.1323128 -64.20   0.00117764    1.845    0.458
       123 -10.3249      4.6749     62.3368   1.1014236029e+02   6.2839861360e+01     0.210561    0.1443458  -4.57  0.001098377    1.629    0.386
       124 -10.2318     62.8466     62.3741   8.5959692241e+01   5.7365763723e+01    0.2829601    0.1770869 -36.83  0.001066617    1.477    0.323
       125 -10.5396     38.7821     61.8638   9.5572659439e+01   6.0444089032e+01     0.233406     0.190096 -30.66  0.001095035    1.033    0.032
       126 -13.1198     20.4527     58.1402   1.0236859255e+02   6.2815659656e+01    0.3773797    0.2631968 -61.20  0.001102136    1.409    0.290
       127 -10.0206     26.8169     56.8949   9.9236794201e+01   6.2584446750e+01    0.2609484    0.1578628  -9.20  0.001403908    1.849    0.459
       128 -10.1208     48.6639     58.9900   9.0544312238e+01   5.9928909959e+01    0.2814672    0.2273239  63.16  0.001468825    1.905    0.475
       129 -10.5155     10.4763     58.8816   1.0689319168e+02   6.3289469844e+01    0.3109739     0.192591 -37.78  0.001875626    1.345    0.256
       130 -10.8517     84.1323     56.9594   7.6165283259e+01   5.4893558893e+01    0.3719484    0.2628577 -57.77  0.001789313    1.943    0.485
       131 -11.3148     88.0887     53.0199   7.3371443640e+01   5.4845546665e+01    0.4162664    0.3431183  19.98  0.001953513    1.148    0.129
       132 -10.7023     33.4165     56.1573   9.6131974508e+01   6.2149641025e+01    0.5605339    0.2104451 -44.39  0.002472285    2.183    0.542
       133  -9.9456     71.5631     57.0128   8.0765020895e+01   5.7058104706e+01     0.207745    0.1289298 -41.31  0.001013794    1.566    0.361
       134  -9.7175    104.3304     56.2889   6.9282289301e+01   5.1012952198e+01    0.2299173    0.1469237 -29.01 0.0007475325    1.631    0.387
       135 -11.0370    105.5977     52.6860   6.7621146379e+01   5.1341159049e+01    0.2579848    0.2357193  21.83 0.0003429733    1.016    0.015
       136 -11.4981    114.3119     53.8596   6.5486433903e+01   4.9238177889e+01    0.3185413    0.2903742  19.61  0.000547502    1.035    0.034
       137  -8.9343    164.9697     54.1880   5.3702419472e+01   3.6948424078e+01    0.1888385    0.1097071  59.85 0.0008135371    1.650    0.394
       138 -11.9294     65.4969     52.5645   8.1501699762e+01   5.8841937944e+01    0.4675892     0.227835  35.37  0.001366164    2.078    0.519
       139  -9.6121    149.4498     52.0158   5.6183596982e+01   4.1149279740e+01    0.2312334    0.1861161  57.06 0.0004458183    1.177    0.150
       140  -9.6614    121.8752     51.5261   6.2604548078e+01   4.7881966842e+01    0.2072214    0.1931196 -10.94 0.0003748602    1.101    0.092
       141 -10.5824      4.4612     50.5000   1.0751357563e+02   6.5357340603e+01    0.2417936    0.1456701 -28.13 0.0009823183    1.504    0.335
       142 -11.7717      9.1083     46.7619   1.0438669947e+02   6.5885465706e+01    0.5696048    0.1684323 -47.42  0.002598457    2.313    0.568
       143 -11.4434     77.8184     46.6998   7.4640486187e+01   5.7813069466e+01    0.5118836    0.3197891  -2.50  0.001377957    2.153    0.535
       144 -10.3139     82.5208     47.1167   7.3111061455e+01   5.6887407081e+01    0.2420234    0.1900627  40.97 0.0003114737    1.311    0.237
       145 -10.3089     38.6007     48.5853   9.1372177849e+01   6.3125534713e+01    0.2082814    0.1643396  -6.23 0.0006779134    1.178    0.151
       146 -11.3334     15.8294     42.8277   1.0003451348e+02   6.6253168680e+01    0.5331545    0.4191583  63.41  0.003321636    2.105    0.525
       147 -11.3835      2.3629     34.4351   1.0411530526e+02   6.8669838852e+01    0.4188372    0.1947301 -52.16  0.002376717    1.635    0.389
       148  -9.9881    101.9174     48.0498   6.7066792001e+01   5.2868684506e+01    0.2160362    0.1917351  19.60 0.0004378276    1.032    0.031
       149  -9.6021     58.1440     48.2092   8.2850489810e+01   6.0731590758e+01    0.1640788    0.1542308 -37.28 0.0003841513    1.306    0.235
       150 -10.1806     53.8228     47.3045   8.4309661056e+01   6.1502236418e+01    0.3707835    0.2036568 -16.54  0.001625508    2.423    0.587
       151  -9.5363    154.7017     47.4388   5.3672010842e+01   4.0505284279e+01    0.2039851    0.1859508 -30.32 0.0003896309    1.171    0.146
       152  -9.3516    152.3785     44.6056   5.3257075267e+01   4.1484381954e+01    0.1843594    0.1701575  86.10 9.916891e-05    1.114    0.102
       153  -9.6217    136.0566     46.8213   5.7492139848e+01   4.5208182736e+01    0.2224647    0.1933272  89.51  0.001184903    1.325    0.245
       154 -10.6179     26.1145     44.9640   9.5845670589e+01   6.5038414754e+01     0.347567    0.1711143 -58.59  0.001689802    2.244    0.554
       155  -9.9912     30.8205     45.9415   9.3990022285e+01   6.4422770637e+01    0.2110127    0.1689938 -61.15 0.0009786441    1.553    0.356
       156 -12.3053    141.3286     41.8045   5.4660664692e+01   4.4618081538e+01    0.3356029     0.267814 -79.41 0.0004596051    1.530    0.346
       157 -10.6527     69.4673     42.2329   7.6043306189e+01   5.9996476605e+01    0.2572778    0.2119318  47.81 0.0007018025    1.499    0.333
       158 -10.0520     59.5937     41.8447   7.9823139429e+01   6.1631920756e+01    0.2360992    0.1654227  47.01 0.0007367007    1.831    0.454
       159 -10.3488     35.8323     41.2721   9.0020620026e+01   6.4796589279e+01     0.297291    0.2013947 -35.67  0.001540947    1.256    0.204
       160 -12.0875     39.4617     32.8171   8.5045181635e+01   6.5875054341e+01    0.4893188    0.3736208 -25.90  0.002224288    1.131    0.116
       161 -10.0325    229.7549    247.9086   8.4508436661e+01  -9.0805716914e+00    0.1760463    0.1255491   4.83 0.0005578327    1.144    0.126
       162 -10.3297    225.0350    247.4821   8.5301973428e+01  -8.3872257243e+00    0.2227079    0.1581238 -18.17  0.001478135    1.385    0.278
       163  -9.8199     12.3039    249.3101   1.2632122218e+02   2.0885489359e+01   0.08709604   0.07755493 -67.75 0.0002099358    1.610    0.379
       164 -10.9304      7.6094     34.1136   1.0133318749e+02   6.8453832258e+01    0.3359717    0.1921072  31.90  0.001758482    2.240    0.554
       165 -10.2096     43.1903     40.1310   8.6228110100e+01   6.4162441721e+01     0.245826    0.1750383 -24.35  0.001383734    1.219    0.179
       166  -8.9707    240.3132     39.7283   3.9447519319e+01   2.1041094982e+01    0.1312903   0.08308594 -66.50 0.0003126132    1.554    0.356
       167  -9.5384    152.5249     39.0103   5.1479137362e+01   4.2201699033e+01    0.2009185    0.1426022 -32.63 0.0004525995    1.508    0.337
       168 -10.0866    128.1577     38.7749   5.6625836902e+01   4.8238472665e+01    0.2015989     0.189339  80.60 0.0003985195    1.171    0.146
       169 -11.5701    121.4315     37.3786   5.7775475319e+01   5.0025496422e+01    0.3820907    0.3290888  38.47  0.001100894    1.060    0.056
       170  -9.1494     87.3340     39.2547   6.8419116186e+01   5.7199256936e+01    0.1419081   0.09677678  18.28 0.0002250392    1.565    0.361
       171 -10.2665     22.0458     38.1166   9.5453646576e+01   6.6687171862e+01     0.195104    0.1553059  -5.48 0.0006405837    1.190    0.160
       172 -10.9280     26.9740     34.7708   9.1818044708e+01   6.6866797153e+01    0.3349348    0.2014505 -11.46  0.001299802    1.702    0.413
       173  -8.8281    106.0229     37.2089   6.1831135814e+01   5.3573716079e+01    0.1785522    0.1052496  49.28 0.0008265086    1.570    0.363
       174  -9.2779    223.7322     36.3347   4.0394275536e+01   2.5141059232e+01    0.1377809   0.08554745 -61.69 0.0001896035    1.589    0.371
       175 -10.6148     90.3101     35.3977   6.5918386502e+01   5.7162380912e+01    0.3832391    0.2288331  -4.53  0.001106409    2.269    0.559
       176  -9.0750     47.6861     36.2615   8.2689941312e+01   6.4259859216e+01    0.1083783    0.1027044  47.34 0.0001691679    1.538    0.350
       177 -10.7539     73.5891     33.7293   7.1052769656e+01   6.0602757866e+01    0.3705501    0.2632749 -44.52  0.001990791    1.727    0.421
       178 -10.9857     18.5188     32.2176   9.5096219595e+01   6.8060402924e+01    0.5668838    0.2363437  -2.96  0.002215408    4.127    0.758
       179 -11.7557     10.1106     29.6261   9.8514914561e+01   6.9138338764e+01    0.4306096     0.275346  49.50  0.001125933    2.923    0.658
       180  -9.2056    170.7466    246.9686   9.5649646628e+01  -3.3043032225e-01    0.1364325    0.1074634 -34.81 0.0005295817    1.508    0.337
       181 -10.2053      7.0653     20.8820   9.6920620259e+01   7.0896264208e+01    0.1671122    0.1430574  18.44 0.0004244088    1.502    0.334
       182  -9.2011    162.6272     31.6712   4.7408621583e+01   4.0583685397e+01     0.153011   0.09839015  35.70 0.0001787972    1.830    0.454
       183 -11.0248     68.6433     26.5065   6.9860620375e+01   6.2503870614e+01    0.2959415    0.2540716 -42.36  0.001818941    1.516    0.340
       184 -10.4903    127.8132     30.7299   5.3914669869e+01   4.9347911142e+01    0.3749185    0.2703493 -79.60  0.001389889    1.958    0.489
       185 -10.2543     77.0955     26.8935   6.6917897719e+01   6.0910399968e+01    0.2742234    0.1724254 -20.44  0.001009925    1.628    0.386
       186 -10.3250    113.8455     25.9307   5.5513906389e+01   5.3226799811e+01    0.2618471    0.1920887 -32.53  0.001109151    1.502    0.334
       187 -10.1336    100.9657     26.2619   5.9072048777e+01   5.6098524301e+01    0.2039688    0.1708283  34.55  0.001185784    1.046    0.044
       188  -8.1779     19.0396     24.7957   9.1956121016e+01   6.9325924041e+01    0.3643205   0.09983703 -41.82  0.001550072    2.850    0.649
       189 -10.8705     14.3440     21.6736   9.3208432931e+01   7.0241446050e+01    0.3079794    0.1986758  13.23  0.001996764    1.550    0.355
       190 -10.6875     60.0288     22.7902   7.1619403802e+01   6.4474693220e+01    0.3643227    0.2221258  -3.68  0.001733995    1.865    0.464
       191 -10.2357     58.7489     19.5685   7.0680379538e+01   6.5113118428e+01    0.2553626    0.1965078  42.00 0.0008348588    1.467    0.318
       192  -9.6884     52.5732     24.7396   7.5633815269e+01   6.5373388844e+01    0.2380631    0.1112392 -31.26  0.001140409    2.065    0.516
       193 -10.8298     91.1696     22.3434   6.0376152597e+01   5.8666898824e+01    0.2813678    0.2392288  39.22  0.001329527    1.112    0.100
       194 -10.6159     75.0666     21.7559   6.5428403771e+01   6.1950784823e+01    0.2743681    0.2027662   4.69 0.0005124133    1.305    0.234
       195 -10.4872     75.5269     18.0059   6.3620377432e+01   6.2314047791e+01    0.3497387    0.1460952  38.49  0.001532628    2.192    0.544
       196  -9.3879     73.9862    243.7596   1.1469509644e+02   1.4708761890e+01    0.1522971   0.08437957  40.07 0.0004220151    1.528    0.346
       197  -9.7893     84.3417     21.4480   6.2148718742e+01   6.0177178876e+01       0.2388    0.1113572  44.70 0.0008145106    1.886    0.470
       198 -10.3050    114.8942     17.4480   5.2098921214e+01   5.3908251269e+01    0.2549985     0.172941  61.17 0.0003047996    1.391    0.281
       199  -9.0536    141.4809     18.4929   4.6979294553e+01   4.7360878088e+01    0.1374627    0.1234041  73.31 0.0008089254    1.085    0.078
       200 -10.3057     20.4466     17.3174   8.8002964776e+01   7.0430364999e+01    0.2277504    0.1433177 -21.48 0.0009973794    1.315    0.240
       201  -9.5278    202.4569    240.4665   8.8439894951e+01  -4.2272765767e+00    0.1262614   0.09884784  16.36 9.660525e-05    1.013    0.012
       202  -9.0471     60.9700    241.0000   1.1699459303e+02   1.6922517325e+01    0.1875295   0.05684017  35.87 0.0007942464    2.886    0.653
       203  -9.9050     35.9520    240.4962   1.2168304432e+02   2.0013952444e+01    0.1649709    0.0916113  41.97 0.0007048921    1.554    0.357
       204  -9.8189    117.5206    239.4665   1.0548995691e+02   9.2041403581e+00    0.1275043    0.1054631  43.62 0.0001384472    1.021    0.020
       205 -10.7840    234.7029     15.1677   3.4610092978e+01   2.5235541356e+01    0.2103756    0.1766879  79.03 0.0003210928    1.212    0.175
       206 -10.1494     82.8823     16.0153   6.0294375793e+01   6.1090000720e+01    0.1964593    0.1674423  21.10  0.000309649    1.032    0.031
       207  -9.3229    164.9715     21.0373   4.3879279836e+01   4.1211027033e+01    0.1616593    0.1498443  79.22 0.0004556529    1.045    0.043
       208  -9.3325    154.5994     15.2473   4.3733990137e+01   4.4414310706e+01    0.1403567   0.09593834 -80.42 0.0006939407    1.691    0.409
       209 -11.5598     14.1681    238.7769   1.2551319944e+02   2.2642463693e+01    0.2065021    0.1382877  78.42 0.0004984154    1.183    0.155
       210  -9.7959    148.5938    238.2539   9.8917832520e+01   4.5303201312e+00    0.1604103    0.1206695 -31.79 0.0009496791    1.620    0.383
       211  -9.9514     91.1363    237.3240   1.1066575542e+02   1.3525347117e+01    0.1829806    0.1619442 -64.38 0.0005301361    1.350    0.259
       212 -11.7858     25.5325    235.9386   1.2332488810e+02   2.2017636449e+01    0.2860118    0.1777196  40.30  0.001059362    1.521    0.343
       213  -9.8827    249.4710    233.9536   7.8684096882e+01  -9.9746323604e+00    0.1744232     0.125637  12.29 0.0004177363    1.104    0.094
       214  -9.1004      7.3446     14.2842   9.4060634294e+01   7.1994003594e+01    0.1207078   0.06439154 -21.42 0.0007016942    1.643    0.391
       215 -12.0715      4.0230    232.5963   1.2700959310e+02   2.4784711803e+01    0.2805451    0.1609652  60.57  0.001931245    1.323    0.244
       216 -12.6342      9.7255    227.3740   1.2575055074e+02   2.5260131139e+01     0.402623     0.305408  84.97  0.001711496    1.152    0.132
       217  -9.4662     43.2639     12.3615   7.4024907270e+01   6.8427759752e+01     0.180859   0.09972449 -24.91 0.0007030415    1.702    0.412
       218  -8.9875    243.4953    230.4504   7.9138401477e+01  -8.7449300926e+00    0.1227605   0.09142138   4.73 0.0002278448    1.030    0.029
       219  -9.5613     47.8473    229.8671   1.1869193662e+02   2.0690678066e+01    0.1636388    0.1070638  64.94 0.0003830907    1.287    0.223
       220  -9.4629    209.4921    229.5080   8.5294017301e+01  -3.7368991787e+00    0.1287743    0.1026247  12.98 -9.669724e-05    1.004    0.004
       221  -9.4980    100.0546     11.5001   5.3444210959e+01   5.7889617311e+01    0.2020988    0.1142444  53.47 0.0009224931    1.530    0.347
       222 -10.7797    140.3926    228.4468   9.9269316512e+01   7.5411596701e+00    0.2562372     0.173901 -62.84  0.001372983    1.897    0.473
       223 -10.2007    223.5810    226.4399   8.2087366135e+01  -5.4080030675e+00    0.2557394    0.1491087   2.29 0.0007315928    2.005    0.501
       224 -10.7656      1.4588    224.9272   1.2712545372e+02   2.6497177901e+01    0.2546124   0.08677563 -80.65 0.0008989623    2.543    0.607
       225 -11.1793      2.2926    220.2416   1.2676214004e+02   2.7345389467e+01    0.2848712    0.1399167  81.44   0.00125857    1.706    0.414
       226  -9.4835    123.3520    222.2807   1.0207928440e+02   1.1446313158e+01    0.1295009    0.1003372   7.89  0.000434625    1.652    0.395
       227  -9.3212     41.3150    222.3113   1.1942025443e+02   2.2969508398e+01    0.1035623    0.0903516 -43.53 0.0007032075    1.636    0.389
       228  -9.2131    167.6538    221.6667   9.2467575615e+01   4.2081200016e+00    0.1397922   0.09682725   5.01 0.0007049412    1.766    0.434
       229  -9.2723     89.5135     13.4613   5.7167269214e+01   5.9987163135e+01    0.1917041    0.1204543  61.10 0.0006492047    1.746    0.427
       230  -9.1342    126.5212    220.5664   1.0115441813e+02   1.1257759401e+01    0.1347845     0.115287  43.10 0.0002002446    1.011    0.011
       231 -10.7525      8.9045    217.9568   1.2542647815e+02   2.7204862842e+01    0.2293881     0.202399  31.80  0.001783911    1.522    0.343
       232  -9.9528    205.5232    212.4854   8.3123168340e+01  -5.5877889741e-01    0.2340546    0.1725277 -16.33 0.0006926122    1.346    0.257
       233  -9.9900     15.0671    213.4694   1.2400408457e+02   2.7540223111e+01    0.1544771    0.0986547  41.20 0.0004159414    1.522    0.343
       234  -9.0216    249.3310    211.3103   7.4715014636e+01  -7.0180746325e+00    0.1299352   0.07929693   1.32 0.0005445828    1.670    0.401
       235  -9.0333    209.6464    211.2784   8.2091361904e+01  -1.0359040635e+00    0.1199448    0.1031706  55.39 0.0007010407    1.650    0.394
       236  -9.1947     56.4445    210.5462   1.1530541779e+02   2.3603909952e+01    0.1225828    0.1060266  71.37 4.708373e-05    1.064    0.060
       237  -9.8788     20.2254    209.8660   1.2276968243e+02   2.7788175506e+01    0.1829027     0.119347  66.83  0.001182157    1.258    0.205
       238  -9.6994     10.4905    203.4833   1.2432058421e+02   3.0045123816e+01    0.1171438    0.0872159  74.82 8.829444e-05    1.040    0.039
       239  -9.2253    193.4780    201.5874   8.3581796041e+01   3.2388443740e+00    0.1384882    0.1186289  14.94 0.0001748178    1.015    0.014
       240 -10.0279     23.5846    196.8224   1.2118790061e+02   3.0245922683e+01    0.2089345    0.1775369 -50.45  0.001443131    1.523    0.344
