#   1 NUMBER                 Running object number                                     
#   2 MAG_AUTO               Kron-like elliptical aperture magnitude                    [mag]
#   3 X_IMAGE                Object position along x                                    [pixel]
#   4 Y_IMAGE                Object position along y                                    [pixel]
#   5 X_WORLD                Barycenter position along world x axis                     [deg]
#   6 Y_WORLD                Barycenter position along world y axis                     [deg]
#   7 A_WORLD                Profile RMS along major axis (world units)                 [deg]
#   8 B_WORLD                Profile RMS along minor axis (world units)                 [deg]
#   9 THETA_WORLD            Position angle (CCW/world-x)                               [deg]
#  10 FWHM_WORLD             FWHM assuming a gaussian core                              [deg]
#  11 ELONGATION             A_IMAGE/B_IMAGE                                           
#  12 ELLIPTICITY            1 - B_IMAGE/A_IMAGE                                       
         1  -9.0160     12.8846     29.9791   1.1073297920e+02   6.8352416140e+01    0.3284155    0.1489819 -70.40  0.001523321    2.509    0.602
         2  -8.4792     38.7491     17.1127   9.3669963057e+01   6.8423077811e+01    0.4360121    0.1225739 -46.37  0.001692928    3.061    0.673
         3  -8.6672     55.7699      9.9829   8.2743990047e+01   6.7239184270e+01    0.2187885    0.1554984 -42.75 0.0007233259    1.503    0.335
         4  -7.8547     47.4289     10.1727   8.6359617453e+01   6.8444636196e+01    0.1762277    0.1030394 -44.49 0.0009410455    1.729    0.422
         5  -8.1140     27.9141     10.1070   9.5486445182e+01   7.0859587325e+01    0.1721686    0.1436802 -45.27 0.0005936052    1.288    0.223
         6  -8.4030     90.9127      9.1402   7.0115701818e+01   6.0914309170e+01    0.2032428    0.1786931 -43.47 0.0008024529    1.325    0.245
         7  -7.9540    101.1870      8.1939   6.6824889708e+01   5.8808915148e+01    0.1803983    0.1617868 -56.37 0.0004864356    1.358    0.264
         8  -7.6144     13.2841      8.6935   1.0246100129e+02   7.2461529582e+01    0.1001996   0.08408549 -69.21 0.0002282897    1.563    0.360
         9  -8.6312     33.3144      5.0427   9.0178452610e+01   7.1090734918e+01    0.3061997    0.1615231 -55.78  0.001388937    3.198    0.687
        10  -8.6081     79.0084      3.5617   7.0927179045e+01   6.3989890772e+01    0.2581783    0.1601066 -37.92  0.001063252    1.712    0.416
        11  -7.6838     44.6916      3.3285   8.3873400607e+01   6.9859626348e+01    0.1128013   0.09277173 -51.57 0.0005016346    1.660    0.397
        12  -7.6607    115.3217      2.6352   6.0886187383e+01   5.6125102933e+01    0.1456046    0.1025346 -54.13 0.0007039661    1.786    0.440
        13  -8.3631     62.5008      1.5868   7.5566891987e+01   6.7281056950e+01    0.1722416    0.1559405  79.85  0.001098346    1.658    0.397
        14  -9.5008    248.5887    242.4029   9.6637422809e+01  -5.8428780132e+00    0.2207189    0.1828267 -25.18  0.001230702    1.716    0.417
        15  -8.9840    242.6388    247.2631   9.8179979193e+01  -5.4246379811e+00    0.3195127    0.1525079 -12.55  0.001921619    2.817    0.645
        16 -11.3525    233.6028    249.6140   9.9824503112e+01  -4.3754478952e+00    0.2259419    0.1786271   7.85  0.000424509    1.269    0.212
        17  -8.2192    191.5020    249.9665   1.0623712678e+02   1.5990093244e+00    0.1149924    0.0899728 -88.68  0.000708001    2.406    0.584
        18  -8.4610     93.9975    249.5821   1.2144780353e+02   1.5445408064e+01    0.2174689    0.1123167  69.58  0.001396912    2.097    0.523
        19  -7.3179     86.3000    250.6745   1.2271246825e+02   1.6284978224e+01    0.1039447   0.05509036  63.62 0.0007028254    1.634    0.388
        20  -9.1374    247.9813    234.9853   9.5668015883e+01  -5.1424823179e+00    0.2406336    0.1674136 -31.73  0.001386738    1.934    0.483
        21  -9.2877    246.3909    229.4244   9.5088370032e+01  -4.4372583276e+00    0.2485262    0.1736372 -25.12  0.001068288    1.707    0.414
        22  -8.9117    201.9083    242.9553   1.0376687267e+02   7.8073880869e-01    0.2191854    0.1440041 -44.07  0.001168198    2.187    0.543
        23  -8.6766    168.9393    243.2966   1.0899901754e+02   5.6472633815e+00    0.1531643    0.1306411  58.92 0.0005034845    1.308    0.235
        24  -9.4502     77.7562    243.0983   1.2351536383e+02   1.8434088201e+01    0.2477226    0.1301382  71.71  0.001463386    1.892    0.471
        25  -9.6369    160.2887    240.5023   1.1006896578e+02   7.2663535067e+00    0.2886395    0.1977645 -87.77  0.001505487    2.607    0.616
        26  -9.1492    194.3566    240.3151   1.0461473473e+02   2.1747664769e+00    0.2339915    0.1744002 -65.44  0.001013289    2.413    0.586
        27  -9.3165    183.0551    240.0212   1.0636716276e+02   3.9025593464e+00    0.3406532     0.234982  67.87  0.001723936    2.190    0.543
        28  -8.0161    153.6431    242.3667   1.1134137657e+02   8.0291624958e+00    0.1584546    0.1035348  61.70  0.001077106    1.651    0.394
        29  -8.2540     88.1593    242.1814   1.2181458219e+02   1.7240767921e+01    0.1420448    0.0898232  67.84 0.0006745081    1.372    0.271
        30  -8.9134    240.8569    239.7185   9.7400942841e+01  -4.5474491159e+00    0.3178346    0.1462274 -11.15  0.001717027    3.267    0.694
        31  -9.0032    120.1627    245.6095   1.1701576418e+02   1.2446211561e+01    0.2587504    0.1499165  79.32  0.001594415    2.509    0.601
        32  -8.8383    209.2512    238.3972   1.0203452881e+02   1.4979807348e-01    0.1438932    0.1331984 -77.30 0.0007785623    1.761    0.432
        33  -8.8755    135.7539    239.1149   1.1389263738e+02   1.1072391199e+01    0.1658084    0.1148606  60.24 0.0007677995    1.330    0.248
        34  -8.3397    129.0024    238.8035   1.1495935416e+02   1.2094368700e+01    0.1774263   0.09288183  59.62 0.0009482211    1.923    0.480
        35  -8.8583    230.8770    237.4098   9.8576365895e+01  -2.9243709332e+00    0.2063107    0.1635482  59.07  0.001006555    1.976    0.494
        36  -8.2475     13.2402    238.3588   1.3305591588e+02   2.6289302162e+01    0.1325495   0.05337738  50.70 0.0006785359    1.680    0.405
        37  -8.3514     25.3399    236.4461   1.3119349210e+02   2.5390605840e+01    0.1823805   0.05914001  84.21 0.0009396276    3.603    0.722
        38  -8.6188    213.7083    227.7120   9.9873717521e+01   5.6288299564e-01    0.1718366    0.1233874  24.76 0.0001691772    1.153    0.132
        39  -8.9645    216.9917    235.5175   1.0044427626e+02  -7.1493539323e-01    0.2139883     0.146725  51.00 0.0008596258    1.655    0.396
        40  -9.4693    213.6932    231.7368   1.0043887101e+02   1.5398122301e-01    0.2416478    0.2158072  71.42  0.001400819    1.749    0.428
        41  -9.1859    203.2759    234.4163   1.0244381421e+02   1.4516008019e+00    0.2872072    0.1800708 -43.68  0.001400882    2.237    0.553
        42  -9.7097    175.6719    233.3141   1.0673373711e+02   5.7901822030e+00     0.353559    0.2179125 -61.13  0.002165607    2.742    0.635
        43  -8.1281    170.1910    235.9534   1.0794391629e+02   6.3158949350e+00    0.1151498   0.08711517 -44.67  0.000458023    1.755    0.430
        44  -9.3835    108.8440    234.5676   1.1785790312e+02   1.5547486139e+01    0.3612977    0.1597695  56.37  0.001925071    2.034    0.508
        45  -8.0542    152.9929    235.5012   1.1069539550e+02   8.9780643105e+00     0.154559   0.07362522  57.33 0.0006771446    2.401    0.583
        46  -8.7520    122.9663    234.6072   1.1553894778e+02   1.3536918225e+01     0.193325    0.1272361  84.44  0.001109664    1.960    0.490
        47  -8.1933     99.6295    234.5988   1.1937006021e+02   1.6813039403e+01    0.2130269    0.1101811  65.96  0.001033398    2.023    0.506
        48  -8.8332     78.6979    234.6503   1.2277253853e+02   1.9561991930e+01    0.1993316    0.1180177  74.36 0.0009336426    1.606    0.377
        49  -9.3941     68.3195    232.3637   1.2428310676e+02   2.1206424750e+01    0.3656254    0.1556598  69.71  0.002011587    2.675    0.626
        50  -7.2611     53.5766    234.5103   1.2676180530e+02   2.2630302058e+01    0.1025275   0.06818879  64.53 0.0001416939    1.065    0.061
        51  -8.6901    194.4182    232.7071   1.0362799540e+02   2.9823837058e+00    0.1772866    0.1669827  61.84  0.001031823    1.423    0.297
        52  -9.1098    141.6270    231.1367   1.1209034986e+02   1.1258351314e+01    0.5145885    0.1928142  58.13  0.001981351    4.575    0.781
        53  -8.5585    132.4915    232.5446   1.1375769668e+02   1.2429995436e+01    0.1561669    0.1013841 -77.43 0.0007716082    2.162    0.537
        54  -9.2175    186.5771    230.9069   1.0465765868e+02   4.3895573746e+00    0.2535971     0.196466  84.37  0.001383681    2.200    0.546
        55  -8.4541    157.9482    231.9973   1.0948155113e+02   8.6689771735e+00    0.1676381     0.116358  66.08 0.0007931581    1.711    0.416
        56  -8.2572     92.4494    231.9249   1.2032471705e+02   1.8176431651e+01    0.2201743   0.08403694  62.17  0.001021778    3.317    0.699
        57  -9.0952    235.9628    230.8722   9.6874106231e+01  -3.0644453701e+00     0.167103    0.1324894   8.17 0.0003839452    1.203    0.169
        58  -8.6173      1.8017    230.9924   1.3448443965e+02   2.8488661612e+01    0.1742379    0.0795907  70.70 0.0008643159    1.552    0.356
        59  -8.9354    151.3274    228.9902   1.1023254954e+02   1.0070005504e+01    0.2218281    0.1541611 -86.74  0.001212352    2.252    0.556
        60  -9.6183    148.8029    224.6864   1.1015706065e+02   1.1032116918e+01    0.3727309    0.2855007  61.88  0.001500383    1.300    0.230
        61  -8.0308    229.7927    228.9626   9.7541321642e+01  -1.9803284683e+00    0.1373487    0.1277593 -78.79 0.0007794001    1.925    0.481
        62  -8.7256    162.4326    227.9152   1.0825309246e+02   8.4959491458e+00    0.2681698    0.1694227  66.42  0.001118697    2.149    0.535
        63  -8.8041    128.0244    227.5074   1.1398176082e+02   1.3791718674e+01     0.249247    0.1413555  61.29  0.001276429    1.792    0.442
        64  -8.2011    120.0238    227.7854   1.1535792972e+02   1.4928071499e+01    0.1806898    0.1266752  84.79   0.00124936    1.682    0.405
        65  -7.7506    223.4535    227.4870   9.8310584422e+01  -8.9090985662e-01    0.1106808   0.08321427  28.26 9.837981e-05    1.025    0.025
        66  -8.8101    206.2285    225.5912   1.0076680356e+02   1.9366076846e+00    0.2851193    0.1803981 -32.29  0.001289121    1.947    0.486
        67  -8.6170    200.1272    226.6057   1.0188994998e+02   2.7723946191e+00    0.1554675    0.1528003 -14.49 0.0007749886    1.397    0.284
        68  -7.9478    177.6710    227.2903   1.0564820322e+02   6.1980896638e+00    0.1414989     0.117144 -44.32 0.0005370202    1.581    0.367
        69  -8.8625    180.7330    224.4982   1.0477863493e+02   6.0541594726e+00    0.2580239    0.1623146  56.52  0.001143157    1.751    0.429
        70  -8.3525     49.2343    227.0708   1.2701556366e+02   2.4293056438e+01    0.2075614   0.07986843  58.38  0.001229158    2.059    0.514
        71  -8.9459     94.1371    224.2657   1.1939760922e+02   1.9111674803e+01    0.3470846    0.1511378  65.60  0.001717974    2.939    0.660
        72  -7.9558     78.3140    225.6594   1.2216459138e+02   2.0991699864e+01    0.1129545   0.06018449  65.82 0.0007047284    1.702    0.412
        73  -8.8845    216.3463    223.4963   9.8851741226e+01   5.9585366419e-01    0.1920603    0.1744124  50.88 0.0007994906    1.477    0.323
        74  -8.8847    172.9602    223.1328   1.0589481427e+02   7.4497462788e+00    0.2145713    0.1600581 -61.87 0.0008934478    1.924    0.480
        75  -7.8205    113.9427    224.1730   1.1602891556e+02   1.6340364814e+01    0.1482742    0.1017204  75.35 0.0005889105    1.547    0.353
        76  -8.9189    104.6958    223.5491   1.1754259798e+02   1.7756059189e+01    0.2656129    0.1543666  73.83  0.001335477    1.993    0.498
        77  -7.6682     38.2745    224.6491   1.2863345582e+02   2.5897093847e+01    0.1059887   0.05158525  67.05 0.0004763258    1.636    0.389
        78  -9.4113    192.4059    221.2100   1.0240357932e+02   4.5978365226e+00    0.2514759    0.2162394 -77.41  0.001102328    1.796    0.443
        79  -9.3527    160.2750    221.1989   1.0778830754e+02   9.7053911703e+00    0.4463657    0.2177875  60.59  0.001811413    3.050    0.672
        80  -7.7898    140.4596    222.9505   1.1137456665e+02   1.2556516596e+01    0.1367733    0.0898946  83.91 0.0008041539    2.285    0.562
        81  -8.9769    238.9758    221.6015   9.5034763984e+01  -2.6429441078e+00    0.1620812    0.1493221 -12.30 0.0006012574    1.499    0.333
        82  -8.8576    225.5671    221.8865   9.7158674229e+01  -6.5211200344e-01    0.2205202    0.1565361  51.34   0.00117073    1.688    0.408
        83  -9.3303      7.4329    222.2144   1.3334776003e+02   2.9374387424e+01    0.2115556   0.06112098  49.64  0.001303529    2.232    0.552
        84  -9.2796    120.7025    219.5472   1.1439646687e+02   1.6039626561e+01    0.4124339    0.1947906  64.29   0.00188412    2.931    0.659
        85  -8.7256     82.8189    220.5261   1.2099891089e+02   2.1217092275e+01    0.2790388    0.1326652  70.92   0.00143522    2.520    0.603
        86  -8.4639     72.9072    220.6484   1.2268662594e+02   2.2478815859e+01    0.2070959    0.1124855  81.76  0.001197072    1.968    0.492
        87  -8.2023     27.5084    220.6373   1.3014624140e+02   2.7683154433e+01    0.1887655   0.07978122 -80.68  0.001218514    2.191    0.544
        88  -8.2449    202.7654    220.3609   1.0058509257e+02   3.0543778251e+00    0.1468126     0.121942  33.78 0.0006482131    1.115    0.103
        89  -8.4190     18.1524    218.1622   1.3151873757e+02   2.9024370293e+01    0.2730509   0.08174083 -65.95  0.001499525    3.545    0.718
        90  -8.7682    248.9820    218.1956   9.2984623701e+01  -3.8011615563e+00    0.2993488    0.2161038  71.15  0.001570942    4.057    0.754
        91  -8.1829    210.0558    219.2651   9.9242772932e+01   2.0267434311e+00    0.1557283    0.1214627  34.40 0.0005097119    1.085    0.078
        92  -9.2354    132.8018    215.9793   1.1189841243e+02   1.4737982971e+01    0.3893606    0.2271735  77.22   0.00201671    2.821    0.645
        93  -8.5366     62.1367    217.3159   1.2425885181e+02   2.4359129434e+01    0.2353487    0.1029666  60.24  0.001141704    1.961    0.490
        94  -9.0509     51.4376    217.5389   1.2606963894e+02   2.5589606165e+01    0.2221918    0.1214859  68.75 0.0007226161    1.512    0.339
        95  -8.7670    169.0923    216.4206   1.0566801384e+02   8.9285588986e+00    0.1846441    0.1554783 -84.52 0.0006706964    1.624    0.384
        96  -8.6135    142.9058    216.4853   1.1019619900e+02   1.3092708612e+01    0.1954182    0.1487532  84.99  0.001044106    1.644    0.392
        97  -7.9622    111.8269    217.0625   1.1567939480e+02   1.7726723395e+01    0.1755118    0.1070596  75.58 0.0009906029    1.955    0.488
        98  -8.6544    232.4617    215.1333   9.5048358926e+01  -1.0262940474e+00    0.1970682    0.1799274 -60.52  0.001112696    1.863    0.463
        99  -8.5463    185.7847    214.5296   1.0257124350e+02   6.4670608064e+00    0.1877409    0.1525371 -71.23 0.0008378553    1.877    0.467
       100  -8.6978    154.0823    215.2533   1.0810219647e+02   1.1497043539e+01    0.1659355    0.1259626  49.29 0.0007347252    1.089    0.082
       101  -8.9037     93.0092    214.1107   1.1867995882e+02   2.0872920875e+01    0.2412881     0.135755  70.88 0.0009921016    1.889    0.471
       102  -8.3080     77.0180    214.5108   1.2149904089e+02   2.2952373084e+01    0.2253161   0.09355588  52.03  0.001267538    1.908    0.476
       103  -9.3600     72.3043    211.3361   1.2205911437e+02   2.4088227329e+01     0.369738    0.1679691  69.75  0.001453308    2.535    0.606
       104  -9.4167    214.2501    212.3993   9.7534352172e+01   2.1192003083e+00    0.3553199    0.2276684  58.53  0.001890875    2.215    0.549
       105  -8.2743    224.9144    212.7156   9.5865228687e+01   3.9539522411e-01    0.1664992    0.1439611 -36.66 0.0009199635    1.598    0.374
       106  -8.8498    161.6779    212.5742   1.0643515834e+02   1.0644669402e+01    0.2134323    0.1679941  56.78 0.0008221451    1.240    0.194
       107  -8.2588    106.4723    212.9590   1.1620025446e+02   1.9150250877e+01    0.1466642    0.1054712 -76.20 0.0009387164    1.552    0.356
       108  -7.5750    242.6521    212.2858   9.3014762119e+01  -2.2980767984e+00   0.09787802    0.0844212  50.51 0.0004183873    1.653    0.395
       109  -9.0209    204.2527    210.9776   9.8959743511e+01   3.8924566346e+00    0.2204102    0.1936495 -74.29  0.000893887    1.787    0.440
       110  -9.4887    175.6693    210.3456   1.0370631655e+02   8.6575250263e+00    0.3456548    0.2303071  71.23  0.001476305    2.408    0.585
       111  -9.3060    148.0289    210.6797   1.0858007250e+02   1.3117033824e+01    0.2951327    0.2134731 -85.75  0.001604137    1.950    0.487
       112  -9.2712      6.6143    209.2566   1.3299032993e+02   3.1598637431e+01    0.4543184    0.1159363  75.13  0.001838541    5.166    0.806
       113  -8.2534    192.6730    210.8018   1.0087024055e+02   5.8038947664e+00    0.1824741    0.1598082 -69.79  0.001041454    1.664    0.399
       114  -9.0336    116.1803    210.3110   1.1419685043e+02   1.8137486352e+01    0.2653645    0.1693728  78.92  0.001024534    1.910    0.477
       115  -8.1071     33.1766    211.1827   1.2873443395e+02   2.8675795547e+01    0.2593937    0.0468433  54.32  0.001072165    4.217    0.763
       116  -7.9526     46.7183    209.9647   1.2637752804e+02   2.7405092250e+01    0.2055455   0.06146237  60.93 0.0009028791    3.577    0.720
       117  -8.9840    236.3469    208.2336   9.3343972713e+01  -9.2497013411e-01    0.2228477    0.1912689 -42.85  0.001079021    1.760    0.432
       118 -10.2939    124.2167    206.2041   1.1228681827e+02   1.7561156396e+01    0.2532909    0.1618266  69.43  0.001508714    1.756    0.430
       119  -9.3593    246.3202    207.1801   9.1622181352e+01  -2.3548689776e+00    0.2270977    0.1675059  -0.04 0.0004838386    1.249    0.200
       120  -9.4194    250.0836    201.9562   9.0174391869e+01  -2.4139560972e+00    0.2894952    0.1555245 -23.82  0.001436165    1.939    0.484
       121  -7.8274    228.8582    208.1492   9.4515093301e+01   2.5804659277e-01    0.1636255    0.1081161  22.62  0.001053341    1.307    0.235
       122  -7.8092    156.4459    208.1861   1.0676762813e+02   1.2111946903e+01    0.1402485    0.1124431 -75.30 0.0006825989    1.629    0.386
       123  -8.4878    139.1319    208.0750   1.0983201464e+02   1.4926303139e+01    0.2174404     0.126684  62.56 0.0008273281    1.942    0.485
       124  -9.2033     99.3245    205.9922   1.1676647500e+02   2.1316172065e+01    0.3185716    0.1780223  78.05  0.001582247    2.296    0.564
       125  -8.6124     56.6571    205.5866   1.2435421339e+02   2.7005431881e+01    0.2782918    0.1095102  63.57  0.001326288    2.579    0.612
       126  -9.4352    194.8174    203.5656   9.9415972135e+01   6.3502249151e+00     0.337242    0.3175717 -74.94  0.002176544    1.458    0.314
       127  -9.2330    192.3836    197.4598   9.8880607855e+01   7.5477125091e+00    0.2887906    0.2105678 -48.06 0.0008974702    1.771    0.435
       128  -9.0350    183.9043    204.2564   1.0139833736e+02   8.0915025158e+00    0.2756073    0.1737634  61.98  0.001028444    2.133    0.531
       129  -8.8651    131.2783    204.0901   1.1075233239e+02   1.6787818230e+01    0.2714427    0.1792644  77.76  0.001128855    1.959    0.490
       130  -8.0576    109.1904    205.2373   1.1489968665e+02   1.9999317748e+01    0.1620505    0.1121086  70.53 0.0006030562    1.413    0.293
       131  -8.5881     85.5658    209.3195   1.1955215381e+02   2.2680601717e+01    0.3166254    0.1524192  72.34  0.001608857    2.693    0.629
       132  -9.6168    163.9125    203.0187   1.0473103470e+02   1.1615063725e+01    0.4015177    0.2220318  58.16  0.001520904    2.087    0.521
       133  -8.4610    211.0269    202.2048   9.6467359159e+01   3.8134438971e+00    0.1893745    0.1563408 -75.05 0.0007137501    2.126    0.530
       134  -8.7170     48.3453    201.9969   1.2556016533e+02   2.8605426825e+01    0.2685817    0.1174255  78.02   0.00109544    2.539    0.606
       135  -8.5851     17.3696    203.2033   1.3096442397e+02   3.1642302661e+01    0.1453812   0.06886413  83.50 0.0006765308    1.757    0.431
       136  -9.1585    243.0518    200.6370   9.1039222742e+01  -1.1909901538e+00    0.2654125     0.157928 -26.16 0.0008880235    1.797    0.444
       137  -8.8694    140.3747    200.9774   1.0869878450e+02   1.5812401253e+01    0.2766217    0.1840281  86.41  0.001021264    2.248    0.555
       138  -8.5977     79.9789    201.2899   1.1982086684e+02   2.4803001864e+01     0.283354    0.1398968  75.55  0.001448611    2.578    0.612
       139  -7.8541     72.7100    202.3140   1.2123153122e+02   2.5580707744e+01    0.1152628   0.06612668  68.04 0.0003235591    1.589    0.371
       140  -8.0751     40.6038    201.8606   1.2691041517e+02   2.9496214708e+01     0.153996   0.07743105  85.63 0.0009545044    1.844    0.458
       141  -7.9380    221.9860    201.2505   9.4505338329e+01   2.1192462149e+00    0.1420395    0.1331989 -57.93 0.0006718489    1.608    0.378
       142  -9.0046    237.0742    198.6794   9.1648530597e+01  -3.9336677360e-02    0.2586598    0.1579782 -30.46  0.001045917    1.829    0.453
       143  -9.5357    149.5890    198.8413   1.0672827920e+02   1.4623716019e+01    0.3654681    0.2418637  76.16  0.001437283    2.206    0.547
       144  -8.8831    124.0211    199.2611   1.1148660058e+02   1.8707591708e+01    0.2677324    0.1755071 -86.67  0.001392667    2.029    0.507
       145  -9.2698    112.8801    198.6742   1.1348151749e+02   2.0532349859e+01     0.394418     0.214601  70.61  0.001744136    2.467    0.595
       146  -9.3151     88.7352    198.7907   1.1797256538e+02   2.4042021684e+01    0.3307201    0.1824389  76.94  0.001634924    2.157    0.536
       147  -8.4972    176.9286    199.1093   1.0184664205e+02   9.9661563844e+00    0.1776425    0.1498729  61.34 0.0005068527    1.322    0.244
       148  -8.3504    202.2786    197.8177   9.7235239642e+01   5.8156738363e+00    0.2024474    0.1793555  76.97 0.0008414827    1.604    0.376
       149  -9.3996     61.5447    197.0923   1.2281873943e+02   2.7913451882e+01    0.3742777    0.1669618  66.50  0.001559094    2.335    0.572
       150  -8.2116     12.6957    197.7301   1.3149416569e+02   3.3045501366e+01    0.2149977   0.07827291  75.37  0.001171548    2.546    0.607
       151  -8.8491    215.8314    195.5515   9.4576513803e+01   3.8027032918e+00    0.2519492    0.1584524 -50.20  0.001104999    2.476    0.596
       152  -8.1798     53.7550    197.1433   1.2423913462e+02   2.8842276417e+01    0.1990711   0.07875161  66.94 0.0009516447    2.864    0.651
       153  -8.3212    132.9725    195.9942   1.0940879381e+02   1.7807205584e+01    0.1850579    0.1278872  69.58 0.0005718734    1.603    0.376
       154  -9.3065    245.8320    193.7851   8.9430386706e+01  -9.1681249282e-01    0.2427863    0.2261828  84.17  0.001456322    1.859    0.462
       155  -8.7818    224.5465    194.2206   9.2910757180e+01   2.5009000761e+00    0.2310654    0.1821512 -52.73  0.001142373    1.972    0.493
       156  -8.8349    185.3268    194.6797   9.9675594139e+01   9.1336601759e+00    0.2327914      0.19876 -77.39  0.001008318    1.660    0.398
       157  -9.1286    160.9771    194.2648   1.0399137011e+02   1.3392747088e+01    0.2833898    0.2123711  77.53 0.0009415591    1.781    0.438
       158  -8.1333    230.9614    194.3261   9.1884863412e+01   1.4281424588e+00    0.1684426    0.1293279  29.86  0.000569248    1.098    0.089
       159  -8.5996     76.9900    194.0182   1.1969019737e+02   2.6488807461e+01     0.176535    0.1315378  68.60  0.000493591    1.085    0.078
       160  -8.9356     43.7307    193.3683   1.2577910041e+02   3.0676405009e+01    0.3410304    0.1475359  67.94  0.001862244    2.257    0.557
       161  -8.1371    198.9556    191.9894   9.6853277317e+01   7.1322858737e+00    0.1694322    0.1474051  77.51 0.0005502849    1.617    0.382
       162  -7.7931    179.0126    191.6856   1.0032521075e+02   1.0647869116e+01    0.1736779    0.1380075  41.57 0.0004183392    1.073    0.068
       163  -8.5445    172.2839    191.7840   1.0155491306e+02   1.1806671873e+01     0.212711    0.1758628  76.96  0.000785411    1.537    0.349
       164  -8.9434    139.4314    190.7114   1.0748096766e+02   1.7601409058e+01    0.2961936    0.1880568  70.77 0.0007949419    2.057    0.514
       165  -8.9677      6.4453    190.7931   1.3224760411e+02   3.4851312803e+01    0.2305224   0.07491932 -78.31  0.001290516    2.557    0.609
       166 -10.4701     92.0135    188.7258   1.1629473736e+02   2.5365019815e+01    0.8548783     0.227139  51.55   0.00319263    3.830    0.739
       167  -8.2527     90.3281    182.2750   1.1589663744e+02   2.6790399689e+01    0.2024335    0.1295936 -31.13 0.0009618273    3.505    0.715
       168  -8.6266     21.4592    191.4385   1.2965396743e+02   3.3349307820e+01    0.2339019   0.06417978  57.48   0.00112325    3.071    0.674
       169  -8.3854    148.6263    189.4424   1.0556884089e+02   1.6252234312e+01    0.1919055    0.1444688 -88.60   0.00113495    1.760    0.432
       170  -9.0671    129.3094    188.6035   1.0911158507e+02   1.9627738930e+01    0.2696029    0.1874903  78.96 0.0009865616    1.752    0.429
       171  -8.2906    237.1422    188.3351   8.9844887107e+01   1.0816174980e+00    0.1932057    0.1427455  -2.28 0.0006138403    1.290    0.225
       172  -8.8763    216.6521    187.9675   9.3144838355e+01   4.5829751411e+00    0.2377692     0.200931 -47.44 0.0008940321    1.614    0.380
       173  -8.7746    191.8722    187.7546   9.7389818929e+01   8.9386063119e+00    0.3012287    0.2224073  89.77  0.001112768    2.577    0.612
       174  -9.4399    156.0494    187.5915   1.0390070524e+02   1.5266760519e+01    0.3195988    0.2093774 -63.05  0.001189224    2.029    0.507
       175  -9.8240    120.9736    186.9197   1.1048683957e+02   2.1269759034e+01    0.4589804    0.2552179 -79.49  0.002170947    2.866    0.651
       176  -8.7585     34.2623    188.0824   1.2714273901e+02   3.2675216525e+01    0.2796828    0.1178199  73.87  0.001105317    2.410    0.585
       177  -8.8253    242.6245    188.2077   8.8950554755e+01   1.9657381735e-01    0.1585433    0.1003574 -10.77 0.0008753759    1.620    0.383
       178  -9.1647     54.5962    186.8716   1.2326505707e+02   3.0626355509e+01    0.3534096    0.1638429  74.12  0.001493998    2.397    0.583
       179  -8.1330    230.4945    187.0831   9.0696580265e+01   2.3322080506e+00    0.1642708    0.1132137 -26.00 0.0009448451    1.548    0.354
       180  -8.7665    164.8398    186.8311   1.0214489852e+02   1.3848293257e+01     0.253192    0.1969736  76.02   0.00125748    1.647    0.393
       181  -9.1263    109.5869    186.1754   1.1259600470e+02   2.3198379357e+01    0.3212454    0.1919213  70.53  0.001195041    1.957    0.489
       182  -8.6957    249.4411    185.7433   8.7440451543e+01  -6.4166135663e-01    0.1889412    0.1828854  -5.13 0.0008727371    1.490    0.329
       183  -8.9672    210.2391    184.3807   9.3606978294e+01   6.1493491916e+00    0.2287343    0.1647443 -21.71 0.0004841909    1.511    0.338
       184  -8.6577    202.7646    184.7414   9.4962264515e+01   7.4199509942e+00    0.2120493    0.1699407 -46.18 0.0006335377    1.582    0.368
       185  -8.6025    183.1571    184.9222   9.8477153629e+01   1.0883341089e+01    0.2124779    0.1962238  74.19  0.000771175    1.315    0.239
       186  -9.0544     66.4264    184.2443   1.2077077950e+02   2.9663991762e+01    0.3177481    0.1748274  82.02  0.001223879    1.924    0.480
       187  -8.4170    224.1114    183.6441   9.1133507161e+01   3.8268412072e+00    0.1877041    0.1597976 -27.57 0.0005978203    1.368    0.269
       188  -8.3503    197.2001    184.0117   9.5811921714e+01   8.5058515594e+00    0.1801531    0.1446449 -74.96 0.0006713147    1.991    0.498
       189  -9.0180    174.2666    183.6563   9.9891048708e+01   1.2657087719e+01    0.2440986    0.1940207  77.87 0.0009055631    1.685    0.406
       190  -9.1170     44.3602    182.4192   1.2484775640e+02   3.2645785087e+01    0.2973032    0.1460912  72.08  0.001056853    1.955    0.488
       191  -8.3519     19.4199    182.6017   1.2952137406e+02   3.5180836439e+01    0.2143003   0.07037493  85.81 0.0009569376    3.484    0.713
       192  -7.9626      1.7422    183.5898   1.3274946039e+02   3.6569099802e+01    0.1375981   0.06719621  51.88 0.0009442144    1.640    0.390
       193  -8.2663    240.7020    180.9920   8.7949490582e+01   1.3182982621e+00    0.2406599    0.1374348 -32.67    0.0013545    1.900    0.474
       194  -9.3242    147.5852    180.8051   1.0446776878e+02   1.7836925724e+01    0.2986676    0.2164724  79.76  0.001053051    1.809    0.447
       195  -9.6563     25.4600    178.5975   1.2815485363e+02   3.5357413669e+01    0.5806717    0.1901304  76.61  0.002287243    4.498    0.778
       196  -8.5043    137.8107    179.5630   1.0617523897e+02   1.9739622885e+01    0.2719437    0.1818203  74.98  0.001171034    1.959    0.490
       197  -9.4108    191.5113    178.4692   9.5861106530e+01   1.0303248828e+01    0.2746325    0.2310325  60.65 0.0005991849    1.382    0.276
       198  -8.1308    169.0816    178.9422   1.0007431931e+02   1.4308604361e+01      0.19035    0.1494557  77.48 0.0007230747    1.669    0.401
       199  -9.1957     36.0928    177.2651   1.2603791796e+02   3.4530810474e+01    0.4535828    0.1660827  75.56  0.001898259    3.820    0.738
       200  -8.6521    250.4959    172.9131   8.4892331717e+01   5.9284932677e-01    0.2140736    0.1571813 -20.38 0.0005215651    1.346    0.257
       201  -9.2285    248.9867    177.5101   8.5996255395e+01   3.3029168310e-01    0.2425133    0.2194309  -4.93 0.0005603274    1.291    0.226
       202  -8.5608    247.3090    174.3052   8.5655065905e+01   9.6950096952e-01    0.2382015    0.1528802  16.94 0.0008101806    1.487    0.327
       203  -8.7343    217.6291    177.2788   9.1067801043e+01   5.7551044662e+00     0.243301    0.1797697 -50.16 0.0008352328    1.898    0.473
       204  -8.6923    205.0675    177.5848   9.3292587157e+01   7.9673690652e+00    0.2147762     0.176431 -51.19 0.0007402801    1.602    0.376
       205  -8.6058    129.1378    177.3624   1.0755522202e+02   2.1598949396e+01    0.2331116    0.1587664 -82.72 0.0007528999    1.915    0.478
       206  -8.5100    231.1560    176.7845   8.8715628520e+01   3.4389774658e+00    0.1961676    0.1561057 -30.92 0.0006473429    1.438    0.304
       207  -9.0195    183.2507    176.4384   9.7009455627e+01   1.2108100540e+01    0.2349327    0.2063931  79.42 0.0005571987    1.445    0.308
       208  -9.4258    159.0293    175.0741   1.0134202023e+02   1.6745185561e+01    0.3991118    0.2869077  89.70  0.001465475    2.124    0.529
       209  -9.7160    104.4591    175.1183   1.1219017772e+02   2.6013233670e+01    0.4640579    0.2410452  66.99  0.001982681    2.524    0.604
       210  -8.3534     97.9399    177.4788   1.1380795840e+02   2.6566373169e+01    0.1834658    0.1072926  44.03 0.0005874169    1.564    0.360
       211  -9.0689     89.0361    176.8310   1.1551899238e+02   2.7999982930e+01    0.2450247    0.1647271  77.65 0.0008981924    1.493    0.330
       212  -9.9735     57.3016    173.3735   1.2153680992e+02   3.2887124109e+01    0.6941326    0.2850657  77.98  0.002694139    4.186    0.761
       213  -8.6916     12.5859    176.5641   1.3044088026e+02   3.6950439622e+01    0.2425427   0.09276155  65.02 0.0009269744    2.281    0.562
       214  -9.5659     81.6810    154.7958   1.1428091826e+02   3.3423663788e+01     0.441729    0.2433926  73.51  0.001461246    2.290    0.563
       215 -10.6931     75.9486    170.5455   1.1745116921e+02   3.1049050734e+01     1.028278    0.3773091 -78.17  0.003655353    4.699    0.787
       216  -8.7222     79.2456    158.5622   1.1530770920e+02   3.2995621499e+01     0.326617    0.1782166  28.56  0.001584942    2.586    0.613
       217  -9.0469    239.8805    173.1538   8.6615616743e+01   2.3647663640e+00     0.258134    0.2008171  56.76 0.0005767985    1.727    0.421
       218  -8.2918    237.3220    169.6874   8.6364472017e+01   3.2218562643e+00    0.1985023    0.1598087 -28.67 0.0006424267    1.385    0.278
       219  -8.4615    224.2013    173.9446   8.9338381600e+01   5.0107245727e+00    0.1740789    0.1686681  -9.09 0.0006626989    1.310    0.237
       220  -9.3820    175.8116    172.2722   9.7661351723e+01   1.4114355520e+01    0.2948828    0.2394593 -47.45  0.001058797    1.420    0.296
       221  -8.4904    143.1861    173.0576   1.0410863918e+02   1.9923674759e+01    0.2425223    0.1519317  66.39  0.000804813    1.993    0.498
       222  -8.4296    134.8372    172.0307   1.0561013789e+02   2.1568526651e+01    0.1995172     0.159217  74.93 0.0007908054    1.332    0.249
       223  -9.6178    121.3199    170.2694   1.0807695503e+02   2.4195720820e+01    0.3808343    0.2389238 -75.46  0.001062057    2.021    0.505
       224  -9.2829     45.1590    171.0837   1.2376301314e+02   3.4752596011e+01    0.3342954    0.1605526  86.16  0.001252871    2.162    0.537
       225  -9.0410    230.2373    170.2917   8.7640010847e+01   4.3963006781e+00    0.2186504    0.1639669 -18.33 0.0006046109    1.333    0.250
       226  -8.4259    205.6710    170.1688   9.1819274371e+01   8.8738186559e+00    0.2464679    0.1509592 -45.46 0.0009798722    2.019    0.505
       227  -8.5569    198.5233    170.4849   9.3152650122e+01   1.0154944343e+01    0.2304333    0.2034833  74.57 0.0007648362    1.484    0.326
       228  -7.6291     68.5143    170.9774   1.1902317144e+02   3.1951161313e+01    0.1678327   0.08551641  82.62 0.0008078991    2.437    0.590
       229  -9.2088    167.0829    168.7636   9.8704975805e+01   1.6296147167e+01    0.3205345    0.2287811  68.29  0.001156167    1.775    0.437
       230  -8.6838    149.7482    169.4380   1.0221446324e+02   1.9373191959e+01    0.2632107    0.1974208 -71.50  0.001047102    1.662    0.398
       231  -8.7044    244.4953    169.1210   8.5105591319e+01   2.0450338268e+00     0.181435    0.1683909  23.56 0.0006513871    1.300    0.231
       232  -8.9323    111.7975    167.5590   1.0963711041e+02   2.6275081205e+01    0.3602988    0.2138312  83.31  0.001209191    2.532    0.605
       233  -8.4899     88.7909    168.6797   1.1457188924e+02   2.9607963916e+01     0.231446    0.1376545  83.22 0.0008998936    2.019    0.505
       234  -8.2404    218.7411    168.2672   8.9184531706e+01   6.7271827073e+00    0.1753319    0.1583739 -38.47 0.0005810788    1.370    0.270
       235  -8.8902    191.9246    166.6114   9.3627422756e+01   1.1957949121e+01     0.225112    0.1896355 -44.46 0.0004611974    1.381    0.276
       236  -8.8946    184.9869    166.5526   9.4901684572e+01   1.3279164395e+01    0.2305823    0.1823722 -58.15 0.0007790785    1.615    0.381
       237  -8.9617     95.9879    166.5203   1.1278880725e+02   2.8960242282e+01    0.2600903    0.2055307  12.59  0.001515364    1.995    0.499
       238  -9.9478     93.6901    161.6700   1.1261513544e+02   3.0265636381e+01    0.7283462    0.3665643  77.16  0.002796427    3.743    0.733
       239  -9.2642     20.7273    166.2397   1.2825169598e+02   3.8213671539e+01    0.3303075    0.1275508  63.37  0.001323423    2.435    0.589
       240  -8.1821     12.8199    167.5813   1.2988201321e+02   3.8663746834e+01    0.1452335   0.07435315  52.16 0.0005755333    1.664    0.399
       241  -9.9175    136.9006    164.4764   1.0397470488e+02   2.2563488633e+01    0.5842178    0.3002535  59.99  0.002374417    2.413    0.586
       242  -8.1960    233.8556    165.0838   8.6033234354e+01   4.4003447552e+00    0.1773171    0.1653418 -13.54 0.0005858485    1.270    0.213
       243  -8.7407    159.5065    164.3306   9.9396967048e+01   1.8448766531e+01    0.2642086    0.2064303  70.28  0.000838021    1.488    0.328
       244  -9.4478     33.5922    163.3116   1.2545075192e+02   3.7542566175e+01    0.5143511    0.1685013  58.96  0.002281855    3.234    0.691
       245  -9.1911    246.0417    163.1799   8.3696466071e+01   2.4785770778e+00    0.2586833    0.1680447 -22.73 0.0006287153    1.493    0.330
       246  -8.1082    242.0086    160.0184   8.3705855358e+01   3.5707624752e+00    0.1816458    0.1503105   6.42 0.0004705735    1.034    0.033
       247  -8.5662    245.5369    158.7595   8.2891410557e+01   3.0976374214e+00     0.197815      0.17124  30.23 0.0005909764    1.211    0.174
       248  -8.4663    239.9658    164.1073   8.4848346069e+01   3.4337970091e+00    0.1926561    0.1602828  10.73  0.000493329    1.013    0.013
       249  -8.7112    212.9397    163.4818   8.9258631179e+01   8.4461195112e+00     0.218994    0.1771507 -45.22 0.0005636767    1.523    0.343
       250  -8.4013     57.4273    163.7341   1.2055611591e+02   3.4792491641e+01    0.2933964    0.1656494  26.47  0.001558557    2.584    0.613
       251  -8.7878     60.6540    160.2963   1.1950944267e+02   3.5095658225e+01     0.316576    0.1801528  80.98  0.001249145    1.836    0.455
       252  -8.3966    204.9167    163.0811   9.0596790619e+01   1.0013781918e+01    0.1851031    0.1768804  72.24 0.0005772041    1.317    0.241
       253  -9.4523      3.3347    162.4012   1.3142763824e+02   4.0474367263e+01    0.3389745      0.12193  58.13  0.001832624    2.336    0.572
       254  -8.9442    177.6311    160.8431   9.5220722981e+01   1.5581173694e+01    0.2753435    0.2193569 -67.96 0.0009467981    1.662    0.398
       255  -8.8045    151.9058    161.4573   1.0040290404e+02   2.0365118448e+01    0.2723023     0.204359  81.17  0.001108185    1.736    0.424
       256  -7.6996    222.2870    161.6999   8.7296359296e+01   6.9449589726e+00    0.1135713    0.1050409 -80.32 0.0002682679    1.556    0.357
       257  -9.9549    250.1710    157.9553   8.2002346273e+01   2.3785036519e+00    0.3279829    0.1647359 -26.85 0.0007818664    1.923    0.480
       258  -8.5904    227.3579    159.2046   8.5941118685e+01   6.3352029095e+00    0.2242764    0.1893184 -59.42 0.0009830112    1.737    0.424
       259  -8.4472    128.1944    159.3283   1.0492427635e+02   2.5061142316e+01     0.251026    0.1781611  72.84 0.0008319342    1.626    0.385
       260  -9.7120    105.8153    158.2321   1.0951623023e+02   2.9055081927e+01    0.4211526    0.2675244  82.90  0.001184273    2.020    0.505
       261  -8.3566    237.0133    158.9513   8.4296192072e+01   4.6000508444e+00    0.1788143    0.1588267 -59.78 0.0007596429    1.662    0.398
       262  -8.7131    196.6790    158.1908   9.1127385736e+01   1.2309809558e+01    0.2597255    0.2077288 -57.56   0.00089437    1.633    0.388
       263  -9.2236    167.7036    157.4590   9.6510157199e+01   1.8054308420e+01    0.3461634    0.2616643 -77.99  0.001032316    1.887    0.470
       264  -8.5620    188.2234    157.5328   9.2568292822e+01   1.4054097591e+01    0.2774191    0.1850754 -34.72  0.001063139    1.617    0.382
       265  -8.4340    218.0464    156.5478   8.6988506613e+01   8.4389123010e+00    0.2284546    0.1754539 -44.20 0.0007243085    1.576    0.366
       266  -8.9590    157.6570    156.0693   9.8256021953e+01   2.0225824439e+01    0.2912807     0.222933 -70.97 0.0009461668    1.651    0.394
       267  -9.4057    119.6502    155.5444   1.0611215497e+02   2.7275528861e+01    0.3778581    0.2471421 -88.05  0.001852343    2.088    0.521
       268  -8.5601     22.5114    156.8108   1.2722106069e+02   3.9940348590e+01    0.1644342    0.1306541 -20.85 0.0009482293    2.264    0.558
       269  -8.2451    204.6386    155.2761   8.9095576620e+01   1.1198052015e+01    0.2371442    0.1225176 -39.14 0.0008220794    2.083    0.520
       270  -9.1620     49.5220    155.2023   1.2135686430e+02   3.7475139337e+01    0.3529346    0.1722436  67.58  0.001660363    2.196    0.545
       271  -8.7873    242.7590    155.0164   8.2570660176e+01   4.0528800428e+00    0.2053363    0.1844059  69.69 0.0003677909    1.618    0.382
       272  -7.9312    239.7350    153.3367   8.2709444701e+01   4.8127053062e+00    0.1821834    0.1329186  13.21 0.0004241845    1.301    0.232
       273  -8.9146    144.8857    154.4588   1.0057847111e+02   2.2934531005e+01    0.3341513    0.2567471 -51.46  0.001400539    1.400    0.286
       274 -10.0952    133.1093    151.6818   1.0255926060e+02   2.5633421470e+01    0.6360688     0.358756 -53.35  0.001840053    1.889    0.471
       275  -9.5708     68.0720    153.9356   1.1716505765e+02   3.5462341507e+01    0.4098978    0.2173056  70.66  0.001536771    2.196    0.545
       276  -8.0030    232.7809    153.9955   8.3978328921e+01   6.0103505266e+00    0.1644379    0.1003314 -26.85 0.0003357648    1.628    0.386
       277  -8.3794    151.9274    153.0195   9.8852964915e+01   2.1864399110e+01    0.2115315    0.1622124  83.50 0.0006740406    1.678    0.404
       278  -9.0500     20.0621    152.5526   1.2741204225e+02   4.1034923521e+01    0.1765668    0.1161818 -89.09 0.0006971188    1.185    0.156
       279  -8.2818      8.8753    153.3556   1.2979219385e+02   4.1831468517e+01    0.2024641   0.06890565  41.51  0.001105243    2.589    0.614
       280  -8.3007    182.3405    151.4418   9.2472885354e+01   1.6182998045e+01    0.2180779    0.1639516 -61.19 0.0006417216    1.741    0.426
       281  -8.6716     98.4519    151.0105   1.1002269297e+02   3.1684295475e+01    0.2650633    0.1851449  79.79  0.001053923    1.562    0.360
       282  -9.7327     29.2817    150.6739   1.2529755965e+02   4.0560564944e+01    0.4099917    0.1648713  67.55  0.001926794    2.812    0.644
       283  -8.8578      2.9931    150.4464   1.3082141926e+02   4.2886688213e+01    0.4080443    0.1088442  88.67  0.001560107    4.407    0.773
       284  -9.6770    248.7821    149.4486   8.0468459191e+01   3.6539899139e+00    0.3128907    0.1920125 -23.89 0.0008259584    1.544    0.352
       285  -8.8161    247.0287    143.8846   7.9566094342e+01   4.6660637822e+00    0.2405674    0.1651113 -22.40 0.0005435737    1.367    0.269
       286  -9.5918    242.5424    149.8319   8.1531237461e+01   4.7412763606e+00    0.3031115    0.2413711  38.03   0.00185479    1.262    0.208
       287  -8.4293    237.2471    150.4135   8.2504238870e+01   5.6447743266e+00    0.2130095    0.1156828  44.57 0.0002851233    1.776    0.437
       288  -9.4335    233.4292    147.5628   8.2528203908e+01   6.7332917881e+00     0.251392    0.2085759 -40.34 0.0008240372    1.438    0.305
       289  -8.9051    189.4775    150.2101   9.0859960870e+01   1.4960131107e+01    0.2811915    0.2108731 -64.83 0.0008175856    1.890    0.471
       290  -7.9512    162.7518    150.8311   9.6220805762e+01   2.0158364714e+01    0.1869129    0.1579856  77.66 0.0005953352    1.380    0.275
       291  -8.0541    212.9802    149.9560   8.6514182852e+01   1.0344487582e+01    0.1866322    0.1646508 -68.38 0.0005054235    1.561    0.359
       292  -9.8798     39.9011    147.9251   1.2272218906e+02   4.0059124410e+01     0.493664    0.2110242  68.22  0.002051002    2.822    0.646
       293  -8.4142    198.8822    149.1068   8.8876426962e+01   1.3256595295e+01      0.19413    0.1849089 -88.71 0.0005256434    1.298    0.230
       294 -10.2784    149.0325    145.1412   9.7939273578e+01   2.3866183744e+01    0.5443347    0.3581654  83.47  0.001682976    2.587    0.613
       295 -10.2644     89.2466    146.2460   1.1136270929e+02   3.4090955359e+01    0.6244665    0.3289552  85.50  0.002453975    3.375    0.704
       296 -10.4449     54.6236    144.0499   1.1898285683e+02   3.9229803830e+01    0.8451712    0.3844933  80.36  0.003135226    3.388    0.705
       297  -9.2523     77.7213    146.7560   1.1406060361e+02   3.5660641482e+01    0.3090364    0.1817008  85.89  0.001162187    2.041    0.510
       298  -8.2017    223.1535    147.0686   8.4143183985e+01   8.7698717028e+00    0.2030118    0.1635873  11.23 0.0004602498    1.172    0.146
       299 -10.4579    139.1801    143.4962   9.9724736508e+01   2.6071677841e+01    0.9075625     0.340038 -48.87  0.002598645    2.809    0.644
       300 -10.1250    132.6668    131.1834   9.8695059981e+01   2.9736392737e+01    0.7172562    0.4686176 -74.20  0.002199588    2.112    0.526
       301 -10.5446    131.7225    119.6283   9.6409565262e+01   3.2258432398e+01    0.8134726    0.4817833 -80.15  0.002840631    3.602    0.722
       302 -10.2928    106.6954    144.3700   1.0709624510e+02   3.1711719598e+01    0.6672474    0.3991854  85.06  0.002198193    2.595    0.615
       303  -9.4407     13.3960    146.4314   1.2837387222e+02   4.2876408104e+01     0.325835    0.1357037  60.55  0.001200553    2.241    0.554
       304  -8.0021    206.6135    146.2639   8.6870451131e+01   1.2144313451e+01    0.1801643    0.1259019 -19.40 0.0006116354    1.533    0.348
       305  -8.3176    175.6419    146.1828   9.2705783679e+01   1.8397001188e+01    0.2027666    0.1717334 -62.03 0.0006225902    1.400    0.286
       306  -8.2934    240.3642    145.2490   8.0911269416e+01   5.7302754261e+00    0.2000399    0.1595728   4.70 0.0003867754    1.134    0.118
       307  -9.0953    242.6604    143.2804   8.0124233152e+01   5.5542456981e+00    0.4216921    0.2156327  -5.03  0.001686213    3.020    0.669
       308  -9.9602    125.0047    142.6838   1.0268218382e+02   2.8866119340e+01    0.5394703    0.3356986 -75.71  0.002038406    2.235    0.553
       309 -10.1724     73.3492    129.6519   1.1254130224e+02   3.9958458805e+01    0.4415292    0.2567793 -88.81  0.001585327    2.102    0.524
       310 -10.8895     69.3961    141.3478   1.1522261807e+02   3.7950344214e+01     0.596579    0.4045782 -83.20  0.002552455    1.392    0.282
       311  -7.8142    194.4272    143.9501   8.8617896846e+01   1.4956076958e+01    0.1797067    0.1177129 -60.46 0.0004771387    2.339    0.573
       312  -8.8080    165.4797    143.9490   9.4284572801e+01   2.0829002433e+01     0.250803    0.2071574  76.10 0.0007482762    1.443    0.307
       313  -8.4234    229.0010    143.2053   8.2330643461e+01   8.1675451666e+00    0.2207472    0.1609976  21.06  0.001216658    1.340    0.254
       314  -9.7834      2.6474    141.6844   1.3035397429e+02   4.4705440790e+01    0.4241277    0.1617799  81.18  0.002151017    2.484    0.597
       315  -8.3117    181.9983    141.9374   9.0566857898e+01   1.7820363098e+01     0.210048    0.1720773  89.97 0.0005266723    1.663    0.399
       316  -8.4844    250.5458    140.7578   7.8350502160e+01   4.4105735906e+00    0.2340576    0.1176645 -23.15 0.0008941145    1.923    0.480
       317 -10.0784     23.4683    138.2513   1.2548829384e+02   4.3722733010e+01    0.4686901    0.2042178  70.30  0.002008186    2.500    0.600
       318  -8.5578     14.3431    140.3134   1.2770758882e+02   4.4074466770e+01    0.1050577   0.07392509 -54.69 0.0006024278    1.706    0.414
       319  -8.6908    172.1592    138.3745   9.1756972997e+01   2.0450731382e+01    0.2727122    0.2103993 -80.88  0.000852994    1.835    0.455
       320  -7.6273    218.5175    138.5553   8.3098614647e+01   1.0891784697e+01    0.1366476    0.1233251  12.21 0.0001811678    1.020    0.020
       321  -8.1873    207.3227    137.9955   8.4952627760e+01   1.3247343127e+01    0.1896343    0.1720133 -18.09 0.0005332926    1.115    0.103
       322  -8.7474    197.4093    137.5169   8.6664549044e+01   1.5363836844e+01    0.2690898    0.2283771 -67.30 0.0008980086    1.535    0.348
       323  -9.1057    151.0272    136.3189   9.5719408229e+01   2.5125955913e+01    0.4621876    0.2593526  26.47  0.001805507    2.781    0.640
       324 -10.5087     83.3033    133.2434   1.1070003800e+02   3.7752081811e+01    0.6106945    0.3394098 -65.02  0.001435792    1.719    0.418
       325  -8.8251     83.9176    123.2283   1.0882692723e+02   3.9851727407e+01    0.4843122    0.2864582  15.51  0.001919969    3.711    0.731
       326  -8.8333    162.3802    136.5557   9.3370722207e+01   2.2782794199e+01    0.2346816    0.2279495 -67.52  0.000881731    1.090    0.083
       327  -9.3189     39.2135    136.3070   1.2165854957e+02   4.2615438095e+01    0.2798941    0.1474164  71.64 0.0009342546    2.009    0.502
       328  -9.0832    248.3733    135.2144   7.7477773594e+01   5.5164560961e+00     0.358645     0.194641 -34.42 0.0007252466    1.818    0.450
       329  -9.1548    250.7340    130.0931   7.5981908617e+01   5.7260502090e+00    0.4460219     0.123907 -28.71  0.001558594    3.413    0.707
       330  -8.5942    246.8367    130.3742   7.6640276373e+01   6.4335581928e+00    0.1963237    0.1716652 -29.22 0.0007317574    1.246    0.197
       331  -8.8182     57.2874    135.4572   1.1727821638e+02   4.0766398882e+01    0.2072151    0.1234698  31.58  0.001127848    2.042    0.510
       332  -8.4989    237.4864    133.5788   7.8827890116e+01   7.8210260469e+00    0.2273861    0.1130034 -39.55 0.0008382717    2.159    0.537
       333  -7.5714    231.2580    133.9742   7.9929067082e+01   8.9937153667e+00    0.1676521     0.110392 -27.29  0.000459424    1.466    0.318
       334  -8.4742    179.6447    134.1196   8.9329046333e+01   1.9631803925e+01    0.2331332    0.1952013  67.24 0.0008185137    1.368    0.269
       335  -9.1473    112.8712    133.2279   1.0366526035e+02   3.2965199218e+01    0.3319791     0.233963  86.12 0.0009330502    1.768    0.434
       336  -9.0868    143.0720    131.7203   9.6478961863e+01   2.7595039484e+01    0.3401501    0.2492877  83.56 0.0009718337    1.835    0.455
       337 -10.4467     98.1968    130.3225   1.0660366500e+02   3.6068547037e+01    0.6197093    0.2763977 -59.87  0.001826221    2.254    0.556
       338  -8.5258     98.4060    121.3789   1.0485105958e+02   3.7966578530e+01    0.3007788    0.1938483 -27.77  0.001091681    2.603    0.616
       339  -8.0410    204.7595    130.8018   8.3801668147e+01   1.4886580467e+01    0.1824117    0.1671895 -66.31 0.0006092356    1.345    0.257
       340  -9.7470    152.9864    129.3582   9.3798570435e+01   2.6045879945e+01    0.4564855    0.2255395 -51.51 0.0008708774    2.265    0.558
       341 -10.0985     12.7787    129.3377   1.2717076457e+02   4.6533533441e+01    0.4405021    0.1944798  70.77  0.002014688    2.334    0.572
       342  -8.0991    220.5918    129.7825   8.0772553999e+01   1.1745127934e+01    0.1835404    0.1254141 -38.79 0.0003704379    1.537    0.349
       343  -8.2160    192.6926    130.2011   8.5909956598e+01   1.7533268606e+01    0.2121177      0.17469 -53.62 0.0005836611    1.415    0.293
       344  -9.3785    168.4367    129.4284   9.0546904130e+01   2.2814596748e+01    0.3233821    0.2553893 -76.45 0.0008151609    1.666    0.400
       345  -8.4432     25.5094    130.2442   1.2425385870e+02   4.5262005362e+01    0.2020531    0.1038792   9.72 0.0009003999    4.445    0.775
       346  -8.1627      1.7012    130.3592   1.2980291004e+02   4.7139795449e+01    0.1792782   0.09195451  67.50  0.001094224    1.744    0.427
       347  -8.0773    211.4307    129.2011   8.2236108026e+01   1.3733545706e+01    0.1910342    0.1271807 -43.48 0.0005528185    1.657    0.396
       348 -10.7820     44.8074    123.4268   1.1873809062e+02   4.4852448335e+01     1.066595    0.4709153  78.48  0.003994236    3.992    0.750
       349 -10.6179     60.0490    125.1205   1.1514521631e+02   4.2705105416e+01    0.6598884    0.3422188  77.22  0.002645519    2.779    0.640
       350 -10.1132    117.9247    124.9935   1.0083139241e+02   3.3778830204e+01    0.5488024      0.37392 -78.48  0.001451731    1.867    0.465
       351  -7.8841    228.4029    125.2884   7.8424091090e+01   1.0788053751e+01    0.1884983    0.1225471 -37.62 0.0007106604    1.577    0.366
       352  -8.8976    179.2136    124.8080   8.7292942969e+01   2.1333508291e+01    0.2760183    0.2402299 -79.07 0.0007523766    1.409    0.290
       353 -10.2555     28.4940    122.5576   1.2271412133e+02   4.6673533931e+01    0.7360942    0.3110502  76.13  0.002619731    3.324    0.699
       354  -8.8079     26.0366    114.7264   1.2243606741e+02   4.8630626159e+01    0.2369964    0.1423371 -37.93  0.001306612    2.431    0.589
       355  -7.7021    188.5167    124.0185   8.5276610290e+01   1.9456189612e+01    0.2042834    0.1405883 -37.06 0.0004571197    1.475    0.322
       356  -7.8369    202.6307    121.8231   8.2097462859e+01   1.6755966248e+01     0.198822    0.1287718 -42.39 0.0003472644    1.632    0.387
       357  -8.0913    194.9902    122.0683   8.3577112741e+01   1.8374650221e+01    0.2176377    0.1775057 -72.36 0.0005746848    1.644    0.392
       358  -8.7552    171.9091    121.6485   8.8031921795e+01   2.3472277085e+01    0.2638134    0.2072316 -49.67 0.0004113326    1.361    0.265
       359  -9.2098    158.4821    121.0435   9.0718176183e+01   2.6469526377e+01    0.4104033    0.2535719 -41.37  0.001575175    1.653    0.395
       360  -9.7325     71.3297    120.2451   1.1149949942e+02   4.2320497669e+01    0.3409452    0.2156558  85.89 0.0008964075    1.867    0.465
       361 -10.1921    141.6872    117.9682   9.3725134821e+01   3.0583761522e+01    0.6811053    0.3629585 -45.50  0.001277355    1.891    0.471
       362  -8.7534    185.1651    117.2354   8.4304658567e+01   2.1342460372e+01    0.4487832    0.2815794 -10.09  0.001836321    2.360    0.576
       363  -9.9323      2.8165    117.4532   1.2855992522e+02   4.9821442227e+01    0.4315936    0.1999555  77.24  0.002298373    2.052    0.513
       364  -7.5825    231.5191    117.5574   7.6102115135e+01   1.1242684173e+01    0.1379626    0.1270994  -6.50 9.098229e-05    1.064    0.060
       365 -10.0828    109.3303    114.5263   1.0069331084e+02   3.7561399690e+01    0.5459242     0.338888 -75.20  0.001432496    2.177    0.541
       366  -9.4579    109.5067    107.7759   9.9126128358e+01   3.8981644423e+01    0.5458099    0.3016886  23.46   0.00197412    3.480    0.713
       367  -8.9560     59.0501    115.3781   1.1387794224e+02   4.5010550230e+01    0.2782155    0.1969731  -9.29  0.001277498    2.602    0.616
       368  -8.1430    193.0205    115.3261   8.2319668024e+01   1.9923182020e+01    0.1962938    0.1896259  34.07 0.0004241861    1.068    0.063
       369  -7.9760    153.2876    115.6683   9.0573103998e+01   2.8600157722e+01    0.1472499    0.1159934 -81.07 0.0003105717    1.622    0.383
       370 -10.3491     92.7751    111.5288   1.0427895983e+02   4.1051589440e+01    0.8492731     0.333476 -56.07  0.002396761    2.413    0.586
       371 -10.1275     78.8328    112.3622   1.0811003971e+02   4.3021964566e+01     0.604278     0.343166 -86.34   0.00256023    2.615    0.618
       372  -8.7585     78.3484    105.3297   1.0683642775e+02   4.4671415058e+01     0.285868    0.2107369 -24.35  0.001204743    1.975    0.494
       373  -8.0011    167.4733    114.5085   8.7231819763e+01   2.5737363091e+01    0.1447543    0.1436405  43.89 7.393429e-05    1.029    0.029
       374 -10.0348    121.9473    112.4371   9.7100460100e+01   3.5654759479e+01    0.4112704    0.2889306 -79.34 0.0007621043    1.872    0.466
       375  -9.9360    133.6750    109.4358   9.3556904075e+01   3.3945183592e+01    0.6829522    0.2929274 -50.71  0.001914521    2.442    0.590
       376  -9.7746    128.6626    102.3201   9.2994862091e+01   3.6427049456e+01    0.3882537    0.2884291  82.93  0.001423379    1.785    0.440
       377  -8.9088    131.5510     96.3927   9.0742753499e+01   3.7043048011e+01    0.4553764    0.2835276  11.66  0.001545299    3.681    0.728
       378  -8.7584    174.4971    111.8767   8.5120624121e+01   2.4655445355e+01     0.261083    0.2232118 -80.32  0.000545583    1.430    0.301
       379  -8.6340    159.3854    111.8599   8.8305168666e+01   2.8006246517e+01    0.2633689     0.224913 -86.08 0.0005881099    1.391    0.281
       380 -10.3419     66.4174    109.6555   1.1092082013e+02   4.5361734495e+01    0.6116017    0.2954014 -64.35  0.002308751    1.878    0.467
       381  -9.8832     14.1156    110.9894   1.2510964692e+02   5.0432266893e+01    0.3785529    0.1859681  72.51  0.001538234    2.172    0.540
       382  -7.7613    183.2029    109.8859   8.2866918336e+01   2.3048529747e+01    0.1981405    0.1154482 -37.97  0.000848142    1.710    0.415
       383 -11.2169    248.5315    105.1492   7.0518357603e+01   9.4366337748e+00    0.8428578    0.3037949 -31.31  0.003288264    2.453    0.592
       384  -8.4542    189.2734    107.6937   8.1125553370e+01   2.2047631217e+01    0.2762863    0.1652925 -43.80 0.0006828712    1.740    0.425
       385  -9.8059    120.8654    104.6938   9.5518484064e+01   3.7490421556e+01    0.4959504    0.3361818  -1.04  0.001355961    2.986    0.665
       386  -9.4600    139.9162    104.7788   9.0920456768e+01   3.3586837355e+01    0.3573532     0.275628  87.97 0.0008090544    1.682    0.406
       387 -10.5766     45.6499    102.5123   1.1540230181e+02   4.9477152417e+01    0.7051305    0.3578407  76.31  0.002974774    3.105    0.678
       388 -10.6852     22.9309    102.7735   1.2178773113e+02   5.1571678542e+01    0.7241334    0.3307204  73.89  0.002858361    2.971    0.663
       389  -8.6697    166.8039    104.4929   8.4839597058e+01   2.7726162838e+01    0.2862296    0.2098201 -48.90 0.0007936655    1.429    0.300
       390  -9.5988    150.5334    103.0038   8.8014821123e+01   3.1643384318e+01     0.520249    0.2840567 -55.76  0.001630862    2.266    0.559
       391  -9.1590      6.7071    102.9489   1.2623128357e+02   5.2734844185e+01    0.2854054    0.1456386  66.93  0.001215041    2.054    0.513
       392 -10.6522    108.8550     98.8833   9.7156735591e+01   4.1015065303e+01    0.8684039    0.4610433  66.01  0.001169118    3.376    0.704
       393  -9.0399    107.5211     92.8265   9.5965961916e+01   4.2562635801e+01    0.5802687    0.3432253  20.48  0.002179353    3.180    0.686
       394  -7.6855    175.5429    102.4720   8.2494349347e+01   2.6097129319e+01    0.1479746    0.1455354 -53.55  0.000144109    1.064    0.060
       395  -9.4084     82.0210    100.1475   1.0471909107e+02   4.5283696410e+01    0.3558391    0.2389445 -80.96 0.0009125061    1.765    0.433
       396  -8.2060    159.7325    101.1174   8.5474333623e+01   2.9952290486e+01    0.2391271    0.1783476 -56.29 0.0005195678    1.489    0.328
       397 -10.3287     63.9608     96.6778   1.0909116529e+02   4.8627764353e+01    0.7180742    0.3792519 -76.73  0.002205104    2.338    0.572
       398  -8.9292     65.8187     87.3805   1.0652588187e+02   5.0487859907e+01    0.5130364    0.2561786  17.21  0.001826086    4.559    0.781
       399  -9.2512     95.1023     97.2185   1.0043503444e+02   4.3822754773e+01    0.3228313    0.2252271 -66.57 0.0007097523    1.480    0.324
       400  -7.9243    123.3118     97.6637   9.3125316161e+01   3.8475163138e+01    0.1512724    0.1150913 -84.47 0.0004792863    1.686    0.407
       401  -9.0393    170.1774     96.0275   8.1877928334e+01   2.8492506048e+01    0.2420835    0.2133406  44.87 0.0002593477    1.140    0.123
       402  -8.2877    164.9416     94.3292   8.2517928863e+01   3.0018099262e+01    0.2075786    0.1974591  49.34  0.000403304    1.067    0.063
       403 -10.2927    123.9213     91.5732   9.1346453623e+01   3.9611859269e+01    0.6121004    0.4571362  36.87  0.001806493    1.465    0.317
       404  -7.6050    188.4961     93.5294   7.7543361380e+01   2.4620814158e+01    0.1497366    0.1455692 -14.00 6.841183e-05    1.024    0.024
       405  -7.9627    176.4926     93.0640   7.9771138597e+01   2.7538955269e+01    0.2311351    0.1468926 -37.04  0.001013849    1.544    0.353
       406  -9.2837    138.8907     92.2167   8.7829630751e+01   3.6310723549e+01    0.3578646    0.2635122 -74.22 0.0007405462    1.794    0.443
       407  -8.5862     46.3676     92.6722   1.1345907863e+02   5.1642633151e+01    0.3018683    0.1867854  11.16  0.001528722    2.631    0.620
       408  -9.6561      5.4644     92.3087   1.2542557805e+02   5.5174532853e+01     0.317356     0.172481  65.85  0.001287611    1.980    0.495
       409  -9.1566     43.3506    109.5301   1.1715006269e+02   4.8129023359e+01    0.2660415    0.1290448  27.66  0.001309263    2.657    0.624
       410  -8.1220    157.8376     91.8280   8.3365951177e+01   3.2124694559e+01    0.2070214    0.1774743 -69.08 0.0003611738    1.322    0.243
       411  -9.8410     34.8015     89.8223   1.1641065329e+02   5.3463047808e+01    0.4486902    0.2288475 -86.41  0.001603763    2.343    0.573
       412  -8.9765    226.0221     88.6524   6.9762127416e+01   1.6612543800e+01    0.2541513    0.1971741 -31.54 0.0004457837    1.213    0.176
       413  -8.2617    151.1350     89.2058   8.4128816821e+01   3.4157427106e+01    0.2135318    0.1783111 -68.94 0.0004624549    1.372    0.271
       414 -10.1613     86.3051     86.0777   1.0013633392e+02   4.7738253911e+01    0.6093896     0.356602 -62.20  0.002011417    1.768    0.434
       415  -9.8349     48.6448     83.7522   1.1099438818e+02   5.3423088990e+01    0.6318452    0.3553676 -74.74  0.002148044    1.837    0.456
       416  -8.0653    179.3602     86.1138   7.7258054273e+01   2.8061072061e+01    0.2266681    0.1321196 -44.72 0.0007221327    1.770    0.435
       417  -9.8359    104.8593     83.2587   9.4100917847e+01   4.5098668760e+01    0.4901356    0.3213266 -70.80  0.001160474    2.046    0.511
       418  -8.9883    105.3343     77.3056   9.2253879937e+01   4.6258617322e+01    0.3988449    0.2313389  28.52  0.001636613    2.425    0.588
       419  -8.4397    157.8748     84.1143   8.1160416356e+01   3.3543968985e+01    0.2260965    0.2028907 -61.90 0.0003597253    1.191    0.161
       420  -9.3795    140.8329     82.4916   8.4588449986e+01   3.7780662098e+01    0.3721863    0.2080758 -46.38 0.0008190311    1.792    0.442
       421  -9.0774     23.1625     90.1584   1.1995913197e+02   5.4401061960e+01    0.2584891    0.2075859  21.98  0.001450546    1.638    0.389
       422  -7.6181    185.3001     82.6447   7.5121233206e+01   2.7209969521e+01    0.1593397    0.1174677 -63.58 0.0007037151    1.704    0.413
       423  -9.7121     24.3102     80.2582   1.1800985435e+02   5.6549907314e+01    0.4430009    0.2384329  87.07  0.001498501    2.249    0.555
       424  -9.5222      9.9046     81.0992   1.2267894207e+02   5.7398747170e+01    0.3387774    0.1642649  61.84  0.001349243    2.608    0.617
       425  -8.4426    150.1682     80.7190   8.1886310519e+01   3.5976537004e+01    0.2635186    0.2022148 -50.95 0.0007376389    1.352    0.260
       426  -9.0399    119.2215     79.8979   8.9245584583e+01   4.2967007534e+01    0.4160088    0.2286842 -48.81  0.001290079    1.790    0.441
       427  -8.9011     74.5352     80.4621   1.0219254054e+02   5.0806283852e+01    0.3217459    0.2035834 -71.78  0.001114856    1.847    0.458
       428  -8.3015    166.8070     79.8417   7.7993465626e+01   3.2180812748e+01    0.2262157    0.2048729   4.58 0.0004296571    1.165    0.142
       429 -10.1184     63.6186     74.3490   1.0402629195e+02   5.3701681598e+01      0.72829    0.3051634 -66.43  0.002639982    3.242    0.692
       430  -9.0141     64.7236     63.5056   1.0065404130e+02   5.5922156382e+01    0.5363593    0.2909005 -23.41  0.002003314    3.669    0.727
       431  -8.0960    184.3463     78.1762   7.4015940416e+01   2.8183686433e+01    0.2253678    0.1322489 -41.57 0.0006237725    1.693    0.409
       432  -9.7095    128.1260     74.7830   8.5392890963e+01   4.2094851440e+01    0.5776346    0.2438792 -44.08  0.001559087    2.291    0.564
       433  -7.7890    157.4223     76.4844   7.8995560630e+01   3.5036308492e+01    0.1529958    0.1473624 -38.69 0.0001870029    1.029    0.028
       434  -8.8493    140.5039     75.4535   8.2549201230e+01   3.9196473076e+01    0.2872694    0.2071562 -46.36    0.0006201    1.380    0.275
       435  -9.7997     82.3599     72.6371   9.7644994286e+01   5.1304880613e+01    0.4731199    0.2756657 -65.09  0.001281922    2.076    0.518
       436  -8.6886     83.5462     65.3039   9.5072489032e+01   5.2666508179e+01    0.3857794    0.2291984   4.99  0.001268301    4.656    0.785
       437  -8.3237    163.5487     73.3083   7.6715508512e+01   3.4115312706e+01    0.3049845    0.1387176 -40.52  0.001118199    2.140    0.533
       438  -8.4289    151.3637     73.2422   7.9347683966e+01   3.7067020704e+01    0.2293724      0.13552 -45.22 0.0006889845    1.714    0.416
       439  -8.9905    115.5851     72.4836   8.7966601432e+01   4.5208889732e+01     0.377571    0.2074047 -45.93  0.001174202    1.742    0.426
       440  -9.1295    105.9332     71.9317   9.0461848311e+01   4.7251340328e+01    0.3273891    0.1991455 -52.64 0.0006873547    1.659    0.397
       441  -9.3940     95.0287     71.0463   9.3342892869e+01   4.9476056271e+01    0.4078819    0.2438289 -62.40 0.0008845813    2.050    0.512
       442  -8.3066     42.6122     72.8874   1.1055823295e+02   5.6530659245e+01    0.2489583    0.1418477 -74.89 0.0007875147    1.854    0.460
       443  -9.1030     28.8718     70.7807   1.1472602033e+02   5.8309736786e+01    0.4601504    0.2151355 -29.89  0.001891533    3.866    0.741
       444  -7.5072    175.4946     72.5483   7.4056938485e+01   3.1302977545e+01    0.1536098    0.1483486  -0.56 5.483326e-05    1.028    0.027
       445  -9.5013     51.4880     69.8437   1.0685341507e+02   5.6227739919e+01    0.4654959    0.2411751 -74.59  0.001524221    2.615    0.618
       446  -9.0606     16.5015     69.8241   1.1874159226e+02   5.9486127009e+01    0.3107901     0.171402 -86.36  0.001150267    1.898    0.473
       447  -7.7991    170.3850     70.2510   7.4374003647e+01   3.2954789418e+01    0.2241418    0.1371458 -42.62 0.0009410332    1.633    0.388
       448  -8.1842    157.0033     69.9740   7.7084322882e+01   3.6291741463e+01     0.194114    0.1689114 -32.68 0.0004991642    1.122    0.109
       449  -8.8417    147.0762     68.3478   7.8785250958e+01   3.8968302130e+01    0.2951159    0.2133046 -45.70 0.0004699771    1.392    0.281
       450  -8.6133    138.6964     66.3089   8.0093804496e+01   4.1308705653e+01    0.2792951    0.1758635 -48.21 0.0006176418    1.654    0.395
       451  -8.8483    121.5263     66.0577   8.4329574405e+01   4.5212506717e+01    0.2955867    0.2270461 -61.58 0.0007221507    1.494    0.331
       452  -8.7138     37.3300     64.2512   1.1033798466e+02   5.8994138399e+01    0.3095086     0.185544 -84.78  0.001093737    2.186    0.543
       453  -9.1024    110.1211     63.6304   8.6626374045e+01   4.8075739735e+01    0.3241636     0.241697 -60.95 0.0007099077    1.537    0.349
       454  -7.4450    187.4882     63.4777   6.9069471486e+01   2.9749768791e+01    0.1528388    0.1476039 -33.18  0.000810003    1.027    0.026
       455  -8.1025    158.2459     61.9685   7.4271408486e+01   3.7359261913e+01     0.216854    0.1930228 -30.94 0.0003123165    1.096    0.087
       456  -9.5187     97.9210     59.8519   8.8888162127e+01   5.1217572118e+01    0.4883524    0.3047075 -35.86  0.001694999    1.554    0.357
       457  -9.8806     73.3091     58.7597   9.6309804810e+01   5.5671276694e+01    0.7061638    0.2368528 -49.87  0.001495669    2.670    0.625
       458  -8.2196     88.9897     59.5007   9.1494802176e+01   5.2924726386e+01    0.2360668    0.1672919 -44.51 0.0008329066    1.281    0.220
       459  -8.2687    146.8359     58.8505   7.5740391272e+01   4.0688311220e+01    0.2141782     0.177977 -58.87 0.0006115162    1.330    0.248
       460  -9.9369     23.4171     56.5895   1.1355944324e+02   6.1915684065e+01    0.4347919    0.2445382 -89.21  0.002049585    2.495    0.599
       461  -8.5739    130.8178     58.0528   7.9266700654e+01   4.4619086119e+01    0.2356983    0.1987834 -62.29 0.0006877973    1.334    0.250
       462  -9.6142      7.4123     57.2375   1.1964393282e+02   6.2859761555e+01    0.2738553    0.1708236 -88.51 0.0009696352    1.637    0.389
       463  -9.5699    119.2031     55.5431   8.1384710343e+01   4.7678789125e+01    0.4703075    0.2438801 -48.48   0.00148281    2.082    0.520
       464  -9.5600     54.3076     55.6992   1.0192820030e+02   5.8968924430e+01    0.3505492     0.208962 -65.20  0.001169054    1.824    0.452
       465  -8.7258    139.9251     56.1826   7.6427395424e+01   4.2809520587e+01    0.2302072    0.2020494 -60.73 0.0004260856    1.247    0.198
       466  -8.8377     44.2056     55.7363   1.0561080762e+02   6.0147986505e+01    0.2420467    0.1938735 -77.91 0.0007070513    1.374    0.272
       467  -8.9185    127.4790     54.4549   7.8857190864e+01   4.6020998555e+01    0.3350267    0.2193678 -30.30  0.001310216    1.513    0.339
       468  -8.5985    105.7760     53.3934   8.4339283270e+01   5.0912976825e+01    0.2766255    0.2203356 -64.62  0.000799505    1.506    0.336
       469  -9.4827     92.4024     50.5203   8.7303941077e+01   5.4063847973e+01    0.4752999    0.2238378 -51.18  0.001250918    2.369    0.578
       470  -8.7937     92.7739     42.9089   8.4337225032e+01   5.5400916690e+01    0.4038997    0.2126557 -24.24   0.00143997    2.399    0.583
       471  -8.4881    144.5807     49.0116   7.2877331045e+01   4.2870191859e+01    0.2353664      0.14442 -33.26 0.0004700745    1.576    0.365
       472  -8.1997    129.6836     49.1051   7.6405326822e+01   4.6431785967e+01    0.2405549     0.175267 -45.83 0.0005432747    1.407    0.289
       473  -8.8238    120.9202     47.5588   7.8064157546e+01   4.8703887132e+01    0.2745034    0.2039326 -41.73 0.0005522271    1.322    0.243
       474  -9.4618     82.0031     46.1524   8.9030656114e+01   5.6765954311e+01    0.4177486    0.1981478 -46.85  0.001431939    1.994    0.498
       475  -8.5379     45.0025     44.5566   1.0185548175e+02   6.2422085394e+01    0.2370698    0.1565664 -62.59  0.000647434    1.539    0.350
       476  -9.0890     16.7704     44.9186   1.1328771250e+02   6.4947380971e+01    0.2145399    0.1415786 -78.07 0.0008243863    1.568    0.362
       477  -8.9399    132.9093     43.6089   7.3622398036e+01   4.6568824852e+01    0.2937954    0.2081273 -40.55 0.0005846299    1.401    0.286
       478  -9.2502     58.2269     42.6070   9.6110041117e+01   6.1152270929e+01    0.3174478    0.2066798 -66.30  0.001091304    2.032    0.508
       479  -8.1204     32.7805     44.3898   1.0664645304e+02   6.3737681613e+01    0.1556219    0.1140335  -3.13 0.0007532233    1.733    0.423
       480  -7.8265    101.6686     43.2936   8.1792207967e+01   5.3575651978e+01      0.14064    0.1139306 -72.41 0.0005332053    1.634    0.388
       481  -9.4330     69.7975     41.1807   9.1342137792e+01   5.9728081194e+01    0.5648808    0.2711822 -46.86  0.001648456    1.896    0.473
       482  -9.3872      5.2619     42.2485   1.1736921804e+02   6.6237012520e+01    0.2781473    0.1657046 -84.07  0.001012068    1.804    0.446
       483  -8.5592    106.0043     41.4966   7.9840964544e+01   5.2988380793e+01     0.270813    0.1864484 -47.06 0.0005329051    1.516    0.340
       484  -8.8154    221.9710     40.1974   5.6966833826e+01   2.4245507444e+01    0.3272995    0.2048635 -19.76  0.001240553    1.613    0.380
       485  -8.1496    140.4050     41.4774   7.1112595151e+01   4.5080096561e+01    0.1503692    0.1429636 -13.71  0.000802424    1.018    0.017
       486  -8.4158    112.2050     46.9532   8.0176382748e+01   5.0728157821e+01    0.2210658    0.1890793 -50.74 0.0005136751    1.235    0.190
       487  -8.5861     36.7853     40.8661   1.0390498786e+02   6.4076480789e+01    0.2255581    0.1553559 -69.70 0.0008660809    1.641    0.391
       488  -7.4150    155.6983     39.6484   6.7235024661e+01   4.1497165569e+01    0.1618341    0.1148178  20.26  0.000703891    1.699    0.411
       489  -8.7673     95.4570     37.9931   8.1572923115e+01   5.5740465666e+01    0.3073653    0.1741342 -48.77 0.0008161145    1.956    0.489
       490  -8.1810     80.4680     36.7702   8.5895119753e+01   5.8762310955e+01     0.262279    0.1211819 -44.24 0.0007123574    2.047    0.511
       491  -9.5385     26.1989     35.6577   1.0662591185e+02   6.6154444113e+01    0.2812546    0.1947255 -71.08 0.0008913756    1.592    0.372
       492  -7.6300    133.5213     36.4711   7.0811580967e+01   4.7520565086e+01    0.1485071    0.1433576 -19.80 0.0008092599    1.040    0.039
       493  -8.2515    126.0792     35.8644   7.2341437151e+01   4.9396525673e+01    0.2212238    0.1963197 -59.13 0.0004080149    1.270    0.213
       494  -9.4017    111.8702     33.9132   7.5208148217e+01   5.2954804888e+01    0.4494983    0.1878816 -33.87  0.001247623    2.243    0.554
       495  -9.0923     48.6041     33.5880   9.6460498540e+01   6.4181260514e+01    0.2324367    0.1886117 -51.91 0.0006315333    1.224    0.183
       496  -8.9952    119.0462     32.5643   7.2789993662e+01   5.1535894049e+01    0.4450564     0.167686 -31.62   0.00110382    2.518    0.603
       497  -8.8212     60.7248     32.5852   9.1280113294e+01   6.2715631794e+01    0.2476198    0.1854357 -50.06  0.000648352    1.346    0.257
       498  -9.0272     72.2530     31.4659   8.6547915272e+01   6.1107504698e+01    0.2446613    0.1923496 -55.06 0.0006487226    1.484    0.326
       499  -7.6959    139.2760     31.6389   6.7693228570e+01   4.6797208043e+01    0.1554896    0.1112964 -56.04 0.0005891984    1.662    0.398
       500  -9.0967    175.6160    247.7910   1.0845503387e+02   4.1553010056e+00    0.2356482    0.1831226  75.94  0.001107379    1.875    0.467
       501  -7.7558     42.3206     30.2742   9.7758457689e+01   6.5581546832e+01    0.1250547   0.08456469 -22.62 0.0002298063    1.573    0.364
       502  -8.9713     81.4430     27.4614   8.1635798037e+01   6.0171838512e+01     0.301235    0.2075761 -49.19 0.0007623296    1.636    0.389
       503  -8.6310      3.4733     27.7900   1.1444974580e+02   6.9372786844e+01    0.2112336    0.1350219 -81.06 0.0008438346    1.766    0.434
       504  -7.7920     88.5350     34.5098   8.2317913713e+01   5.7676592556e+01    0.1405209    0.1260101 -21.66  9.18233e-05    1.013    0.013
       505  -8.9152     91.8573     26.6033   7.7908372077e+01   5.8309957627e+01    0.2678133    0.1856202 -39.79 0.0007474862    1.424    0.298
       506  -7.6982    145.5164     25.5174   6.4080469396e+01   4.6033917982e+01    0.1469901    0.1441986  -6.41 0.0001312013    1.034    0.033
       507  -8.3972    104.4784     22.9923   7.2646320568e+01   5.6199452447e+01    0.2137346    0.1330367 -26.60 0.0004358188    1.528    0.346
       508  -8.9701     63.6515     21.2303   8.5179187241e+01   6.4243578759e+01    0.2692996    0.1919984 -53.14 0.0008560185    1.725    0.420
       509  -8.8897     48.4771     21.7425   9.1526455345e+01   6.6380997181e+01    0.2262323    0.1781898 -46.00 0.0005974811    1.278    0.218
       510  -8.9363    101.6568     29.5720   7.6261478629e+01   5.5838398693e+01     0.233295    0.1617296 -49.08 0.0006653254    1.643    0.391
       511  -8.1469     19.6736     21.3774   1.0452064492e+02   6.9561008016e+01    0.1569647    0.1318696 -85.73  0.000602388    1.640    0.390
       512  -7.9514    127.0000     19.9624   6.5770873358e+01   5.1373630771e+01    0.2376624   0.08096287 -25.70 0.0005936712    2.887    0.654
       513  -8.8063     73.9898     19.3562   8.0504117982e+01   6.2795484643e+01    0.2854593    0.1658749 -44.94  0.001016521    1.861    0.463
       514  -8.0961     87.8489     17.8261   7.5186811861e+01   6.0403720696e+01    0.1775755    0.1544425 -42.13 0.0004058664    1.286    0.223
       515  -8.8055    156.6252    248.2878   1.1149572566e+02   6.8843514394e+00     0.187046    0.1551616  85.07 0.0008397011    1.588    0.370
       516  -7.9465    112.8053     16.8254   6.7777547690e+01   5.5142804790e+01    0.1872996     0.162371 -45.28 0.0003998406    1.281    0.220
       517  -8.0186     30.0149     16.0558   9.7272229318e+01   6.9590045723e+01    0.1672606    0.1421258 -74.09 0.0007189307    1.688    0.407
       518  -8.0413      7.5095     15.5243   1.0839373322e+02   7.1591310157e+01    0.1127656   0.08866394 -51.51 -2.143138e-05    1.119    0.107
       519  -8.2216     17.0368     14.3145   1.0296166934e+02   7.1122492006e+01    0.1554286    0.1293969 -32.11 0.0004716739    1.118    0.105
       520  -7.7219    119.7089     11.3442   6.3765485469e+01   5.4161863417e+01    0.1447617    0.1062961 -53.83  0.000702675    1.657    0.396
       521  -8.8082    132.2475    248.0782   1.1532607561e+02   1.0424190120e+01    0.2096561    0.1426679  71.23 0.0006885851    1.661    0.398
       522  -8.1317    113.1347    248.8000   1.1840150485e+02   1.2995908319e+01    0.1552977    0.1088193 -85.39  0.001005139    1.729    0.422
       523  -9.2090    103.8655    247.0681   1.1971513438e+02   1.4484182369e+01    0.3236997    0.1671257 -86.26  0.001917899    3.008    0.668
       524  -8.6207    218.5723    247.3141   1.0177055624e+02  -2.0588195402e+00    0.2210073    0.1002347 -30.55  0.001364676    2.821    0.646
       525  -9.9853    224.0689    243.9193   1.0049411775e+02  -2.5364729359e+00    0.3362997     0.216492 -31.27  0.002199807    1.993    0.498
       526  -9.3470    210.7673    246.1818   1.0281173463e+02  -8.3030891144e-01    0.1849124    0.1668431  51.86 0.0009114871    1.514    0.340
       527  -9.3771    147.0312    246.0369   1.1278189909e+02   8.5517919967e+00    0.2483273    0.1574256  69.62  0.001228744    2.065    0.516
       528  -8.7302     67.9816    245.8909   1.2520971783e+02   1.9230498909e+01    0.2557477    0.1133691  77.14  0.001487838    2.776    0.640
       529  -9.4707     10.9854    245.6886   1.3362800186e+02   2.5401734767e+01    0.3723496    0.1046634  66.37  0.002137261    2.904    0.656
       530  -8.5340    139.4966    244.9518   1.1387318272e+02   9.7795364098e+00    0.1300835   0.08263707  82.25 0.0008079113    2.465    0.594
