#   1 NUMBER                 Running object number                                     
#   2 MAG_AUTO               Kron-like elliptical aperture magnitude                    [mag]
#   3 X_IMAGE                Object position along x                                    [pixel]
#   4 Y_IMAGE                Object position along y                                    [pixel]
#   5 X_WORLD                Barycenter position along world x axis                     [deg]
#   6 Y_WORLD                Barycenter position along world y axis                     [deg]
#   7 A_WORLD                Profile RMS along major axis (world units)                 [deg]
#   8 B_WORLD                Profile RMS along minor axis (world units)                 [deg]
#   9 THETA_WORLD            Position angle (CCW/world-x)                               [deg]
#  10 FWHM_WORLD             FWHM assuming a gaussian core                              [deg]
#  11 ELONGATION             A_IMAGE/B_IMAGE                                           
#  12 ELLIPTICITY            1 - B_IMAGE/A_IMAGE                                       
         1 -11.8255    247.5139     56.8743   3.6768197298e+01   1.8742212981e+01       1.1908      0.78115 -45.71  0.007389051    1.297    0.229
         2 -13.1469    243.2875     17.9290   2.9648284399e+01   2.4548012047e+01     1.830664     1.138513 -29.61   0.01134436    2.012    0.503
         3 -11.5048    224.8143      3.1489   2.8096884904e+01   2.9806296109e+01     1.388704    0.3453645  75.36  0.005721591    3.692    0.729
         4 -10.9214    147.4229     15.3334   3.8737390950e+01   4.5763192713e+01     0.430854    0.2794155  81.37  0.002380908    1.473    0.321
         5 -11.1623     18.1191     12.4309   7.6943155477e+01   7.1359842788e+01    0.5320634    0.2449233  40.94  0.002700217    2.895    0.655
         6 -11.7777    218.7371     27.7790   3.3558347824e+01   2.8299874274e+01    0.6806228     0.464885 -71.46  0.002770426    1.277    0.217
         7  -9.6710     74.1388     10.1096   5.2374351265e+01   6.2604761827e+01    0.2008059    0.1431516  30.54  0.001155966    1.249    0.199
         8  -7.7352    161.3597      8.6899   3.5083549759e+01   4.3150349925e+01    0.1331214   0.08154625 -72.20 0.0005103261    1.740    0.425
         9  -9.2250    221.1383     12.6693   3.0249105064e+01   2.9544218569e+01    0.2548817    0.1254877 -81.83  0.001339597    2.055    0.513
        10  -9.5156    184.8129      3.7643   3.1394669497e+01   3.8273493228e+01    0.3642914    0.1626456 -41.72   0.00190207    2.153    0.536
        11 -10.5007     47.7878      2.3846   5.7922525475e+01   6.8214885124e+01    0.3433035    0.1803094  47.81  0.001940937    1.736    0.424
        12  -9.3476    148.6788      2.2733   3.4918825543e+01   4.6660594911e+01    0.2369197     0.130347  84.16  0.001233438    1.756    0.430
        13  -9.3794     35.0010      1.7568   6.3008578752e+01   7.0353186242e+01    0.1681725    0.1238874  23.96  0.001058103    1.091    0.083
        14 -10.4199    227.5637    180.1755   6.4562747996e+01   1.6001628829e+00    0.7163858    0.3901276 -60.10  0.002728151    3.832    0.739
        15 -11.7687    224.8398    240.6743   7.5923925982e+01  -7.7670090801e+00     1.254028    0.6160397 -34.71  0.006823583    1.911    0.477
        16 -11.2902    235.5118    243.4448   7.4455577008e+01  -9.4428876702e+00    0.7943163    0.3310973 -22.52  0.003572148    2.970    0.663
        17 -12.6266    226.8660    218.4107   7.1766881606e+01  -4.6671271564e+00     1.976883    0.8297019 -48.63   0.00835925    3.213    0.689
        18 -11.5306    197.2043    246.7198   8.2134693608e+01  -5.1020297912e+00     2.939722     0.397615 -40.69  0.008035267    7.632    0.869
        19 -12.0279    186.1666    245.8536   8.4184024362e+01  -3.4648717651e+00     3.047069    0.7990977 -37.47   0.01046312    4.680    0.786
        20  -9.7084    151.0313    249.7463   9.1986607541e+01   9.0320885022e-01    0.2193522    0.1562904 -26.90  0.001265845    1.609    0.378
        21 -10.1542    142.9605    249.9902   9.3720528159e+01   2.0374858413e+00    0.3343748    0.1590044  23.18  0.001462114    2.378    0.580
        22 -11.7226    130.3651    235.0051   9.4375485204e+01   6.6705554620e+00    0.4835679    0.2925768 -62.53  0.002411981    2.072    0.517
        23 -10.3824    231.7562    189.6397   6.5636162849e+01  -6.4455080404e-01    0.5830204    0.2873239 -44.04   0.00281321    1.947    0.486
        24 -11.5022    191.0242    242.2353   8.2646591810e+01  -3.5640235792e+00     1.095132    0.3891785 -44.30  0.004696762    3.029    0.670
        25  -8.4720    176.1940    197.0229   7.7937779269e+01   6.7445678570e+00    0.1922624    0.1065489 -43.86 0.0008619614    1.797    0.443
        26 -10.9413    211.7482    171.5198   6.5728654613e+01   5.6751987567e+00    0.7593893    0.4680373 -59.68  0.003406502    2.357    0.576
        27 -10.7721    206.1530    163.5891   6.5166981034e+01   8.1226994987e+00    0.4651639    0.4521883  11.21  0.002850648    1.147    0.128
        28  -9.8205    192.9521    139.8766   6.2628655156e+01   1.5201993083e+01    0.5355827     0.313683  65.39  0.002110765    2.769    0.639
        29 -10.4659    239.7306    128.7277   5.2259378292e+01   8.6849069406e+00    0.8636903     0.355646 -54.01  0.003250628    3.199    0.687
        30 -12.0443    246.4071    127.2561   5.1002609540e+01   7.8159410953e+00     1.441145     0.536774 -49.50  0.005777501    2.713    0.631
        31 -10.9697    243.5349    114.7302   4.8865062305e+01   1.0425000823e+01    0.5508424    0.2652617 -45.48  0.002657426    1.743    0.426
        32 -10.4343    217.4894    138.4982   5.7832398060e+01   1.0844243597e+01    0.3549046     0.256998 -48.31  0.001899093    1.293    0.227
        33  -9.4600    166.6155    137.1350   6.7512942165e+01   2.1057446017e+01    0.4819782    0.2918065 -64.48  0.001872568    2.351    0.575
        34 -13.0136    234.7259    148.0784   5.6970517207e+01   6.1307923152e+00     2.065696    0.9838515 -55.13  0.008322163    2.885    0.653
        35  -8.8925    171.6499    117.1982   6.1671455969e+01   2.4155698973e+01    0.2866148    0.1917763 -33.77  0.001294188    1.562    0.360
        36  -8.7070     25.8100    118.6078   1.0480967327e+02   4.8994832309e+01    0.1828446    0.1204966  37.52 0.0009498007    1.705    0.413
        37 -10.3949    222.7280    113.3033   5.1565041488e+01   1.4452509506e+01    0.4466413    0.4178956 -39.28   0.00188622    1.103    0.093
        38  -9.3378    221.7589    105.9680   5.0120622105e+01   1.5928272048e+01    0.3191315    0.1710223 -44.45  0.001190627    1.626    0.385
        39 -10.9119    196.7248    107.0230   5.4410774306e+01   2.0790521879e+01     1.111898    0.4875142 -54.25  0.004036045    2.780    0.640
        40 -10.1466    197.4680     94.8419   5.1426291889e+01   2.2844346456e+01    0.6994199    0.2611034 -46.76  0.002593773    2.554    0.608
        41 -10.0204    121.7608    109.3883   7.1717130868e+01   3.6570501660e+01     0.553036    0.3535312 -57.46  0.002340383    1.760    0.432
        42  -8.7810     97.5374    110.0031   7.8943648360e+01   4.1240335715e+01    0.2339219    0.2077633  33.95 0.0005393011    1.147    0.128
        43  -9.4790    161.3058    109.1165   6.1887450261e+01   2.8045258151e+01    0.2999963    0.2296248  61.09   0.00126465    1.411    0.291
        44 -11.1136    240.7430     99.7330   4.6164302587e+01   1.3423187402e+01    0.7579023    0.5453224  40.74  0.004373878    1.823    0.451
        45 -10.9171    235.8172     89.6052   4.4694243099e+01   1.5989979688e+01    0.9123315    0.3890718 -48.43  0.004111155    2.057    0.514
        46 -11.3171    215.4477     95.6300   4.8783710124e+01   1.8967711303e+01    0.9209542     0.340012 -40.98  0.003632174    2.396    0.583
        47  -9.4693     57.4982    100.1701   8.9788640415e+01   5.0042237815e+01    0.3376813    0.2532783 -65.65  0.001281156    1.439    0.305
        48  -9.9943    123.8058     97.0865   6.7809957594e+01   3.8768552595e+01    0.3540773    0.2933278  -1.13  0.001731622    1.455    0.313
        49  -9.5144    106.5421     98.2279   7.3017372200e+01   4.2128068411e+01    0.4050992    0.2705924 -29.46  0.001777225    1.715    0.417
        50 -10.5725    248.3875     84.8761   4.2223500745e+01   1.4420701173e+01    0.5898663    0.3567959 -36.17  0.003068585    1.567    0.362
        51 -10.6957    243.5513     75.3368   4.0848464081e+01   1.6777819434e+01     1.069036    0.3323988 -39.35  0.004359246    2.741    0.635
        52 -11.0088    233.0683     57.3150   3.8298200357e+01   2.1460504140e+01    0.8272973    0.6861675 -48.97   0.00547723    1.176    0.150
        53 -10.7555    248.2261     66.6858   3.8626569192e+01   1.7200859264e+01    0.6010804    0.3165935 -32.54   0.00308917    2.080    0.519
        54 -10.1978    220.9005    177.8322   6.5297582210e+01   3.0433284387e+00    0.2965545      0.23845 -33.23  0.001754598    1.115    0.103
        55  -9.1513    211.1385     82.4684   4.6455666173e+01   2.2069179533e+01    0.2376372    0.1702592 -60.13  0.001285545    1.336    0.251
        56 -10.9981    153.3822     78.8157   5.5600587404e+01   3.5608240425e+01    0.8576527    0.3882176 -54.44  0.003014748    2.940    0.660
        57 -10.8084    216.9845     73.8186   4.3719807927e+01   2.2245293293e+01    0.8073264    0.3337982 -51.44   0.00337734    2.378    0.579
        58  -9.6536    215.0694     64.1923   4.1830698006e+01   2.4125558910e+01    0.3872134     0.199028 -37.29  0.001697157    1.883    0.469
        59  -9.7048    106.9713     72.4112   6.5211744865e+01   4.7195784355e+01    0.4878005    0.3341432  85.17  0.001983721    2.678    0.627
        60 -10.0102    181.9685     80.3789   5.0545654840e+01   2.8774762728e+01    0.4491845    0.2467173  75.18  0.001799488    2.543    0.607
        61  -8.9684    203.6732     65.3326   4.3573755875e+01   2.6387931340e+01    0.2039989    0.1334971  72.23 0.0009676926    1.580    0.367
        62 -10.4505    200.6838     59.6500   4.2656281491e+01   2.7897878692e+01    0.6637957    0.3036885 -44.81  0.003007173    2.000    0.500
        63  -8.0118     81.3564     65.6951   7.1089314234e+01   5.3518606418e+01    0.1374218    0.1147341  80.23 0.0007040348    1.718    0.418
        64 -10.1236    248.8181     75.1836   4.0246094696e+01   1.5828940932e+01    0.4811057    0.2409018 -40.50  0.002457599    1.706    0.414
        65  -9.9718    159.1523     46.3024   4.5532802090e+01   3.9348234759e+01    0.4064243     0.279864 -68.66  0.002073858    1.651    0.394
        66  -8.4889     97.3328     48.6812   6.0177559355e+01   5.3174744671e+01    0.1348266    0.1106056 -85.15 0.0007048519    1.694    0.410
        67 -10.2154    234.1489     44.8284   3.5637301218e+01   2.2976773432e+01    0.4610142    0.3140196  62.48  0.002851354    1.630    0.386
        68 -10.1578    221.8604     46.0095   3.7102384224e+01   2.5307906186e+01    0.3385259    0.2625543 -13.38  0.001997167    1.950    0.487
        69  -9.4682    225.8428     42.8270   3.6028823938e+01   2.4916397315e+01    0.2847085    0.2228456 -61.58  0.001403744    1.069    0.065
        70  -9.9957    250.0154     45.0836   3.4262831021e+01   1.9890399042e+01    0.3218084    0.1470099 -41.15  0.001565789    1.861    0.463
        71  -9.8753    201.4881     43.4307   3.8795625281e+01   3.0010649130e+01    0.5031767    0.2561978 -58.41   0.00239712    2.033    0.508
        72  -9.7249    175.1671     43.6782   4.2317744495e+01   3.5947192019e+01    0.4219307    0.2169472 -66.12  0.001745297    2.666    0.625
        73  -8.2691     57.5168     45.5367   7.2716548774e+01   6.1104460226e+01    0.1306352    0.1155704   4.55 0.0001076713    1.056    0.053
        74 -10.0684    128.4346     37.4448   4.8704936441e+01   4.7755051414e+01    0.3110413    0.2234356 -61.64  0.001634074    1.679    0.404
        75 -11.5867    133.4641    246.7955   9.5312629764e+01   4.0010409209e+00    0.7047773    0.4133915 -71.81  0.003306112    2.814    0.645
        76  -9.9871    154.9442    242.1154   9.0066847134e+01   1.6519063572e+00    0.2299246    0.1823484 -13.84  0.001085877    1.353    0.261
        77  -9.0517     32.9725     25.7035   7.5405423026e+01   6.7700954083e+01    0.1759063    0.1379324  11.40  0.000843226    1.107    0.097
        78  -9.6403      6.1540     25.6340   8.9498382092e+01   7.0496695577e+01     0.160418    0.1283084 -27.04   0.00114933    1.149    0.129
        79  -8.4986    184.5242     25.5113   3.6570185564e+01   3.6054190103e+01    0.1280769    0.1075828 -84.09 6.304678e-05    1.017    0.017
        80 -10.4450    152.1328     19.8335   3.9313774167e+01   4.4200312244e+01    0.2184565    0.1687923 -55.55  0.001002035    1.356    0.262
        81  -9.9203    149.7940    234.8906   9.0099560851e+01   3.7251071432e+00    0.2025274    0.1685057   2.45 0.0005497052    1.215    0.177
        82  -8.6281     41.8063     32.6018   7.4233881567e+01   6.5485106913e+01    0.1697083    0.1085647  40.71 0.0009472148    1.740    0.425
        83  -9.7168     92.5793     15.5060   4.9417929498e+01   5.8270118040e+01    0.3493568     0.191206  55.79  0.001817819    1.579    0.367
        84 -11.4789    141.2322    234.8940   9.1966389328e+01   5.0314872585e+00     0.419333    0.2019951  41.41  0.001913923    1.920    0.479
        85 -11.8157    247.0574    178.6455   6.0976782662e+01  -9.8348145263e-01    0.8722758    0.2064375 -40.71  0.003070562    3.554    0.719
        86  -9.6806    243.3580    222.6910   6.9592528382e+01  -7.4113202922e+00    0.4909098    0.2915933 -39.18  0.002471209    1.650    0.394
        87 -11.2352    248.8531    221.7264   6.8489217670e+01  -7.9297602773e+00    0.7441789    0.2833975 -34.28  0.003603203    2.277    0.561
        88 -13.1158    247.1201    203.2988   6.5526658350e+01  -4.9448771218e+00     2.125485    0.7825417 -39.26  0.009741317    2.343    0.573
        89 -10.0814    147.5749     26.5586   4.1911740005e+01   4.4545613125e+01    0.2987789    0.2060894 -72.76   0.00160251    1.650    0.394
        90  -9.3395    156.5171    225.4563   8.7174331064e+01   4.4435321123e+00    0.2348086    0.1824888 -27.74 0.0005752324    1.360    0.265
        91 -10.6086    231.6738    197.2019   6.7066832847e+01  -1.8971926514e+00    0.4406607     0.254771 -38.60  0.002368769    1.552    0.356
        92  -8.2065     17.7008    215.6526   1.1758282655e+02   2.5805974775e+01    0.1168678   0.08679147 -50.28 0.0007036654    1.683    0.406
