#   1 NUMBER                 Running object number                                     
#   2 MAG_AUTO               Kron-like elliptical aperture magnitude                    [mag]
#   3 X_IMAGE                Object position along x                                    [pixel]
#   4 Y_IMAGE                Object position along y                                    [pixel]
#   5 X_WORLD                Barycenter position along world x axis                     [deg]
#   6 Y_WORLD                Barycenter position along world y axis                     [deg]
#   7 A_WORLD                Profile RMS along major axis (world units)                 [deg]
#   8 B_WORLD                Profile RMS along minor axis (world units)                 [deg]
#   9 THETA_WORLD            Position angle (CCW/world-x)                               [deg]
#  10 FWHM_WORLD             FWHM assuming a gaussian core                              [deg]
#  11 ELONGATION             A_IMAGE/B_IMAGE                                           
#  12 ELLIPTICITY            1 - B_IMAGE/A_IMAGE                                       
         1 -14.8020    193.6412     79.0901   2.2035656317e+01   2.6211212833e+01     2.962667     2.740507  36.15   0.01728035    1.272    0.214
         2 -12.7410    177.0190     71.2331   2.2894624560e+01   3.1352807032e+01     2.137443    0.4773786 -47.20  0.005442801    5.629    0.822
         3 -12.8820    175.4491     40.6334   1.5212008662e+01   3.6251989231e+01      2.15099     1.257074  18.17  0.007674953    4.509    0.778
         4 -13.9483    196.1197     35.3714   1.1117312413e+01   3.2116330986e+01     1.564669     1.402535  87.31  0.005258814    1.095    0.087
         5 -13.0247    225.9665     22.7665   5.2255329629e+00   2.7094592820e+01    0.5476013    0.4171411 -64.30  0.001270895    1.105    0.095
         6 -13.4648    233.0549     48.2852   9.8324783668e+00   2.2319710672e+01     1.193937     1.052241 -25.12  0.005169685    1.484    0.326
         7 -13.9612    244.3083      8.4696   1.0074355358e+00   2.4993643523e+01      1.31322    0.5267949 -85.52  0.006170833    2.869    0.651
         8 -13.1317    223.0448      8.8027   2.6206266583e+00   2.9296565481e+01    0.8955557    0.3946695 -83.21  0.001639569    2.531    0.605
         9 -11.5183    211.3323     21.0785   6.2171051087e+00   3.0441947551e+01    0.5109711    0.4197789 -85.78  0.003421911    1.046    0.044
        10 -13.8493     94.7266     71.5376   4.2684399992e+01   4.9785439878e+01     2.024236     1.227733 -65.75  0.007857723    3.030    0.670
        11 -12.1007     78.6269      9.9991   2.5381033298e+01   6.1582305775e+01     0.221569    0.1898603  34.79 0.0003219266    1.058    0.055
        12 -12.8919     68.7323      5.4158   2.6467359297e+01   6.3907804980e+01     1.629879     1.084731  -9.79   0.01008898    1.609    0.378
        13 -13.0381     57.0642      4.7622   3.0076730762e+01   6.6084258035e+01    0.5263786    0.3885579 -18.55  0.001480864    1.433    0.302
        14 -14.2780      9.4999     68.2200   7.3826540303e+01   6.1593746676e+01     1.955028     1.035116 -55.39   0.01085525    1.530    0.347
        15 -12.5254     50.5158     32.7884   4.4640667295e+01   6.3795966089e+01     1.312708     1.092259  76.91  0.007712072    2.277    0.561
        16 -11.0634     53.1650     20.9274   3.8661504516e+01   6.4984339762e+01     1.701257     1.247712  73.92  0.008669329    3.175    0.685
        17 -13.8056     57.5690     65.3893   5.3562212265e+01   5.7254094491e+01     1.992903    0.7746049 -40.71  0.008096352    2.477    0.596
        18 -14.3477     41.0002     54.5202   5.6608069474e+01   6.1474314660e+01     3.234263     1.536637   9.81   0.01275872    3.466    0.711
        19 -12.5860     24.6727     40.5212   5.8974623816e+01   6.5757700026e+01     1.125184    0.4712295 -40.76  0.004444047    2.053    0.513
        20 -13.9018      7.8898     39.7168   6.6709427439e+01   6.7302265635e+01     1.652284      1.11079 -74.24  0.009546397    2.415    0.586
        21 -13.1447     72.9222     25.3125   3.3316784949e+01   6.1037591624e+01    0.6447373    0.5872294  -9.28 0.0007003446    1.191    0.161
        22 -12.1349     80.2274     23.0220   3.0073186968e+01   5.9918383089e+01    0.6028234    0.4324672   7.62  0.003521123    1.494    0.331
        23  99.0000     30.6367     20.8572   4.8380414034e+01   6.8182153436e+01     1.005832    0.9398851 -53.17  0.007283043    1.741    0.426
        24 -13.6472    218.8499     56.5967   1.3211250862e+01   2.4138424994e+01     1.699054     0.900004 -69.49   0.00760448    2.375    0.579
        25  99.0000    134.3080     41.9599   2.2887153321e+01   4.5842892653e+01     0.914996    0.6786294 -49.18  0.004947689    1.491    0.329
        26 -12.5303    219.2450     30.3466   7.4433594252e+00   2.7604106896e+01    0.8568242    0.4355852  85.35  0.004079976    2.087    0.521
        27 -12.9442    204.0008     18.8569   6.4465964544e+00   3.2318087277e+01    0.6541594    0.4019652  83.27  0.001769442    1.473    0.321
        28 -13.3000    176.2460     23.5351   1.0716111113e+01   3.8153644323e+01    0.3101462    0.2891878  78.43 0.0006841004    1.142    0.124
        29 -10.1686    122.9452     18.9983   1.7975402281e+01   5.1171716615e+01    0.4693257    0.2429128 -56.80  0.002015007    2.980    0.664
        30  99.0000    244.0067     18.3214   2.8825680015e+00   2.3928881721e+01    0.3947048    0.1995475 -69.74  0.002181091    1.873    0.466
        31 -11.3870     94.1588     15.9639   2.3443099530e+01   5.7837967494e+01    0.2879362     0.158286  45.34   0.00150877    1.548    0.354
        32 -10.4936    125.0937     10.2975   1.4774715604e+01   5.1509835266e+01    0.4088786    0.2629301 -10.59  0.002160241    1.990    0.498
        33 -11.0346    114.7718     12.9965   1.7646744478e+01   5.3614531493e+01    0.2705436    0.2305742  -4.65 0.0008846777    1.348    0.258
        34 -11.0210    116.3459      9.2381   1.6075222388e+01   5.3599012042e+01    0.3305414    0.1905392 -36.41  0.001366628    1.990    0.497
        35 -10.3618    141.9788     12.4135   1.2570976819e+01   4.7388331039e+01    0.3176541    0.1868121  13.75   0.00147522    2.851    0.649
        36 -10.4485    132.9846     11.4696   1.3757789259e+01   4.9578019159e+01    0.2515025    0.1802516 -73.79  0.000447049    1.646    0.392
        37  -8.1134    130.9967      8.2266   1.3097543107e+01   5.0331579369e+01    0.3193023    0.1760013  60.30  0.001688223    1.496    0.331
        38 -10.3722     87.9086     11.9327   2.3557714896e+01   5.9529129956e+01    0.2515319    0.1705061  61.02  0.001455619    1.481    0.325
        39 -10.1743    108.7605     10.0470   1.7894966653e+01   5.5227394076e+01     0.234418    0.1589031 -27.41   0.00136651    1.692    0.409
        40 -12.8172    173.1940      5.9285   6.6555766745e+00   4.0690513111e+01    0.4449012    0.2724296 -15.31   0.00241628    2.308    0.567
        41 -10.0334     45.8939      9.7564   3.6620998645e+01   6.7427763274e+01    0.2823628    0.1330363  37.47  0.001519885    1.849    0.459
        42 -10.6655     26.6609      9.6226   4.5182271186e+01   7.0143717491e+01     0.269464    0.1623737  12.11  0.001671713    1.549    0.355
        43  -9.9337    165.5744      9.4588   8.4540068186e+00   4.2128513417e+01    0.2277529     0.126128 -81.01 0.0006375553    2.093    0.522
        44 -11.7103    193.7603      7.5058   4.8916004684e+00   3.5830358626e+01    0.2628039    0.1927386  76.11 0.0006765422    1.189    0.159
        45  -9.3934    157.0214      7.4598   9.0145030763e+00   4.4319480751e+01    0.1794164    0.1065976  70.72 5.941656e-05    1.426    0.299
        46  -9.9986    101.2293      6.8162   1.8394586200e+01   5.7161599888e+01    0.2033154    0.1460481  50.14  0.001239833    1.154    0.134
        47 -10.1299     90.6436      6.7412   2.0865331892e+01   5.9426837887e+01    0.2280965    0.1529274  84.87  0.001210165    2.205    0.547
        48  -9.9280     51.1358      6.3843   3.2998635576e+01   6.6935981773e+01    0.2456934    0.1591416 -20.42  0.001547558    1.579    0.367
        49 -10.4469     47.4234      5.4872   3.4026503232e+01   6.7631103310e+01    0.1996684    0.1727105  18.52 3.704008e-05    1.193    0.162
        50 -11.1964     47.5080      1.5646   3.2148195427e+01   6.7996122947e+01    0.3471767    0.1100047  42.19   0.00132357    2.584    0.613
        51 -10.0206     12.8233      7.4066   5.1281413717e+01   7.1983568041e+01    0.1396508    0.1008861  -2.45 0.0006559037    1.064    0.060
        52 -11.2871      2.7130      6.0102   5.6335374870e+01   7.3097626281e+01     0.233274    0.1680585  -7.62  0.000804441    1.056    0.053
        53 -10.3769    216.6871      2.3662   1.8055044811e+00   3.1319168902e+01    0.4570704    0.1828047  73.93  0.002306486    2.173    0.540
        54 -10.1790    146.5899      5.7740   9.9683753585e+00   4.6913764564e+01    0.2095814    0.1385362  55.03 0.0005848679    1.362    0.266
        55 -10.0890    111.5161      4.4126   1.5399128618e+01   5.5092286105e+01    0.2281929    0.1620328  69.92 0.0009128243    1.323    0.244
        56  99.0000    183.4699      3.9236   5.0747615096e+00   3.8516507322e+01    0.2986179    0.2281914  84.94  0.001266109    1.082    0.076
        57  -9.8036    187.5889      2.7353   4.3901219017e+00   3.7692665342e+01    0.3137753     0.125744 -45.47 0.0004680223    2.405    0.584
        58 -10.0855    207.0321      3.1445   2.7398937547e+00   3.3323433786e+01    0.1644576     0.137935 -80.34  0.001154497    1.088    0.081
        59 -12.1112     85.4723      1.4996   2.0141290780e+01   6.0929259538e+01     0.366598    0.1221903  55.16  0.001004078    2.343    0.573
        60  -9.6456    121.0828      4.6747   1.3693782167e+01   5.2911628865e+01    0.1738407    0.1360659  55.85 0.0003833179    1.078    0.073
        61  -9.0467    135.5583      2.4536   1.0619255621e+01   4.9764049355e+01    0.1255346      0.10355  63.00 0.0002151009    1.045    0.043
        62 -11.0771    149.9494     13.0372   1.1536987403e+01   4.5454816222e+01    0.2863387    0.1998859 -83.31  0.001236419    1.522    0.343
        63 -12.1031     11.6631     24.7554   5.9461253925e+01   6.9566211665e+01    0.3563898    0.2727727 -32.33  0.000604991    1.209    0.173
        64  -9.8053    250.4084      1.4838   3.5934307011e+02   2.4565812489e+01    0.1117023   0.08168367 -70.07 9.785376e-05    1.017    0.017
        65 -13.2833    204.4355     47.6627   1.2965602389e+01   2.8590482514e+01     1.881115    0.6547467  58.40  0.007634409    2.732    0.634
        66 -10.4433    180.9996    243.5219   5.8793191998e+01  -2.4244313448e+00     0.199192    0.1094116  34.87   0.00103191    1.597    0.374
        67  -9.6438    218.5165    239.5461   5.0871735666e+01  -7.1989638228e+00    0.1222616   0.09994736   4.85 0.0001458266    1.031    0.030
        68 -10.7619     88.1873    238.8271   7.7640029757e+01   1.2657164253e+01    0.1624201    0.1513061  16.01 0.0004014091    1.313    0.239
        69 -13.8172    242.8605     60.8578   1.1396203801e+01   1.8545418214e+01     1.491559    0.9142199 -55.30  0.002261767    1.412    0.292
        70 -10.0619     15.8121    238.4133   9.2196313954e+01   2.1792110747e+01    0.1338727    0.1060185  29.89 0.0002186884    1.596    0.373
        71 -13.7394    210.5219     59.5465   1.4923548296e+01   2.5521334827e+01       1.8524    0.8605843 -70.78  0.006207404    4.220    0.763
        72  -9.8479    157.6860    222.6890   6.0360544750e+01   4.8709040646e+00    0.1370029    0.1016715  -1.09  0.000238603    1.633    0.388
        73  -9.7119    236.7090    146.0063   2.9985828877e+01   5.5616879833e+00    0.1900175    0.1517097 -36.09 0.0003589133    1.087    0.080
        74 -12.9120    221.7004     38.4481   8.9304990068e+00   2.6039196446e+01     1.033245    0.5265824  84.98  0.001839107    2.196    0.545
        75  -9.7255    184.6843    134.9828   3.7092711792e+01   1.7639994955e+01    0.2130124    0.1878908 -40.82 0.0005189542    1.084    0.077
        76 -10.7444    167.7483     89.8978   2.9514379379e+01   3.0259189642e+01     0.346696    0.2409487  58.54 0.0005694903    1.461    0.315
        77 -12.7966     38.1995     81.0595   6.5560365408e+01   5.6436987549e+01    0.7746271    0.4206601 -44.12  0.002871124    1.610    0.379
        78 -11.0845    181.8005    117.4830   3.3568228770e+01   2.1779678927e+01    0.3882031    0.3729994  77.07  0.002158815    1.073    0.068
        79 -10.2311    140.5196    119.4987   4.3402289571e+01   3.0394220722e+01    0.1549215    0.1513232 -76.46 4.403178e-05    1.033    0.032
        80 -10.3405    203.3984    115.8146   2.9076628484e+01   1.7482424424e+01    0.4591694    0.2337214  69.14  0.001589677    3.536    0.717
        81 -10.6517     90.1619    113.8062   5.6053453489e+01   4.1662935380e+01    0.2166429    0.1763937 -23.57    0.0010785    1.354    0.262
        82 -13.7228     44.0948     73.1918   6.1137017729e+01   5.7449738975e+01     1.174926    0.7173709  27.21  0.006176026    1.727    0.421
        83 -11.3998    137.5948    112.7960   4.2431583667e+01   3.2481163942e+01    0.5035765    0.2018572  41.28  0.001700083    2.637    0.621
        84 -13.3382     32.9817     66.7418   6.3726255057e+01   5.9986745525e+01     1.043497    0.6050248 -22.65  0.005080245    1.902    0.474
        85 -13.1629     80.2823     59.2997   4.3363120943e+01   5.4686205384e+01     1.048628    0.4607843  35.82  0.002719216    2.345    0.574
        86 -10.8005     95.5261    112.1365   5.3997533557e+01   4.1098740997e+01    0.3540651     0.250745 -89.54  0.001489379    2.208    0.547
        87 -11.8741     64.5584    111.8873   6.3743569317e+01   4.6146863799e+01    0.4936869    0.2700048  63.12  0.001740086    3.555    0.719
        88  -9.7466    210.8710    111.8151   2.6869176381e+01   1.6671735895e+01     0.218467    0.1096616  63.17 0.0008593106    2.628    0.620
        89 -11.5680     21.4882     65.3818   6.8113326154e+01   6.1317805121e+01    0.2440048     0.215491 -30.51 0.0004271802    1.093    0.085
        90  -9.2281    201.6451    110.2622   2.8103524736e+01   1.8891900151e+01    0.1446583    0.1100567 -81.51 0.0004693564    1.621    0.383
        91 -13.3101     79.9102     41.1125   3.7051639964e+01   5.7641999055e+01     1.194738    0.4234172  43.59  0.004053483    2.609    0.617
        92 -10.9594    196.4627    108.3263   2.8576788098e+01   2.0364185971e+01    0.4310029    0.3034997 -79.90  0.001631597    1.927    0.481
        93 -13.0881      4.2110     56.0085   7.3105756020e+01   6.4417646598e+01     0.567947    0.3873004 -22.14  0.003691044    1.350    0.259
        94 -11.3894    191.5650    103.1345   2.8231432397e+01   2.2403836669e+01    0.5528649    0.1906526 -49.74  0.001766759    3.280    0.695
        95 -13.0284     14.6566     34.6948   6.1683319824e+01   6.7672743168e+01    0.6429437     0.427426  -3.53  0.002964563    1.410    0.291
        96  -9.6099    234.1892    108.6573   2.2526204395e+01   1.2587472540e+01    0.1756689    0.1234018  43.80 0.0009382886    1.702    0.413
        97 -11.7905    161.7914    106.5639   3.5086676586e+01   2.8407658067e+01    0.3170191    0.2246709 -48.08  0.001473054    1.398    0.285
        98 -12.5754     81.6647     49.5040   3.9505067221e+01   5.6050000335e+01    0.8311514    0.4951095  23.37  0.003890824    1.990    0.498
        99 -13.2261    234.6614     85.4463   1.7501704542e+01   1.6385598675e+01     1.553198    0.7245331  77.17  0.005704342    3.981    0.749
       100 -12.0495     50.8536     87.9975   6.2637221117e+01   5.3462391399e+01    0.3677159    0.2138374 -31.83  0.001595459    1.857    0.461
       101 -11.8284     48.0784     85.2992   6.2949558794e+01   5.4395673581e+01    0.2592965    0.2349393  11.62 0.0008970897    1.165    0.141
       102 -12.1131    176.9518     85.5860   2.6597475624e+01   2.8912749145e+01    0.8522614    0.3816957  41.67  0.003022706    2.849    0.649
       103 -11.7745    161.5357     84.2951   2.9312907881e+01   3.2725069365e+01    0.7666761    0.4825222  39.84  0.003399311    1.799    0.444
       104 -12.3866    168.8406     80.5709   2.6853085845e+01   3.1683141085e+01    0.4610864    0.3827496 -84.83 0.0006750221    1.297    0.229
       105 -10.8597    168.5153     76.4587   2.5831050962e+01   3.2471314900e+01    0.3076983    0.2597407  86.06 0.0009015958    1.228    0.186
       106 -12.3858    114.5739     80.6697   3.9641604386e+01   4.4020734940e+01    0.7247478    0.4279084 -36.73  0.003180037    1.766    0.434
       107 -11.8433    147.7390     83.4311   3.2075123451e+01   3.6088837422e+01    0.6498058     0.405937 -46.19  0.002062967    1.634    0.388
       108 -10.3283     30.9703     85.1824   6.9333287344e+01   5.6248744325e+01    0.2390602    0.1662063 -52.44 0.0006557094    1.247    0.198
       109 -10.9064    250.7327     84.7074   1.5368686372e+01   1.3404364178e+01    0.3362095    0.1080829 -39.64  0.001313735    2.649    0.623
       110 -11.0925    246.6611     83.0283   1.5506388126e+01   1.4435937179e+01    0.4221549    0.2829178  44.19   0.00234187    1.987    0.497
       111 -11.1516     83.2126     84.0197   5.0208576296e+01   4.9464926167e+01    0.3025557    0.2048859  31.70 0.0005784749    1.517    0.341
       112 -10.7137    233.0974     79.0102   1.6327101169e+01   1.7731967378e+01    0.3537767    0.1627293  74.88  0.001397033    3.303    0.697
       113 -10.4065    161.8937     77.4206   2.7393600519e+01   3.3859803431e+01    0.2423898    0.1913117 -56.53 0.0007538943    1.304    0.233
       114 -11.5642     85.4727     73.6979   4.6324845217e+01   5.1118582386e+01    0.6370505    0.5168395  58.23  0.002121936    1.487    0.328
       115 -10.4217    155.9076     76.6190   2.8408538501e+01   3.5404074841e+01    0.3520779    0.2433061  73.91  0.001195541    1.690    0.408
       116 -10.8888    153.1539    108.2106   3.7465761268e+01   3.0013756620e+01    0.2424307    0.2308523 -75.31 0.0005221526    1.062    0.059
       117 -12.3110     72.5633     73.9895   5.0799647158e+01   5.3287396150e+01    0.6369012    0.5431311  38.30  0.002832229    1.249    0.199
       118 -10.9272     78.6978     68.3562   4.6894927143e+01   5.3336117658e+01    0.5396943    0.1698377 -40.80  0.001300397    3.210    0.689
       119 -11.9857    156.6871    104.4624   3.5686418388e+01   2.9981249355e+01    0.4880094    0.2790507  36.56  0.001951735    2.077    0.519
       120  -9.6667    151.0000     72.8910   2.8414897666e+01   3.7198762506e+01    0.2275296   0.08363069 -37.81 0.0005642562    2.801    0.643
       121  -9.5805    139.0454     62.0115   2.7901081790e+01   4.1798370707e+01     0.947324    0.4479348  41.83  0.003716719    2.338    0.572
       122 -10.8042    169.6996     32.4995   1.3937047627e+01   3.8644780000e+01    0.4450523    0.2224984  70.05  0.001834662    1.898    0.473
       123 -10.3212    163.0326     29.6233   1.4163273416e+01   4.0572820925e+01    0.4507888    0.1751344 -51.19  0.001680537    3.209    0.688
       124 -10.6052    145.7469     52.8620   2.3783046632e+01   4.1623590731e+01     1.118792    0.5006289  34.31  0.003499198    4.335    0.769
       125 -10.4818    131.6605     33.5911   2.0849453073e+01   4.7526742222e+01    0.3191923    0.2033993 -55.37 0.0007933104    1.936    0.483
       126 -11.5148    134.9629     72.3528   3.1892414766e+01   4.1017949715e+01    0.6652442    0.4856352 -65.96  0.003001787    1.712    0.416
       127 -11.6516    143.6122     69.2584   2.8995996022e+01   3.9544465697e+01    0.7066762    0.5803047  17.05  0.002502376    1.486    0.327
       128 -11.8026    146.7879     61.4303   2.6051865218e+01   4.0073626233e+01    0.8505248    0.3709667 -51.14  0.002405484    2.918    0.657
       129  -9.9782    210.0839    105.4855   2.5559014941e+01   1.7987189877e+01    0.2435887     0.215767  78.91  0.001390926    1.201    0.167
       130 -12.3941    160.8666     37.8479   1.6748773314e+01   4.0078538920e+01    0.5894252    0.5533098  40.63  0.003681369    1.201    0.168
       131 -10.4524    151.8217     59.3343   2.4417968553e+01   3.9209839850e+01    0.2940156    0.2465157 -31.71 0.0009766946    1.296    0.229
       132 -12.0132    144.1953     45.1121   2.1822615877e+01   4.3089259616e+01    0.4795108    0.3104646  28.42  0.001279612    2.090    0.522
       133 -12.6680    149.2503     40.7217   1.9578632742e+01   4.2476149666e+01    0.6276607    0.4692432 -85.31  0.001829296    1.512    0.339
       134 -11.0530    105.8403     70.9339   3.9152783068e+01   4.7662516312e+01    0.3246322    0.2187181  57.74 0.0009559195    1.686    0.407
       135 -11.1225    103.9388     66.3011   3.8241614788e+01   4.8878815158e+01    0.4726231    0.2991486  17.71  0.001444457    2.276    0.561
       136 -11.5467    123.9591     69.0378   3.3624179725e+01   4.4085391541e+01    0.5857283     0.384901  83.23   0.00193531    2.605    0.616
       137 -13.6935    116.7195     61.9800   3.3320464580e+01   4.6880635030e+01    0.9534317    0.7333172  29.19  0.002170822    1.379    0.275
       138 -11.4857    144.5486    103.6025   3.8301692069e+01   3.2884415490e+01    0.4039051    0.3807075   9.81  0.001104028    1.145    0.127
       139 -11.0996    127.2748     58.7175   2.9639777706e+01   4.5038486417e+01    0.5125458    0.2866569  34.87  0.002157077    2.153    0.536
       140 -11.5455    100.4721     54.5240   3.5398588448e+01   5.1555903785e+01    0.5655459    0.4304425  36.98  0.001892279    1.243    0.196
       141 -10.6541     99.1522     47.6940   3.3463985422e+01   5.2874551795e+01    0.2787214    0.2277053  -2.59  0.001312555    1.319    0.242
       142 -10.4983    108.7756     56.0107   3.3542822937e+01   4.9569928573e+01    0.3673444    0.2255436 -45.37  0.001596591    1.811    0.448
       143 -11.8963     75.9589     52.0127   4.2321226906e+01   5.6685036827e+01    0.2940575    0.2346289 -37.42 0.0003211192    1.315    0.240
       144  -9.2636    137.3388     52.6951   2.5500411126e+01   4.3627925963e+01    0.2485929    0.1885847  42.20 0.0007641876    1.320    0.243
       145 -10.0827    133.5652     52.6307   2.6312321244e+01   4.4517762455e+01    0.2811734    0.1563959  46.31 0.0008539925    1.731    0.422
       146 -11.3684     90.4440     51.1104   3.7252277458e+01   5.4116952814e+01    0.2268853    0.1970961  33.36 0.0003080471    1.080    0.074
       147 -11.5190    247.3949     42.6924   7.3148636400e+00   2.0193470783e+01    0.4674391    0.2466074 -60.50  0.001819441    1.728    0.421
       148 -11.1030    245.4091     50.1346   8.9730930759e+00   1.9569098443e+01    0.2477188    0.1732191 -81.06  5.82612e-05    1.360    0.265
       149  -9.6469    250.4407     50.2245   8.5119279131e+00   1.8574010247e+01     0.234814    0.1488655 -48.33 0.0009752487    1.322    0.244
       150 -10.8850    122.7080     43.5471   2.5955038729e+01   4.8310509540e+01    0.3782508    0.2758728  27.44  0.001094177    1.553    0.356
       151 -10.4922     41.5888     44.7863   5.2970457458e+01   6.3126558250e+01     0.228421    0.1972121  24.76 0.0009845324    1.293    0.226
       152  -9.4226     38.9529     40.4919   5.2524452375e+01   6.4174621961e+01     0.632334    0.3693566  10.41  0.003342879    1.923    0.480
       153 -10.6149    105.4193     43.5375   3.0293965149e+01   5.2147519239e+01    0.2400725    0.2183034  72.07 0.0005446575    1.242    0.195
       154  -9.8101     99.9956     41.4437   3.1062545132e+01   5.3591249450e+01    0.2623286    0.1990962 -17.59  0.001454445    1.438    0.304
       155 -10.6576     94.0949     41.1810   3.2661282157e+01   5.4850990859e+01    0.2439996    0.2031814   6.48 0.0007101079    1.230    0.187
       156  -9.8473    113.9318     38.1535   2.6289319059e+01   5.1007622538e+01    0.2230876    0.1564395 -89.55   0.00106808    2.139    0.532
       157 -12.3402    140.7954     96.4202   3.7286655537e+01   3.5179711058e+01     2.100943    0.7073357 -50.21  0.005945076    3.654    0.726
       158 -11.1449    154.9133     64.5434   2.5264714722e+01   3.7657935234e+01    0.6760287     0.292177 -39.29  0.002668903    2.345    0.574
       159 -12.2710    122.6346     33.6437   2.2782615881e+01   4.9607381522e+01    0.3329882    0.2240854 -49.92 0.0004966517    1.758    0.431
       160 -10.2464    123.9374     28.9455   2.0984058047e+01   4.9866041297e+01    0.2540111    0.2156626 -75.49  0.001511151    1.363    0.266
       161 -11.1653     96.4809     36.5205   3.0315804360e+01   5.4988318992e+01    0.2174971    0.1984099  49.06   0.00135128    1.134    0.118
       162 -11.0803     92.4053     33.6937   3.0462217343e+01   5.6195258656e+01    0.3335083    0.2518972  30.15   0.00120601    1.244    0.196
       163 -10.4165    112.0884     33.0659   2.5029537506e+01   5.2059425251e+01      0.35285    0.2453856  32.09  0.001888533    1.497    0.332
       164  -9.2186    152.4473     33.5493   1.6956021638e+01   4.2621378269e+01    0.1344966    0.1198542  77.16 0.0002318234    1.024    0.024
       165  -9.7921    237.6897     30.7662   5.8175953451e+00   2.3684684020e+01    0.2938933    0.1863578  89.36  0.001245781    1.482    0.325
       166  -8.9373    242.0232     29.6986   5.2359251896e+00   2.2943879663e+01    0.2903847    0.1746715 -72.93  0.001388567    1.527    0.345
       167 -10.6629     74.9750     33.5943   3.5867000011e+01   5.9603922379e+01    0.2652195    0.2058013  31.79 0.0008266135    1.150    0.131
       168  -9.8067     80.5151     30.4325   3.2845989943e+01   5.8971834204e+01    0.2153398    0.1149496  47.21 0.0008844378    1.718    0.418
       169 -11.4406     86.1648     28.7516   3.0467956819e+01   5.8072538085e+01    0.3552077    0.2146615  42.87  0.001194198    1.462    0.316
       170  -9.2599    104.4348     27.4634   2.4984917622e+01   5.4407412577e+01    0.1303141    0.1163591  43.18 0.0001151044    1.028    0.027
       171 -13.6629    116.8457     92.8391   4.2544906932e+01   4.1132540385e+01     1.089462    0.5247669 -46.14  0.000845327    2.106    0.525
       172 -10.7872     20.8432     25.0546   5.4911476646e+01   6.8665712917e+01    0.3598159    0.2348308  32.13   0.00229059    1.739    0.425
       173 -11.0634     19.9850     19.7702   5.3124024172e+01   6.9542358410e+01    0.2351923    0.1778211 -36.70 0.0004277767    1.431    0.301
       174 -10.8846    234.1910     24.2110   4.8095664138e+00   2.5209188972e+01    0.2377342    0.1742264 -53.93  0.001051366    1.206    0.171
       175  -9.2501    153.4267     25.4216   1.4494785764e+01   4.3339093575e+01    0.1316281    0.1143408  81.97 0.0001150602    1.056    0.053
       176 -11.0051    126.7005     24.8569   1.9104791082e+01   4.9688404335e+01    0.5880063    0.2043368  61.41  0.000302493    2.586    0.613
       177 -10.1146    142.9787     79.5928   3.2091280621e+01   3.7888486134e+01    0.2259342    0.2008188 -13.65   0.00119542    1.267    0.211
       178 -10.5201    113.4573     23.7937   2.1572579908e+01   5.2823460136e+01     0.308186    0.2346082  40.90  0.001357627    1.215    0.177
       179 -11.1697    132.0016    101.7275   4.0938608782e+01   3.6044457010e+01    0.3147841     0.252955 -58.48 0.0001972575    1.330    0.248
       180 -11.1970    247.1200     22.6331   3.4667165442e+00   2.2800867541e+01    0.2247511    0.1766393  71.87  0.001009464    1.411    0.291
       181 -11.7893    242.5432     22.6898   3.8314150361e+00   2.3700630470e+01    0.4178464    0.2143418  78.81  0.001557308    1.867    0.464
       182 -10.0044    102.6830     23.2803   2.3945076903e+01   5.5255830049e+01    0.1830839    0.1298329 -29.84 0.0005239596    1.570    0.363
       183 -10.7861     98.6868     21.7692   2.4411018024e+01   5.6278681046e+01    0.3092148    0.2358696  48.42  0.001064848    1.143    0.125
       184 -10.6015    147.4880     25.0622   1.5359666073e+01   4.4788019841e+01    0.4339232    0.2295738  40.09  0.001983953    2.252    0.556
       185  -9.3452    138.3319     22.2984   1.6118257823e+01   4.7250433271e+01    0.1360627    0.0895035  39.03 0.0002922906    1.645    0.392
       186  -9.5593    119.6676     22.0175   1.9629676801e+01   5.1608981639e+01    0.1666106    0.1607767  38.27 0.0004095353    1.110    0.099
       187  -9.4128    151.2543     20.3196   1.3396601348e+01   4.4409523144e+01    0.1240771    0.0930322  36.47            0    1.537    0.349
       188 -11.1380    130.2425     19.3337   1.6677921914e+01   4.9451513140e+01    0.2377448    0.1917775  61.37 0.0003496913    1.076    0.071
       189  -9.8390     14.9286     19.7745   5.5725570796e+01   7.0042824963e+01    0.1787625     0.154542 -69.78   0.00122425    2.150    0.535
       190  -8.8410    170.3057     19.3331   1.0412771845e+01   4.0012631717e+01    0.1272789   0.09163275  40.86 0.0003528067    1.664    0.399
       191 -10.3059    138.3908     18.1443   1.4859392133e+01   4.7668652745e+01    0.3366353    0.2031266  43.18  0.001052533    1.701    0.412
       192 -14.0910    130.7793     95.2666   3.9486654284e+01   3.7638584117e+01     1.724604    0.9114311  34.89  0.006581723    2.279    0.561
       193  -9.6994    192.9385     16.4583   7.0377922630e+00   3.5077382449e+01    0.1812903   0.08976583 -80.80 0.0008073792    2.429    0.588
       194 -11.3245    132.9827     77.5054   3.3878712272e+01   4.0554953911e+01    0.3610929    0.2914383 -55.47 0.0003313344    1.336    0.252
       195 -11.3507    134.4696     83.5849   3.5264540263e+01   3.9096576823e+01    0.3536772    0.3086835  78.18 7.550306e-05    1.260    0.206
       196 -11.6975    136.2123     80.6148   3.3987422936e+01   3.9253653596e+01    0.4929559    0.3176192  62.38 0.0009430462    1.734    0.423
       197 -11.8779    128.5855     90.1146   3.8613421556e+01   3.9151033696e+01    0.6435428    0.3006195  56.88  0.001141171    2.605    0.616
       198 -10.2114    187.1734     12.9880   6.8376954302e+00   3.6764683030e+01    0.1954552    0.1339544 -69.80 0.0004926077    1.389    0.280
       199  -9.2302    166.6857     13.7139   9.4220719644e+00   4.1448982510e+01    0.1252297   0.08719677  46.28 0.0006995134    1.583    0.368
       200 -12.6072     73.2213     97.9987   5.7445371497e+01   4.8094051556e+01    0.5226251    0.3872524 -73.94  0.002548988    1.733    0.423
       201 -12.7756     86.9137     98.1962   5.3018982304e+01   4.5785947639e+01    0.7731723    0.5273765  -3.34  0.003338377    2.155    0.536
       202 -11.8021    225.9704     98.9330   2.1619237756e+01   1.5875575622e+01    0.5010729    0.3599979 -45.12  0.002742492    1.235    0.190
       203  -9.2410    212.3437     11.6788   4.1036338552e+00   3.1275849939e+01    0.1320609   0.07303134 -68.48  0.000445214    1.727    0.421
       204 -10.0782    215.0029    102.5233   2.4089139850e+01   1.7491467147e+01    0.1954072    0.1389818  57.99  0.000497942    1.524    0.344
       205 -10.3533      4.7650    101.9893   8.2048459643e+01   5.4334692089e+01    0.1707453    0.0864998 -67.11 0.0005329527    1.609    0.378
       206 -10.8175    158.7260     99.2862   3.3883038933e+01   3.0546129681e+01    0.3077549    0.2326768  53.01 0.0001940486    1.331    0.249
       207 -13.0285    157.2883     95.8277   3.3291907236e+01   3.1547992040e+01     1.240654    0.5727652  46.59  0.003662631    2.199    0.545
       208 -11.7424     95.8607     90.5460   4.8062052044e+01   4.5807248687e+01    0.6215317    0.4442643  56.66  0.001656063    1.661    0.398
       209 -12.2230    108.2177     92.3663   4.4868691577e+01   4.3009792128e+01    0.4151716     0.272946  36.63  0.001868258    1.562    0.360
       210 -12.6574    106.8929     96.3573   4.6382472574e+01   4.2438785073e+01    0.5056071    0.3306635 -25.74  0.001948156    1.900    0.474
       211 -11.8656    102.4106     96.1861   4.7663559895e+01   4.3357947963e+01    0.4231637    0.2886918 -53.16   0.00138642    1.543    0.352
       212 -10.8908     33.7341     99.8111   7.1587506417e+01   5.2647827837e+01    0.2534774    0.1442892 -56.12  0.001269478    1.499    0.333
       213 -10.8898    169.9169     97.1252   3.0938758980e+01   2.8406670027e+01    0.4450383     0.301551 -63.75  0.001985932    1.759    0.431
       214 -13.3534    124.0854     85.3614   3.8434848771e+01   4.1067784802e+01     1.226029    0.6973078  41.04  0.005113449    1.791    0.442
       215 -12.2900     55.9927     93.9914   6.2336188912e+01   5.1467949318e+01    0.3554504    0.2971336  73.47  0.001643489    1.557    0.358
       216 -13.0921     62.2679     90.4098   5.9185984258e+01   5.1413460012e+01    0.9171802    0.3182722 -55.85  0.002616163    3.065    0.674
       217 -12.9333     58.4412     88.1972   5.9949282919e+01   5.2431044814e+01    0.7387559    0.3128928 -35.77  0.002722073    2.892    0.654
       218 -11.7874    215.1326     41.8988   1.0389815590e+01   2.7003874613e+01    0.3771821    0.2423209  82.91 0.0009038068    1.525    0.344
       219 -10.8059     70.8620     87.8972   5.5499395735e+01   5.0685904509e+01    0.2847337    0.2590227 -24.62  0.000405025    1.023    0.023
       220 -12.7834     67.0404     82.8705   5.5402716157e+01   5.2341787257e+01    0.5944493    0.5242764  80.88  0.003360339    1.489    0.328
       221 -11.9264     11.6168     97.4366   7.8937754418e+01   5.4976404372e+01     0.302406    0.2586802 -26.48  0.001316977    1.222    0.181
       222 -10.7010    200.1382     96.3757   2.5105155697e+01   2.1757228778e+01    0.3523093    0.2241499 -63.47  0.001292476    1.846    0.458
       223 -12.2511     49.2651     95.5429   6.5106669276e+01   5.1959170797e+01    0.3664126    0.2864692  27.42   0.00106303    1.384    0.278
       224  -9.5527    232.6878     95.8025   1.9984460533e+01   1.5068152723e+01    0.2882775    0.1161025 -33.44  0.001104649    2.769    0.639
       225 -10.7297     36.3924    248.8091   8.8966340232e+01   1.7444721341e+01    0.1566886   0.09611141 -66.79 0.0009599586    1.749    0.428
       226 -11.9620    166.0371     65.3574   2.3337357140e+01   3.4891744720e+01     1.047137    0.5930213  40.25  0.004487381    2.154    0.536
       227 -10.7574    161.5617     54.0365   2.1080557684e+01   3.7690754701e+01    0.9432314    0.9125401 -27.46  0.005715737    1.164    0.141
       228 -11.3368    113.9040    246.1348   7.3059596555e+01   7.4193943675e+00    0.2808692     0.250557  -2.17  0.001287527    1.370    0.270
       229 -13.1180    183.8790     58.2079   1.8418810100e+01   3.1791552180e+01     1.091041    0.8357548  71.13 0.0005303409    1.253    0.202
