#   1 NUMBER                 Running object number                                     
#   2 MAG_AUTO               Kron-like elliptical aperture magnitude                    [mag]
#   3 X_IMAGE                Object position along x                                    [pixel]
#   4 Y_IMAGE                Object position along y                                    [pixel]
#   5 X_WORLD                Barycenter position along world x axis                     [deg]
#   6 Y_WORLD                Barycenter position along world y axis                     [deg]
#   7 A_WORLD                Profile RMS along major axis (world units)                 [deg]
#   8 B_WORLD                Profile RMS along minor axis (world units)                 [deg]
#   9 THETA_WORLD            Position angle (CCW/world-x)                               [deg]
#  10 FWHM_WORLD             FWHM assuming a gaussian core                              [deg]
#  11 ELONGATION             A_IMAGE/B_IMAGE                                           
#  12 ELLIPTICITY            1 - B_IMAGE/A_IMAGE                                       
         1 -14.8668    159.8838     48.0815   7.9699533075e+01   3.9273311396e+01     1.218694     1.071337 -29.96  0.003675423    1.221    0.181
         2 -15.0774    172.4183     17.6101   6.8833750027e+01   3.9983235927e+01       1.4132     1.344424 -82.88  0.005757928    1.108    0.098
         3 -14.2842    189.8182     14.8513   6.5739327748e+01   3.6036344470e+01     1.033316    0.5755828 -81.18    0.0040332    2.188    0.543
         4 -13.3277    198.9453      8.2461   6.3014480341e+01   3.4527398476e+01    0.6613042    0.2994732 -75.91  0.002528674    3.341    0.701
         5 -11.8621     52.7933      8.0066   9.3671700945e+01   6.5705758208e+01    0.1790756    0.1047658  18.66   0.00106491    1.630    0.386
         6 -11.4751    128.2742    245.1512   1.3009727954e+02   6.4228103415e+00    0.1637091    0.1497385  87.56 0.0003590856    1.194    0.163
         7 -20.2998     79.9248    176.5624   1.3077853210e+02   2.8470055964e+01     16.65917     7.077362 -64.19    0.0698884    2.252    0.556
         8 -10.4656    238.6871    184.6835   9.8338090305e+01  -3.0879033212e+00    0.1395332   0.09859817   1.78 0.0003252726    1.643    0.391
         9 -13.4183    189.2515    177.5433   1.0647938200e+02   7.7200041860e+00    0.8880865    0.4998483 -60.02  0.002474352    2.567    0.610
        10 -12.2275    185.2856    170.3898   1.0581684195e+02   9.9513889321e+00    0.4055642    0.2783758 -63.34  0.001081786    1.867    0.464
        11 -12.7207    195.9930    174.3184   1.0442040879e+02   6.9706118029e+00    0.7268301    0.4331465 -57.86  0.003051078    2.203    0.546
        12 -12.9806    189.6221    155.5736   1.0168396354e+02   1.2021545994e+01    0.5695796    0.5286191  38.07  0.001587825    1.079    0.073
        13 -12.6979    192.4583    164.7375   1.0310842163e+02   9.5785298164e+00    0.4281319    0.3254758 -33.94 0.0006943593    1.353    0.261
        14 -12.5106    189.8052    160.9796   1.0284213861e+02   1.0890490720e+01    0.4106828    0.3413616 -83.38  0.001306144    1.508    0.337
        15 -13.1895    230.1706    167.9311   9.6411370442e+01   1.3508886343e+00    0.5054913    0.3000291 -38.21  0.002393065    1.611    0.379
        16 -10.4824    139.5089    245.3039   1.2800302863e+02   4.5029947179e+00    0.2388552    0.1660904  67.99 0.0008690347    1.559    0.359
        17 -10.4972     38.0651    249.0017   1.4637937536e+02   1.8938569278e+01    0.2434622    0.1099348  85.87  0.001325025    2.234    0.552
        18 -11.7887    166.9590    155.6824   1.0661285615e+02   1.6893381340e+01    0.2222272    0.1960301  53.09 0.0005389207    1.129    0.115
        19 -10.3663     13.5858    240.6853   1.4975096193e+02   2.3273982823e+01    0.2405411    0.1090345  69.43  0.001291954    1.825    0.452
        20 -10.4982    140.3642    240.2626   1.2717412080e+02   5.2233764722e+00    0.1889298    0.1529561 -55.18 0.0006232034    1.449    0.310
        21 -10.9984     18.1673    151.3305   1.4160515843e+02   4.1631928687e+01    0.5389969      0.13731 -63.96   0.00223947    2.761    0.638
        22 -12.9358    135.7077    237.7578   1.2773248075e+02   6.4637623700e+00    0.4042632    0.3115953 -88.08   0.00175623    1.500    0.333
        23 -12.1903    174.0063    148.3282   1.0339717011e+02   1.6926778346e+01    0.5302698    0.3469434 -56.06  0.001877482    1.683    0.406
        24 -10.6175    145.0837    232.7377   1.2521982673e+02   5.7269006043e+00    0.3595649    0.1726794 -50.25  0.001694688    2.399    0.583
        25  -9.6968     28.0560    232.6593   1.4689683513e+02   2.3213576190e+01    0.1391883   0.09945346  81.29 0.0009991468    1.042    0.040
        26 -12.9079    160.4781    128.0566   1.0163435093e+02   2.4287265957e+01    0.5307263    0.3905005 -60.71  0.001672352    1.494    0.330
        27 -13.2569    207.7330    226.2913   1.1201383871e+02  -4.2992972177e+00    0.4179851    0.2672571 -39.98  0.001801834    1.736    0.424
        28 -10.8399    139.5958    249.9793   1.2858769760e+02   3.7027012084e+00    0.2405649    0.1622857 -66.96  0.001074289    1.826    0.452
        29 -10.2012     33.5910    228.5084   1.4565783276e+02   2.3387491446e+01    0.1167049   0.08246434  78.04  0.000193569    1.052    0.050
        30 -11.0989    167.4951    112.7690   9.6175597921e+01   2.5900958580e+01    0.3763941    0.2650731 -77.33  0.001212214    2.007    0.502
        31  -9.6753     32.6953    221.5620   1.4528363286e+02   2.4878933772e+01    0.2682954    0.1698111 -55.99  0.001670991    2.014    0.504
        32 -10.8407    205.3689    110.2342   8.7771904277e+01   1.7494934090e+01     0.309259    0.2130633  48.09 0.0009664779    1.513    0.339
        33 -12.1652     27.0170    105.9757   1.3278433114e+02   5.1168521925e+01    0.3191149    0.2335082  -8.09 0.0009941083    1.787    0.440
        34 -10.9349    217.7412    218.2176   1.0869145123e+02  -4.7822297685e+00    0.2147202    0.1557951 -36.83 0.0006161463    1.481    0.325
        35 -11.6248     24.6495    215.4054   1.4623335500e+02   2.7031966331e+01    0.1592544     0.117104  68.37 0.0006347427    1.151    0.132
        36 -12.1844     40.0193     94.6892   1.2662865713e+02   5.2470838178e+01    0.4304055    0.3450578  -3.89  0.001700634    1.477    0.323
        37 -12.9974     47.8431     92.8468   1.2377780903e+02   5.2056618647e+01    0.4953183    0.3129749  15.97  0.002554642    2.000    0.500
        38 -13.2150     11.6621    205.7698   1.4783075907e+02   3.0352788802e+01    0.3779782    0.3141195  21.77  0.002704043    1.928    0.481
        39 -11.9389      4.1979     89.6176   1.3665113776e+02   5.6318155920e+01    0.2821639    0.1979895 -26.74  0.001922821    1.585    0.369
        40 -10.7793    143.3256     81.9717   9.3327737013e+01   3.7631694220e+01    0.2159504    0.1944002 -35.43  0.000560804    1.121    0.108
        41 -14.4521    148.9401     62.9258   8.6397151946e+01   3.9646813493e+01     1.262927     1.091275  -8.23  0.001177517    1.293    0.226
        42 -10.3813    150.6980    249.2364   1.2641833968e+02   1.9483640146e+00    0.1504409     0.131606  21.90 0.0004112616    1.313    0.239
        43 -13.4955    164.1606     39.3651   7.6349604274e+01   3.9422344598e+01    0.4779397    0.4494501  46.90 0.0008884231    1.087    0.080
        44 -10.7213     24.7836    202.8263   1.4521795162e+02   2.9629975891e+01    0.1572176    0.1158802 -85.11 0.0002832036    1.115    0.103
        45 -11.2524     13.4830     59.9490   1.2732122854e+02   6.1773769188e+01    0.1666533    0.1571439  35.28 0.0004101096    1.431    0.301
        46 -11.7958    115.5836    248.5636   1.3286135348e+02   7.9150488881e+00    0.2731237    0.1534622 -44.91  0.001420549    2.545    0.607
        47 -10.0864     29.8164    200.3591   1.4406187212e+02   2.9610246261e+01    0.1210237     0.105217  59.00 0.0001597255    1.343    0.255
        48 -10.4346     21.1590    194.7534   1.4522845494e+02   3.1724129746e+01    0.1336272    0.1048891 -79.83 0.0002605971    1.192    0.161
