#   1 NUMBER                 Running object number                                     
#   2 MAG_AUTO               Kron-like elliptical aperture magnitude                    [mag]
#   3 X_IMAGE                Object position along x                                    [pixel]
#   4 Y_IMAGE                Object position along y                                    [pixel]
#   5 X_WORLD                Barycenter position along world x axis                     [deg]
#   6 Y_WORLD                Barycenter position along world y axis                     [deg]
#   7 A_WORLD                Profile RMS along major axis (world units)                 [deg]
#   8 B_WORLD                Profile RMS along minor axis (world units)                 [deg]
#   9 THETA_WORLD            Position angle (CCW/world-x)                               [deg]
#  10 FWHM_WORLD             FWHM assuming a gaussian core                              [deg]
#  11 ELONGATION             A_IMAGE/B_IMAGE                                           
#  12 ELLIPTICITY            1 - B_IMAGE/A_IMAGE                                       
         1 -15.1350      6.6660     71.4335   7.4312578879e+01   6.3676763392e+01     1.265201     0.883236 -66.47  0.005050589    1.290    0.225
         2 -14.7354    119.6714     54.4013   1.9083582175e+01   4.7710749162e+01     1.159833    0.7721704  51.55  0.001881804    1.437    0.304
         3 -13.2163    135.9503     50.8999   1.4156149267e+01   4.4008400732e+01     1.230061    0.5200413 -32.58  0.004500229    2.531    0.605
         4 -14.6889    166.6961     29.3858   2.3626284473e+00   3.8911108027e+01     1.128342    0.8563913  89.56   0.00410596    1.221    0.181
         5 -14.8752    147.3886     29.5579   4.9920606048e+00   4.3932998132e+01     1.649523    0.7674487  66.36  0.006858218    1.952    0.488
         6 -13.1186    140.8739     21.4765   3.2181541800e+00   4.6628862102e+01    0.7918596    0.3814794  72.62   0.00169086    1.900    0.474
         7 -14.7730    124.5089     35.8675   1.1225861973e+01   4.9262268541e+01     1.709014    0.6294741  50.73  0.004997557    2.658    0.624
         8 -14.1766     41.5604      5.0384   2.3559796946e+01   7.3783441613e+01    0.9939041    0.6652862   7.87  0.004511991    1.796    0.443
         9 -13.1606      7.8741      2.5117   5.0195798358e+01   7.9498774331e+01    0.5342728    0.4795981   4.95  0.002820921    1.167    0.143
        10 -16.1079     12.0541     22.0615   5.7423989952e+01   7.5257376375e+01     2.229153      1.19658 -33.26   0.01106768    1.835    0.455
        11 -14.2072     26.5058     13.1582   3.9849006823e+01   7.5280524359e+01    0.8294563    0.5210631   7.09  0.003924912    1.964    0.491
        12 -14.1646    188.6884     24.5760   3.5870597686e+02   3.4032377054e+01     2.089994     0.631237 -50.31  0.007646393    3.099    0.677
        13 -12.2910    194.7955     23.4215   3.5786886668e+02   3.2720957453e+01    0.6191593    0.2921883 -26.36  0.002796801    2.232    0.552
        14 -13.4329    187.7702     12.1178   3.5545079750e+02   3.5596365125e+01    0.6544278     0.452867 -35.51  0.003640395    1.413    0.292
        15 -14.6137    217.2276     13.1614   3.5376067094e+02   2.8811221569e+01     1.251116     1.004094 -24.19  0.005155938    1.446    0.308
        16 -15.4511     98.5733     12.2033   7.0832199474e+00   5.9109668887e+01     1.903093    0.9101738  61.62  0.004424249    1.765    0.433
        17 -12.1872     60.4607     15.7289   2.1015731705e+01   6.8327737770e+01    0.5132529    0.3582889  31.29  0.002531039    1.462    0.316
        18 -11.7602     71.0237     16.5344   1.7218033519e+01   6.5733869940e+01    0.3551062    0.2236586 -18.65  0.001688344    1.882    0.469
        19 -11.9992     74.5731     10.6543   1.2753039892e+01   6.5535140384e+01    0.3893246     0.264169  -3.28  0.001925106    1.842    0.457
        20 -10.9735    142.7649     11.9879   3.5971109235e+02   4.7120862319e+01     0.220677    0.1350674 -75.24  0.001038409    1.635    0.389
        21 -12.1697    152.7332      8.8085   3.5754600398e+02   4.4774172149e+01    0.2951439    0.2639812  -1.97  0.001761579    1.421    0.296
        22 -12.0325     46.4801     12.6476   2.6024303551e+01   7.1776733424e+01    0.3700082     0.285868  63.60  0.001840045    1.542    0.351
        23 -12.2686    120.0420      2.9904   3.5935114278e+02   5.4111872619e+01    0.5447655    0.2435368 -81.72  0.002029579    2.742    0.635
        24 -11.2289     67.6978      2.7066   1.0422186676e+01   6.8042174209e+01    0.3190359    0.1840378  37.97   0.00152181    1.740    0.425
        25 -11.3361    232.6392      1.7586   3.5044285621e+02   2.6766316647e+01     0.201945    0.1414647 -85.40 0.0009621773    1.355    0.262
        26 -11.9194     80.7272      1.7482   6.1236350207e+00   6.4803642113e+01    0.7124503   0.08280914  61.94  0.001989305    4.344    0.770
        27 -11.6949     61.3248      1.4543   1.1853446435e+01   6.9719565501e+01    0.4651943    0.1249152  63.34  0.001523019    3.455    0.711
        28 -12.1653     48.5380    181.5235   7.0532834272e+01   3.1206249571e+01    0.4280069    0.3062157 -40.89  0.002245966    1.806    0.446
        29 -13.2764     57.2284    246.8039   7.3205414109e+01   1.6745957309e+01    0.5647205    0.3410073  24.94  0.003364279    1.466    0.318
        30 -12.2605     41.4980    249.9799   7.6826735474e+01   1.7910654457e+01    0.2385801    0.1417413  44.63  0.001519586    1.219    0.180
        31 -13.7333     28.1494    246.5495   7.9570312722e+01   1.9893536179e+01    0.6352614    0.4378151  24.42  0.003775843    1.404    0.288
        32 -12.1271      2.8566    249.4389   8.4997981614e+01   2.1730634825e+01    0.3400137    0.1997585  33.77  0.001786098    1.317    0.241
        33 -14.2209      9.3751    245.5221   8.3554789352e+01   2.1858424551e+01    0.9884968    0.3321965  42.95  0.003906212    1.848    0.459
        34 -12.5793    198.6622    181.1267   3.3601563700e+01   8.1888034783e+00    0.2777339    0.2314379 -46.39  0.001476978    1.565    0.361
        35 -13.0842     24.6988    216.9712   7.9132475457e+01   2.5938265233e+01     1.117021    0.2933674  38.21    0.0048414    2.383    0.580
        36 -12.8431    124.2414    166.4469   4.7277009129e+01   2.3190871202e+01     0.658892    0.4581119 -73.13  0.003056453    2.031    0.508
        37 -13.7351     22.3263    180.8748   7.7926391526e+01   3.4147884289e+01    0.8408772    0.4988053 -56.89  0.004162521    1.977    0.494
        38 -12.3013     77.1621    157.0275   5.9050004931e+01   3.3250152656e+01    0.5125124    0.3345316  30.27  0.001525758    1.453    0.312
        39 -13.1293     74.0149    153.4915   5.9486579873e+01   3.4603824088e+01    0.7277339    0.5201359  28.68  0.002137839    1.361    0.265
        40 -11.9660    111.5549    155.6357   4.8703643498e+01   2.7807566359e+01    0.5782446    0.3511325  72.66  0.002105139    3.034    0.670
        41 -11.6301     55.5096    155.7518   6.5669935698e+01   3.6650179648e+01    0.3519994    0.2485321 -14.11  0.001624376    2.012    0.503
        42 -11.8025     85.7262    152.6359   5.5719670429e+01   3.2966158447e+01    0.5447693    0.2824612 -40.03  0.002069703    2.574    0.612
        43 -12.9114      7.7837    148.6667   8.0518630370e+01   4.3276369222e+01    0.6168227    0.3670469  62.36  0.003175515    1.512    0.339
        44 -11.6443    103.6154    149.6469   4.9839947922e+01   3.0607569866e+01     0.387966    0.2990583 -12.17  0.001419105    1.700    0.412
        45 -12.1803    211.5683    154.4308   2.6312805543e+01   1.0253451280e+01    0.2901301    0.1676717  -7.30  0.001343047    2.464    0.594
        46 -11.7354    244.7066    146.9961   1.9859828368e+01   6.3890057997e+00    0.1747175    0.1307592 -24.29  0.001185919    1.081    0.075
        47 -10.5344     38.2415    145.6168   7.0156413515e+01   4.1337762547e+01    0.1891844    0.1363841  10.15 0.0004430624    1.612    0.380
        48 -11.9953     42.6420    138.9608   6.7861547207e+01   4.2587678390e+01    0.2500772    0.2090607   9.90  0.001328638    1.352    0.260
        49 -12.6687    246.2161    134.4530   1.7264781497e+01   7.8546053224e+00    0.3369958    0.2432989 -65.74  0.001989846    2.345    0.574
        50 -11.3120     47.3667    133.0000   6.5388124841e+01   4.3598750381e+01    0.4297034    0.2069359 -81.30  0.001631664    2.439    0.590
        51 -11.6259    138.6740    131.6335   3.6451313589e+01   2.7828193851e+01    0.4080416    0.2698963  20.18   0.00172211    1.972    0.493
        52 -12.3240    222.8641    127.7290   1.9143805028e+01   1.2426435456e+01    0.2482119    0.1496387 -53.27  0.001259094    2.125    0.529
        53 -14.0868    104.6397    121.6675   4.3627944284e+01   3.7037373887e+01     1.683062     1.180099  37.61  0.007575323    1.377    0.274
        54 -14.7091    106.1982    104.8449   3.8918072681e+01   4.0661815008e+01     1.632136     1.408162  57.60  0.008049207    1.150    0.130
        55 -13.2605      4.8612    118.6978   7.9767959003e+01   5.1255965767e+01    0.8955896    0.5924913 -69.09  0.004011145    1.423    0.297
        56 -14.4997     18.3471    110.6000   7.3692490229e+01   5.2539301673e+01    0.9740892    0.8563611 -33.94  0.004111971    1.251    0.201
        57 -13.3447     21.2902     86.2502   6.9055316962e+01   5.8852056128e+01    0.8417218    0.4860065   3.57  0.002870739    2.036    0.509
        58 -14.8886     26.5291     93.8926   6.7837733800e+01   5.6365392086e+01     2.136384    0.9857373   9.51   0.00822838    2.682    0.627
        59 -13.5477     32.2570    112.1806   6.8180114247e+01   5.0888765116e+01     0.771624    0.3861083 -58.47  0.003275549    1.903    0.474
        60 -12.1775     78.7288    110.9602   4.9765570123e+01   4.4631336071e+01    0.3666196    0.3275254 -80.00  0.001385385    1.168    0.144
        61 -12.7032     84.9158    115.0825   4.8539279780e+01   4.2463370719e+01     1.013509    0.5391693  23.26  0.003597191    2.506    0.601
        62 -11.8305     88.3620    109.4881   4.6000699724e+01   4.3202108237e+01    0.5417057     0.295319 -62.86  0.002054868    2.143    0.533
        63 -10.9185    195.3016    113.3208   2.0330740647e+01   1.9666084907e+01    0.1367728    0.1041278   2.43 0.0005452496    1.627    0.386
        64 -11.4952     45.8645    110.0952   6.2284412477e+01   4.9912853825e+01    0.6175045    0.2799479 -38.59  0.002101623    3.115    0.679
        65 -10.7728     42.9568    107.2401   6.2963540323e+01   5.1037541617e+01    0.2100361      0.18866  41.96 0.0004704286    1.100    0.091
        66 -11.8238    121.8298    111.9339   3.6148452511e+01   3.5664460016e+01    0.2879412    0.2343958  55.43 0.0007158004    1.231    0.187
        67 -12.0963     62.7953    108.9537   5.5300993819e+01   4.7828922929e+01    0.6716901     0.331666 -71.68  0.002433406    2.485    0.598
        68 -11.5294    176.8318    110.1678   2.2887257398e+01   2.3964154466e+01    0.2048625    0.1732459   4.21  0.001095163    1.356    0.262
        69 -14.0627     10.7487    102.9548   7.6082330558e+01   5.5110252878e+01    0.8836626    0.7064363  -6.89  0.004104617    1.422    0.297
        70 -12.5246    135.9492    102.9064   2.9996253117e+01   3.4428851107e+01    0.5803585    0.3069372  51.14  0.001715878    1.888    0.470
        71 -12.8826    120.1982    102.3006   3.4052782215e+01   3.8144687379e+01    0.4877891    0.3514671  36.87  0.001836826    1.433    0.302
        72 -11.0746     64.6677    101.7193   5.2919762654e+01   4.9413721302e+01    0.2389104    0.1745994  -2.18 0.0002499493    1.851    0.460
        73 -12.0420     61.2677     97.9390   5.3390446524e+01   5.0938560458e+01    0.5310397     0.346744  58.16  0.001772931    1.766    0.434
        74 -12.2802     48.9814     93.1179   5.7491570939e+01   5.4017086283e+01    0.9625797    0.6154904 -45.52  0.002828085    1.635    0.388
        75 -11.3791     48.6660    100.6907   5.9289353362e+01   5.2060966972e+01    0.3410697    0.2575594  13.56   0.00151467    1.476    0.322
        76 -12.2312     52.2947     98.0139   5.7165935846e+01   5.2268596430e+01    0.6174023    0.3294004   9.30  0.002176356    2.919    0.657
        77 -12.4284    163.8667     97.3042   2.2184867056e+01   2.9111824832e+01    0.3658079    0.2697903  54.18 0.0006672395    1.382    0.276
        78 -12.9741    137.2221     95.0815   2.7529716877e+01   3.5722129787e+01    0.4990513    0.3941326  69.44  0.001246462    1.381    0.276
        79 -13.1519     28.8272    121.9525   7.0834521691e+01   4.8587455090e+01    0.5819528    0.3991697 -52.80  0.002569387    1.513    0.339
        80 -11.3067    129.0206     96.0188   2.9888124388e+01   3.7454533976e+01    0.2558896    0.1962587 -89.24  0.001133899    1.680    0.405
        81 -12.0369     43.0903     90.3640   5.9515550383e+01   5.5516627506e+01     0.501569    0.2801819 -72.64  0.001280757    1.941    0.485
        82 -10.4482     59.0157    125.0358   5.9884613255e+01   4.4155895294e+01    0.1849548    0.1647788 -77.22 0.0004243272    1.132    0.117
        83 -10.1641     78.6757     87.2701   4.3532797733e+01   5.0515537414e+01    0.1594573    0.1208892  68.85 0.0002246132    1.573    0.364
        84 -13.7937      2.2983     96.9007   7.9216095828e+01   5.7163887267e+01     1.125002    0.3740061 -82.98  0.003802897    2.806    0.644
        85 -13.3820    188.5707     84.1158   1.4385563162e+01   2.5820357979e+01    0.6539069    0.3118297  47.17  0.002112724    2.349    0.574
        86 -12.0033    152.5691     82.9707   2.0599432197e+01   3.4359407156e+01    0.2896888    0.2149862  49.60 0.0002923561    1.362    0.266
        87 -12.4346    158.9779     65.4054   1.4263915697e+01   3.5788577980e+01    0.8127834    0.2589316 -43.66  0.002666035    3.046    0.672
        88 -13.6664    164.7162     71.0377   1.4859103338e+01   3.3461826582e+01     1.274153    0.4744585  51.16  0.004549943    2.730    0.634
        89 -13.5677    160.7366     80.6838   1.8310316239e+01   3.2798254704e+01    0.8967977    0.5595495  22.80  0.002475727    2.846    0.649
        90 -14.6321    169.6880     76.9080   1.5615450155e+01   3.1303527451e+01     1.417725    0.6147971  56.47  0.005452492    2.317    0.568
        91 -11.6625    180.9218    120.1643   2.4479778484e+01   2.1359453866e+01     0.215876    0.1949426 -65.44  0.001070724    1.252    0.201
        92 -14.0372     39.6117     67.6102   5.5397438751e+01   6.1794127046e+01     3.665435    0.9266716  23.77  0.009656748    5.156    0.806
        93 -14.5472    100.9085     49.9052   2.2596971970e+01   5.3297796357e+01     1.548269     1.040031  35.88  0.004918217    1.688    0.408
        94 -13.5711     66.4710     49.1371   3.5147575838e+01   6.1442630004e+01     1.391758    0.7508653 -29.87  0.005383984    2.472    0.595
        95 -13.5401     72.5444     74.8162   4.2111062988e+01   5.4658058854e+01     1.495247    0.8250473  18.07  0.004350465    3.293    0.696
        96 -13.8026     87.3915     65.2479   3.2964198694e+01   5.3626759824e+01      1.09983    0.8054968  10.78  0.003863612    1.964    0.491
        97 -14.0027     61.1303     75.9589   4.7413529359e+01   5.6487205859e+01     1.029752    0.7331293 -47.62  0.001985411    1.428    0.300
        98 -13.8777    199.0749     69.8228   9.2898750926e+00   2.5701476627e+01    0.8093086    0.4634239  56.77   0.00282827    1.872    0.466
        99 -12.4155    216.5664     80.7615   9.6946374145e+00   2.0488038920e+01    0.4547642    0.3122236 -32.98  0.002065957    1.317    0.241
       100 -12.5045    210.7025     77.6330   9.6931361517e+00   2.2113940969e+01    0.6290679    0.3430087 -66.91  0.002702123    2.729    0.634
       101 -11.9326    114.1938     79.9844   2.9211245082e+01   4.4287998425e+01    0.4805292    0.3536573 -53.57   0.00218697    1.442    0.307
       102 -12.9208    135.1614     79.2480   2.3418708222e+01   3.9306022706e+01    0.8585165    0.4071307  56.62  0.003014355    2.128    0.530
       103 -13.7778    170.6507    242.4927   4.8504115184e+01   3.2216635413e+00    0.6004107    0.3486373  19.75  0.003683158    1.390    0.281
       104 -14.3823      5.6883     63.2858   7.3643642643e+01   6.5821639325e+01    0.7971469    0.6350425  11.10  0.004299125    1.345    0.256
       105 -13.2032     55.4996     80.6628   5.1364189987e+01   5.6256924827e+01    0.6428853    0.5123008 -38.19  0.001870207    1.327    0.246
       106 -11.7505     42.4961     79.4803   5.7190253198e+01   5.8424153734e+01    0.3301648    0.2537314 -16.18  0.001274679    1.514    0.339
       107 -11.4717     41.6373     76.1583   5.6746279524e+01   5.9384363233e+01    0.3319871    0.2104203 -56.81  0.001062892    1.526    0.345
       108 -11.6222     27.4530     76.3098   6.4041775440e+01   6.0935586131e+01    0.3206882    0.2473547  77.91   0.00117087    1.458    0.314
       109 -13.2244    133.5010     66.1574   1.9719658139e+01   4.2114722429e+01    0.9877418    0.7738786  15.61  0.004094012    1.741    0.426
       110 -12.1119    214.4320     71.5017   7.7948652806e+00   2.2228480983e+01    0.2341435    0.2060064 -52.98 0.0006435309    1.033    0.032
       111 -12.8129    237.2598     79.8474   7.1438496474e+00   1.6727018889e+01    0.3815893    0.2563981 -89.73  0.002206074    2.014    0.503
       112 -11.6642    100.3185     64.4750   2.8240640840e+01   5.0753795553e+01    0.3702743    0.3419437  28.00  0.001556921    1.157    0.135
       113 -13.0931     79.6379     58.9186   3.3545228903e+01   5.6660604786e+01    0.9262962    0.6790178 -22.96  0.004227995    1.695    0.410
       114 -11.7392     34.5583     60.2024   5.5933543404e+01   6.4244721072e+01    0.3788225    0.2508776 -42.16  0.001840697    1.500    0.333
       115 -12.5957     35.2506     54.9275   5.3815673809e+01   6.5425801717e+01    0.3782689    0.2933848 -10.16 0.0006814752    1.405    0.288
       116 -12.1179     24.8646     59.2994   6.1328847397e+01   6.5512069888e+01    0.5249541    0.2518734 -50.85  0.001967328    1.906    0.475
       117 -14.6878     95.3183    234.7922   6.3654128339e+01   1.4212343261e+01     1.213552     0.726703  59.11  0.006593771    2.008    0.502
       118 -14.4117     26.7723    225.6958   7.9025164065e+01   2.3971800584e+01     1.301228    0.4198967 -60.73  0.005626609    3.846    0.740
       119 -14.1416     20.9173    224.4623   8.0340173965e+01   2.4789143510e+01    0.7401786    0.4314402  34.20  0.004170321    1.354    0.262
       120 -12.4113    147.2332    238.6736   5.2721312855e+01   6.7368113102e+00    0.2220058    0.1772336  56.36  0.001188457    1.774    0.436
       121 -12.1288    145.0481    232.1328   5.2353809897e+01   8.0046836398e+00      0.23119    0.1858253 -50.26  0.001537749    1.662    0.398
       122 -12.5949    110.1498     41.9375   1.6876038817e+01   5.2210775600e+01    0.5173666    0.2339967  58.57 0.0009287368    2.024    0.506
       123 -12.9589     64.1584    223.8362   7.0009017005e+01   2.0187143390e+01    0.7098003    0.3272017  39.25  0.003565458    1.624    0.384
       124 -13.2553    113.7519     37.9743   1.4430162420e+01   5.1848199137e+01    0.4541544    0.3686042  68.46  0.001569527    1.139    0.122
       125 -10.8178     47.2498     56.2295   4.7539416582e+01   6.3424029704e+01    0.2389873    0.1646186  68.46  0.001041251    2.153    0.536
       126 -11.5082     17.5810     54.9923   6.4654657626e+01   6.7205520509e+01     0.332189    0.2251233 -81.46  0.001688523    1.639    0.390
       127 -12.1317    247.6894     52.7314   4.2462995908e-01   1.8312859898e+01    0.5344409    0.1981939 -33.71  0.002593836    2.135    0.532
       128 -13.8704    177.7125     56.6865   8.7604789444e+00   3.2523939888e+01    0.9395677    0.5455171 -49.95  0.003015734    1.656    0.396
       129 -10.5337     23.5167     49.9657   5.9413779160e+01   6.7916467373e+01    0.1984748    0.1293429 -59.60  0.000435089    1.479    0.324
       130 -11.8775     38.9609     59.8841   5.3351764759e+01   6.3764758069e+01    0.4581504    0.2721531  60.19  0.001870501    2.491    0.599
       131 -12.3922    154.5318     46.5042   9.3125914693e+00   3.9799617154e+01    0.4975751     0.259705  61.57  0.002129828    1.818    0.450
       132 -13.2373    158.4876     43.0218   7.6112852126e+00   3.9264763316e+01    0.5433717    0.5053306  89.44  0.002078587    1.064    0.060
       133 -11.3464     38.9459     46.2723   4.8398088536e+01   6.6911637133e+01    0.2032567    0.1812421  12.76  0.001152878    1.085    0.078
       134 -11.0823     29.8566     45.8793   5.3904392948e+01   6.8193481496e+01    0.2309731    0.1765676 -28.96  0.001238143    1.309    0.236
       135 -13.5134      6.1726     43.2176   6.9394277843e+01   7.0800848120e+01     1.231174    0.5969307  -4.34  0.004039939    2.282    0.562
       136 -13.6385     68.4115    220.8599   6.8738067900e+01   2.0244958047e+01    0.6565223    0.4437868 -82.63  0.003821667    1.801    0.445
       137 -13.5384     59.4223    212.7121   7.0288231704e+01   2.2993859983e+01    0.7462798    0.4398241  -6.74  0.003172449    3.291    0.696
       138 -12.9883     94.3078    218.2592   6.2205597894e+01   1.7353482969e+01     0.347769     0.226023  35.57  0.001472684    1.220    0.180
       139 -14.0809     64.0569    214.5146   6.9277321447e+01   2.2054996303e+01    0.7047793    0.4378433  20.31  0.002526323    1.635    0.388
       140 -10.6341      5.5055    219.4980   8.3759973155e+01   2.7182525994e+01    0.1203471   0.09054402  50.31 0.0008106082    1.017    0.017
       141 -11.6818     85.4125    215.4082   6.4070295459e+01   1.9108840830e+01    0.2472049    0.1793762  45.67  0.001341749    1.193    0.162
       142 -12.8621     72.0896    206.5479   6.6526798589e+01   2.2670413122e+01    0.3278885    0.2520386  50.41  0.001937342    1.152    0.132
       143 -13.0111    205.5993     40.2086   1.1646279880e+00   2.8271425267e+01    0.6960534    0.3441691 -80.20   0.00302755    2.620    0.618
       144 -10.3386    169.6395     42.7292   5.9223808350e+00   3.6464987222e+01    0.1406493    0.1049715  40.90 0.0004233313    1.650    0.394
       145 -12.5393     36.7652     34.2118   4.4422667997e+01   6.9792654336e+01    0.5220712    0.2591475  16.78  0.001953769    2.997    0.666
       146 -12.2441     40.2769     40.3008   4.5050188673e+01   6.8001478345e+01    0.5564935    0.3023795  34.65  0.002519068    1.782    0.439
       147 -13.1126     32.8347     40.1674   4.9691013900e+01   6.9096973399e+01    0.4662987     0.354351  13.97  0.001147202    1.322    0.243
       148 -13.1045     74.7857     36.9579   2.6142524135e+01   6.1854112648e+01    0.7495505    0.3552603  54.54  0.001914148    2.076    0.518
       149 -12.8833    242.8208     36.1527   3.5727107468e+02   2.1154874787e+01    0.5192391    0.2837237 -89.49  0.002653576    2.097    0.523
       150 -12.2945    105.5201     34.2009   1.4976040340e+01   5.4574071790e+01    0.7026517    0.4026885 -15.47  0.002799232    2.507    0.601
       151 -12.7235     46.0024     33.2388   3.8257940484e+01   6.8465344148e+01    0.5556855    0.4099118 -24.14  0.002883827    1.479    0.324
       152 -13.5716    216.4210     28.8341   3.5749440300e+02   2.7275568304e+01    0.6005126    0.2489011 -51.93  0.002678588    2.089    0.521
       153 -12.0849      5.1105    209.7661   8.3594515537e+01   2.9220482164e+01    0.2128864    0.1665002   2.47  0.001380818    1.667    0.400
       154 -12.1335    223.1744     20.8820   3.5518052835e+02   2.6740874977e+01    0.3464639    0.2358817  69.68  0.001521522    1.620    0.383
       155 -12.9578    120.0578     26.5945   8.6202068768e+00   5.1674447847e+01    0.7127433     0.420148  57.87  0.002746985    1.540    0.351
       156 -13.1851     56.4546     27.1648   2.9393552505e+01   6.7517195268e+01    0.8664672    0.3272354  47.93  0.002292156    2.486    0.598
       157 -11.7067     64.5026     24.9706   2.4438884620e+01   6.6110892547e+01     0.313812    0.2561682 -36.64  0.001154077    1.336    0.252
       158 -12.2993     30.5599     25.4946   4.4201859580e+01   7.2433028842e+01    0.4002921    0.2482991  22.14  0.001607665    1.631    0.387
       159 -11.8389     35.9542     23.2006   3.9137699101e+01   7.2033705238e+01    0.3452533    0.2524222 -14.02  0.001591392    1.515    0.340
       160 -10.8405    136.6015    210.8281   5.1340725782e+01   1.2656008799e+01    0.1581033    0.1304008 -69.22 0.0009469852    1.705    0.414
       161 -12.9388     57.5903    203.1308   6.9962873036e+01   2.5236088491e+01    0.5808156    0.3238629  89.69  0.002834021    2.200    0.545
       162 -12.0060     13.6059    205.5956   8.1382715436e+01   2.9372254129e+01    0.3262646    0.1487097 -57.27  0.001563306    2.827    0.646
       163 -11.6464     14.4866    200.4923   8.0965226397e+01   3.0400032806e+01    0.2315179    0.1986785  45.57  0.001094048    1.131    0.116
       164 -12.6230     16.9145    195.9184   8.0148845900e+01   3.1192589047e+01    0.3998995    0.2742017 -64.60  0.001675375    1.701    0.412
       165 -11.9549     47.7956     19.8658   2.9821210981e+01   7.0446177685e+01    0.6100801    0.2305799  48.31  0.002338521    2.556    0.609
       166 -13.5048     39.9152    195.7714   7.4058633131e+01   2.8916155370e+01    0.7620886    0.4025372  59.47  0.003754928    1.787    0.440
       167 -14.0688     30.1401    168.8567   7.4863090721e+01   3.6286919666e+01    0.9773852    0.7538233  11.13  0.002830453    1.492    0.330
       168 -15.2839      8.2550    183.2280   8.1929141419e+01   3.4823347043e+01     1.264055     1.129439  76.62  0.008508401    1.161    0.139
       169 -15.3936     15.3405    174.9642   7.9587119420e+01   3.6180048042e+01     2.381915    0.8831622  51.81   0.01020344    2.268    0.559
       170 -12.2146    164.1665    194.6959   4.2798057292e+01   1.1250948707e+01    0.4478288    0.2754601 -63.54  0.002022684    3.120    0.680
       171 -14.0490    217.2396     41.8987   5.1549960919e-01   2.5551636264e+01    0.9537684    0.4304174  68.19  0.004522362    2.346    0.574
       172 -11.7369    200.9036    191.3569   3.4985956572e+01   6.3571573700e+00    0.2637237    0.1961751  13.39  0.001419941    1.169    0.145
