#   1 NUMBER                 Running object number                                     
#   2 MAG_AUTO               Kron-like elliptical aperture magnitude                    [mag]
#   3 X_IMAGE                Object position along x                                    [pixel]
#   4 Y_IMAGE                Object position along y                                    [pixel]
#   5 X_WORLD                Barycenter position along world x axis                     [deg]
#   6 Y_WORLD                Barycenter position along world y axis                     [deg]
#   7 A_WORLD                Profile RMS along major axis (world units)                 [deg]
#   8 B_WORLD                Profile RMS along minor axis (world units)                 [deg]
#   9 THETA_WORLD            Position angle (CCW/world-x)                               [deg]
#  10 FWHM_WORLD             FWHM assuming a gaussian core                              [deg]
#  11 ELONGATION             A_IMAGE/B_IMAGE                                           
#  12 ELLIPTICITY            1 - B_IMAGE/A_IMAGE                                       
         1 -14.7958    241.2934     10.5566   5.1629972837e+01   2.3450616529e+01    0.8447009    0.4941015  -0.18    0.0035885    3.448    0.710
         2 -12.2564     17.9691     10.3060   1.0339947288e+02   6.8820164697e+01    0.1527637    0.1111817 -15.75  0.001161495    1.095    0.087
         3 -11.3565    141.2965      6.3240   6.3959070282e+01   4.8599994006e+01    0.1414672   0.08876894  32.80 0.0004666411    1.624    0.384
         4 -12.8685    149.9908      3.4968   6.1470889450e+01   4.6779452817e+01    0.4939767    0.2128251  37.14  0.001997838    2.628    0.619
         5 -13.7293    237.6483      2.4943   5.0142967954e+01   2.5190858717e+01    0.4638626    0.1559202  78.49  0.001716348    3.240    0.691
         6 -11.5305     23.3455      2.3146   9.7779739730e+01   6.9445700291e+01    0.1135017   0.06402514 -10.84 0.0007047529    1.715    0.417
         7 -11.4861    165.2351    240.6321   1.1497818974e+02   3.1630163010e+00    0.1127241   0.08563329  76.12 0.0005255112    1.601    0.375
         8 -16.8733    244.1634    221.8456   9.8113004976e+01  -8.0417311658e+00     3.982797     1.131306 -33.11   0.01586451    3.966    0.748
         9 -10.3477    166.5209    250.5324   1.1604120633e+02   1.5487298387e+00    0.1208806   0.09247795  50.49 0.0008085905    1.064    0.060
        10 -20.6202     99.8061    191.8736   1.2072866892e+02   2.2827655257e+01      8.58674     6.369849  51.12   0.04965727    1.255    0.203
        11 -12.0090    181.2743    199.2365   1.0568506657e+02   6.6637567565e+00     0.329065    0.2051784 -50.76  0.001035203    1.909    0.476
        12 -12.7955      5.7649    236.9825   1.4071869148e+02   2.6266312804e+01    0.2514448    0.1386573 -68.20  0.001881744    1.943    0.485
        13 -11.7762      9.0144    232.1050   1.4000803933e+02   2.6777027534e+01    0.1599662    0.1131288 -68.17  0.001301399    1.741    0.426
        14 -11.3117    205.7705    192.7148   9.9805458074e+01   2.9494010156e+00     0.171723    0.1548582  68.03 0.0006080203    1.320    0.242
        15 -11.5338     53.4008    250.2082   1.3451964009e+02   1.8752310053e+01    0.1531405    0.1415795 -80.42  0.001299993    1.686    0.407
        16 -10.8406     36.5188    249.4725   1.3697441977e+02   2.0904656379e+01    0.1654038     0.134644  86.12  0.000735688    1.373    0.272
        17 -12.7505    217.5475    186.6644   9.6435227890e+01   1.5995464863e+00    0.3028048    0.2197344 -55.58  0.001327868    1.864    0.463
        18 -12.0239    196.4445    185.1961   1.0018212369e+02   6.0116495476e+00    0.2360356    0.1728922  43.65 0.0002934228    1.232    0.189
        19 -12.5374    195.7952    175.0020   9.8327046544e+01   7.8749967640e+00    0.5180988    0.2551586  31.01  0.001979723    2.625    0.619
        20 -11.7624    165.1079    233.8357   1.1407997155e+02   4.1844371012e+00     0.186982    0.1369896  54.81  0.001161112    1.204    0.169
        21 -11.5340     39.7282    249.9971   1.3653719507e+02   2.0444490173e+01    0.1422932   0.09531273  77.76 0.0005818625    1.098    0.089
        22 -10.7826    181.3543    245.4844   1.1280823890e+02  -2.9677808193e-01    0.1172315   0.09535929  39.12 0.0001728139    1.069    0.065
        23 -11.5300     27.4830    231.8694   1.3725004376e+02   2.4900852886e+01    0.1646793    0.1312313 -67.23  0.001337375    1.700    0.412
        24 -12.3553     27.2920    226.2441   1.3692671697e+02   2.5909492624e+01    0.2260809    0.1404532  81.78  0.001246169    1.213    0.175
        25 -13.3772     18.0238    153.4829   1.3282555885e+02   4.0963684290e+01    0.2113274    0.1811777 -75.49 0.0003895375    1.228    0.186
        26 -10.3986    149.2806    243.5356   1.1814727132e+02   5.4717136868e+00    0.2664735   0.09628889  43.99  0.001217645    2.222    0.550
        27 -11.0919    194.5769    231.7960   1.0849125195e+02  -7.4423612599e-01    0.1285527   0.07739176  29.88 0.0004517287    1.665    0.399
        28 -12.9733     24.2989    146.9166   1.3083614971e+02   4.1783544037e+01    0.1930937    0.1575302  87.71 0.0003309314    1.095    0.087
        29 -11.0764    170.9457    228.7357   1.1230449320e+02   3.9130340050e+00    0.3494014    0.2547896 -35.30  0.002125499    1.759    0.431
        30 -12.0407    202.4925    228.2368   1.0652057697e+02  -1.6610626656e+00    0.2235796    0.1392064  42.45 0.0005850642    1.319    0.242
        31 -11.7366     11.6886    227.7124   1.3938175697e+02   2.7271843581e+01    0.1487126    0.1115591  88.52 0.0005174598    1.241    0.194
        32 -11.4808    183.5558    226.4745   1.0967270226e+02   1.9815590326e+00     0.127311    0.1049097  48.20 0.0002258905    1.088    0.081
        33 -12.2789    175.6409    222.9098   1.1058351056e+02   3.9485786723e+00    0.2726189     0.170193  55.87  0.001133627    1.573    0.364
        34 -13.4997     12.0485    220.9442   1.3894930635e+02   2.8427764130e+01    0.4063126    0.1956491  42.56  0.002756338    2.092    0.522
        35 -13.7767     48.1712    122.6933   1.2205933233e+02   4.4653267761e+01    0.3415438    0.2462415 -31.18 0.0005340864    1.805    0.446
        36 -12.4848    147.9383    122.9676   9.7272464746e+01   2.8220211817e+01     0.226845    0.2196354  70.01 0.0003350851    1.019    0.019
        37 -13.1368    159.1102    112.3648   9.2074219599e+01   2.7901239044e+01    0.3367795     0.245878 -56.73 0.0006156898    1.512    0.338
        38 -13.8971     12.2160    216.1465   1.3864454351e+02   2.9270623196e+01    0.4182037    0.3377954 -89.26  0.003416291    1.325    0.245
        39 -13.2773    149.0185    115.9748   9.5317875855e+01   2.9423113417e+01    0.3561769    0.2340925  60.31  0.001144572    1.718    0.418
        40 -13.1998    140.6354    106.8363   9.5013296878e+01   3.3109837517e+01    0.3195421    0.2430534  36.16 0.0008890948    1.386    0.279
        41 -15.1781    151.5807    107.9295   9.2684001617e+01   3.0486491500e+01    0.9215375     0.804417  74.75  0.004737008    1.256    0.204
        42 -14.5289    144.5921    102.6355   9.2965605490e+01   3.3098675057e+01    0.5424395    0.4639715  67.00  0.002017718    1.264    0.209
        43 -13.5286    144.1607    115.2215   9.6280159399e+01   3.0632265787e+01    0.4300039     0.303545  80.10   0.00155606    2.043    0.511
        44 -12.8137     10.6258    210.7473   1.3857098839e+02   3.0404672518e+01     0.233126    0.1459586 -86.20 0.0008124068    1.233    0.189
        45 -11.3940     19.4948    114.9382   1.2801463489e+02   4.8962058205e+01    0.1842683    0.0911798 -70.28    0.0010363    1.621    0.383
        46 -15.6001    108.6548    107.1979   1.0317789404e+02   3.9384158410e+01     1.064082    0.7210437 -82.41  0.004661158    2.284    0.562
        47 -11.4934    191.5903    217.9787   1.0686662440e+02   1.7689886003e+00    0.2518474    0.1469524  35.49  0.001033396    1.570    0.363
        48 -13.1479    184.3072    214.7216   1.0769447979e+02   3.6093236202e+00    0.2901385    0.2745249 -74.81  0.001927533    1.275    0.216
        49 -12.7846     40.9648    246.1447   1.3611466985e+02   2.0935495758e+01    0.3968152    0.2067824  55.19  0.002771313    1.474    0.321
        50 -12.7637    128.8160    101.0543   9.6438336029e+01   3.6775342903e+01    0.2624062    0.2165893  44.09 0.0005592814    1.230    0.187
        51 -13.8600    142.5726     95.8776   9.1649860565e+01   3.4886543732e+01    0.4279763    0.3196654  43.22  0.001186574    1.344    0.256
        52 -13.8695    131.2963     97.0519   9.4754362048e+01   3.7073815338e+01    0.4141847    0.2208025  43.92  0.001716672    1.904    0.475
        53 -10.9083    178.8350    216.7083   1.0903406316e+02   4.3171891682e+00    0.3783237    0.2549327  80.79  0.001832425    2.546    0.607
        54 -13.4602    118.5459     89.1634   9.5895768259e+01   4.1241710936e+01    0.3035486    0.2842272  58.80   0.00045405    1.139    0.122
        55 -13.8038    123.8081     87.6106   9.4087886844e+01   4.0496367820e+01    0.4671981    0.2085117  51.69  0.001599745    2.515    0.602
        56 -12.7492    111.0474     89.0685   9.7868004579e+01   4.2701322519e+01    0.2129986    0.2049857 -23.16 0.0003544764    1.017    0.017
        57 -11.3959    176.6418    211.7259   1.0865450183e+02   5.5106195664e+00    0.2197233     0.132323 -48.21  0.000965677    1.974    0.493
        58 -13.5318     89.9953     85.4978   1.0274022315e+02   4.7089288000e+01    0.3539076    0.2258825  60.91  0.001639323    2.272    0.560
        59 -13.3687     73.1009     87.9095   1.0822501195e+02   4.9108001015e+01    0.3039145    0.2430782  10.42 0.0009057748    1.490    0.329
        60 -12.9349     35.5086     87.6135   1.1913518836e+02   5.3403730192e+01    0.2367822    0.1552519 -78.44 0.0008054381    1.730    0.422
        61 -11.5428      4.9889    215.1795   1.3970239648e+02   3.0133990612e+01    0.1390787    0.1098089  86.17  0.001196531    1.270    0.212
        62 -11.7883    204.9867    211.9112   1.0338268387e+02   1.8716872535e-01    0.1908567    0.1615605  32.94 0.0003799361    1.007    0.007
        63 -12.2066      3.3742    208.3923   1.3957115548e+02   3.1510327115e+01     0.249888     0.111655  60.49  0.001520911    1.845    0.458
        64 -11.5013    188.1332    210.8597   1.0634504235e+02   3.4907286394e+00    0.1839964     0.155217  47.93 0.0002997764    1.095    0.087
        65 -11.8102    129.4886     33.3676   7.5640971649e+01   4.8315118446e+01    0.2755358    0.1600382  49.65  0.000943405    1.598    0.374
        66 -11.1189    123.8172     33.1530   7.6934128706e+01   4.9595503406e+01    0.1935142    0.1501646  21.64 0.0005579203    1.291    0.226
        67 -11.9434    250.5232     24.4835   5.3875641410e+01   1.9646772316e+01    0.1318856    0.1155236 -75.31 -8.011964e-05    1.008    0.008
        68 -11.5386     29.5761    239.3474   1.3739000423e+02   2.3384317749e+01    0.1562665   0.07878773 -75.21 0.0006176974    1.798    0.444
        69 -12.1232     21.3525    238.2314   1.3853874314e+02   2.4467829800e+01    0.2578688     0.101941 -69.54  0.001399448    2.354    0.575
        70 -12.1832     25.6879    237.9825   1.3788610177e+02   2.4043980552e+01    0.2876134    0.1273229  64.24  0.001432242    1.796    0.443
        71 -13.4104     28.4123    244.6154   1.3787037676e+02   2.2626897869e+01    0.3502051    0.1874299  86.79  0.002509892    1.525    0.344
        72 -11.7669     23.5186    244.5636   1.3857593547e+02   2.3171335358e+01      0.52131    0.1607118  70.15   0.00230977    4.190    0.761
