#   1 NUMBER                 Running object number                                     
#   2 MAG_AUTO               Kron-like elliptical aperture magnitude                    [mag]
#   3 X_IMAGE                Object position along x                                    [pixel]
#   4 Y_IMAGE                Object position along y                                    [pixel]
#   5 X_WORLD                Barycenter position along world x axis                     [deg]
#   6 Y_WORLD                Barycenter position along world y axis                     [deg]
#   7 A_WORLD                Profile RMS along major axis (world units)                 [deg]
#   8 B_WORLD                Profile RMS along minor axis (world units)                 [deg]
#   9 THETA_WORLD            Position angle (CCW/world-x)                               [deg]
#  10 FWHM_WORLD             FWHM assuming a gaussian core                              [deg]
#  11 ELONGATION             A_IMAGE/B_IMAGE                                           
#  12 ELLIPTICITY            1 - B_IMAGE/A_IMAGE                                       
         1 -13.8980    159.7032     52.9624   8.0297151833e+01   3.8475813349e+01     1.766972     1.265949  23.68  0.005837229    1.749    0.428
         2 -13.8543    171.8568     36.9628   7.3155486318e+01   3.7645881398e+01    0.9666704    0.9153299   7.82  0.003362045    1.156    0.135
         3 -11.4701    189.9179     14.6686   6.4112251075e+01   3.5678934395e+01    0.2602989    0.2347918 -40.56 0.0008601617    1.169    0.145
         4 -13.5426    188.7060      5.1477   6.1602688718e+01   3.6931877547e+01    0.9587554    0.6867326  72.43  0.004053615    1.266    0.210
         5 -10.2122    199.0456    222.5320   1.1224853648e+02   8.0800013324e-02    0.2330609    0.1499916  22.36  0.001061053    1.531    0.347
         6 -18.6682     67.3076    245.0360   1.3944667494e+02   1.6851424209e+01     5.706594     4.794081  56.24   0.03689228    1.234    0.189
         7 -10.6634    160.9473    198.2884   1.1561441156e+02   1.0525914734e+01    0.2671302    0.1942521  68.35  0.001197402    1.785    0.440
         8 -12.8388    193.5523    192.9286   1.0816719138e+02   5.5278666704e+00    0.9338756     0.533875 -53.30  0.002829031    2.404    0.584
         9 -13.5571    137.1715    199.1395   1.2066142999e+02   1.4599572712e+01     0.720537    0.4487016  54.48  0.003664325    1.604    0.377
        10 -11.9432    155.1359    196.9590   1.1658246384e+02   1.1811636860e+01    0.3860249     0.276928 -87.25  0.001912102    2.161    0.537
        11  -9.6912    180.1578    192.2230   1.1067333080e+02   8.0862601602e+00    0.1796134    0.1562438  62.92 0.0004889485    1.344    0.256
        12 -11.4697    167.4413    190.4750   1.1293195256e+02   1.0735268787e+01    0.3704682    0.2629599  20.28  0.001901909    1.629    0.386
        13 -19.0153     51.6786     98.6196   1.2403648348e+02   5.0521643993e+01     18.78968     1.109366 -59.23   0.02914802   15.900    0.937
        14 -10.9515     10.4268    206.7765   1.4697394127e+02   3.0461293977e+01    0.3563199    0.2933383  75.32  0.002840002    1.201    0.167
        15 -11.2256      5.9170    221.6398   1.4853866974e+02   2.8032050287e+01     0.144352   0.09184413 -53.15 0.0009616713    2.375    0.579
        16 -12.0115     37.8443    183.7443   1.3993072496e+02   3.2422848078e+01    0.2081611      0.17287  80.53 0.0004493143    1.071    0.066
        17 -11.7755    207.1578    179.7141   1.0302726967e+02   5.1983181814e+00    0.7144519    0.3740604  27.32  0.003074196    2.284    0.562
        18  -9.9759     26.8888    179.9482   1.4189892486e+02   3.4398766469e+01     0.147458    0.1382647  88.73 0.0006432805    1.317    0.241
        19  -9.7523     17.5935    180.6282   1.4388065060e+02   3.5157092195e+01    0.1107233   0.08901887  89.76  0.000310737    1.110    0.099
        20 -10.5392     31.2656    207.3389   1.4315878527e+02   2.8240463589e+01    0.1931021    0.1335186  17.43  0.001182945    2.408    0.585
        21 -10.2033     34.3545    178.1965   1.4016141297e+02   3.4004047708e+01    0.2624362    0.1642278  15.17  0.001283583    2.669    0.625
        22 -10.8007    208.2221    196.6932   1.0607257646e+02   2.3280317012e+00    0.1991189    0.1572936  47.25 0.0007397092    1.388    0.280
        23 -12.0637    196.0769    171.6307   1.0354278492e+02   8.6451843516e+00    0.6258619     0.381688 -47.06  0.002195887    1.832    0.454
        24 -11.4155    142.2347    165.8230   1.1377635431e+02   2.0278825815e+01    0.3361841    0.1982562 -52.83 0.0007873195    1.798    0.444
        25 -10.6372    122.9584    165.9731   1.1821912975e+02   2.3859283475e+01    0.2140958    0.1946956  71.27  0.001220527    1.065    0.061
        26 -10.2941    194.3932    166.1720   1.0275161018e+02   9.9286225818e+00    0.2712093    0.2394204 -46.59 0.0009091734    1.250    0.200
        27 -10.2562    223.7606    163.8678   9.6717011509e+01   4.6871655398e+00    0.2380736    0.1805417 -49.91 0.0006926958    1.592    0.372
        28 -11.6035    111.6446    158.7019   1.1956396757e+02   2.7479821154e+01    0.3641433    0.2604043  73.80  0.001774521    1.663    0.399
        29 -10.1151    237.6665    159.3227   9.3326871842e+01   2.8549982283e+00    0.1268417    0.1076028 -67.24 0.0006530269    1.705    0.414
        30 -11.5978     24.9585    156.5708   1.4017716322e+02   3.9760380277e+01    0.4734002    0.2595189  49.59  0.002688174    1.815    0.449
        31 -10.9318    139.9858    156.4672   1.1243738339e+02   2.2673046492e+01    0.2567861    0.2143592 -52.04 0.0003489449    1.228    0.186
        32 -10.8616    158.6080    204.8645   1.1717150172e+02   9.7867939805e+00    0.2840006    0.1564237  54.49   0.00131711    2.026    0.506
        33 -12.7300    134.1007    145.7088   1.1158066275e+02   2.6141632625e+01      1.25597    0.3247988 -54.22  0.003130199    5.464    0.817
        34 -10.9629    163.5116    204.0491   1.1605336771e+02   9.0602042283e+00    0.2702315    0.2534134 -53.47   0.00105639    1.221    0.181
        35 -11.4788     27.3363    150.8672   1.3902284722e+02   4.0832828886e+01    0.3654047    0.1732171  53.46  0.001849621    2.197    0.545
        36 -10.1495      9.7669    152.4406   1.4329839379e+02   4.2010049584e+01    0.1634863    0.1498882  15.29 0.0007615671    1.525    0.344
        37 -10.3352    174.8794    149.1381   1.0309614892e+02   1.7058443754e+01    0.2257995    0.2076871  88.21 0.0005919904    1.253    0.202
        38 -11.6931    144.4141    145.8238   1.0916691250e+02   2.4048262345e+01    0.3688469    0.2656548 -87.96  0.001616183    2.034    0.508
        39 -12.0710      5.4447    112.1849   1.4028370302e+02   5.1467434023e+01    0.4729758    0.2878396   6.20  0.002152523    2.376    0.579
        40 -13.5057      3.2526    127.1494   1.4251887712e+02   4.8196246802e+01     1.658115    0.6563514 -75.74  0.008303165    1.982    0.495
        41 -12.2348    104.2150    138.4358   1.1748924785e+02   3.3386554402e+01    0.3554042    0.2897238  74.19 0.0003140483    1.331    0.249
        42 -12.7220     17.5995    141.8460   1.4042608945e+02   4.3768314862e+01    0.4133046    0.1854068  19.15  0.001712915    3.268    0.694
        43 -11.9450    106.0733    130.8743   1.1540738913e+02   3.4794954689e+01    0.4075682    0.3457486 -73.45  0.001264717    1.197    0.165
        44 -11.0509    107.9685    125.4418   1.1369637420e+02   3.5695729202e+01    0.3184232    0.2723867 -19.89 0.0006741867    1.390    0.281
        45 -12.4441    119.3972    129.1397   1.1155743740e+02   3.2697876316e+01    0.6167283    0.3816905 -36.45  0.002350294    1.857    0.462
        46 -11.4891    125.1738    127.4377   1.0968863612e+02   3.1943647526e+01     0.474434    0.3100776 -87.66  0.001808588    2.685    0.628
        47 -11.7209    135.5256    122.4740   1.0589701139e+02   3.0917573064e+01    0.6104959    0.1751786 -48.07  0.001781659    3.545    0.718
        48 -12.6360     94.3520    138.1716   1.1999620846e+02   3.5134268346e+01    0.6855997    0.2806459 -50.42  0.002643551    2.355    0.575
        49 -10.8097    160.7710    127.8724   1.0124195891e+02   2.4343723287e+01    0.3019909    0.2193687 -62.16  0.001366211    1.632    0.387
        50 -10.0913    128.2945    123.3414   1.0792083030e+02   3.2222051759e+01    0.1535545    0.1214719 -10.70 0.0007030148    1.658    0.397
        51 -10.7853    113.4593    118.6530   1.1063957023e+02   3.6206125697e+01     0.260778    0.2305788  53.70 0.0005422074    1.168    0.144
        52 -10.1495    117.6994    116.0037   1.0886318816e+02   3.5974973400e+01     0.302531    0.1824675  67.49 0.0009119522    2.605    0.616
        53 -11.9272     12.0279    116.0345   1.3891790246e+02   5.0141531444e+01    0.2337809    0.1841734   0.46  0.001132018    1.740    0.425
        54 -10.6196    168.2602    113.2525   9.5893287539e+01   2.5611451401e+01    0.3927719    0.2836852  89.80  0.001429032    2.087    0.521
        55 -10.3679    205.6678    110.1199   8.7622572710e+01   1.7644316484e+01    0.2784929    0.2187014  42.34 0.0006527698    1.336    0.251
        56 -11.4948     84.8004    110.3895   1.1664892632e+02   4.3172345259e+01    0.2384822    0.1851086 -58.27  0.001249232    1.206    0.171
        57 -12.6681    114.2042    138.5991   1.1496906148e+02   3.1543654579e+01    0.6338089     0.472122  -5.26  0.002877578    2.088    0.521
        58  -9.3157    101.0022    105.9800   1.1090533400e+02   4.1396903272e+01    0.1747772    0.1668268 -53.06 0.0003117993    1.007    0.006
        59  -9.7923    147.5019     79.5114   9.1141876564e+01   3.6990562294e+01     0.151776    0.1503883 -33.46 0.0001884387    1.009    0.009
        60 -10.5333     92.2096     79.0182   1.0595857605e+02   4.8840558407e+01    0.2306424    0.2067223  32.95 0.0004284523    1.176    0.150
        61 -10.3144     13.4881    244.9160   1.4839098792e+02   2.3097193544e+01    0.1566501   0.07975081 -77.98  0.001072063    1.823    0.452
        62 -12.0068    159.0202    235.8219   1.2167535931e+02   4.6833971638e+00    0.3261077    0.2511255  19.83  0.001151382    1.399    0.285
        63 -12.4950    175.8476     29.7052   7.0337989856e+01   3.7539943694e+01    0.4578777    0.3714637  33.04  0.001217606    1.389    0.280
        64  -9.9863     13.4937     59.5610   1.2846041472e+02   6.2690476138e+01    0.2097452    0.1585143 -53.15 0.0005723919    1.051    0.049
        65 -10.1369    129.2429     27.9021   7.8138870761e+01   4.9397270883e+01    0.2392782     0.186959  72.28 0.0005726947    1.390    0.281
        66 -10.2661    168.8847    234.2018   1.1961275233e+02   3.3263882842e+00    0.1806958    0.1478749  48.77 0.0005862041    1.197    0.164
