#   1 NUMBER                 Running object number                                     
#   2 MAG_AUTO               Kron-like elliptical aperture magnitude                    [mag]
#   3 X_IMAGE                Object position along x                                    [pixel]
#   4 Y_IMAGE                Object position along y                                    [pixel]
#   5 X_WORLD                Barycenter position along world x axis                     [deg]
#   6 Y_WORLD                Barycenter position along world y axis                     [deg]
#   7 A_WORLD                Profile RMS along major axis (world units)                 [deg]
#   8 B_WORLD                Profile RMS along minor axis (world units)                 [deg]
#   9 THETA_WORLD            Position angle (CCW/world-x)                               [deg]
#  10 FWHM_WORLD             FWHM assuming a gaussian core                              [deg]
#  11 ELONGATION             A_IMAGE/B_IMAGE                                           
#  12 ELLIPTICITY            1 - B_IMAGE/A_IMAGE                                       
         1 -15.2398    167.0841     56.4812   5.7426261748e+01   3.6075512784e+01     1.281659     1.124512   6.94  0.003761774    1.298    0.230
         2 -15.3840    182.9954     30.1053   4.6964888370e+01   3.5741659900e+01     1.068121    0.8997777 -80.84  0.003584874    1.170    0.145
         3 -13.1441    211.7547     25.5038   4.2168442040e+01   2.9253342084e+01    0.3582258    0.1891501 -56.78  0.001655259    1.946    0.486
         4 -13.6308    189.7517     14.4253   4.1703072531e+01   3.5853798307e+01     0.331921    0.2911305 -55.96  0.001249987    1.125    0.111
         5 -12.1588    123.9144      2.4090   4.7400716028e+01   5.3202686260e+01    0.3723567     0.226512  79.20  0.001319647    1.854    0.461
         6 -14.8329    232.3777    168.1414   7.3634803834e+01   1.8663852007e+00      1.30152     0.908103 -22.20  0.007033454    1.338    0.253
         7  99.0000     38.0293    155.4351   1.1576000180e+02   3.8122941214e+01     6.168324     1.996337 -50.47   0.02301235    3.538    0.717
         8 -19.4711     79.7846    204.7385   1.1202889977e+02   2.1634071411e+01     7.192636     6.710824  67.79   0.03375577    1.176    0.150
         9 -11.3465    198.6681    170.8082   8.0567205197e+01   7.5889819134e+00    0.4241625    0.2248233 -54.45  0.001668523    2.720    0.632
        10 -12.6581    128.6013    222.5122   1.0413568841e+02   1.0587991984e+01    0.4357156    0.2733287  52.09  0.002366795    1.489    0.328
        11 -12.3089    142.8294    227.6480   1.0198174163e+02   7.3631911348e+00    0.3300905    0.2190336  58.95  0.001209467    1.666    0.400
        12 -13.3166    207.7006    216.5534   8.7554782199e+01  -1.5489484740e+00    0.4472699    0.2123876 -37.11   0.00212324    2.235    0.553
        13 -10.6175     18.2536    154.1908   1.2041959910e+02   4.0307701605e+01   0.09946348   0.08231116 -55.82 0.0006467283    1.362    0.266
        14 -19.1664     60.8546     78.8238   9.4214204424e+01   5.3840361609e+01     20.76041    0.9756656 -52.87    0.0264339   22.155    0.955
        15 -11.8876    156.3721    152.3290   8.5676502977e+01   1.9670461223e+01    0.2829649    0.2529596  89.51 0.0002549732    1.291    0.226
        16 -11.1461     26.4032    217.2382   1.2374050166e+02   2.5675144154e+01     0.151265    0.0851016  85.10 0.0009201244    1.524    0.344
        17 -11.1183     27.3266    145.8920   1.1730580814e+02   4.1464598868e+01    0.2446429    0.1981579 -68.49 0.0007209307    1.143    0.125
        18 -11.2844     30.9173    141.9295   1.1590710749e+02   4.2079677586e+01    0.2052796    0.1847156   2.84 0.0005938113    1.483    0.325
        19 -12.5909    135.4266    229.3710   1.0368520439e+02   8.2653376988e+00    0.4198759    0.3352106  -4.18  0.002520001    1.722    0.419
        20 -12.1004    160.3545    128.2677   7.9110408342e+01   2.3979403084e+01    0.3657228    0.3148818 -77.97  0.001797328    1.365    0.268
        21 -11.6794     11.3327    205.9974   1.2583214160e+02   2.9472366571e+01    0.2291747      0.16427  37.49  0.001617404    1.625    0.385
        22 -13.6559    162.9827    199.9659   9.3548425092e+01   8.8545471490e+00    0.5831858    0.3757613 -66.87  0.002083678    2.348    0.574
        23 -10.5254     38.4779    122.4541   1.1105534280e+02   4.6078927691e+01     0.133868    0.1120572 -70.85 -1.758606e-05    1.005    0.005
        24 -10.4708    183.4852    116.4687   7.1030475626e+01   2.1235871601e+01     0.155716    0.1476174 -16.60  0.000339334    1.048    0.045
        25 -11.8880    167.8140    112.7648   7.3434143504e+01   2.5551042195e+01    0.3801522     0.300591 -77.11  0.001010634    1.620    0.383
        26 -14.4799    119.4740    110.0595   8.4705969812e+01   3.6728231334e+01     1.044513    0.8211409 -47.94  0.005068416    1.223    0.183
        27 -14.0906    110.2836    106.4372   8.6295479864e+01   3.9376953854e+01    0.9887068     0.647647  16.89  0.004014137    2.261    0.558
        28 -11.3334    205.4769    110.3950   6.5186761148e+01   1.7444594796e+01    0.2593997    0.2474587 -28.37 0.0005804275    1.026    0.025
        29 -12.1865     43.4521    112.8568   1.0791589964e+02   4.7908885709e+01    0.2518907    0.1778672 -14.49  0.001321023    1.948    0.487
        30 -11.8092    126.2562    229.3252   1.0549744923e+02   9.7402406804e+00    0.3658646    0.2307291 -53.41  0.002068788    1.834    0.455
        31 -11.1791     32.2927     99.0793   1.0883078570e+02   5.2318764681e+01    0.1982372    0.1697407 -22.97 0.0005423881    1.329    0.247
        32 -11.6460    197.0034     97.4891   6.3420180677e+01   2.1742928336e+01    0.3263064    0.2281076 -37.91  0.001257674    1.348    0.258
        33 -11.9100    181.7549    200.6825   8.9809941460e+01   5.3866133791e+00    0.2342762    0.2203782  39.58 0.0004716877    1.159    0.137
        34 -10.8087    124.7619     92.1484   7.8239475594e+01   3.9550905980e+01    0.2310939    0.2102309 -67.35 0.0005503111    1.194    0.162
        35 -10.1728     28.6448     92.7160   1.0879040577e+02   5.4143814960e+01     0.134235   0.08263875 -37.19 0.0007019236    1.666    0.400
        36 -12.4039    190.4653     89.9183   6.2614789189e+01   2.4656795264e+01    0.3798638    0.2833567 -47.92 0.0009887151    1.315    0.239
        37 -14.2352      3.8640     77.3999   1.1446231410e+02   5.9357766116e+01    0.7229136    0.3672083 -63.27  0.004039745    1.468    0.319
        38 -12.2893    148.9312    228.4892   1.0088918818e+02   6.2238620953e+00    0.3692142    0.3072909  87.14  0.001522615    1.526    0.345
        39 -11.2133     16.5924    193.0877   1.2399042300e+02   3.1688809648e+01    0.1476704   0.08618201 -67.09 0.0008929039    1.621    0.383
        40 -10.4924    147.2705     85.3698   7.0480906545e+01   3.5840326816e+01    0.1600645    0.1232437  -0.63 0.0004884718    1.670    0.401
        41 -10.2007    115.6522     77.3162   7.6208559043e+01   4.4540767379e+01    0.1536808    0.1229543 -83.28 0.0003472538    1.725    0.420
        42 -14.1242    154.7947     69.9235   6.4061575378e+01   3.6894021382e+01    0.7102082    0.5618972 -33.63  0.001156535    1.261    0.207
        43 -10.7195     23.4018    191.3967   1.2249698008e+02   3.1390539978e+01    0.1131319   0.09327711 -81.71 0.0007856475    1.208    0.172
        44 -13.0930      2.7803     86.5301   1.1638220045e+02   5.7333416733e+01    0.4206328    0.2916609 -57.16  0.002729298    1.133    0.117
        45 -10.8032     17.6338    188.1208   1.2342618788e+02   3.2665072856e+01     0.198992   0.09850186 -65.35 0.0009887782    1.854    0.461
        46 -13.6567    172.6287     48.2327   5.3925815896e+01   3.5924140520e+01    0.4910319    0.4816768  64.43 0.0008125494    1.045    0.043
        47 -11.9910     18.7347     60.9831   1.0520494146e+02   6.2078766913e+01    0.1766817    0.1331209 -49.87 0.0002466582    1.056    0.053
        48 -13.4488     13.7509     60.2305   1.0702694741e+02   6.2581690093e+01    0.3122894    0.2662525 -76.15 0.0007033739    1.344    0.256
        49 -11.6169    194.6705    181.5778   8.3572211909e+01   6.4055075725e+00     0.272616    0.1280372  36.80  0.001120989    2.115    0.527
        50 -10.9873     25.3005     35.3010   9.4215775759e+01   6.6679626567e+01    0.1897061    0.1377992 -25.53 0.0002161587    1.135    0.119
        51 -11.8672     28.9387     34.5532   9.2252412136e+01   6.6465301500e+01    0.2637185    0.1610349  16.21  0.001029621    1.775    0.437
        52 -11.2243    142.3870    233.3745   1.0284826279e+02   6.4638882342e+00    0.3084766    0.2193547 -84.10  0.001727318    2.071    0.517
        53 -14.7098    246.0267    167.3288   7.1101975682e+01  -3.3925023907e-01     1.050824     0.714406 -31.78  0.005858292    1.320    0.242
        54 -10.0094    141.2884    238.2361   1.0370129438e+02   5.8343687962e+00    0.1133205   0.08699426  20.17 0.0001652746    1.456    0.313
