#   1 NUMBER                 Running object number                                     
#   2 MAG_AUTO               Kron-like elliptical aperture magnitude                    [mag]
#   3 X_IMAGE                Object position along x                                    [pixel]
#   4 Y_IMAGE                Object position along y                                    [pixel]
#   5 X_WORLD                Barycenter position along world x axis                     [deg]
#   6 Y_WORLD                Barycenter position along world y axis                     [deg]
#   7 A_WORLD                Profile RMS along major axis (world units)                 [deg]
#   8 B_WORLD                Profile RMS along minor axis (world units)                 [deg]
#   9 THETA_WORLD            Position angle (CCW/world-x)                               [deg]
#  10 FWHM_WORLD             FWHM assuming a gaussian core                              [deg]
#  11 ELONGATION             A_IMAGE/B_IMAGE                                           
#  12 ELLIPTICITY            1 - B_IMAGE/A_IMAGE                                       
         1 -12.3004    237.8655      7.2494   3.0454702171e+01   2.5924400871e+01    0.8103434    0.2787911 -39.15   0.00398507    2.408    0.585
         2 -11.5078    249.2867     23.9442   3.2969956873e+01   2.1737429095e+01     0.521135    0.2334386 -38.99  0.002776393    1.930    0.482
         3 -12.4701    249.3679     13.5946   3.0930925952e+01   2.2916031437e+01     1.098091     0.590749 -25.43  0.006002192    2.412    0.585
         4 -11.3159    246.2499      2.5391   2.8995434705e+01   2.4729348824e+01      0.65992    0.2652238  82.45  0.003398231    2.409    0.585
         5 -12.0826    237.0414     16.2011   3.2326137664e+01   2.5113672327e+01    0.4623153    0.3213851  71.01   0.00196734    1.464    0.317
         6 -12.6060    237.3204     31.3373   3.5447801114e+01   2.3267065607e+01    0.6485558    0.4336777 -67.28  0.003143689    1.332    0.249
         7 -10.5669     29.9034     24.9171   8.0721772700e+01   6.8279745027e+01    0.6123345     0.140555 -38.05  0.002209875    4.059    0.754
         8 -11.9979    239.3488     22.3807   3.3416413722e+01   2.3927597068e+01    0.4483551     0.303817 -36.98   0.00190007    1.484    0.326
         9 -11.6228    111.5637     19.1669   4.9700242712e+01   5.4002322404e+01    0.4654729    0.3532714  43.24  0.001650229    1.175    0.149
        10 -10.9075    149.8732     18.5140   4.2340862521e+01   4.4938323260e+01    0.3594901    0.2937789  58.51 0.0005653087    1.121    0.108
        11 -10.6254    154.6488     18.1743   4.1519851135e+01   4.3812122179e+01    0.5808555    0.2762607 -13.44  0.002406579    3.142    0.682
        12 -10.4240    155.6857     10.3343   3.9086811853e+01   4.4319717045e+01    0.3807121     0.235026 -55.16  0.001690166    1.791    0.442
        13 -10.6967     55.9854     14.6392   6.4355389883e+01   6.5831787143e+01    0.4139707    0.2598835 -16.29  0.001979197    1.584    0.369
        14  -9.7903     60.0388     11.7786   6.1481209106e+01   6.5432703571e+01    0.2601785    0.1647232  51.78 0.0008836515    1.716    0.417
        15  -9.9470     29.6759     16.5649   7.6954331908e+01   6.9519066435e+01    0.3436976    0.1663845 -22.61  0.001754234    2.141    0.533
        16 -10.6240    101.7928     15.9322   5.0764685281e+01   5.6535935612e+01    0.3661684    0.2500883  20.14  0.001344448    1.596    0.374
        17 -11.3144     39.5222     16.0227   7.1980918153e+01   6.8265910633e+01    0.2179212    0.1675356  13.62 9.737223e-05    1.097    0.089
        18 -10.5169      4.0283      7.3217   8.6598001208e+01   7.3503875081e+01    0.2558186    0.1644223  17.33  0.001422211    1.523    0.343
        19 -10.8023      6.1012      2.1414   8.2638384479e+01   7.4047689369e+01    0.4830902    0.2348835  19.89  0.002063422    1.945    0.486
        20 -10.8746     20.4047     15.2425   8.1110832557e+01   7.0789704299e+01    0.5788873    0.2635601  16.44  0.002119368    2.492    0.599
        21 -11.4423     19.9208      3.0103   7.5084593312e+01   7.2466335324e+01    0.8657702    0.2341737  31.12  0.003606491    3.737    0.732
        22 -10.0045     19.0267     10.7477   7.9638595108e+01   7.1570620206e+01    0.1874415    0.1440702   7.27 0.0004550459    1.161    0.139
        23 -10.0509     16.2176      8.3839   7.9987971379e+01   7.2196904662e+01    0.2267664    0.1640499  23.96 0.0005626432    1.454    0.312
        24 -11.2045     11.6893      7.1047   8.1914421471e+01   7.2837609935e+01    0.3219678    0.2510737   5.27  0.002389348    1.207    0.171
        25 -10.5729     10.6793     15.0951   8.6421189544e+01   7.1773718908e+01    0.3321289     0.267723  18.07   0.00233465    1.444    0.308
        26 -11.1144    186.0676     13.5409   3.6298378619e+01   3.6735171519e+01    0.3824753    0.2244881  64.47  0.001528773    1.547    0.353
        27 -11.7905    181.8106     12.8434   3.6584182222e+01   3.7811174530e+01     1.199203     0.412303  44.48  0.003977947    4.825    0.793
        28 -11.3835    228.8930      2.5658   3.0115512688e+01   2.8273604885e+01    0.4557921    0.1857968  60.34   0.00223662    2.563    0.610
        29 -11.9978    228.0185     12.9812   3.2344778624e+01   2.7361338035e+01     0.423013    0.2559931 -74.26  0.002383231    1.512    0.339
        30 -10.0041    158.4435      7.4907   3.7910465213e+01   4.3912823663e+01     0.257233    0.2265157  43.82 0.0009212177    1.248    0.199
        31 -11.4955    216.6959      8.3337   3.2237131465e+01   3.0298221009e+01    0.3651062    0.2335275 -57.83  0.001291308    1.379    0.275
        32 -11.7263    210.0092      9.0000   3.2933924123e+01   3.1706138033e+01     0.430073    0.3725191 -56.50  0.001499648    1.177    0.150
        33 -11.1910    212.6078      6.2651   3.2109883436e+01   3.1408757596e+01    0.3314485    0.2137698 -29.48  0.001697137    1.755    0.430
        34 -11.6605    127.2695      4.7349   4.1611353783e+01   5.1624536426e+01    0.3985489    0.2875372  43.55  0.001120072    1.317    0.241
        35 -10.6281    194.8421     11.1846   3.4819882987e+01   3.4927755156e+01    0.2654867    0.1456842 -46.25  0.001046613    1.743    0.426
        36  -9.1821     92.9817     10.1482   5.0673311729e+01   5.9013240109e+01    0.1807893    0.1604316  68.04 0.0004896768    1.262    0.208
        37 -10.3088     47.5608      8.7719   6.4900384733e+01   6.7887167455e+01    0.3261996     0.193898  20.46  0.001048004    1.593    0.372
        38  -9.4072     79.2078      6.8935   5.3023851354e+01   6.2206303606e+01    0.3438574     0.186859  19.90  0.001701752    2.133    0.531
        39 -10.6713     23.7873      7.5329   7.5430426699e+01   7.1439066407e+01    0.2881445    0.1652202  15.21 0.0008465529    1.644    0.392
        40  -8.7327    145.5454      7.5162   3.9664181608e+01   4.7019494912e+01    0.1294806     0.112076  70.62 6.297395e-05    1.004    0.004
        41  -9.8090    107.4783      5.9735   4.5733891717e+01   5.6135950472e+01    0.2781469    0.1989823 -61.77  0.001153846    1.865    0.464
        42 -10.0920    105.9923      2.7637   4.4846389400e+01   5.6726024622e+01    0.3201645    0.1601953  68.32  0.001544342    1.938    0.484
        43  -9.7488    200.1083      4.3553   3.2719263464e+01   3.4398240111e+01     0.304482    0.1146275 -47.18  0.001399902    2.459    0.593
        44 -11.2189     90.5761      3.0287   4.8390239916e+01   6.0128161727e+01    0.3340899    0.2817248  59.06  0.001043659    1.185    0.156
        45  -9.8224     84.7511      1.3289   4.9140422082e+01   6.1505198619e+01    0.2555217    0.1144749  65.81 0.0005915931    2.457    0.593
        46  -9.1855     65.4411      5.3076   5.6562110661e+01   6.5065371260e+01    0.1513154    0.1109302 -26.98 0.0009392146    1.544    0.352
        47  -9.5293     41.9679      1.4779   6.3528037824e+01   6.9537179396e+01    0.1593421   0.09844784  37.45 5.764937e-05    1.426    0.299
        48 -12.6644    122.3206     11.3740   4.4731313212e+01   5.2233467396e+01    0.4743819    0.2715397  53.44 0.0003821766    1.480    0.324
        49  -9.2023    163.6118      2.7704   3.5966590583e+01   4.3085790564e+01    0.1658452    0.1087405 -43.56 0.0008003527    1.611    0.379
        50  -9.9500    195.4253      1.6822   3.2500385862e+01   3.5719219486e+01    0.2447728    0.1309548  72.59  0.001005945    1.626    0.385
        51  -8.5164     69.3465      2.2660   5.3899711815e+01   6.4574230893e+01    0.1309184   0.07345954  31.39  0.000331439    1.610    0.379
        52  -9.2395     34.2561      1.8187   6.7164868168e+01   7.0685486646e+01    0.1612267    0.1052569  10.04 0.0004731958    1.337    0.252
        53  -9.6174    137.0919      1.4836   3.9029733270e+01   4.9543577088e+01    0.1982162    0.1097886  69.53 0.0005519248    1.551    0.355
        54  -8.6430     40.7382      5.0262   6.5915448017e+01   6.9370100686e+01    0.2773075    0.1581827  26.85  0.001497244    1.543    0.352
        55  -8.3055     61.2659    106.7079   9.4460496431e+01   4.7889465422e+01    0.1349004    0.1110099  83.22 0.0001822371    1.505    0.336
        56 -10.7308     79.9903    103.6139   8.7440968078e+01   4.5827233528e+01    0.3428459    0.2682045   7.26 0.0008804445    1.490    0.329
        57 -10.8766      9.9449    102.8385   1.1133873058e+02   5.3827133318e+01    0.3963488    0.2677653 -15.81  0.002292103    1.774    0.436
        58 -10.4212     45.1739    101.6518   9.8839209787e+01   5.1088327784e+01    0.2892827    0.2465787  62.17 0.0008496435    1.409    0.290
        59  -9.6092     53.3541     98.8552   9.5306007727e+01   5.0788575913e+01    0.3444601    0.1240662 -57.44  0.001260598    2.569    0.611
        60  -9.9865     96.9913     98.1478   8.0503761023e+01   4.4079434513e+01    0.2226607    0.2097228 -21.24 0.0003752906    1.023    0.023
        61  -9.9243     69.1245     96.6187   8.9233016603e+01   4.9149325997e+01    0.3575432    0.1989134 -56.64  0.001535992    1.809    0.447
        62 -10.4910     15.9995     94.9465   1.0786973863e+02   5.5310695001e+01    0.2685639    0.2044922  55.20 0.0009814554    1.634    0.388
        63 -10.0349     78.1879     95.2318   8.5771467932e+01   4.8046524839e+01    0.4363802    0.2243134  19.15  0.001568329    3.007    0.667
        64  -9.1190     34.5387     95.5145   1.0127127088e+02   5.3652822530e+01     0.136936    0.1153467 -46.90   2.5933e-05    1.023    0.022
        65 -10.1585    116.3594     93.3926   7.3355484297e+01   4.1222746098e+01    0.2617058    0.2468988 -85.17 0.0004638156    1.187    0.158
        66  -8.8549      1.3022     94.1990   1.1297588179e+02   5.6352594357e+01    0.1705195    0.0959212 -76.37 0.0003304288    1.617    0.382
        67 -10.0595     88.1531     90.5560   8.1130392022e+01   4.7372528421e+01      0.57731    0.3354929 -69.48  0.002025333    3.287    0.696
        68 -10.6199     34.1288     89.5710   1.0007774243e+02   5.5085501820e+01    0.3591303    0.1861353  28.29  0.001133777    2.136    0.532
        69 -10.1480    139.1389     87.5207   6.5582501756e+01   3.7351122000e+01    0.3773559    0.2129622 -47.71   0.00103831    1.862    0.463
        70  -9.2316     57.5012     89.4455   9.1410043592e+01   5.2435754860e+01     0.140918    0.1273917 -34.81 8.364121e-05    1.016    0.016
        71  -9.2583     47.7406     88.9784   9.4862911045e+01   5.3768501357e+01    0.1893836    0.1578383 -42.33 0.0002625936    1.053    0.050
        72 -10.3580    120.6739     87.5870   7.0425780937e+01   4.1483165298e+01    0.3058018    0.2651065 -62.86 0.0001379809    1.296    0.229
        73  -8.8926     52.6063     88.5029   9.2944019582e+01   5.3284520924e+01    0.1413284    0.1209958 -37.69  8.28904e-05    1.036    0.035
        74 -10.8946    131.6795     86.5476   6.7177604633e+01   3.9242271241e+01    0.2711056    0.2577585 -60.11 0.0002741448    1.105    0.095
        75  -9.4250    102.4954     85.9971   7.5228192030e+01   4.5611860375e+01    0.2310558    0.1461651 -43.61  0.001022282    1.562    0.360
        76  -9.5667     82.1354     84.8986   8.1442181990e+01   4.9652535461e+01    0.2480825    0.2169836 -60.85 0.0003457121    1.292    0.226
        77 -10.3724     75.9413     83.1480   8.3034082015e+01   5.1073781959e+01     0.289913    0.2309633 -47.58 0.0005532143    1.241    0.194
        78  -9.8318     80.3475     81.0626   8.0877332666e+01   5.0771681377e+01    0.2379123     0.205671  41.26 0.0003647302    1.253    0.202
        79  -8.9139     60.4225     84.7972   8.9057649414e+01   5.3079438033e+01    0.1924231    0.1209144 -41.02 0.0004915447    1.464    0.317
        80  -9.9123     28.2147     85.0529   1.0126581473e+02   5.6670365821e+01    0.2291507     0.190783  34.66  0.001227268    1.423    0.297
        81  -9.4032     65.9786     84.2889   8.6897026741e+01   5.2389974901e+01    0.1948516    0.1761591 -18.38 0.0004740356    1.041    0.039
        82  -9.5930     71.0751     82.5639   8.4566146990e+01   5.1983399666e+01     0.230585    0.1874709 -52.49  0.001232409    1.272    0.214
        83  -9.0152     45.8160     83.5917   9.4169791439e+01   5.5216173092e+01    0.1715193    0.1267022  38.05 0.0002365806    1.558    0.358
        84  -9.7046    112.8021     81.8230   7.0887338273e+01   4.4321970795e+01    0.2272517    0.2001157  -2.71 0.0006733455    1.195    0.163
        85 -10.3993     54.4786     80.5469   9.0045089241e+01   5.4820353444e+01    0.3171751    0.2647502  -6.94  0.001818117    1.212    0.175
        86  -9.5002     21.7764     81.0778   1.0284340783e+02   5.8108695786e+01    0.3777534    0.1310545 -47.68  0.001601559    2.269    0.559
        87 -10.4971    104.2597     78.5664   7.2383523824e+01   4.6746673666e+01    0.3663433    0.2925455 -26.06  0.001010294    1.278    0.218
        88 -10.0041    107.6570     75.7119   7.0462133132e+01   4.6592055866e+01    0.2929223    0.2137794 -13.11  0.000957978    1.654    0.395
        89  -8.7795     90.5810     79.8269   7.7073963324e+01   4.9184133564e+01    0.1919127    0.1388069 -54.30 0.0004139011    1.549    0.354
        90  -9.7719      7.3648     80.3820   1.0831881248e+02   5.9228371204e+01    0.2022731    0.1506473  14.30 0.0006826024    1.586    0.369
        91 -10.1721     98.7371     76.3752   7.3377477996e+01   4.8292326775e+01    0.3288814    0.2325439 -12.40  0.001137211    1.763    0.433
        92  -8.9937     36.0080     76.7234   9.6133560291e+01   5.7812293273e+01    0.1775348    0.1521587 -36.64 0.0004494253    1.015    0.015
        93 -11.2320     77.4244     75.1149   8.0014958614e+01   5.2497841388e+01    0.5198604    0.2823808  31.19   0.00178458    1.968    0.492
        94  -9.4135     49.4963     76.4876   9.0770072729e+01   5.6340007067e+01    0.2323805    0.1300136  11.91  0.001026576    2.312    0.568
        95 -10.3475      2.9439     73.9669   1.0878785593e+02   6.0907297624e+01    0.3575182     0.229735  74.10  0.001365877    2.314    0.568
        96  -9.4730     55.4492     74.1426   8.7774548632e+01   5.6067351025e+01    0.3033743    0.1590543  12.80  0.001216262    2.786    0.641
        97 -10.8281     45.3687     72.3065   9.1156540860e+01   5.7738353545e+01    0.3573709     0.212392 -59.34  0.001216979    1.834    0.455
        98  -9.6190    103.8713     72.8240   7.0657900434e+01   4.7927932774e+01    0.2168016    0.1908449   4.28 0.0003187885    1.156    0.135
        99  -9.2236     30.5548     72.6662   9.7234336968e+01   5.9233587898e+01    0.1727436    0.1180204 -64.39 0.0009350778    1.558    0.358
       100 -11.6808     97.2897     69.3161   7.1521602950e+01   4.9925597995e+01    0.3981644    0.2887103 -36.42 0.0008890175    1.372    0.271
       101 -10.4695    101.4088     68.2071   6.9882626757e+01   4.9291167152e+01     0.301232    0.2364332 -54.51 0.0006369467    1.490    0.329
       102  -9.2360     39.6653     71.6915   9.3260870242e+01   5.8520489734e+01    0.1937465    0.1522371  72.36  0.001046299    1.968    0.492
       103 -10.8538    136.7035     69.6355   6.0803050386e+01   4.1181613520e+01    0.3801962    0.2599959  37.05 0.0004199278    1.559    0.359
       104 -10.0255     64.5586     70.7545   8.3257555170e+01   5.5458570002e+01    0.3521504    0.2284492  37.82  0.001437149    1.643    0.391
       105  -9.1972     17.8574     70.4713   1.0189828581e+02   6.0769313620e+01    0.2192607    0.1295688 -42.79 0.0006350825    1.390    0.281
       106  -8.6050     77.3261     70.2845   7.8474933261e+01   5.3477779867e+01    0.1457551    0.1062401  -3.29 0.0004155553    1.604    0.376
       107  -9.2294     34.2476     69.7420   9.4907729289e+01   5.9506360925e+01    0.1837653    0.1296218 -27.82 0.0005221352    1.321    0.243
       108  -9.3828    142.7798     68.8048   5.9133648404e+01   3.9886013194e+01    0.1965736    0.1725798 -81.45 0.0003076754    1.277    0.217
       109  -9.3066     26.5870     69.5559   9.8027383485e+01   6.0267591194e+01    0.1300529    0.1061811 -38.29 7.510083e-05    1.010    0.010
       110 -10.3528     89.7194     67.5921   7.3365180530e+01   5.1732545013e+01    0.2579736    0.2520492 -49.05 0.0001975305    1.182    0.154
       111  -9.5456     59.4616     66.4891   8.3795272945e+01   5.7074010189e+01     0.244487    0.2267792  23.61  0.000858242    1.204    0.169
       112  -9.5940     61.7032     64.2720   8.2192912401e+01   5.7179116136e+01    0.2261013    0.1811781 -11.35 0.0003914905    1.207    0.171
       113  -9.2667     53.9128     67.0847   8.6150514384e+01   5.7735170841e+01    0.1828185    0.1752841 -15.06            0    1.172    0.147
       114  -9.8160    111.0749     65.8470   6.6259624987e+01   4.7663013788e+01    0.2070806    0.1938776 -86.05 0.0002629968    1.253    0.202
       115  -9.7436     70.5630     66.2376   7.9543053076e+01   5.5404192687e+01    0.2456768    0.1882497  21.42 0.0002440642    1.316    0.240
       116  -9.8534     71.7885     62.6155   7.7854698977e+01   5.5890726342e+01    0.3893811    0.2766929  75.74  0.001057562    2.966    0.663
       117 -11.2762      8.0228     56.4873   1.0256973259e+02   6.4406397357e+01    0.2313974    0.1750446 -31.14 0.0003626055    1.126    0.112
       118 -10.5416      3.6427     64.6322   1.0650245087e+02   6.2922267340e+01    0.4614673      0.21466  31.00  0.002070952    2.621    0.618
       119 -10.8223      3.9021     59.6400   1.0521478463e+02   6.3976596472e+01    0.2540924     0.165122 -42.10  0.000518966    1.210    0.173
       120 -10.8658     43.3370     62.8061   8.9036306484e+01   5.9949797130e+01    0.3506719    0.2802298  44.31  0.002052477    1.594    0.373
       121  -9.6687     33.1317     63.5716   9.3557263967e+01   6.0917350823e+01    0.2794137    0.1957902  -6.42   0.00157265    1.502    0.334
       122  -9.2997    147.0901     62.5493   5.6283891282e+01   3.9881831078e+01    0.2098644    0.1929352 -38.19  0.000295939    1.121    0.108
       123  -8.9920     66.8738     62.8970   7.9765974128e+01   5.6642182384e+01    0.1725863    0.1601077 -48.52 0.0003908708    1.269    0.212
       124  -8.7729     16.6767     63.3012   1.0055379056e+02   6.2400967249e+01    0.1121245   0.09622812  71.37 0.0007027974    1.632    0.387
       125  -9.9592     90.2633     61.5022   7.1099122032e+01   5.2733359986e+01    0.3380837    0.2753801  81.75  0.001488596    1.832    0.454
       126 -11.9253    150.8440     57.7062   5.4038115483e+01   3.9731144050e+01    0.3109472    0.2576222 -59.18 0.0002261565    1.295    0.228
       127 -10.5953     95.6399     57.7031   6.8058958255e+01   5.2316289941e+01     0.443905    0.3732701 -19.48  0.002452702    1.184    0.155
       128 -10.2615     59.1305     57.9295   8.0996015626e+01   5.8775664767e+01    0.3509945    0.2692431   2.65  0.001206587    1.312    0.238
       129  -9.1807     50.6967     59.5639   8.4935453870e+01   5.9659323879e+01     0.160232    0.1252654  34.12 0.0004383254    1.423    0.297
       130  -9.1160    199.4045     56.8076   4.5565773879e+01   2.8211919593e+01      0.34315    0.1987322  16.75  0.001039656    5.701    0.825
       131  -9.2041    159.8507     56.8893   5.2031142228e+01   3.7666453069e+01    0.2212529    0.1880763  30.03 0.0006092737    1.326    0.246
       132  -9.4661     68.8622     55.8502   7.6530370104e+01   5.7617563796e+01     0.366404    0.1415058 -48.51  0.001343603    3.111    0.679
       133  -9.2646     34.4197     57.2939   9.1029842093e+01   6.2058360561e+01     0.166275    0.1161421 -55.35 0.0005850683    1.523    0.344
       134 -10.2789    112.1362     55.6343   6.2525048909e+01   4.9134705816e+01     0.244531     0.227927 -28.58 0.0003410908    1.121    0.108
       135  -9.8820     81.4750     54.5146   7.1538873761e+01   5.5621788081e+01    0.2270744    0.2061229 -11.42 0.0006856897    1.066    0.062
       136  -9.2569     81.4896     50.9597   7.0226330985e+01   5.6212129209e+01    0.2610961    0.1297517 -42.07  0.001132185    2.124    0.529
       137  -9.2624     26.9161     56.4878   9.4070054712e+01   6.2965675534e+01    0.1655267     0.119209  14.64 0.0004201152    1.465    0.317
       138  -8.8531    223.0417     55.8006   4.2291231944e+01   2.3048082724e+01    0.1660119    0.1006899  69.14 0.0004668197    1.711    0.415
       139  -9.8676    206.5772     52.8285   4.3616996374e+01   2.7134382165e+01    0.4314792    0.2499708 -24.08  0.002002979    2.145    0.534
       140 -10.2659    203.1602     51.9289   4.3842142648e+01   2.8044132620e+01     0.529581    0.2423265 -58.34   0.00208223    2.731    0.634
       141  -9.2270     22.9834     53.9642   9.5042178773e+01   6.3825135259e+01    0.1580429    0.1193128 -39.16 0.0003727741    1.102    0.092
       142 -10.3050    163.0430     52.1498   5.0070852337e+01   3.7586260692e+01    0.3002786    0.2232353 -42.01  0.001165739    1.370    0.270
       143  -9.8214    144.9722     53.0139   5.3816180724e+01   4.1857153366e+01    0.2147076    0.2023731  48.50            0    1.041    0.039
       144  -9.4254     43.9701     52.7847   8.5372221550e+01   6.1824285625e+01    0.2023129    0.1543026 -13.41  0.001052885    1.211    0.174
       145  -9.3582     29.1817     52.7673   9.1855173065e+01   6.3486460605e+01    0.2032705    0.1489409 -33.30 0.0003859667    1.133    0.118
       146  -9.2573     32.1682     50.3500   8.9691005766e+01   6.3648219069e+01    0.1734092    0.1457004  -3.59 0.0002822392    1.136    0.119
       147 -10.2905    126.6914     50.2452   5.6994865180e+01   4.6627756301e+01    0.2683535    0.2217169  19.66 0.0003012431    1.318    0.241
       148 -11.5133    107.0480     50.5646   6.2171903079e+01   5.1046865765e+01    0.4582429    0.2498673  50.90 0.0003635055    1.770    0.435
       149  -9.7957     17.7695     50.9462   9.6489514001e+01   6.4858337627e+01    0.2950726    0.1623224   9.18  0.001412579    2.007    0.502
       150  -8.9745     73.5084     50.0790   7.2694593077e+01   5.7815062145e+01    0.1975133     0.128614 -34.05 0.0006738053    1.506    0.336
       151  -9.4154     55.6318     49.6897   7.9387046078e+01   6.0791097394e+01    0.2826517     0.172797 -15.97  0.001370025    1.905    0.475
       152 -10.3307     58.9171     47.7083   7.7319788892e+01   6.0637344029e+01    0.3265099    0.2566898 -27.11  0.001923245    1.181    0.154
       153 -10.4931      5.8628     48.3705   1.0132526670e+02   6.6191474811e+01      0.27579    0.1432003 -38.60 0.0003895259    1.532    0.347
       154  -8.9820    213.0078     49.5493   4.2026776716e+01   2.6139247769e+01    0.1981464    0.1245578  68.85   0.00102929    1.595    0.373
       155  -9.2075    122.0444     49.0553   5.7720132412e+01   4.7885648717e+01    0.2168088    0.1729455 -73.65  0.000844398    1.621    0.383
       156  -9.1215     49.5941     49.2840   8.1719194686e+01   6.1725607521e+01    0.2153767    0.1396316   6.16 0.0005546567    1.731    0.422
       157 -10.2768     42.0360     45.4934   8.3534001398e+01   6.3399368947e+01    0.4154292    0.2918468 -63.09  0.002185195    2.247    0.555
       158  -8.7800     45.7504     47.2994   8.2604246332e+01   6.2598198714e+01    0.1805903    0.1480086  10.06 0.0001935254    1.163    0.140
       159 -10.4349     26.3933     48.1950   9.1582510119e+01   6.4640633044e+01    0.4010671    0.2057898  16.97  0.002056506    2.118    0.528
       160  -9.6813     33.8995     46.1711   8.7421124191e+01   6.4242936778e+01     0.207792    0.1663879   0.36 0.0007216783    1.167    0.143
       161  -9.2906    233.0266     48.2900   3.9502950492e+01   2.1962487503e+01    0.1734409    0.1462869 -74.70  0.000224717    1.071    0.066
       162  -9.7803     89.0358     48.0193   6.6639921155e+01   5.5217180879e+01    0.2026183    0.1835009  13.35            0    1.011    0.010
       163  -9.8961     84.8396     46.7536   6.7529247122e+01   5.6241532934e+01    0.3861835    0.2320521 -17.99  0.001783616    1.975    0.494
       164  -9.5847    142.7163     46.4407   5.2237927895e+01   4.3343062175e+01    0.2975377    0.1752736  74.84 0.0008069459    2.093    0.522
       165  -9.7950    142.8619     42.5073   5.0976657754e+01   4.3842133706e+01    0.4525241    0.1930282  47.51  0.001786411    2.286    0.562
       166 -10.6971    167.1092     43.3746   4.6864771822e+01   3.7810736344e+01    0.3216014    0.2322255  60.59 0.0008727213    1.304    0.233
       167 -10.7530     56.9190     41.5681   7.5721159480e+01   6.1967984092e+01    0.4403231    0.2388565  22.83  0.001244219    2.056    0.514
       168  -9.2361     19.8045     43.6135   9.3109589945e+01   6.6108941853e+01    0.1586105    0.1056416  30.08 0.0005480333    1.757    0.431
       169 -10.8033    248.3808     40.6069   3.6407757188e+01   1.9844978521e+01     0.335441    0.1777206 -51.24  0.001839188    1.583    0.368
       170  -9.8232    151.7363     46.5800   5.0508898114e+01   4.1130712076e+01    0.2606805     0.164071 -54.04    0.0012056    1.825    0.452
       171  -9.1648     27.9627     41.2753   8.8366260904e+01   6.5768314809e+01    0.1737709    0.1364019  -8.33 0.0004450554    1.123    0.109
       172 -10.3676    112.2924     38.9798   5.6668227252e+01   5.1526554838e+01    0.3424798    0.2671365 -56.03  0.001578117    1.586    0.369
       173  -9.7718     49.4422     38.8841   7.7735768442e+01   6.3520938019e+01    0.3809016    0.2458972 -63.99    0.0016492    3.547    0.718
       174  -9.6258     40.0877     38.9724   8.1863894695e+01   6.4774873195e+01    0.1806986    0.1552728  -9.28 0.0003665198    1.096    0.087
       175  -9.8610     35.9052     38.6626   8.3644660933e+01   6.5343294891e+01      0.20901    0.1428491 -25.21 0.0003747986    1.277    0.217
       176  -8.8972    182.0294     38.2918   4.3214964044e+01   3.4858977158e+01    0.1823033    0.1586507  85.09 0.0003571465    1.056    0.053
       177 -10.5302    108.9643     43.4476   5.9125921092e+01   5.1666123969e+01    0.2685911    0.2404309  64.15 0.0004424562    1.216    0.178
       178  -9.1515    149.0665     37.8277   4.8346010988e+01   4.2939223396e+01    0.2036157    0.1768241 -84.08 0.0004238299    1.199    0.166
       179 -10.2967     83.4388     36.6289   6.4082297943e+01   5.8002446213e+01    0.3890657    0.2402869 -57.63  0.001653784    2.916    0.657
       180 -10.8059     79.2864     31.2959   6.3303377948e+01   5.9534608089e+01    0.3661225    0.2693971  46.43  0.001151223    1.345    0.256
       181  -8.6692     76.2690     38.6788   6.7300315287e+01   5.9091459371e+01     0.120088    0.1080378 -66.00 0.0002257584    1.565    0.361
       182  -9.7377    127.6055     36.6165   5.2243535355e+01   4.8270495770e+01    0.2514785    0.2353909  85.54 0.0008085321    1.144    0.126
       183 -10.0833     62.4021     36.4111   7.1460652832e+01   6.1885330808e+01    0.2388559    0.1845726  -9.94 0.0006339592    1.205    0.170
       184 -10.8408    247.4811     34.2181   3.5178959689e+01   2.0840436449e+01    0.3516759    0.1679253 -58.87   0.00179585    1.968    0.492
       185 -10.0340    100.5671    248.2388   1.0668139531e+02   9.5332021882e+00    0.2103875    0.1225447 -69.30  0.001140348    2.092    0.522
       186 -12.4480     69.1215    217.4730   1.1003021921e+02   2.0083841325e+01    0.6654341    0.4260865  71.15  0.002560927    1.632    0.387
       187 -12.0803     76.2974    219.9512   1.0872282683e+02   1.8572022151e+01    0.5289042     0.515476  27.81  0.001857062    1.247    0.198
       188 -11.2868     73.9954    214.5734   1.0863489169e+02   2.0042771874e+01    0.4078446    0.2839502  48.50  0.002317344    1.285    0.222
       189  -9.9777    179.0139    215.9979   8.5601916509e+01   3.0294351710e+00    0.2059424    0.1702144  67.74  0.001147783    1.759    0.432
       190 -10.1405    132.9281    210.0494   9.4647833966e+01   1.1861662304e+01    0.2260834    0.1703797  -3.02  0.001147828    1.741    0.426
       191  -9.3492     69.5020     36.3256   6.8758990054e+01   6.0669722491e+01    0.2400568    0.1137219  42.31  0.001092933    2.020    0.505
       192  -9.3691    215.8621     34.8741   3.8275683448e+01   2.7439402105e+01    0.1828248    0.1674798  70.99  0.000570105    1.228    0.185
       193  -8.8978    170.5592     35.5333   4.4121526347e+01   3.7978561537e+01    0.1367253    0.1230669 -88.06 1.939865e-05    1.038    0.036
       194  -9.6113     33.8023     34.7084   8.3030675277e+01   6.6259276735e+01    0.2011624    0.1408632 -24.29 0.0005327322    1.223    0.183
       195  -9.5829    193.0960     33.8661   4.0617736560e+01   3.2783127603e+01      0.36363    0.1246709  55.54  0.001421442    2.808    0.644
       196  -8.6694    106.6684     34.7640   5.6594650426e+01   5.3339463354e+01    0.1402549    0.0932908  32.11 0.0001652132    1.533    0.347
       197 -10.0225    114.8669     32.1870   5.3619938564e+01   5.1798122289e+01     0.225494    0.2010568  37.58 0.0004870147    1.032    0.031
       198  -8.6788     37.5967     32.7272   8.0438036941e+01   6.6116512572e+01    0.1511375    0.1099121 -41.17  0.000391095    1.481    0.325
       199  -9.4844     59.9616     32.0457   7.0585300419e+01   6.2930262003e+01    0.2085057    0.1375574   9.33 0.0006951132    1.623    0.384
       200  -8.5043    143.7210     31.3130   4.7306298786e+01   4.5036582454e+01    0.1358869    0.1014242 -69.10 0.0001447079    1.567    0.362
       201 -10.1984    124.5230     30.3322   5.0787129606e+01   4.9764010575e+01    0.2437346    0.2162134  53.10  0.001450645    1.027    0.026
       202  -9.9299     43.4674     30.2276   7.6705229676e+01   6.5722932707e+01      0.26777    0.1616716 -43.51  0.001457306    1.867    0.464
       203  -8.8608    221.4849     30.5882   3.6737502069e+01   2.6731756503e+01    0.1258151    0.1059401 -74.32  5.01834e-05    1.018    0.017
       204  -9.8658    110.5112     29.3042   5.3633922220e+01   5.3138621339e+01    0.2686931    0.2326954  44.12  0.001525799    1.036    0.034
       205 -11.6977     56.7806    204.3804   1.1140392338e+02   2.4584028517e+01    0.4248928     0.401978  49.01   0.00281769    1.210    0.174
       206  -8.9374     21.4389     30.5410   8.7371887738e+01   6.8292894791e+01    0.1217395   0.09447328 -18.20 9.308056e-05    1.004    0.004
       207  -9.7555    177.9743    205.0000   8.3873420817e+01   5.1637203235e+00    0.2334691   0.07349665  38.20 0.0008095535    2.992    0.666
       208 -10.6920    216.3867     27.9022   3.6627811617e+01   2.8179536037e+01    0.2597134    0.2305416  78.36  0.001440378    1.189    0.159
       209 -10.4580     48.0513     28.5355   7.3960585827e+01   6.5312349792e+01    0.3137913    0.2210069  42.83  0.001570696    1.674    0.403
       210 -10.5144     15.6485     28.0672   8.9354909701e+01   6.9248972042e+01    0.3492656      0.17576 -19.70  0.001246237    2.110    0.526
       211 -10.5682    183.2618     26.4543   3.9935683744e+01   3.5999413102e+01    0.5248814    0.2671851  47.10  0.002163823    2.266    0.559
       212 -10.1913    179.3904     22.9346   3.9495089149e+01   3.7322287359e+01    0.3054768    0.1981564  70.99  0.001647487    1.397    0.284
       213  -9.8083     23.5126     27.0052   8.4837819356e+01   6.8665545564e+01    0.2858398    0.2053749 -71.95  0.001442386    3.406    0.706
       214  -9.9680    206.5894     25.9647   3.7164648232e+01   3.0610169963e+01    0.2358473    0.2023972 -40.68 0.0008743189    1.258    0.205
       215 -10.2658     80.5484     25.9910   6.0716978327e+01   5.9952938060e+01    0.3066273      0.24973 -65.52  0.001222203    1.872    0.466
       216  -9.0834      1.8041     27.6006   9.6631287272e+01   7.0367687219e+01     0.135041   0.09871701  16.81 0.0003857506    1.540    0.350
       217  -9.7853    120.5578     26.0002   5.0150837445e+01   5.1190696950e+01    0.2746271    0.1877898  57.49 0.0007354109    1.315    0.240
       218 -11.8974    227.1631     23.0846   3.4569624856e+01   2.6401550351e+01    0.4388745    0.2731631  80.57  0.002558668    1.523    0.343
       219 -10.1450    222.5189     20.0238   3.4306730799e+01   2.7755950694e+01    0.1983256    0.1573467  74.84 0.0007680755    1.259    0.206
       220  -9.1217     98.7497     23.7423   5.4532207892e+01   5.6399537565e+01    0.1686414    0.1519598  83.13 0.0006482057    1.351    0.260
       221 -10.7253    164.8660     21.6010   4.1043353282e+01   4.0972280855e+01    0.3681401    0.2160824  50.49  0.001218055    1.696    0.410
       222  -9.6844      7.7099     22.8516   9.1506699519e+01   7.0779595925e+01    0.2293109    0.1348918  16.04 0.0008768393    1.711    0.416
       223  -9.5961    218.2045     21.7692   3.5075185297e+01   2.8498417691e+01    0.1563011    0.1380584  63.88 0.0004413251    1.315    0.239
       224 -10.2560    141.8362     21.5172   4.4569133180e+01   4.6581036434e+01     0.260793    0.2130269  53.99 0.0005337617    1.125    0.111
       225  -9.9637      1.5237     21.2919   9.4360720379e+01   7.1481408599e+01    0.2661025   0.08465505 -49.04  0.001281216    2.495    0.599
       226  -9.7142    205.9659     21.0529   3.6073061394e+01   3.1317051373e+01    0.1872432    0.1578979 -82.58 0.0003053659    1.023    0.022
       227 -10.5113    128.0110    200.9333   9.4309507987e+01   1.4577540988e+01      0.40027    0.2956901 -29.17  0.002031959    1.643    0.391
       228  -9.6013     51.1042     20.2944   6.8953992443e+01   6.5961866780e+01    0.3036014     0.128909 -28.64  0.001418119    2.378    0.579
       229  -9.7414     15.8487     20.1272   8.5848546503e+01   7.0521316548e+01    0.2416359    0.1557694 -26.92   0.00155466    1.259    0.206
       230 -10.9000    162.3383    201.8435   8.6678007031e+01   8.4451649515e+00    0.2874622    0.1974483  29.65  0.001452805    1.391    0.281
       231  -9.5092    124.0378    206.0006   9.6040628285e+01   1.4182143303e+01    0.1987316    0.1826517  46.30            0    1.025    0.024
       232  -9.6873    138.3849    197.2208   9.1274929008e+01   1.3566300727e+01    0.1880843    0.1389551 -63.08 0.0005662127    1.582    0.368
       233  -9.2033    119.3242     18.4520   4.7776976678e+01   5.2272154564e+01    0.1810533    0.1212393  71.54 0.0009419068    1.533    0.347
       234  -9.9454     60.8527     18.1298   6.4113979752e+01   6.4584261290e+01    0.1768525    0.1557946  23.75 0.0004079286    1.175    0.149
       235 -10.2251    221.4618    185.8345   7.1507728408e+01   1.2695568026e+00    0.2232751    0.1513699  27.94  0.001199682    1.491    0.329
       236  -9.4515      1.3747    184.7750   1.2216157730e+02   3.4789040462e+01    0.2908511   0.08863118 -74.73   0.00126769    2.620    0.618
       237 -10.2435      7.3097    163.6367   1.1919162606e+02   3.9260415538e+01    0.2022478    0.1542794  23.94 0.0009017954    1.620    0.383
       238 -10.2102      9.0062    155.7046   1.1805708393e+02   4.1035242570e+01    0.1628381    0.1449552  81.30 0.0001543108    1.130    0.115
       239  -9.6205     87.1295     17.2104   5.5111676212e+01   5.9586567132e+01    0.2033647    0.1524295  27.39 0.0005191003    1.222    0.182
       240 -11.1536      2.8567    152.9495   1.1937945370e+02   4.2142103215e+01    0.3624363    0.2359527 -46.41  0.001576214    1.700    0.412
       241  -8.9503     77.2755     16.3830   5.7702512402e+01   6.1686878531e+01    0.1724001    0.1151479  58.39 0.0009395411    1.649    0.394
       242 -10.6357     25.1190    151.5939   1.1337290689e+02   4.0706811637e+01     0.382708    0.1836635 -78.18  0.001226496    1.939    0.484
       243  -9.7591     32.0502    147.3241   1.1092998263e+02   4.1117799048e+01    0.1735528    0.1611303  86.25 0.0003770943    1.102    0.092
       244 -10.1044     11.8733    145.0789   1.1623833756e+02   4.3402717040e+01    0.1872919     0.169577  82.89  0.000294314    1.136    0.120
       245 -10.2198      3.1017    143.1612   1.1841284844e+02   4.4484425908e+01    0.2849894    0.2141396 -46.62   0.00180418    1.435    0.303
       246  -8.9606     36.2878    142.3276   1.0903816739e+02   4.1947476105e+01    0.1387993   0.09144846 -43.56 0.0002632151    1.613    0.380
       247  -9.7051     21.3543    141.9849   1.1325672269e+02   4.3412217916e+01    0.1867298    0.1443945 -76.39 0.0004656193    1.092    0.085
       248 -10.2829     15.6254    140.8341   1.1472969549e+02   4.4158552087e+01    0.1880833    0.1690959 -49.09 0.0005530152    1.226    0.184
       249 -10.4394     29.1075    138.0293   1.1051481452e+02   4.3714625377e+01    0.2434304    0.1976072  19.94 0.0004820962    1.473    0.321
       250  -9.2534     19.5144    136.5060   1.1309772622e+02   4.4919601062e+01    0.1316526    0.1098663 -73.98 -2.63143e-05    1.002    0.002
       251  -8.9687      1.2368    134.0166   1.1801489176e+02   4.6814501852e+01    0.1663284   0.08524766 -74.01 0.0004599224    1.553    0.356
       252  -9.8506     16.0138    131.4882   1.1348055748e+02   4.6431697712e+01      0.25114    0.1573025  88.25 0.0009723447    1.622    0.384
       253  -9.3538     32.0231    129.2264   1.0835243030e+02   4.5641689968e+01    0.1603726    0.1141509  23.21 0.0005454154    1.642    0.391
       254 -10.1399     28.1480    125.7160   1.0900272860e+02   4.6869418524e+01    0.2884784    0.1645746 -66.35 0.0008337757    1.485    0.327
       255  -9.3868     30.6399    122.7786   1.0775922962e+02   4.7375248171e+01    0.2205244    0.1160915 -65.18   0.00104617    1.614    0.381
       256  -9.6627     13.0022    125.9007   1.1365878337e+02   4.8025515226e+01    0.3369383    0.1154722 -65.74  0.001061756    2.220    0.549
       257  -8.6110     64.9897    126.7776   9.7672050339e+01   4.2456208330e+01    0.1794008    0.1212993  30.50  0.000376118    1.610    0.379
       258 -10.0239     48.1936    125.8400   1.0275538332e+02   4.4805483138e+01    0.2767547    0.1998558  17.54 0.0009991686    1.637    0.389
       259  -9.2704     67.2394     12.9415   5.9466448674e+01   6.3988498247e+01    0.2247829    0.1263279  36.71  0.000875861    1.549    0.354
       260  -9.6101     23.8714    125.3008   1.1026180754e+02   4.7339514082e+01    0.2276449    0.1624317 -83.34 0.0008141769    1.346    0.257
       261  -8.8575     93.6438    122.7863   8.7964556039e+01   3.8957260457e+01    0.2074227    0.1412634 -60.28 0.0006249921    1.522    0.343
       262  -8.9188     73.4932    122.0103   9.3990912346e+01   4.2420118131e+01    0.2159445    0.1385005 -56.85 -9.326931e-05    1.463    0.317
       263  -9.0618     61.2968    120.5853   9.7553368003e+01   4.4494525763e+01    0.1946444    0.1415077   9.66   0.00077566    1.696    0.410
       264  -9.2517     69.8552    118.8075   9.4427976761e+01   4.3743631841e+01    0.2017777    0.1728791  85.24 0.0007418891    1.338    0.252
       265  -9.5578     57.8505    117.8153   9.8080473370e+01   4.5629970442e+01    0.2169242    0.1804347 -40.07 0.0008754336    1.170    0.146
       266  -9.0917     98.5768    117.2877   8.5131932857e+01   3.9388912210e+01    0.2063263    0.1405219 -40.06 0.0003418621    1.473    0.321
       267 -10.2630     25.6754    116.0465   1.0824560193e+02   4.9474664400e+01    0.3094769    0.1997533  17.87  0.001629763    1.853    0.460
       268 -10.3516     11.3267    114.9779   1.1269833493e+02   5.0809112778e+01     0.255738    0.1821863 -49.31 0.0007482163    1.280    0.219
       269  -8.8705      1.9806    116.0193   1.1577102909e+02   5.1122633197e+01    0.1563475    0.1143223 -70.36 0.0003290043    1.092    0.084
       270  -9.9470     38.8559    113.7085   1.0349891051e+02   4.8828683496e+01    0.2685606    0.1628066 -53.17   0.00134537    1.419    0.295
       271 -10.4825     32.3182    113.3114   1.0559397994e+02   4.9561283879e+01    0.2543978    0.2285503 -21.34 0.0002560628    1.222    0.182
       272  -9.0893     46.3898    113.1196   1.0087651329e+02   4.8167376381e+01    0.1940895    0.1248728 -74.03 0.0006246388    1.665    0.399
       273 -10.3138      2.2251    112.0173   1.1518864839e+02   5.2072181404e+01    0.1847891    0.1751151  66.68 0.0005297653    1.245    0.197
       274  -8.5979     62.7555    111.3536   9.5046092424e+01   4.6564529526e+01     0.140996    0.1101542 -89.60 0.0002351092    1.587    0.370
       275 -11.2098     20.7144    109.7864   1.0883955825e+02   5.1405305458e+01    0.4109997    0.2371546  45.83  0.002091657    2.089    0.521
       276 -10.2446      6.7434    108.9493   1.1332043893e+02   5.2553652985e+01    0.2649244    0.2448573 -49.35  0.001110481    1.168    0.144
       277  -8.3012    129.6700    108.6568   7.4000169220e+01   3.5122985517e+01    0.1644415    0.1249538  -2.16 0.0007050959    1.749    0.428
       278 -10.3485     88.1879    105.7011   8.5348120591e+01   4.3959100865e+01    0.2555323    0.2286246 -29.05 0.0002510614    1.095    0.087
