#   1 NUMBER                 Running object number                                     
#   2 MAG_AUTO               Kron-like elliptical aperture magnitude                    [mag]
#   3 X_IMAGE                Object position along x                                    [pixel]
#   4 Y_IMAGE                Object position along y                                    [pixel]
#   5 X_WORLD                Barycenter position along world x axis                     [deg]
#   6 Y_WORLD                Barycenter position along world y axis                     [deg]
#   7 A_WORLD                Profile RMS along major axis (world units)                 [deg]
#   8 B_WORLD                Profile RMS along minor axis (world units)                 [deg]
#   9 THETA_WORLD            Position angle (CCW/world-x)                               [deg]
#  10 FWHM_WORLD             FWHM assuming a gaussian core                              [deg]
#  11 ELONGATION             A_IMAGE/B_IMAGE                                           
#  12 ELLIPTICITY            1 - B_IMAGE/A_IMAGE                                       
         1 -14.0125    185.3980     32.2175   6.6686373833e+01   3.5269261079e+01    0.9503591    0.8289215 -81.62  0.003043281    1.061    0.058
         2 -14.5634    192.3378     21.6573   6.3174035565e+01   3.4876150043e+01    0.8657638    0.8205386  29.07  0.001348429    1.365    0.267
         3 -10.8717     82.9846      6.0394   7.8221047750e+01   6.0901243591e+01    0.1451042    0.1195743  27.41 0.0004653765    1.031    0.030
         4 -11.5561     42.2001      5.5916   9.1277422145e+01   6.7705706519e+01    0.1610684   0.08378091  29.21 0.0009577269    1.696    0.410
         5 -10.9941     66.3040    236.6484   1.3717652741e+02   1.6785989522e+01    0.2654109    0.1775876 -53.06  0.001171304    1.908    0.476
         6 -16.1915    105.9190    234.3589   1.2908190914e+02   1.1185633320e+01     8.999799     3.022851  45.83   0.03583941    2.568    0.611
         7 -11.3180    102.4760    194.9366   1.2429756209e+02   2.0338755735e+01    0.3888743    0.2352555  79.41  0.001633783    2.283    0.562
         8 -15.9992     76.9016    154.0154   1.2369184669e+02   3.4384564009e+01     5.121805     2.728087  80.27  0.009290718    4.044    0.753
         9  -9.4147    157.2919    192.2888   1.1135652215e+02   1.0745753238e+01    0.1425523    0.1171885  -1.76 0.0001853383    1.544    0.352
        10 -14.1493     53.0734    231.4075   1.3921123762e+02   1.9692516115e+01     1.069343    0.7238477 -50.57  0.006244166    2.023    0.506
        11 -10.9871     60.6491    190.0704   1.3316201909e+02   2.7936595494e+01    0.3192893    0.2014481 -63.57  0.001683935    1.467    0.318
        12 -11.6312    207.8080    185.2391   9.9277345154e+01   2.3553403722e+00     0.347398    0.2699712 -26.88  0.001118925    1.294    0.227
        13 -11.5022    212.0476    181.3407   9.7642934594e+01   2.2983507038e+00    0.3272559    0.2345102  -0.14  0.001163129    1.818    0.450
        14 -10.6704    147.1189    185.8655   1.1242292348e+02   1.4141483118e+01     0.228973    0.1976277  80.60 0.0003328494    1.251    0.201
        15 -11.5246    115.1519    210.7558   1.2388246706e+02   1.4582931705e+01    0.2297055    0.1795503 -81.71 0.0002655348    1.334    0.250
        16 -12.4860     82.1461    180.1304   1.2675271424e+02   2.7180459662e+01    0.6274734    0.3344475 -39.17  0.002468784    2.866    0.651
        17 -12.4109     85.3346    175.0134   1.2516703517e+02   2.7918796290e+01    0.5173532    0.3269571  35.71  0.001288614    1.742    0.426
        18 -19.3017     18.2907    132.3487   1.3582604113e+02   4.6455324214e+01     19.23184     1.729697 -68.21   0.03611553   12.191    0.918
        19 -10.9529     99.5232    180.6417   1.2266899138e+02   2.4215295941e+01    0.2487396    0.2286412  52.75 0.0007109338    1.145    0.127
        20  -9.3121     53.5300    181.4352   1.3368275772e+02   3.0936253676e+01    0.1331841    0.1143689 -80.57  6.16812e-05    1.084    0.078
        21 -10.6906    197.8518    176.2214   9.9416344627e+01   6.0401571081e+00    0.3657699    0.2310947 -62.41  0.001544296    2.175    0.540
        22  -9.4133    165.2831    208.2996   1.1256234525e+02   5.9052050186e+00    0.1375811    0.1107827  -0.68 0.0002014232    1.548    0.354
        23 -11.4112    137.6697    171.0958   1.1172194467e+02   1.9373272140e+01    0.2698238    0.2086077  57.30 0.0006386696    1.324    0.245
        24 -13.5380     71.4081    195.8575   1.3149127131e+02   2.5055105502e+01     0.899682      0.73711  58.06  0.005331134    1.179    0.152
        25 -10.2340     64.0324    230.2412   1.3698363354e+02   1.8441141025e+01     0.188431    0.1261326  63.25 0.0003413287    1.277    0.217
        26 -11.3456     37.8762    166.8137   1.3549051737e+02   3.6326669692e+01    0.3381125    0.1239391  45.24  0.001423147    2.834    0.647
        27  -9.7940    135.7945    163.0254   1.1051280103e+02   2.1633691122e+01    0.2085773    0.1930602 -64.87  0.001086201    1.060    0.056
        28 -13.0079    196.0636    196.2090   1.0383777367e+02   2.4704858869e+00     0.899633    0.6824967  77.87  0.004355866    2.012    0.503
        29 -12.4520     97.4968    157.8673   1.1906218845e+02   3.0099654261e+01    0.6274559    0.4118722 -35.93  0.002770351    1.931    0.482
        30 -12.5457     62.8844    155.5188   1.2760317212e+02   3.6018979510e+01    0.4100212    0.3163605  22.66  0.002224317    1.640    0.390
        31 -10.7690    174.8684    149.1000   9.8339144381e+01   1.6535649078e+01    0.2461701    0.2148666 -86.42 0.0006535105    1.282    0.220
        32 -11.4490    133.6948    144.3226   1.0693306457e+02   2.6467162138e+01     1.091835    0.2615096 -54.24  0.002430352    5.885    0.830
        33 -11.7529    144.5539    145.0432   1.0442186235e+02   2.4017191836e+01     0.358118    0.2892084 -70.34  0.001188994    1.342    0.255
        34 -11.9111    108.5682    141.6307   1.1280575782e+02   3.2073173063e+01    0.5922946    0.3476368 -33.34   0.00230774    2.302    0.566
        35 -12.3542     96.8998    142.3055   1.1606774273e+02   3.4015031308e+01    0.2841613    0.2720957 -25.25 0.0004080595    1.167    0.143
        36 -10.0075     92.1153    205.9153   1.2824825155e+02   1.9542789785e+01    0.2164252    0.1658674  73.34 0.0004640755    1.238    0.192
        37 -10.8368    115.4370    131.5558   1.0867118089e+02   3.3169903048e+01    0.3124542    0.2655816 -17.26 0.0006104023    1.413    0.292
        38 -11.4747    119.6588    128.0366   1.0670410743e+02   3.3159826290e+01    0.4466467    0.2818963 -54.36  0.001422507    1.570    0.363
        39 -11.4994    135.3296    123.3210   1.0146937991e+02   3.0981521073e+01     0.629131     0.151275 -47.60  0.001641862    4.121    0.757
        40 -10.6330    160.1705    127.7556   9.6565058651e+01   2.4492808830e+01    0.2756637    0.1773611 -85.54 0.0009586918    2.836    0.647
        41 -11.7161    104.3975    129.1538   1.1108780901e+02   3.5841046193e+01    0.5653448    0.3942659  88.08  0.002398159    2.084    0.520
        42 -10.3129    110.8919    120.0436   1.0709497062e+02   3.6747052627e+01    0.2270432    0.2177901 -55.66 0.0004214557    1.004    0.004
        43 -10.9164     67.7995    115.8624   1.1851784592e+02   4.4964956243e+01    0.2233866    0.1766904 -39.81 0.0008991885    1.232    0.189
        44 -12.5785    107.2163    202.9077   1.2445265250e+02   1.7701754080e+01    0.4556849    0.2985855  35.82  0.002229422    1.630    0.387
        45 -10.7172    167.7242    112.5236   9.1016402593e+01   2.6021405678e+01    0.3813086    0.2592566 -82.40   0.00140676    2.204    0.546
        46 -10.3909    205.3105    110.2541   8.2937815494e+01   1.7764967952e+01    0.3132499    0.2112619  48.78  0.001119238    1.588    0.370
        47  -9.5353    154.0346    103.9747   9.1867989762e+01   3.0976463047e+01    0.1813028    0.1752843  76.65            0    1.028    0.028
        48 -10.8029     66.0377    104.5018   1.1637958277e+02   4.7826289236e+01    0.2008373       0.1395  31.47  0.001036084    1.599    0.375
        49 -10.2638     69.6037    227.8373   1.3563857263e+02   1.8158024472e+01    0.1768471    0.1341422  89.12   0.00108172    1.171    0.146
        50 -12.0686    174.0525     72.7993   7.9210291992e+01   3.2064794293e+01    0.6478459    0.3769256 -84.67  0.001175122    3.124    0.680
        51 -13.8042    174.5945     42.2576   7.0910560050e+01   3.6580698522e+01    0.7387819    0.6752076 -14.37  0.001137069    1.325    0.245
        52 -11.2769     41.2476    220.0833   1.4046013200e+02   2.3629444957e+01    0.3067108     0.144486  46.66  0.001021246    1.922    0.480
        53 -10.9623    168.2529    248.0146   1.1844713400e+02  -1.8858292370e+00    0.1681715    0.1578456  36.17 0.0002843594    1.098    0.090
        54  -9.2760     37.1269    223.5033   1.4155001831e+02   2.3396245389e+01     0.153965    0.1036942  51.95 0.0005485578    1.379    0.275
        55 -12.2425     45.1605    215.7035   1.3928556044e+02   2.4098499875e+01    0.5582545    0.2000582  53.76  0.002405317    2.699    0.630
