#   1 NUMBER                 Running object number                                     
#   2 MAG_AUTO               Kron-like elliptical aperture magnitude                    [mag]
#   3 X_IMAGE                Object position along x                                    [pixel]
#   4 Y_IMAGE                Object position along y                                    [pixel]
#   5 X_WORLD                Barycenter position along world x axis                     [deg]
#   6 Y_WORLD                Barycenter position along world y axis                     [deg]
#   7 A_WORLD                Profile RMS along major axis (world units)                 [deg]
#   8 B_WORLD                Profile RMS along minor axis (world units)                 [deg]
#   9 THETA_WORLD            Position angle (CCW/world-x)                               [deg]
#  10 FWHM_WORLD             FWHM assuming a gaussian core                              [deg]
#  11 ELONGATION             A_IMAGE/B_IMAGE                                           
#  12 ELLIPTICITY            1 - B_IMAGE/A_IMAGE                                       
         1 -11.5448    219.6711     30.1457   3.4919816933e+01   2.7797071418e+01    0.9394103    0.7382025  27.93  0.001315983    1.997    0.499
         2 -11.0235    211.3039     37.8992   3.7486165297e+01   2.8626412920e+01    0.5052441    0.4775986 -84.48  0.003454802    1.188    0.158
         3 -10.8270    231.7479     22.0195   3.2155579762e+01   2.6257152935e+01    0.5870129    0.3524207  71.33  0.003477109    1.623    0.384
         4 -10.6340    230.2845     17.5586   3.1369451811e+01   2.7066470277e+01    0.5718671    0.2962078  71.43  0.002965287    1.836    0.455
         5  -7.3454     46.6669      7.2962   6.2745802858e+01   6.8157574970e+01    0.1010608   0.09663437  63.37 0.0003655602    1.643    0.391
         6  -8.9020    249.3550      2.2888   2.7151685620e+01   2.4975955035e+01    0.2628689    0.1699532 -77.32  0.001273431    1.254    0.202
         7  -8.9487     98.6176    234.5521   1.0322365169e+02   1.1901349378e+01    0.2585148    0.1801293  -1.86 0.0009116819    2.234    0.552
         8 -13.4953     28.6860    232.5751   1.1798479554e+02   2.1177344989e+01      2.75888     1.410125  39.90   0.01556404    1.720    0.418
         9 -12.8295      2.0275    229.9465   1.2308367178e+02   2.4327424834e+01    0.2781551    0.1752693  69.12  0.001111121    1.267    0.210
        10 -15.2012      3.1123    221.3412   1.2243869806e+02   2.6034659346e+01      2.90909     2.501468 -41.65  0.006518838    1.648    0.393
        11 -14.5626     10.3804    237.8531   1.2188905944e+02   2.1938323842e+01     1.211907    0.3915395  75.35  0.004702605    4.136    0.758
        12 -14.8929     11.6424    229.3763   1.2118982676e+02   2.3560823608e+01     1.388298    0.5927213  84.30  0.006955865    2.334    0.572
        13  -9.5230    121.8739    233.1260   9.7891695103e+01   8.7351557243e+00    0.1994593    0.1656097  51.20 0.0004978991    1.190    0.159
        14  -9.2742    211.7568    231.0309   7.8639794984e+01  -4.3279338109e+00    0.2348022    0.1960739 -17.84  0.000433525    1.188    0.158
        15  -8.5692     83.5056    232.0314   1.0627262267e+02   1.4553053383e+01    0.2802966     0.171953  11.71  0.001295591    2.543    0.607
        16  -7.8093     89.9411    233.5468   1.0502159431e+02   1.3342910158e+01    0.2056463    0.1152626  34.70  0.001034938    1.613    0.380
        17  -8.8693    181.4440    226.0676   8.3882992439e+01   8.6113343376e-01    0.2630015    0.1683202  15.19  0.001115114    1.608    0.378
        18 -13.6580     20.6152    249.3602   1.2057382132e+02   1.8633259940e+01      0.54536    0.3784167 -76.36  0.001800758    1.468    0.319
        19 -13.6643     30.0027    248.1275   1.1872416090e+02   1.7883506077e+01     1.865065    0.6339101  32.34   0.00448718    2.750    0.636
        20 -10.2282    112.8925    223.6566   9.8628584176e+01   1.1995852412e+01    0.4878694    0.2501227  31.12  0.001746992    1.869    0.465
        21  -7.1450     88.3279    224.2945   1.0431266708e+02   1.5496979382e+01    0.1259811    0.1033172 -11.79 0.0007022735    1.628    0.386
        22  -7.7607     62.4252    224.2003   1.1012570288e+02   1.9020466396e+01    0.1780044    0.1136133  89.63 0.0009480577    1.686    0.407
        23  -7.4820     93.5030    222.4937   1.0291441898e+02   1.5134950125e+01    0.1335125    0.1202865  50.39 0.0008106292    1.012    0.011
        24 -10.0953     50.3243    220.7426   1.1247711447e+02   2.1271061564e+01    0.5070065    0.2810957 -40.10   0.00235299    2.854    0.650
        25  -8.6409    136.3673    220.2404   9.2781433636e+01   9.0153096865e+00    0.2983839    0.1791235  29.17  0.001112918    1.588    0.370
        26  -8.0830     82.9449    218.2753   1.0483136257e+02   1.7555849311e+01    0.2129778    0.1559704  60.40 0.0006052271    1.338    0.253
        27  -8.2151     56.0310    217.0217   1.1085327855e+02   2.1398369742e+01     0.191781    0.1585872  65.79  0.001193247    1.061    0.058
        28  -8.2984    148.7133    215.2002   8.9187230969e+01   8.0255046122e+00    0.2508028    0.1920619  27.75  0.001366681    1.204    0.169
        29  -7.8031     98.3495    214.6772   1.0078444764e+02   1.6101860150e+01    0.2164086    0.1543769 -16.76 0.0009634962    2.085    0.520
        30  -8.1981    152.8833    213.8760   8.8029709002e+01   7.6069043205e+00    0.2137671    0.1785607  -0.90  0.000639146    1.229    0.186
        31  -8.4718     75.8299    212.8929   1.0585085241e+02   1.9736537446e+01    0.2435605    0.2045958 -37.29  0.001108632    1.457    0.314
        32  -7.5685     72.2696    213.6550   1.0677063632e+02   2.0050374942e+01    0.1865958    0.1186362  49.29 0.0004909342    1.452    0.311
        33  -8.3687     95.4515    211.2825   1.0101416681e+02   1.7280533693e+01    0.3609774    0.1572965 -52.41   0.00144327    2.419    0.587
        34  -7.8806    100.6116    210.6737   9.9704188016e+01   1.6637295728e+01    0.1750932    0.1322922 -77.12 0.0006651912    1.489    0.329
        35  -7.4393    113.2586    216.3680   9.7526782896e+01   1.3459573956e+01    0.1352536     0.104339 -21.54 0.0004759862    1.642    0.391
        36  -7.4380    189.4054    210.4977   7.9524753881e+01   2.3615268849e+00    0.1331608    0.1196935   0.06 5.991345e-05    1.077    0.071
        37  -9.3403    118.3656    208.2931   9.5129382023e+01   1.4378805589e+01    0.3911795    0.2263234 -49.55  0.001497205    1.838    0.456
        38  -8.3830    115.9847    203.6191   9.4976946440e+01   1.5781503102e+01    0.2072916      0.18726 -59.06  0.001181887    1.176    0.150
        39  -8.5811     63.3927    208.8139   1.0830614703e+02   2.2318115495e+01    0.2683883    0.1736234 -53.98 0.0007614915    1.675    0.403
        40  -7.6739    128.7728    206.9877   9.2457919630e+01   1.2969259342e+01    0.1766434    0.1182214 -52.55   0.00066896    1.600    0.375
        41  -9.3731     47.5996    206.4499   1.1175087238e+02   2.4808313535e+01     0.260388    0.2250613 -28.50   0.00104835    1.526    0.345
        42  -7.8923     73.8419    203.9051   1.0524414576e+02   2.2055460435e+01    0.1877802    0.1826175 -57.80 0.0003406741    1.164    0.141
        43  -7.5030    171.2265    202.7509   8.2005374094e+01   6.7452674994e+00    0.2235371    0.1026787 -35.78 0.0008842733    2.425    0.588
        44  -7.8316    194.0224    198.4974   7.6356384488e+01   3.7935598582e+00    0.2498351    0.1789507 -82.94  0.001028035    3.412    0.707
        45  -8.5983    109.0460    198.1461   9.5812958006e+01   1.8122307803e+01    0.2175508    0.2022983 -66.84 0.0002843062    1.124    0.110
        46  -9.5072     24.0749    197.5516   1.1639069983e+02   2.9403672659e+01    0.3936016     0.230032 -47.91  0.001318313    2.090    0.521
        47  -9.0175     88.9610    197.4557   1.0068332791e+02   2.1392555634e+01    0.4550877    0.2728311  13.56  0.001483515    2.462    0.594
        48  -7.5924     97.8624    195.9127   9.8242018228e+01   2.0399404433e+01    0.1923712    0.1584396  73.11  0.000431171    1.302    0.232
        49  -8.2951     56.8888    194.3277   1.0823948913e+02   2.6530248269e+01    0.2576452    0.1996498 -28.94  0.001402999    1.716    0.417
        50  -7.3096    176.7291    192.9850   7.8979007778e+01   7.7174475598e+00    0.2569175    0.1456453   4.19 0.0008983933    3.382    0.704
        51 -10.0193     66.3840    190.1987   1.0536559758e+02   2.6301738440e+01    0.4231437    0.3132883  -0.83   0.00100375    1.914    0.478
        52 -15.2195      4.6166    240.2739   1.2309029270e+02   2.1994524873e+01     1.241751    0.5173112  80.17   0.00650517    2.301    0.565
        53  -9.0798     16.4076    188.7893   1.1746367253e+02   3.2176276895e+01    0.2846815    0.1947828 -35.47  0.001602763    2.015    0.504
        54  -9.2694     75.7996    187.3498   1.0258450901e+02   2.5703930964e+01    0.4238717    0.2126841 -49.37 0.0006960389    2.126    0.530
        55  -9.0927     80.7844    187.7187   1.0135721483e+02   2.4903462075e+01    0.3031323    0.2565183  10.23  0.000350255    1.399    0.285
        56  -7.7455    120.8139    188.2234   9.1251723450e+01   1.8439723529e+01     0.188013    0.1651099 -16.81  0.000295056    1.257    0.204
        57 -10.0207     49.0630    181.7564   1.0873694584e+02   3.0524119475e+01    0.3843569    0.3216434 -78.32  0.002269462    1.101    0.092
        58  -7.8342     77.9834    182.3053   1.0129529195e+02   2.6621219474e+01    0.1928456    0.1767804  41.93 0.0004054392    1.110    0.099
        59 -10.1384     58.6101    178.7123   1.0587685182e+02   3.0116791007e+01    0.4159779    0.3320529 -50.75  0.001004504    1.320    0.242
        60  -9.7331     63.8753    173.2782   1.0373238733e+02   3.0793629708e+01    0.3255552     0.281954 -16.68 0.0006198455    1.409    0.291
        61  -9.2431     39.7299    180.6651   1.1099793154e+02   3.1842326275e+01    0.3156214    0.2304463  -1.36  0.001682552    1.942    0.485
        62  -9.0440     36.5807    179.3814   1.1165982992e+02   3.2492804917e+01    0.3443623    0.2421779 -40.97  0.001246138    1.716    0.417
        63  -7.8193     86.9434    178.4094   9.8339543567e+01   2.6254558436e+01    0.2109276    0.1857225 -65.48 0.0003213076    1.124    0.111
        64  -7.9529     76.7081    176.5428   1.0077129198e+02   2.8221717547e+01    0.2387036    0.1644638  89.01 0.0004455715    1.707    0.414
        65  -9.3934     45.5561    170.6657   1.0830531597e+02   3.3680643542e+01    0.5390078    0.2761514  61.10  0.002284329    2.382    0.580
        66  -9.2505    175.3116    172.3368   7.5183454777e+01   1.2121608089e+01    0.2858633    0.2503867  -5.36  0.000686566    1.124    0.111
        67  -8.0291     88.9740    172.5275   9.6835310529e+01   2.7390564578e+01    0.4384486    0.1803573  49.99  0.001499635    2.970    0.663
        68  -9.5910     17.3872    170.9623   1.1569748912e+02   3.6383041038e+01    0.3358234    0.2736828  86.58   0.00150754    1.061    0.057
        69 -10.4231     24.0791    170.0590   1.1389598263e+02   3.6016192093e+01    0.4986874    0.3599397 -21.07  0.002758754    1.921    0.480
        70  -7.2530    124.2986    172.6334   8.7511055626e+01   2.1443579234e+01    0.1559678     0.119796  79.08  0.000703231    1.728    0.421
        71  -7.7135    130.3380    170.9958   8.5646686935e+01   2.0737588743e+01    0.2057734     0.191488 -47.04 0.0004319167    1.088    0.081
        72  -8.4840     37.4273    169.9322   1.1038339601e+02   3.4745067026e+01    0.3757876    0.1265624 -73.37  0.001358528    2.960    0.662
        73  -8.5166     24.5651    165.5396   1.1330298423e+02   3.7092173717e+01    0.2000881    0.1630772  67.32 0.0006336352    1.195    0.163
        74  -7.2556     99.6370    166.7092   9.2923821869e+01   2.7121413581e+01    0.1541656    0.1177313 -14.69 0.0007026934    1.700    0.412
        75  -8.5806     88.7809    165.0387   9.5600023638e+01   2.9280070607e+01    0.2012301    0.1707831 -36.97  0.001040944    1.266    0.210
        76  -7.7972     43.0127    164.2594   1.0818125833e+02   3.5574312952e+01    0.3037755    0.1293483 -45.43   0.00117802    2.753    0.637
        77  -7.2253    106.7867    163.9593   9.0466285938e+01   2.6592182614e+01    0.1918332    0.1211352 -54.09 0.0002146552    1.570    0.363
        78  -8.9786     74.0433    163.7935   9.9487851920e+01   3.1792193862e+01    0.2746705    0.2434563   0.67 0.0003899937    1.315    0.239
        79  -9.9845     60.2243    160.8970   1.0291355320e+02   3.4391033289e+01    0.4412533    0.2947234 -32.14  0.001058508    1.896    0.473
        80  -7.1734    115.8011    162.9706   8.7846696122e+01   2.5255424811e+01    0.1978243    0.1194687 -52.53 0.0004012822    1.651    0.394
        81  -8.7521     96.7218    163.3113   9.3095603906e+01   2.8439502903e+01    0.3348164     0.141053  31.82  0.001047532    2.526    0.604
        82  -9.7769     12.8228    161.8533   1.1602309884e+02   3.8993521254e+01    0.3633251    0.2184894  63.30  0.001529541    1.717    0.418
        83  -8.9759     19.4161    162.7971   1.1438084587e+02   3.8224253125e+01    0.3081828    0.1890535  61.68    0.0016216    1.699    0.411
        84  -8.7865     16.1415    159.8480   1.1495293540e+02   3.9226490865e+01    0.1947499    0.1539284  77.59            0    1.188    0.158
        85  -8.1745    172.0809    159.0433   7.3081766009e+01   1.5498786875e+01    0.2146824    0.2078895 -23.53 0.0003416453    1.064    0.060
        86  -9.9794     81.9023    156.8292   9.6067589796e+01   3.2400634581e+01    0.5873079    0.3770749 -22.06  0.001731714    2.344    0.573
        87  -8.6652     34.8354    158.4872   1.0970778075e+02   3.7887167844e+01    0.3110141    0.2447653  -5.11 0.0007620517    1.642    0.391
        88  -7.4350     35.2725    154.6721   1.0910067297e+02   3.8810199844e+01    0.2269047    0.1178018 -81.07 0.0003364483    1.997    0.499
        89  -8.4858     51.9300    156.8378   1.0465955492e+02   3.6445497361e+01    0.2385415    0.1848378 -53.41 0.0004184085    1.252    0.201
        90  -8.9955     22.9680    157.0090   1.1280998958e+02   3.9364105375e+01     0.226088    0.1373723  65.89  0.001137563    1.790    0.441
        91  -7.2880      2.3354    157.6263   1.1837734384e+02   4.0788871528e+01    0.1380238   0.07697565  66.60 0.0001471007    1.854    0.460
        92  -7.5897     16.6491    156.3031   1.1445596644e+02   4.0067004985e+01    0.1372081   0.08525207  64.62 0.0007040057    1.700    0.412
        93  -9.1846      8.7943    155.0213   1.1644351352e+02   4.0981130644e+01    0.1957613    0.1830587 -29.67 0.0002809054    1.302    0.232
        94  -8.4670     13.6883    152.6534   1.1488539950e+02   4.1206764312e+01    0.2349987    0.1715197 -40.45 0.0009571831    1.542    0.351
        95  -8.7184     16.4897    151.4924   1.1399123695e+02   4.1280237307e+01    0.2433517    0.1865174  66.18 0.0006337521    1.326    0.246
        96  -8.7341    128.3409    153.5018   8.2549849580e+01   2.5207847130e+01    0.2539486    0.2412845 -55.59 0.0002225248    1.072    0.067
        97  -7.2683     56.5049    151.5272   1.0252037745e+02   3.7250039646e+01    0.1429629    0.1316016 -75.28 -2.313836e-05    1.008    0.008
        98  -7.3059     50.7564    150.9108   1.0410670744e+02   3.8098258738e+01    0.1819351    0.1091087 -62.89 0.0004329843    1.503    0.335
        99  -7.0994    148.4043    149.4908   7.6538978686e+01   2.2228697263e+01    0.1537802    0.1478261 -29.65 5.083651e-05    1.022    0.021
       100  -8.4402    248.9848    148.5343   5.6381277060e+01   3.7946177412e+00    0.1750056    0.1298038  41.16  0.001035606    1.606    0.377
       101 -10.8547     68.6562    144.9830   9.7793590167e+01   3.7335467719e+01    0.7550829    0.4783007  60.44  0.002692214    1.979    0.495
       102  -8.2042    120.5334    145.3191   8.2847473188e+01   2.8633747664e+01    0.4556653    0.2290782  30.70  0.001673232    2.282    0.562
       103  -9.1740     84.4263    143.0289   9.2697554294e+01   3.5501675414e+01    0.4146034    0.3290671 -88.68  0.002025275    1.473    0.321
       104  -7.7247    178.2291    148.0632   6.9289326537e+01   1.6596415781e+01    0.1984202    0.1848914 -32.11 0.0002802996    1.035    0.034
       105  -7.3365      8.3331    144.6750   1.1554847584e+02   4.3576531444e+01    0.1345617   0.08423609  66.87 0.0007051018    1.710    0.415
       106  -8.9676     97.5719    142.6488   8.8746168876e+01   3.3437804554e+01    0.4013159    0.3087947  -9.21 0.0008588329    1.656    0.396
       107  -7.4482    241.6907    142.3268   5.6245499529e+01   6.0219020410e+00    0.1293988   0.09754523 -61.93 0.0007039164    1.658    0.397
       108  -8.2384     16.5426    142.0651   1.1291605665e+02   4.3638833144e+01    0.1835559    0.1750051  33.78  0.001212171    1.234    0.190
       109  -9.4248     11.2678    138.2757   1.1401511177e+02   4.4969604473e+01    0.3259189    0.2293922   3.73  0.001868295    1.815    0.449
       110  -9.1762      4.8960    138.5329   1.1588904372e+02   4.5323945357e+01    0.3959244    0.1880447 -29.49  0.001754187    2.977    0.664
       111  -8.3910     82.7240    137.6482   9.2107149452e+01   3.7125496494e+01    0.3250093    0.2125144  80.90 0.0008565602    2.420    0.587
       112  -8.9715      2.0138    147.7508   1.1759403387e+02   4.3229108033e+01    0.2846069    0.1186879 -59.64  0.001348763    1.978    0.494
       113  -7.3842     67.6475    134.3412   9.6081221575e+01   4.0188279988e+01    0.1565791    0.1114854  70.69 0.0007042156    1.807    0.446
       114  -8.6810     28.9170    133.9688   1.0814387988e+02   4.4669939597e+01    0.1948977    0.1933741 -50.32 0.0003685323    1.147    0.128
       115  -9.6048      9.6268    131.5379   1.1372098382e+02   4.6759992140e+01     0.397846    0.1958034  89.24  0.001317726    2.266    0.559
       116  -7.5768    108.9781    131.5154   8.2930829416e+01   3.4126861056e+01    0.2174889    0.1401991   8.51 0.0008093535    2.456    0.593
       117  -8.3786    245.5854    130.2422   5.3165487511e+01   7.4364746334e+00    0.1889626    0.1093175 -31.80 0.0007049681    1.598    0.374
       118  -7.5421     15.4797    128.9931   1.1161624627e+02   4.6996472760e+01    0.2101701   0.06643152 -51.33 0.0008096114    2.670    0.625
       119  -7.8611     28.2863    126.3713   1.0720316538e+02   4.6647759662e+01    0.2170004    0.1315667 -40.20 0.0005485365    1.695    0.410
       120  -7.3464    175.9793    125.0094   6.4390822752e+01   2.1813771166e+01    0.1805113    0.1628874 -39.01 0.0009460249    1.058    0.055
       121  -8.5749     66.0964    125.0359   9.4677164097e+01   4.2755267077e+01    0.2146001    0.2036144 -65.42 0.0003553079    1.056    0.053
       122  -7.7136      1.5236    125.5222   1.1548302009e+02   4.8734019003e+01    0.1286522    0.1036929 -68.91  0.000809732    1.018    0.017
       123  -8.1179     61.9957    123.7454   9.5740642448e+01   4.3633815378e+01    0.2143252    0.1944866  81.73 0.0002542208    1.212    0.175
       124  -7.7492     64.0537    120.5103   9.4379451947e+01   4.4168331520e+01    0.1971828    0.1859476 -26.19 0.0003946762    1.071    0.067
       125  -8.8060      5.8326    119.6966   1.1344898365e+02   4.9927237506e+01     0.220342    0.1385875 -62.11 0.0003675905    1.281    0.220
       126  -7.4409    109.1587    119.4002   7.9920150620e+01   3.6975608978e+01    0.1998351    0.1473773  49.88 0.0002762684    1.462    0.316
       127  -8.9096     72.7008    116.6179   9.0652654488e+01   4.3902077842e+01    0.2431416    0.2396868 -82.22 0.0002823739    1.089    0.082
       128  -7.1440     65.7144    116.3032   9.2899656290e+01   4.4984926194e+01    0.1423175    0.1144327  77.02 0.0001848404    1.560    0.359
       129  -8.5417     59.6219    110.5324   9.3655288431e+01   4.7227096001e+01    0.2566488    0.2330086 -74.92 0.0006986673    1.184    0.156
       130  -6.9281    196.3550    107.6784   5.6182881540e+01   2.0861818769e+01     0.151636    0.1112523 -74.80 0.0007046343    1.758    0.431
       131  -8.0830      8.5075    106.4787   1.1074583307e+02   5.3011074837e+01    0.1319464    0.1050658 -56.40 0.0008097902    1.048    0.046
       132  -7.9469    248.9999    103.7471   4.7221559001e+01   1.1252288579e+01    0.1482505    0.1123043  58.73 0.0008871341    1.570    0.363
       133  -7.4495    184.3835    101.8528   5.6991651199e+01   2.4533039561e+01    0.2119558    0.1364789 -28.63 0.0009368326    1.736    0.424
       134  -8.1496     16.4158    100.2671   1.0693971879e+02   5.4021715662e+01    0.2319102     0.120118 -42.24  0.001135527    1.757    0.431
       135  -8.2818     99.9818     96.8979   7.6668375119e+01   4.3852349533e+01    0.2193657    0.2118998 -12.94 0.0002958724    1.019    0.019
       136  -7.1535     75.6528     88.2905   8.2259552222e+01   5.0062953660e+01    0.1421464    0.1173455  72.23 0.0002832033    1.662    0.398
       137  -7.0038     56.2770     84.6873   8.8318095214e+01   5.3727681060e+01    0.1301127     0.112432  82.94 0.0003083784    1.562    0.360
       138  -7.2687     38.3135     82.6989   9.4770688744e+01   5.6299329384e+01    0.1260481    0.1059996  70.51 0.0005252348    1.611    0.379
       139  -8.9742      4.9501     78.2116   1.0724106744e+02   5.9869177731e+01    0.2299955    0.1433089 -54.91 0.0003250896    1.261    0.207
       140  -7.3753    102.2292     76.9714   6.9997251384e+01   4.7518935707e+01    0.1847899    0.1216575 -40.81 0.0003544457    1.532    0.347
       141  -7.2286     17.7057     74.2943   1.0111825545e+02   5.9981327947e+01    0.1144762    0.0980425  72.69 0.0002287296    1.559    0.359
       142  -6.9901     13.3331     70.3367   1.0203729541e+02   6.1152796448e+01    0.1412144   0.07291255 -35.23 0.0004253939    1.740    0.425
       143  -8.1371      6.9320     68.6932   1.0441526782e+02   6.1893240480e+01    0.1663101     0.140696 -34.51 0.0003904327    1.091    0.083
       144  -7.0279     57.7308     64.7184   8.1651717610e+01   5.7717291881e+01     0.136137   0.09625955 -14.17 0.0001769768    1.492    0.330
       145  -7.4487     73.0214     62.9761   7.5208019461e+01   5.5642349060e+01    0.1657031    0.1446025  15.78 0.0003307745    1.084    0.078
       146  -8.8785     15.7321     59.4709   9.8189475039e+01   6.3320682209e+01      0.32761    0.1506786 -48.72 0.0005317904    1.717    0.418
       147  -7.7103     88.1816     60.1610   6.8938331492e+01   5.3388770599e+01    0.1727782    0.1671703  77.48 0.0003416992    1.270    0.212
       148  -9.0527    203.6693     54.8124   4.2319268910e+01   2.8014608882e+01    0.3017456    0.1275108  49.68  0.001238677    2.759    0.638
       149  -7.7016    231.5074    249.4762   7.7999616658e+01  -9.5021560379e+00    0.1181935   0.08998878   0.93 6.411842e-05    1.032    0.031
       150  -8.3216     93.4267    241.3683   1.0513349981e+02   1.1287829930e+01    0.2460383    0.1151069  20.75 0.0009527327    3.292    0.696
       151 -11.0949    204.3134     42.3657   3.9308094178e+01   2.9583198281e+01    0.7105879    0.4975751 -63.14  0.004061404    1.354    0.262
       152  -7.6458     22.8394     31.1638   8.5150885769e+01   6.8073692989e+01    0.1723106    0.1149834 -15.01 0.0002730099    1.317    0.241
       153  -9.0702     63.4977    236.4542   1.1105370488e+02   1.6298302156e+01    0.3938078     0.186889 -65.61  0.001617829    2.198    0.545
       154  -8.1058    191.4449    236.6879   8.3582026927e+01  -2.3679928505e+00    0.2314742     0.178764  48.20 0.0009121533    1.709    0.415
       155  -7.1909     43.7130     22.2978   7.1135699223e+01   6.6818858158e+01    0.1017173    0.1001273  23.67 0.0006810003    1.552    0.356
       156  -7.3882    188.4573     20.5570   3.5942344150e+01   3.5807267859e+01    0.1251932    0.1083729  88.43 3.076744e-05    1.045    0.043
       157 -12.0742     19.9241    232.2985   1.1972369992e+02   2.2141409986e+01    0.3763726    0.1995879 -77.49 0.0002508531    1.757    0.431
