#   1 NUMBER                 Running object number                                     
#   2 MAG_AUTO               Kron-like elliptical aperture magnitude                    [mag]
#   3 X_IMAGE                Object position along x                                    [pixel]
#   4 Y_IMAGE                Object position along y                                    [pixel]
#   5 X_WORLD                Barycenter position along world x axis                     [deg]
#   6 Y_WORLD                Barycenter position along world y axis                     [deg]
#   7 A_WORLD                Profile RMS along major axis (world units)                 [deg]
#   8 B_WORLD                Profile RMS along minor axis (world units)                 [deg]
#   9 THETA_WORLD            Position angle (CCW/world-x)                               [deg]
#  10 FWHM_WORLD             FWHM assuming a gaussian core                              [deg]
#  11 ELONGATION             A_IMAGE/B_IMAGE                                           
#  12 ELLIPTICITY            1 - B_IMAGE/A_IMAGE                                       
         1 -14.4805     17.1546    107.5485   3.3644662047e+01  -4.3973058687e+01    0.1537253    0.1044307  64.70    0.0165207    1.566    0.362
         2 -15.7321     68.1275     66.7576   3.2491121110e+01  -4.4104821826e+01    0.3523637    0.2012304  -7.12   0.03122678    2.440    0.590
         3 -16.7310    125.4048    110.3895   3.1973308761e+01  -4.3272605708e+01    0.3541411    0.1792551 -19.12   0.03112957    2.303    0.566
         4 -15.9498     63.1828    132.4338   3.3129912154e+01  -4.3419839420e+01    0.4052611    0.1821088  31.19    0.0279457    4.093    0.756
         5 -15.5152     32.9718    118.0817   3.3483405919e+01  -4.3761536214e+01    0.2266858    0.1432169  33.51   0.01293777    1.847    0.459
         6 -12.0838     10.5601     21.5431   3.3014454677e+01  -4.4953419217e+01   0.03301933   0.02368608  66.01  0.002892757    1.498    0.333
         7 -11.8908      4.2782     20.6221   3.3107286426e+01  -4.5002066530e+01   0.04485147   0.02220524  36.48  0.003808133    2.586    0.613
         8 -11.0203      3.2381     13.1928   3.3059516984e+01  -4.5089485974e+01   0.04710772   0.01625742  42.59  0.003299166    3.680    0.728
         9 -12.5664     12.6960      9.3918   3.2874455005e+01  -4.5072669199e+01   0.05241768   0.03823121  33.73   0.00578183    1.500    0.333
        10 -11.4982      5.5219      3.4241   3.2937705441e+01  -4.5181906901e+01   0.03708906   0.02427785  -5.90  0.003721143    1.866    0.464
        11 -10.5540     83.4645     26.4798   3.1897685811e+01  -4.4445539561e+01   0.03278458   0.01735885 -75.27  0.002045122    5.510    0.819
        12 -16.1219     98.9916     69.7665   3.2032591741e+01  -4.3878982597e+01    0.3647867    0.1450016 -22.72   0.02808878    2.934    0.659
        13 -16.6886    139.4210    135.8198   3.1975557744e+01  -4.2908863265e+01    0.3857955    0.1750297 -34.41   0.03452813    2.061    0.515
        14 -10.1263     31.0690     15.1701   3.2630593694e+01  -4.4896088281e+01   0.02262485   0.01023821 -53.48  0.001667643    3.325    0.699
        15 -10.6459      7.7151      9.9073   3.2958960414e+01  -4.5097758126e+01   0.01862103   0.01283624  66.21  0.001243548    1.570    0.363
        16 -10.8014     28.2379      9.2091   3.2623724355e+01  -4.4978474551e+01      0.01721   0.01050573 -56.12     0.001421    2.040    0.510
        17 -10.5006     24.4672      9.4647   3.2686329562e+01  -4.4999080753e+01   0.01362834  0.008357714  55.25  0.001151029    1.642    0.391
        18  -9.9486     87.0022      9.1350   3.1688523920e+01  -4.4610711091e+01    0.0171524  0.008869195 -47.01  0.001172086    2.133    0.531
        19  -9.8971     45.1843      8.8048   3.2349453073e+01  -4.4877364194e+01  0.009119211   0.00749933  19.82 0.0003983599    1.329    0.247
        20  -9.4011    113.9762      7.7657   3.1251329185e+01  -4.4453750725e+01  0.008487531   0.00531488 -28.40  0.000475708    1.555    0.357
        21 -10.0101     42.8036      3.8404   3.2343776202e+01  -4.4946104970e+01   0.01137144  0.009672858 -62.65 0.0002205546    1.302    0.232
        22 -10.4044     31.9147      4.0474   3.2519634614e+01  -4.5011728475e+01    0.0121599  0.008804501 -30.49 0.0003871722    1.329    0.247
        23 -10.2973     27.4221      2.9120   3.2581599583e+01  -4.5051993417e+01   0.01677599   0.01004489  43.98 0.0008843571    1.754    0.430
        24  -8.7879     75.9766      3.2527   3.1810860009e+01  -4.4744056112e+01  0.008249517  0.005417685 -29.52 0.0003362625    1.469    0.319
        25  -9.8058     81.9190    245.9702   3.3780318829e+01  -4.2063399637e+01  0.009757821  0.009056149  23.83 0.0004682474    1.096    0.088
        26  -9.2783    201.8192    250.2261   3.1995218080e+01  -4.1277441570e+01  0.009191546  0.007481243  21.09 0.0009386188    1.348    0.258
        27  -9.5735    153.2133    250.4695   3.2729696927e+01  -4.1577877533e+01   0.01186586  0.006440341 -21.35  0.001086229    1.963    0.490
        28  -8.9426    148.7466    250.3930   3.2796735147e+01  -4.1606335100e+01  0.008970127   0.00617064 -14.59 0.0007479145    1.570    0.363
        29 -10.1758    141.3812    249.8394   3.2903889199e+01  -4.1657832385e+01   0.01142838   0.01070234 -15.76 0.0004174623    1.039    0.037
        30  -9.1638    132.8934    250.5277   3.3038501151e+01  -4.1702596095e+01  0.009477525  0.006265802 -26.78 0.0004456733    1.473    0.321
        31  -9.3448    128.8832    250.3522   3.3098053891e+01  -4.1729153045e+01   0.00928388  0.008074413 -18.26 0.0006309889    1.131    0.116
        32  -9.3405    130.7071    246.6678   3.3040006043e+01  -4.1758129031e+01   0.01026039  0.008000173  -4.34 0.0007642985    1.401    0.286
        33  -9.5457    128.5546    244.4748   3.3054724909e+01  -4.1795278659e+01   0.01051279  0.008449553 -15.23 7.847095e-05    1.265    0.209
        34 -10.2785    123.8941    249.2493   3.3164954211e+01  -4.1771805200e+01   0.01998169   0.01072126  -7.51  0.001657862    2.747    0.636
        35 -10.2170     89.1318    250.0381   3.3702716848e+01  -4.1975142797e+01   0.01723894  0.008861953  52.72  0.001245086    1.929    0.482
        36 -11.0559     93.9799    246.9713   3.3603398443e+01  -4.1979303160e+01   0.02210497   0.01302672   4.37  0.001923605    2.599    0.615
        37 -10.5574     92.3176    244.3205   3.3607252104e+01  -4.2018418773e+01   0.01614685  0.009792354   5.52  0.001446757    2.425    0.588
        38  -9.4003     76.1474    250.1959   3.3903357784e+01  -4.2051951538e+01  0.009527791  0.008465045  11.48 0.0003564093    1.170    0.146
        39 -10.7296     61.3672    247.8247   3.4111704348e+01  -4.2166974319e+01    0.0190582   0.01212718  27.78   0.00152537    1.946    0.486
        40  -9.9468     16.4980    247.4655   3.4803628616e+01  -4.2438377609e+01  0.006524956  0.006170731   6.39 7.137856e-05    1.057    0.054
        41  -8.6142    125.2878    245.3201   3.3111439457e+01  -4.1806126943e+01  0.006699852  0.004857925  25.22 0.0002277374    1.598    0.374
        42  -9.6126     75.3884    244.5306   3.3869015588e+01  -4.2118665894e+01   0.01160748  0.009539957 -83.37 0.0006881438    1.432    0.302
        43  -9.5187     78.9945    242.9665   3.3800822639e+01  -4.2114016613e+01   0.01431857  0.009533277  16.18 0.0004212815    1.950    0.487
        44  -9.9084     71.8651    242.5348   3.3907025597e+01  -4.2161827397e+01   0.01160324   0.01026498  36.98 0.0004077482    1.156    0.135
        45 -10.5186     58.3387    243.4450   3.4122975603e+01  -4.2233272188e+01   0.01515426   0.01139404  23.68  0.001423107    1.510    0.338
        46 -10.1492     56.7962    239.3821   3.4113875209e+01  -4.2287167021e+01   0.01750334   0.01112511  25.09  0.001373934    2.006    0.501
        47 -10.0424     50.5380    245.0148   3.4256174369e+01  -4.2262802116e+01   0.01300466  0.009327971 -25.25 0.0003800303    1.359    0.264
        48 -10.1298     51.1097    239.7440   3.4204711215e+01  -4.2317315149e+01   0.03019844    0.0156952  17.94  0.002169988    3.893    0.743
        49  -9.4585     48.4316    238.4572   3.4235730513e+01  -4.2347511169e+01  0.009898305  0.007697584 -59.61 0.0001354644    1.455    0.313
        50  -9.7896     54.0395    230.9959   3.4088432128e+01  -4.2395846889e+01   0.01932949    0.0103869 -16.27   0.00136226    2.155    0.536
        51  -9.6375     57.7667    226.2693   3.3992292162e+01  -4.2425320201e+01   0.01952243   0.01095784  24.32  0.001669235    2.657    0.624
        52 -10.0163     58.1879    221.3211   3.3945419777e+01  -4.2477092701e+01   0.02699324   0.01406022  27.69   0.00217714    2.985    0.665
        53 -10.1996     62.9362    220.9830   3.3869173596e+01  -4.2452143849e+01   0.01154101   0.01006027  20.30 0.0004257969    1.205    0.170
        54  -9.1446     52.9548    235.0210   3.4137896040e+01  -4.2358146639e+01  0.009772717  0.008535488  21.54 0.0003521889    1.199    0.166
        55  -9.5989     49.2315    234.2143   3.4188978428e+01  -4.2389353410e+01   0.01268932   0.01036833   6.71  0.000584698    1.335    0.251
        56 -10.0953     42.9044    244.6248   3.4371109845e+01  -4.2312742239e+01   0.01111602  0.009463101  68.80 0.0003418689    1.250    0.200
        57  -9.5327    187.4449    244.5024   3.2163405628e+01  -4.1429577533e+01  0.006478773  0.006189001   5.56 0.0002667746    1.043    0.042
        58  -8.8227     67.0078    244.5029   3.3997837227e+01  -4.2169517622e+01  0.009441232  0.006292688 -25.24 0.0003575713    1.469    0.319
        59  -9.6414     22.9608    242.2105   3.4661032909e+01  -4.2458046535e+01    0.0178488  0.008771359  61.95  0.001626937    2.112    0.527
        60  -9.6165     21.2265    235.9475   3.4637664563e+01  -4.2537373071e+01   0.01952679  0.009173357  66.33  0.001191908    2.400    0.583
        61  -9.8117     17.6404    237.1110   3.4702834618e+01  -4.2545816673e+01   0.01115115  0.008916542 -21.24 0.0005027616    1.229    0.187
        62 -10.3357    141.8530    241.4917   3.2827836692e+01  -4.1745838801e+01   0.01355635  0.009949033  46.90 0.0008322308    1.389    0.280
        63 -10.1829    113.5527    242.5378   3.3267618787e+01  -4.1908434634e+01   0.01095226   0.01042487   6.49 0.0002813022    1.049    0.046
        64 -10.4243     17.5883    241.9805   3.4742731876e+01  -4.2492426436e+01   0.01818605   0.01041447  25.79  0.001539438    2.445    0.591
        65 -10.1090     11.1065    242.9089   3.4851068556e+01  -4.2520519460e+01   0.01126331  0.009185185 -13.90 0.0003590095    1.240    0.194
        66  -9.3182    226.3320    242.6965   3.1565336632e+01  -4.1204167327e+01   0.00677365  0.004879388 -60.13 0.0005160687    1.657    0.396
        67  -8.8712    162.7053    242.6558   3.2521336801e+01  -4.1603962506e+01  0.006842517  0.004839059  25.75 0.0007031279    1.665    0.399
        68  -9.5959    146.6879    242.1212   3.2759620939e+01  -4.1709099253e+01  0.009065034  0.008185979  43.19 0.0004519967    1.127    0.113
        69  -9.9794    118.2365    238.8566   3.3165826503e+01  -4.1919931981e+01   0.01212412   0.01117821  20.71 0.0005177551    1.108    0.097
        70  -9.6534    125.9499    234.0168   3.3008206528e+01  -4.1925342153e+01   0.00988727  0.009344251 -10.66 0.0004549864    1.035    0.034
        71  -9.7060    122.4949    240.5522   3.3114790871e+01  -4.1875296075e+01   0.01142625  0.007492844  37.76 0.0005646414    1.673    0.402
        72  -9.5598    123.4543    237.4758   3.3074814506e+01  -4.1902965722e+01  0.009935956  0.009404296  25.34 0.0001064999    1.069    0.065
        73 -10.2926     88.0141    241.1436   3.3647357743e+01  -4.2079334383e+01   0.01825494  0.008411539  57.66     0.001214    2.161    0.537
        74  -9.8104     29.5390    228.2274   3.4446092156e+01  -4.2572964472e+01   0.02183487   0.01299171  24.67  0.002001657    2.295    0.564
        75  -9.6282     35.7025    238.9892   3.4437261363e+01  -4.2417741880e+01   0.01348883   0.00840299 -38.86 0.0004223908    1.565    0.361
        76 -11.2740     31.1869    233.7479   3.4465072416e+01  -4.2502362152e+01   0.01727974   0.01466457  54.00  0.001378821    1.202    0.168
        77 -10.7914     36.0955    228.7336   3.4348282524e+01  -4.2528258488e+01    0.0212026   0.01176811 -22.43 0.0009340197    1.843    0.457
        78 -10.1151     27.8564    241.4234   3.4578648696e+01  -4.2437648785e+01   0.01586728   0.01089782  16.60 0.0003407751    1.816    0.449
        79  -9.4218     31.4561    240.4691   3.4515080659e+01  -4.2426747613e+01   0.01119694  0.006172923  57.15 0.0001213905    1.817    0.449
        80  -9.4310      4.0240    242.3354   3.4956866788e+01  -4.2568633202e+01  0.009069989  0.007926902 -18.59 0.0003796313    1.120    0.107
        81 -10.3278     98.7327    241.2536   3.3483840221e+01  -4.2012956126e+01  0.008880182  0.007292696  19.81 0.0004673158    1.326    0.246
        82  -9.8510     83.6980    240.8632   3.3711372832e+01  -4.2108584745e+01   0.01055154  0.008776356  -5.12 0.0004402728    1.259    0.206
        83  -9.2570    153.3143    239.9919   3.2641467774e+01  -4.1691225093e+01  0.009061041  0.008224692  47.85  0.000398048    1.124    0.110
        84  -9.1806     91.7507    240.4069   3.3583980038e+01  -4.2064703883e+01  0.008913851  0.006185312 -12.23 0.0005335698    1.576    0.365
        85  -8.7437    164.2769    239.3236   3.2469886097e+01  -4.1630387487e+01  0.006659599  0.004848731  26.04 0.0002448434    1.584    0.369
        86 -10.2036     67.8241    238.5779   3.3937128869e+01  -4.2229616153e+01   0.01379771   0.01043171  83.66 0.0009641224    1.583    0.368
        87  -9.2746    111.9367    237.8766   3.3254029132e+01  -4.1969235179e+01  0.009871595  0.008330878  21.39 0.0003970339    1.267    0.211
        88  -9.7928    104.9283    237.0361   3.3354365515e+01  -4.2021276548e+01   0.01076663  0.009248119  -0.59 0.0003916836    1.217    0.178
        89 -10.1688     77.7012    237.9023   3.3779461048e+01  -4.2177350952e+01   0.01622825   0.00957353 -18.77  0.001208769    1.816    0.449
        90  -8.7428     82.3193    235.3096   3.3687236899e+01  -4.2177781664e+01  0.009597148  0.005736562   4.71 0.0003197463    2.502    0.600
        91  -9.7885    157.2836    236.2856   3.2550538010e+01  -4.1706882162e+01   0.01053711  0.009254238   7.86 0.0003452003    1.194    0.162
        92  -9.5745    135.1838    236.2860   3.2886235011e+01  -4.1843710541e+01   0.01049768   0.00860113  41.18 0.0004607061    1.255    0.203
        93 -10.4840     42.0397    236.2147   3.4316586738e+01  -4.2410427107e+01   0.01684433   0.01131747  49.03  0.001157529    1.507    0.337
        94  -9.0687      1.9425    237.2782   3.4948912968e+01  -4.2636747365e+01  0.008932829  0.007984769 -18.49 0.0002097859    1.092    0.084
        95  -9.0324    213.3016    236.3182   3.1706617184e+01  -4.1355480984e+01  0.006731088  0.004894389  22.87 0.0004406694    1.622    0.383
        96  -9.9988    146.3003    235.6367   3.2711809688e+01  -4.1782067132e+01   0.01134984   0.01029901  27.76 0.0005040051    1.131    0.115
        97 -10.0302     95.5307    235.4712   3.3485581221e+01  -4.2095713651e+01   0.01083741   0.01029593  28.49 0.0001109211    1.065    0.061
        98 -10.0126     99.7473    232.7707   3.3398745496e+01  -4.2099536654e+01   0.01389643   0.01309936  28.46 0.0005872353    1.075    0.070
        99 -10.0142    102.0067    228.1441   3.3326060797e+01  -4.2136309111e+01   0.01007895  0.009191448  52.14 0.0002923106    1.123    0.109
       100 -10.1256    176.7944    234.1405   3.2237509614e+01  -4.1608555038e+01   0.01276104  0.007997326  79.50  0.001219099    2.141    0.533
       101 -10.1657     90.9108    233.8109   3.3542905902e+01  -4.2142003969e+01   0.01355814  0.009283741  40.78 0.0006316945    1.545    0.353
       102  -9.7505     36.9782    235.0067   3.4385317708e+01  -4.2453961267e+01  0.009655949  0.009097665   5.57 0.0003211798    1.062    0.058
       103  -8.6722    120.6454    234.7044   3.3094842621e+01  -4.1950458118e+01  0.006856674  0.004901241  18.75 0.0007033162    1.691    0.409
       104  -8.8858      4.9760    233.7170   3.4873034109e+01  -4.2658174057e+01  0.009060927  0.007970613 -27.65 0.0003026043    1.099    0.090
       105  -9.1457    180.6821    233.6506   3.2174734243e+01  -4.1589541072e+01  0.006963784  0.004848226  24.11 0.0007048009    1.734    0.423
       106  -9.8759    170.8100    232.8125   3.2316855114e+01  -4.1660353512e+01  0.009839606  0.008455281  20.95 0.0005603352    1.235    0.191
       107  -9.7495    153.2037    232.3841   3.2579993754e+01  -4.1774633187e+01   0.01109858   0.00942856  23.01 0.0005181682    1.253    0.202
       108  -9.3964    140.1051    233.0190   3.2784297349e+01  -4.1848892754e+01  0.009475923   0.00913309  -4.65 0.0003450353    1.019    0.018
       109 -10.9347    114.8398    231.9199   3.3160607511e+01  -4.2016483888e+01   0.01400101   0.01149387  -7.71 0.0003682249    1.274    0.215
       110  -9.3171    107.6977    233.0604   3.3279289578e+01  -4.2047786429e+01  0.008868215  0.008287777  42.83 0.0004297246    1.089    0.082
       111 -10.0099     77.4768    232.9678   3.3742648171e+01  -4.2232789824e+01   0.01174689   0.01048839  22.54  0.000398668    1.160    0.138
       112  -9.2983     80.0294    228.9902   3.3670811380e+01  -4.2260894486e+01  0.009790216  0.009098058   5.78 0.0003378559    1.086    0.079
       113 -10.1949     72.8659    231.8201   3.3804334307e+01  -4.2273279806e+01   0.01227977   0.01160992  38.75 0.0004753949    1.075    0.070
       114 -10.5802     71.6492    227.2362   3.3785664260e+01  -4.2330893317e+01   0.01469362   0.01098662  46.20 0.0005269849    1.365    0.267
       115  -8.6505    162.5769    232.4700   3.2438598670e+01  -4.1715410042e+01  0.006430772  0.006191836   4.64 2.113396e-05    1.032    0.031
       116 -10.1566    134.9686    231.4998   3.2849910738e+01  -4.1897176038e+01   0.01379571   0.01003642  -9.73  0.001480112    1.511    0.338
       117  -9.9121    134.1458    227.8656   3.2832337141e+01  -4.1941841609e+01    0.0103928  0.007577171  21.11 0.0003816221    1.619    0.382
       118  -9.8863     84.1800    231.4351   3.3626927697e+01  -4.2208923701e+01   0.01075744  0.009916636  35.94 0.0003801431    1.103    0.094
       119  -8.8615    166.5279    231.5513   3.2371118715e+01  -4.1700762311e+01  0.006468579  0.006199044  -6.53 0.0001577717    1.023    0.022
       120  -9.3653    121.9314    230.8790   3.3043635638e+01  -4.1984283520e+01  0.009810552   0.00844229  18.02 0.0002798405    1.234    0.190
       121  -9.1443    188.1586    230.0711   3.2032028793e+01  -4.1581442202e+01   0.01030935  0.008516251  15.47 0.0006767287    1.327    0.247
       122  -9.8617    146.6669    230.1054   3.2660339596e+01  -4.1839973814e+01   0.01121519  0.009152303 -15.08  0.000345072    1.243    0.195
       123  -9.8763    126.8807    229.9253   3.2960193151e+01  -4.1964218767e+01  0.009792562  0.008491277  19.27 0.0003400044    1.218    0.179
       124  -9.3339     67.0588    230.1851   3.3880590757e+01  -4.2326307124e+01  0.009784485  0.008416913  14.49 0.0004124377    1.234    0.190
       125  -9.1407    158.9738    228.3322   3.2458735713e+01  -4.1782789872e+01  0.009002016  0.007902505 -22.35 0.0002972823    1.109    0.098
       126 -10.6243     92.9928    227.6497   3.3460383504e+01  -4.2196735670e+01   0.01322985   0.01105397   8.37 0.0007559923    1.293    0.227
       127  -8.6149    173.3585    227.2868   3.2232165008e+01  -4.1704373041e+01  0.006811849  0.004919869  16.91 0.0003032441    1.680    0.405
       128  -9.9795    152.7442    226.9635   3.2541875475e+01  -4.1836412824e+01   0.01397983   0.01059342  -1.70  0.001418362    1.494    0.331
       129  -9.7930    139.2955    227.1089   3.2747602515e+01  -4.1918239505e+01   0.01434506  0.008832046 -30.98 0.0006348073    1.553    0.356
       130  -9.5086    143.8139    225.8580   3.2668432711e+01  -4.1903866134e+01  0.009751742  0.008473743  23.79   0.00044135    1.209    0.173
       131 -10.6959    109.7701    225.8849   3.3188439629e+01  -4.2113459895e+01   0.01633424    0.0103196  43.13 0.0004690708    1.664    0.399
       132  -8.9548    113.7066    222.6772   3.3101652737e+01  -4.2124314474e+01  0.009921324  0.006548146 -21.24 0.0003424484    1.543    0.352
       133  -9.8288    115.9834    219.4392   3.3039995779e+01  -4.2145647456e+01   0.01612787    0.0142386 -62.37  0.001082763    1.230    0.187
       134  -9.0014    120.4457    218.5482   3.2964309369e+01  -4.2127894085e+01  0.009033464  0.006213152 -14.15 8.388614e-05    1.575    0.365
       135 -10.0812    120.2158    214.9378   3.2937872014e+01  -4.2168670427e+01   0.01133112   0.01000216  -2.14 0.0003954111    1.163    0.140
       136  -9.2361     75.8205    226.7825   3.3717610539e+01  -4.2310603581e+01  0.009650062  0.008522543  18.62 0.0004761512    1.182    0.154
       137  -9.2377     19.8545    227.1126   3.4587852750e+01  -4.2642888582e+01  0.009315171  0.008578878 -53.96 0.0003706673    1.131    0.116
       138  -9.3961    176.8882    226.1568   3.2169346787e+01  -4.1694534072e+01  0.009494611  0.008466781 -50.99 0.0002728734    1.163    0.140
       139 -10.3246    126.8459    224.4630   3.2915504186e+01  -4.2023969388e+01   0.01237994   0.01066871  53.20 0.0004342926    1.185    0.156
       140  -9.7096    120.0390    223.9337   3.3015141135e+01  -4.2071673852e+01  0.009689696  0.009079365  17.09  0.000374052    1.081    0.075
       141  -9.2944     46.7606    225.2359   3.4154380179e+01  -4.2502848005e+01    0.0144034  0.008283301  24.95  0.001265999    2.473    0.596
       142  -9.3074      9.0136    225.4578   3.4743635487e+01  -4.2725439691e+01   0.01587609  0.006670122  44.80  0.001300433    2.594    0.614
       143  -9.5046    167.6814    224.7019   3.2296468707e+01  -4.1767900275e+01   0.01037526  0.008606415 -32.38 0.0004293657    1.165    0.142
       144  -9.2962    162.6953    225.0439   3.2374876988e+01  -4.1795310895e+01   0.01193888  0.009149058 -68.48  0.001018483    1.585    0.369
       145 -10.2470     65.9798    225.0433   3.3855292059e+01  -4.2389221625e+01   0.01251438   0.00924309 -13.70 0.0003310536    1.422    0.297
       146  -9.5144     42.2082    225.1876   3.4224618339e+01  -4.2530680853e+01  0.009702088   0.00846199  20.89 0.0006738206    1.202    0.168
       147  -9.0968    190.7265    224.4350   3.1946032086e+01  -4.1626320173e+01  0.008611566  0.006234286 -13.79 0.0004536342    1.482    0.325
       148  -8.9769    180.7594    224.2008   3.2094466674e+01  -4.1691469373e+01  0.008933762  0.007397866  14.97 0.0004896174    1.322    0.244
       149 -10.1884     99.7398    223.2474   3.3320531360e+01  -4.2203680868e+01   0.01277813   0.01021987  23.48 0.0003568589    1.373    0.272
       150  -8.8161     95.7121    223.2816   3.3382681343e+01  -4.2227916155e+01   0.00911796  0.007481731  11.60 0.0001793477    1.337    0.252
       151 -10.3903     98.2110    218.0199   3.3300917386e+01  -4.2270157459e+01   0.02094586  0.008554712 -31.60  0.001331727    2.276    0.561
       152 -10.6741     85.0857    223.4497   3.3547527364e+01  -4.2290840818e+01    0.0125133   0.01068942  24.59 0.0005296659    1.237    0.191
       153 -11.1136     88.1375    219.8612   3.3471045565e+01  -4.2311527255e+01   0.01965179   0.01473469  49.86  0.001511284    1.352    0.260
       154 -10.1746     28.6962    222.6523   3.4414091471e+01  -4.2639365293e+01    0.0189045   0.01544364  14.19  0.001329705    1.340    0.254
       155  -9.2763    156.7746    223.0408   3.2447976929e+01  -4.1853962062e+01  0.008838594  0.008198876  39.90  0.001099635    1.097    0.088
       156  -9.5465    136.9221    222.6675   3.2746872526e+01  -4.1981274312e+01    0.0122207  0.008410371  41.37 0.0006439032    1.530    0.346
       157  -9.3706    133.5231    221.0105   3.2784938940e+01  -4.2020342660e+01   0.01083149  0.008659159 -41.73 0.0003964396    1.246    0.197
       158  -9.8860    104.9672    222.5233   3.3234332906e+01  -4.2179603296e+01   0.01124432   0.01066078  55.66 0.0007089419    1.090    0.082
       159  -9.4124     79.0390    223.0077   3.3637068155e+01  -4.2332430654e+01  0.009574087  0.008979972  11.09  0.001199428    1.076    0.070
       160  -9.1734     14.8834    222.8243   3.4630772273e+01  -4.2719677462e+01  0.009717926  0.008344837  20.46 0.0003736003    1.231    0.188
       161  -9.4554      2.0416    221.4572   3.4820422702e+01  -4.2810823889e+01   0.01434592  0.008325211  40.38  0.001387315    1.894    0.472
       162  -8.9412      1.2195    218.0609   3.4805944111e+01  -4.2853163896e+01   0.01205969  0.006915853  80.12 0.0003866214    2.425    0.588
       163  -9.5739    130.1031    219.2683   3.2822664141e+01  -4.2060458028e+01   0.01034093  0.008714542  36.59 0.0005154813    1.228    0.186
       164 -10.4578     92.0200    221.4234   3.3424153416e+01  -4.2270767506e+01   0.01123642  0.008549875  37.73 0.0004076258    1.386    0.278
       165  -9.8391     73.3234    221.9248   3.3716367143e+01  -4.2378967137e+01   0.01139004  0.009222571 -10.54 0.0003611918    1.279    0.218
       166 -10.3328     44.5665    218.8871   3.4136776910e+01  -4.2585784875e+01   0.01157182   0.01064136 -14.75 0.0004431966    1.064    0.060
       167  -9.7623     37.4128    221.3014   3.4267548512e+01  -4.2602133976e+01   0.01172918   0.01042857  18.98 0.0005055923    1.169    0.144
       168  -9.2373     40.6530    218.7375   3.4196348963e+01  -4.2610911298e+01  0.009435329   0.00827371  52.03 0.0005074518    1.163    0.140
       169  -8.7503    207.1588    221.6250   3.1675058212e+01  -4.1553041995e+01  0.009025875  0.006105976 -14.30 0.0005300544    1.631    0.387
       170  -8.6076    201.2998    221.3385   3.1760741421e+01  -4.1593167905e+01  0.006826298  0.004865966  24.47 0.0003881656    1.663    0.399
       171  -9.0017    185.4933    221.5022   3.2000335802e+01  -4.1690976179e+01  0.006473807  0.006235043  -8.13 -0.0001220297    1.015    0.015
       172 -10.0868    148.3921    219.7920   3.2548265795e+01  -4.1941417065e+01   0.02970054   0.01642735  -1.01  0.002401405    3.021    0.669
       173  -8.7828    151.3453    215.2814   3.2465681600e+01  -4.1972066615e+01  0.006686565  0.006374311 -37.65  0.000308842    1.048    0.046
       174  -8.7877    238.3210    220.2948   3.1197010889e+01  -4.1369341269e+01  0.006685051   0.00493374  18.88  0.000290482    1.614    0.380
       175  -9.3962    175.2054    220.5702   3.2147984515e+01  -4.1765635315e+01   0.00862725  0.006209322 -12.17 0.0003158578    1.514    0.340
       176  -8.7549    167.0204    220.0884   3.2267886401e+01  -4.1822087009e+01  0.007561389  0.007359483  -6.39 0.0003673637    1.012    0.012
       177  -9.4660    123.9412    219.8734   3.2921836817e+01  -4.2091902226e+01  0.009769696  0.008332942  20.95 0.0003173077    1.248    0.199
       178  -9.2286     68.0974    219.9243   3.3780706820e+01  -4.2432545579e+01  0.009623651  0.008910127   3.50   0.00037605    1.089    0.082
       179 -10.0422     51.9182    212.0676   3.3967002683e+01  -4.2616454937e+01     0.011843  0.009744021   2.45 0.0004413777    1.310    0.237
       180 -10.1391     53.4545    219.4638   3.4003588398e+01  -4.2526004332e+01   0.02649821   0.01145997 -28.49   0.00228765    2.213    0.548
       181 -10.6044     54.4699    215.9088   3.3958819360e+01  -4.2558910349e+01     0.016178   0.01155641 -22.42  0.001448305    1.389    0.280
       182  -9.4943      6.7720    219.9483   3.4734281585e+01  -4.2799485128e+01   0.01508652  0.007243534 -38.94   0.00136344    2.014    0.504
       183  -9.4004      5.1502    215.8122   3.4726288786e+01  -4.2854712571e+01   0.01622841  0.009815081  72.62  0.001586685    1.954    0.488
       184  -9.6695    140.9232    218.9546   3.2655006101e+01  -4.1996891687e+01   0.01061796  0.009000793  49.17  0.000408266    1.200    0.167
       185  -9.0702    109.2694    218.9721   3.3139014865e+01  -4.2191998530e+01   0.00871563  0.008143553  44.59 0.0002535946    1.091    0.083
       186  -9.8913     81.9507    218.3250   3.3553735506e+01  -4.2366007359e+01   0.01085934   0.00916274  43.93  0.000343957    1.209    0.173
       187  -9.5045     12.0983    219.2071   3.4645058033e+01  -4.2776082687e+01  0.009444767   0.00837067  13.14  0.000299814    1.174    0.148
       188  -9.2220    195.1377    218.0552   3.1825864911e+01  -4.1667556639e+01    0.0095188  0.008374485  19.09 0.0002507818    1.194    0.162
       189  -9.7298    102.9288    214.0567   3.3195679676e+01  -4.2284560902e+01   0.01263082   0.01062197  50.37 0.0007351335    1.210    0.173
       190  -8.9848    104.5015    218.4518   3.3207862869e+01  -4.2226924275e+01   0.01099075  0.006433373  59.74 0.0005722867    1.754    0.430
       191  -9.1455    106.5549    215.4506   3.3151529548e+01  -4.2247100410e+01   0.01229194  0.007922518 -21.93 0.0005519745    1.575    0.365
       192  -8.9130     79.8612    214.4194   3.3553851595e+01  -4.2421470006e+01   0.01009773  0.008184204   8.92 0.0003579886    1.362    0.266
       193 -10.1255     75.9946    217.8112   3.3641401298e+01  -4.2407828606e+01   0.01724895   0.01012861 -19.12  0.001319269    1.820    0.451
       194  -9.4615     71.7437    216.2929   3.3694594001e+01  -4.2450254925e+01    0.0104435   0.00724203  36.19 0.0005155829    1.575    0.365
       195  -8.9416    169.7631    217.0135   3.2200559996e+01  -4.1838282704e+01  0.008768972   0.00824785  42.33 0.0003295767    1.083    0.077
       196  -9.0304    157.0913    217.4667   3.2396603697e+01  -4.1912530333e+01  0.009410055  0.006270765 -26.75 0.0003436435    1.466    0.318
       197  -9.3822    135.0641    216.3301   3.2722497920e+01  -4.2061759555e+01    0.0105514  0.008539202  42.55 0.0004217912    1.268    0.211
       198  -9.1595    137.9934    213.2546   3.2652173364e+01  -4.2077073684e+01  0.009674186  0.008435678  18.02 0.0002680802    1.210    0.173
       199 -10.0098    146.7265    207.4490   3.2470489284e+01  -4.2085928773e+01   0.01865801    0.0130396 -77.13  0.001897657    1.966    0.491
       200  -9.5794    141.4778    211.0393   3.2580533515e+01  -4.2079541647e+01   0.01169085  0.008913871  -2.61 0.0003711974    1.472    0.321
       201  -9.5801    150.2825    210.3270   3.2440416306e+01  -4.2032512942e+01   0.01195752  0.008973223  32.64 0.0006446609    1.453    0.312
       202  -9.7773    143.7364    214.3429   3.2573687648e+01  -4.2029588942e+01   0.01050764  0.009260741  57.28 0.0003329559    1.170    0.145
       203 -10.4336    146.4892    211.8385   3.2510828357e+01  -4.2039701433e+01   0.01322622   0.01214716  44.89 0.0008441049    1.109    0.098
       204  -9.5463     36.9765    217.0081   3.4239440270e+01  -4.2651958972e+01  0.009720881  0.009127416   3.54 0.0003388549    1.065    0.061
       205  -9.4796    126.9009    215.9505   3.2844021012e+01  -4.2116381817e+01   0.01006273  0.008321594  19.91 0.0005124907    1.314    0.239
       206  -9.6857     65.9319    215.6249   3.3778976031e+01  -4.2492786766e+01   0.01010355  0.008625669  39.79 0.0003374255    1.201    0.167
       207  -8.8307    210.8617    215.2068   3.1565182730e+01  -4.1598897978e+01  0.008558883   0.00730221  11.94 0.0002834943    1.260    0.207
       208  -8.9355    180.0210    215.2780   3.2030704422e+01  -4.1792765772e+01   0.00906758  0.007970226 -21.76 0.0002899704    1.110    0.099
       209  -8.4704    161.3067    215.2909   3.2314379210e+01  -4.1909846127e+01  0.006619165  0.004915744  20.38 0.0002672885    1.577    0.366
       210  -8.8695     41.0759    210.0467   3.4118957048e+01  -4.2703887624e+01  0.008902785   0.00861048  11.68 0.0004237161    1.033    0.032
       211  -9.2372     44.0400    206.9376   3.4047453233e+01  -4.2720224150e+01  0.009717559  0.008303897  16.44 0.0003118191    1.246    0.197
       212 -10.2772     43.0750    213.4523   3.4115658644e+01  -4.2654459727e+01   0.02116696   0.01066182  36.52  0.001817218    2.499    0.600
       213  -9.9930     46.8363    212.6157   3.4050386600e+01  -4.2641038411e+01   0.01133482  0.009400966  63.77   0.00035494    1.262    0.207
       214  -9.5900     13.2551    215.1759   3.4594405235e+01  -4.2813647786e+01   0.01043735  0.008549861  -4.94  0.000503084    1.284    0.221
       215  -8.7438    200.9418    213.9518   3.1703798437e+01  -4.1675261584e+01  0.007689714  0.007451453  -8.58 0.0004404529    1.010    0.010
       216  -9.3852    186.9869    213.7824   3.1912835574e+01  -4.1765148231e+01  0.009816124    0.0083476   3.78  0.000513627    1.256    0.204
       217  -9.3507    131.1765    213.4188   3.2757618490e+01  -4.2117518763e+01   0.01042969  0.008500466  42.00  0.000400866    1.260    0.206
       218 -10.4534     84.8501    213.9555   3.3473080442e+01  -4.2396171830e+01   0.01102025  0.009736723  -3.34 0.0002914372    1.157    0.135
       219  -9.7508     61.3399    213.8881   3.3835828122e+01  -4.2539607345e+01   0.01145797  0.009740754  10.50 0.0004656514    1.257    0.205
       220  -9.7294     64.1408    210.7584   3.3766792233e+01  -4.2556979829e+01   0.02194101  0.008741369 -40.68  0.001428686    2.483    0.597
       221  -9.6415     29.0814    213.9358   3.4337379421e+01  -4.2732993056e+01  0.009595626  0.009061475   7.28  0.000405412    1.060    0.057
       222  -9.3748    119.9148    198.1168   3.2802428766e+01  -4.2353823034e+01  0.009962827  0.008324955  17.35 0.0004601731    1.297    0.229
       223  -9.8338    124.9637    210.4667   3.2828035655e+01  -4.2188087552e+01   0.01108468  0.009078483  46.14 0.0003601228    1.244    0.196
       224  -9.9866    120.9923    202.5653   3.2823028739e+01  -4.2298704022e+01   0.01218955   0.01074564 -12.44 0.0003805428    1.133    0.118
       225  -9.1720    116.8112    201.1948   3.2875727888e+01  -4.2339464450e+01   0.01017129  0.008565552   2.80 0.0004013572    1.269    0.212
       226 -10.3570    111.8446    212.6185   3.3046905753e+01  -4.2245509780e+01   0.01122949   0.01068855  33.34 0.0003192998    1.065    0.061
       227  -8.9967    119.2568    206.3441   3.2881118170e+01  -4.2268250918e+01  0.009737142  0.008065757 -24.77 0.0003184136    1.174    0.148
       228 -10.0642    115.1867    208.8152   3.2964073501e+01  -4.2266415901e+01   0.01340473   0.01062136  34.36 0.0005557531    1.337    0.252
       229 -10.0251    114.8433    205.1830   3.2939138227e+01  -4.2308134000e+01   0.01128854  0.009345611  37.64 0.0003660994    1.251    0.201
       230  -9.7953    123.5293    206.4530   3.2816567605e+01  -4.2240673520e+01   0.01308905  0.009523767  15.25 0.0005606808    1.657    0.396
       231  -9.7147    126.7089    205.7191   3.2761769014e+01  -4.2229001345e+01    0.0114929   0.01002873  11.56 0.0001894328    1.209    0.173
       232  -9.5284     89.2969    210.0024   3.3371931684e+01  -4.2412279342e+01   0.01033815   0.00891844  -5.47 0.0003707316    1.192    0.161
       233 -10.4726     98.7946    211.3909   3.3237177938e+01  -4.2339011732e+01   0.01360977   0.01092765  52.63 0.0002509066    1.266    0.210
       234 -10.6571     93.0013    211.5988   3.3328051154e+01  -4.2372191635e+01   0.01905004   0.01271432  26.72 0.0006103609    1.817    0.450
       235  -9.1777     93.5367    207.5343   3.3286205868e+01  -4.2413337903e+01   0.01358241  0.008098599 -36.56 0.0006428797    1.608    0.378
       236  -9.4422     74.6286    212.9147   3.3622274984e+01  -4.2469751504e+01    0.0105472  0.008534114  -8.93  0.000430352    1.291    0.225
       237  -8.7935     39.3198    213.2814   3.4172654618e+01  -4.2678881669e+01  0.006647705  0.004897857  19.89 0.0002172863    1.584    0.369
       238  -9.7833    155.0407    211.9268   3.2381410778e+01  -4.1985476558e+01  0.009721725  0.009198159   5.89 0.0003821834    1.059    0.055
       239  -9.4989     69.4217    212.2036   3.3696924146e+01  -4.2509142655e+01   0.01042538   0.00850087  -6.58 0.0005893601    1.290    0.225
       240 -10.2088     57.2686    211.1269   3.3876303882e+01  -4.2594496387e+01   0.01166589   0.01110141  48.35 0.0005004022    1.077    0.071
       241  -9.5682     55.5593    207.7033   3.3874762512e+01  -4.2642377975e+01   0.01975074   0.00874984 -17.04  0.001536289    2.923    0.658
       242  -8.9418     33.4880    212.0392   3.4253304593e+01  -4.2727493146e+01  0.009080566  0.006387775  57.93 0.0003059395    1.449    0.310
       243  -9.0380    181.0220    210.7086   3.1977106625e+01  -4.1835958427e+01  0.009114445  0.008061434 -19.98 0.0004180091    1.107    0.096
       244  -9.5742    119.8216    210.8701   3.2910117554e+01  -4.2215439788e+01  0.009607402  0.008454774  21.56  0.000331026    1.188    0.159
       245 -10.5736     23.9809    203.5048   3.4332091261e+01  -4.2878254368e+01   0.01886272   0.01299578  27.14 0.0006249772    1.707    0.414
       246  -9.4135     27.9991    209.0087   3.4314186694e+01  -4.2793674198e+01   0.01328915  0.009136851  58.82  0.001045251    1.486    0.327
       247 -10.3347     24.2157    208.9399   3.4372656924e+01  -4.2817039752e+01   0.01668607   0.01312138  51.56  0.001700037    1.289    0.224
       248  -9.0961     31.3102    208.3260   3.4256999698e+01  -4.2781370080e+01   0.01030402  0.008842221  35.06 0.0005860507    1.203    0.169
       249  -9.9585     33.0092    205.4588   3.4207137930e+01  -4.2802719946e+01   0.01588187   0.01025825  -6.53  0.001232902    1.864    0.463
       250  -9.4983    212.8280    209.8688   3.1490413809e+01  -4.1644028815e+01  0.009595769  0.008543304  19.86 0.0002926413    1.172    0.147
       251  -8.8153    185.0166    210.4693   3.1914683078e+01  -4.1813411174e+01  0.009522663  0.006285396 -26.44 0.0004087653    1.487    0.327
       252  -9.9637    170.9052    210.0337   3.2124639422e+01  -4.1906800309e+01    0.0103999  0.009111554   2.63  0.001255446    1.192    0.161
       253  -8.9708    167.5792    207.5882   3.2154524857e+01  -4.1954160108e+01  0.009593088  0.008580058  71.08  0.000444255    1.196    0.164
       254  -9.5097    135.0832    210.2264   3.2671336976e+01  -4.2128068340e+01  0.009674939  0.008448126   8.22 0.0004204723    1.206    0.171
       255  -9.6375    106.0370    209.9681   3.3114075317e+01  -4.2310126205e+01  0.009691268  0.009117573  11.76 0.0003597041    1.072    0.067
       256  -9.2788     36.8184    209.7673   3.4182935422e+01  -4.2732513653e+01  0.009431139  0.008446003  14.33 0.0003842475    1.156    0.135
       257  -9.8276      1.8896    209.6746   3.4727784967e+01  -4.2941724355e+01   0.01337187   0.00896729  53.54  0.001032716    1.500    0.333
       258  -9.3738      4.9933    206.5047   3.4653506339e+01  -4.2958285587e+01    0.0119912   0.00847283 -16.70 0.0008114206    1.464    0.317
       259  -8.6385    199.2873    209.2963   3.1689367143e+01  -4.1736029383e+01  0.006552491  0.004902644  22.14 0.0002063763    1.550    0.355
       260  -9.7966    194.2400    209.0186   3.1763138690e+01  -4.1770934634e+01   0.01065504  0.009023702 -22.64 0.0003923703    1.155    0.135
       261 -10.1125    160.8983    208.0537   3.2259889658e+01  -4.1990934119e+01   0.01115522   0.01055674   9.60 0.0003311686    1.062    0.058
       262  -9.6899    156.9702    206.9818   3.2310609198e+01  -4.2027117469e+01   0.01732032    0.0095623 -14.46  0.001559131    2.225    0.551
       263  -8.9236    130.7632    208.9743   3.2726899462e+01  -4.2168463416e+01   0.01009262   0.00853051  18.77  0.000253993    1.271    0.213
       264  -8.9940    133.4340    206.4779   3.2665243811e+01  -4.2179081870e+01   0.01040076  0.006335308 -25.34 0.0001219181    1.628    0.386
       265  -8.8471     75.4144    205.4289   3.3548503974e+01  -4.2546941642e+01  0.008860816  0.008230468  13.87 0.0001417229    1.094    0.086
       266  -8.6819     77.4635    202.5506   3.3493072792e+01  -4.2565970636e+01  0.009204649   0.00587604  48.06 0.0001069043    1.592    0.372
       267 -10.3492     77.9228    208.9518   3.3538768179e+01  -4.2493114907e+01    0.0123347   0.01051815 -12.38  0.000323362    1.183    0.154
       268  -9.4855     79.5074    205.4643   3.3485533618e+01  -4.2521634618e+01   0.01038005  0.008678962  26.39 0.0005371089    1.272    0.214
       269  -9.0058     72.8369    208.8122   3.3616227988e+01  -4.2525565622e+01  0.009555077  0.008340091  15.95 0.0003457984    1.206    0.171
       270  -9.2088    110.1685    208.1608   3.3035634976e+01  -4.2304449947e+01  0.009684996  0.008409924  15.06 0.0004346489    1.218    0.179
       271 -10.9097     11.9632    206.6163   3.4545271250e+01  -4.2915651927e+01   0.02381501   0.01744873 -15.41  0.002638155    1.413    0.292
       272  -9.3362     16.4479    198.8903   3.4412288738e+01  -4.2974028552e+01    0.0185216  0.006417666  52.95  0.001458924    2.742    0.635
       273 -10.4012      6.4143    201.5978   3.4591461414e+01  -4.3003940973e+01   0.02730747   0.01008043 -32.83  0.002083718    2.460    0.594
       274  -9.2722     12.0781    201.5045   3.4501967018e+01  -4.2971283456e+01   0.02213333  0.005580292 -35.38  0.001533604    3.378    0.704
       275  -8.5259    203.4644    207.4901   3.1611136385e+01  -4.1729097137e+01  0.006458645  0.006232149  -7.30 8.013712e-05    1.015    0.015
       276  -8.8110    177.0056    207.0395   3.2006989460e+01  -4.1900943634e+01  0.007622712  0.007346617 -16.27 0.0003173755    1.002    0.002
       277  -9.0125    241.9789    206.2865   3.1023081080e+01  -4.1496645348e+01  0.009414133  0.008131884 -21.52 0.0005208427    1.135    0.119
       278  -8.5596     85.7271    197.6206   3.3324584395e+01  -4.2569460042e+01   0.01018586  0.006576456 -22.06 0.0007697194    1.568    0.362
       279  -8.9903     88.8367    196.1817   3.3264629779e+01  -4.2566160995e+01  0.008929591  0.008183004 -15.66 0.0002497771    1.068    0.063
       280 -10.0369     84.6576    206.0407   3.3410762165e+01  -4.2483925079e+01   0.01265888  0.009827857   2.67 0.0004021667    1.450    0.310
       281 -10.2537     88.5264    203.2278   3.3327807733e+01  -4.2491050400e+01   0.01172466   0.01027736 -16.46 0.0003435985    1.126    0.112
       282  -9.4565     88.4798    199.5434   3.3298015367e+01  -4.2531606921e+01   0.01215644   0.00982251  33.60 7.413105e-05    1.307    0.235
       283  -9.7866     64.7648    206.0518   3.3718468624e+01  -4.2604788915e+01  0.009647554  0.009044872   6.37 0.0002640278    1.072    0.067
       284  -9.3397     59.6911    204.2826   3.3782583793e+01  -4.2654913618e+01  0.009581126  0.008677104 -30.95 0.0002623756    1.073    0.068
       285  -9.5569     62.5287    202.5308   3.3724170613e+01  -4.2656930915e+01   0.01106336  0.009110834 -10.10 0.0004806998    1.251    0.201
       286  -9.4318    183.3267    205.1463   3.1895324108e+01  -4.1881662031e+01    0.0160398  0.008358856 -25.09  0.001484339    1.954    0.488
       287  -8.7757    181.9890    201.6868   3.1886345567e+01  -4.1927529297e+01  0.008824332  0.008343489 -13.54 0.0004354555    1.031    0.030
       288  -8.7729    164.4288    205.5791   3.2185460225e+01  -4.1995682043e+01  0.006446847   0.00612105   2.55 9.258195e-05    1.050    0.047
       289  -9.9552    139.4300    204.5972   3.2557926499e+01  -4.2162315597e+01   0.01133434   0.01028901  17.49 0.0004143018    1.136    0.119
       290  -9.4436    104.9741    205.0974   3.3090001816e+01  -4.2369814133e+01  0.009520854  0.008959644   7.11 0.0003182351    1.067    0.063
       291  -9.7887     71.0448    204.2006   3.3605980356e+01  -4.2586958160e+01   0.01032883  0.009240991  47.72 0.0004133346    1.138    0.121
       292 -10.7250     67.7916    200.5866   3.3626579184e+01  -4.2646303319e+01   0.01241509   0.01097888  12.52 0.0005051885    1.181    0.153
       293 -11.2205     56.1961    185.9479   3.3685804769e+01  -4.2877064549e+01   0.02982434   0.01772259 -57.30  0.002158755    2.172    0.540
       294  -9.9670     44.4498    185.6237   3.3866105877e+01  -4.2951724180e+01   0.01819091   0.01131706  -1.48  0.001007327    2.135    0.532
       295 -10.1786     37.2813    182.8385   3.3955055379e+01  -4.3025552700e+01   0.02189725  0.009398415  47.79   0.00129155    2.386    0.581
       296 -10.5292     54.6681    193.1593   3.3769076752e+01  -4.2807278083e+01   0.03009602   0.01959828  86.14  0.002948901    2.106    0.525
       297  -9.9415     49.8938    192.6362   3.3839042673e+01  -4.2841896996e+01    0.0112244    0.0085108  38.06 0.0003962568    1.389    0.280
       298  -9.8731     49.0639    187.6878   3.3811203708e+01  -4.2901190438e+01   0.02480845    0.0141271  28.15   0.00221793    2.400    0.583
       299 -10.7971     48.6683    203.9262   3.3950832262e+01  -4.2725411830e+01   0.02254451   0.01217529  72.69  0.001756885    2.335    0.572
       300 -10.5890     51.9786    199.0106   3.3859034860e+01  -4.2759372653e+01   0.01352125   0.01122147  15.39 0.0004458537    1.308    0.236
       301  -9.8651     48.1865    197.2142   3.3903256426e+01  -4.2801982525e+01   0.01097576   0.01000059  35.28  0.000582532    1.118    0.106
       302  -9.7003     41.9850    189.7422   3.3938450690e+01  -4.2921405354e+01   0.02157081  0.008643712 -27.73  0.001780874    2.417    0.586
       303  -9.4623     38.9809    187.3006   3.3965238572e+01  -4.2966320420e+01  0.009671722  0.008380708  11.36 0.0003658841    1.219    0.179
       304  -9.4589     39.1866    205.2278   3.4109005635e+01  -4.2768186733e+01  0.009463946  0.008335637  12.29 0.0004609113    1.187    0.157
       305  -8.6875    207.2488    204.3312   3.1527358759e+01  -4.1739204256e+01  0.006559396  0.004794513  28.97 0.0001719601    1.550    0.355
       306  -9.6897    202.8252    204.1821   3.1592727096e+01  -4.1768870175e+01   0.00875814  0.007376287  15.65 0.0003657937    1.287    0.223
       307 -10.8333     66.3510    192.7972   3.3584626942e+01  -4.2740366719e+01   0.01178774    0.0103234 -14.23 0.0003072966    1.135    0.119
       308  -9.4380     61.4553    169.9704   3.3471436700e+01  -4.3020060980e+01  0.009358961  0.008483381 -22.14 0.0004173995    1.070    0.065
       309 -10.1012     55.7100    203.5810   3.3838604306e+01  -4.2686687999e+01   0.01090318   0.01000897  51.86 0.0003912308    1.115    0.103
       310  -9.5360     57.0670    199.4827   3.3783854557e+01  -4.2723424201e+01   0.01063474  0.008723808 -13.90 0.0007007799    1.236    0.191
       311  -9.5502     60.3638    180.8452   3.3578737682e+01  -4.2907653906e+01  0.008822483  0.007883362  43.38 0.0004759885    1.139    0.122
       312  -9.6961     67.8604    187.4871   3.3517275573e+01  -4.2789321531e+01   0.01161692   0.01007667 -17.81 0.0003958789    1.136    0.120
       313 -10.4270     61.4370    197.1611   3.3696894190e+01  -4.2722398561e+01   0.01801153    0.0124838  62.13  0.001812979    1.505    0.335
       314  -9.6953     61.8444    191.1738   3.3641172792e+01  -4.2785528110e+01    0.0170144   0.01028851  37.00 0.0003455455    1.881    0.468
       315 -10.7663     63.7119    184.4925   3.3556898052e+01  -4.2847353592e+01   0.03395876   0.01447996  58.80   0.00292954    2.350    0.574
       316  -9.1742     65.4521    178.5439   3.3480516311e+01  -4.2901875236e+01  0.008835831  0.007936417 -18.53 0.0001309672    1.088    0.081
       317 -10.3697     61.4973    174.9844   3.3512472428e+01  -4.2964925840e+01   0.02110113   0.01333153  68.16  0.002152482    1.763    0.433
       318 -10.8026     65.4209    172.4945   3.3430712345e+01  -4.2968261352e+01   0.01279931   0.01083181   5.37 0.0002076477    1.262    0.207
       319 -10.9480    194.9209    199.5178   3.1672423744e+01  -4.1869313776e+01   0.02726414   0.01822384 -53.21  0.002835778    1.703    0.413
       320  -9.0337    189.7969    203.1360   3.1780488736e+01  -4.1862598151e+01  0.008920366  0.007249068  25.71 0.0003679028    1.336    0.252
       321  -9.1096    167.0418    202.8843   3.2123095001e+01  -4.2008524228e+01    0.0150518  0.008998562 -80.36  0.001250932    3.019    0.669
       322  -8.6300    156.5457    203.4969   3.2287804051e+01  -4.2067592800e+01  0.006473005   0.00621327   1.11 8.451712e-05    1.032    0.031
       323  -9.8215    149.3457    202.6231   3.2390118953e+01  -4.2122032456e+01   0.01120677   0.01013181  13.77 0.0004344041    1.143    0.125
       324 -10.6237    109.9489    202.6753   3.2993419804e+01  -4.2365636086e+01   0.01346726   0.01101882 -37.91 0.0004199452    1.197    0.164
       325 -11.0834     97.5197    202.1461   3.3180215516e+01  -4.2447798605e+01    0.0129026   0.01200892  21.01  0.000312647    1.093    0.085
       326  -9.1390     97.7582    197.5900   3.3138710850e+01  -4.2496082942e+01  0.009214777  0.008399951   1.32 0.0003328613    1.114    0.102
       327  -8.8778     98.3637    194.2727   3.3101791392e+01  -4.2528577827e+01  0.008708077  0.006265634  41.69  0.000584067    1.450    0.311
       328  -9.2915    176.0983    202.1866   3.1979808682e+01  -4.1959203449e+01  0.009390293  0.008392071  12.00 0.0003411368    1.165    0.142
       329 -10.3646     29.1103    201.7410   3.4237617614e+01  -4.2866963854e+01   0.03329252   0.01028359  52.06   0.00237433    3.050    0.672
       330  -9.2732     26.9356    198.7926   3.4247503894e+01  -4.2912414130e+01   0.01326116   0.00881044 -15.91 0.0003760113    1.602    0.376
       331  -9.4463     33.5490    199.5958   3.4150832236e+01  -4.2863932033e+01   0.01551641   0.01017066  87.70  0.001208371    2.097    0.523
       332  -9.1458     36.7352    201.3225   3.4115269247e+01  -4.2825824627e+01  0.009193884  0.008233692  -6.60 0.0002939625    1.123    0.109
       333  -9.7117     38.9617    198.5071   3.4057522589e+01  -4.2843371667e+01   0.01141495  0.008554118  37.44 0.0004055068    1.414    0.293
       334  -9.4379     35.3239    195.2784   3.4087800533e+01  -4.2900714237e+01   0.01137722  0.008292978 -17.90 0.0003067412    1.400    0.286
       335 -10.2671     36.4977    191.9547   3.4042229930e+01  -4.2930167948e+01   0.01163258   0.01036173   2.04 0.0003898499    1.153    0.133
       336  -9.4882    161.0460    200.9639   3.2198043035e+01  -4.2066919738e+01  0.009527033  0.009139923   9.71 0.0003197157    1.042    0.040
       337  -9.0053    145.3511    200.9758   3.2437212212e+01  -4.2164828320e+01  0.008763778  0.008205946  36.09 0.0004519354    1.085    0.078
       338  -9.6137    129.2275    201.1401   3.2684984123e+01  -4.2263250032e+01  0.009444538  0.008377551  22.93 0.0003817833    1.173    0.148
       339 -10.2233    133.4202    199.4303   3.2606525706e+01  -4.2255841910e+01   0.02072997   0.01076205 -49.26  0.001100597    2.244    0.554
       340  -9.8593     82.9069    201.0546   3.3396581676e+01  -4.2549142472e+01  0.009523642  0.008979738  11.15            0    1.068    0.063
       341 -10.0072     42.9736    201.0313   3.4015706212e+01  -4.2791506241e+01   0.01131569  0.009014159  45.59 0.0003059797    1.280    0.219
       342  -9.8348     44.4600    195.6454   3.3948386455e+01  -4.2841682898e+01   0.01935048  0.008911556  46.90  0.001509277    2.249    0.555
       343  -9.8874    191.5994    196.7584   3.1699211526e+01  -4.1920149276e+01   0.01334944   0.01112841  55.39 0.0008964952    1.229    0.187
       344  -8.4138    153.4694    200.4808   3.2309296615e+01  -4.2119551493e+01  0.006526706  0.006169816   7.00  0.000242807    1.061    0.058
       345  -9.5784    140.9528    199.9869   3.2496056753e+01  -4.2202963740e+01   0.01166524  0.009137284 -42.28 0.0009849627    1.275    0.216
       346  -9.1723    186.7716    198.7419   3.1789041669e+01  -4.1929217358e+01  0.009459929  0.008449564  17.09 0.0005782317    1.167    0.143
       347  -8.8870    170.0119    199.5589   3.2049966128e+01  -4.2025921887e+01  0.009908855  0.006235178 -27.67 0.0005478031    1.549    0.354
       348  -9.5373    102.1383    196.6729   3.3063610846e+01  -4.2479181402e+01   0.01086918  0.009754193  32.54 0.0004095654    1.142    0.125
       349 -10.4229    105.9405    198.2050   3.3017844020e+01  -4.2439074260e+01   0.01240888  0.009900612  52.03 0.0002825185    1.273    0.215
       350  -9.7011    109.6580    195.6408   3.2939303386e+01  -4.2444137852e+01   0.01306439   0.01002937 -37.35 0.0001415493    1.269    0.212
       351 -10.4104     80.1429    196.4965   3.3401584656e+01  -4.2615865895e+01   0.02078492   0.01029536  46.77  0.001288391    2.087    0.521
       352 -10.0631     69.0390    181.9710   3.3453240705e+01  -4.2842509150e+01   0.01106647  0.009148468 -14.00            0    1.225    0.183
       353  -9.8215     81.4222    176.0001   3.3211424092e+01  -4.2832084787e+01    0.0145624  0.009538946 -23.32   0.00100765    1.526    0.345
       354 -10.1017     90.9900    172.0630   3.3030304210e+01  -4.2816302794e+01   0.01108137  0.008990184  44.00            0    1.260    0.206
       355  -9.4714     72.7847    174.3777   3.3331924645e+01  -4.2902693065e+01   0.01124029  0.009380038   7.46 0.0006076109    1.296    0.228
       356 -10.5566     81.1992    191.0080   3.3339750277e+01  -4.2669430857e+01   0.01276546   0.01012937   0.82 0.0005095483    1.389    0.280
       357  -9.3986     77.8675    188.2221   3.3368209372e+01  -4.2720250471e+01   0.00960852  0.008380378   5.37 0.0003310811    1.201    0.168
       358  -9.6428     79.0978    179.8460   3.3279511528e+01  -4.2804297980e+01   0.01225931   0.01025545  13.77 0.0002692887    1.295    0.228
       359  -9.6238     80.9084    184.3487   3.3288930096e+01  -4.2744005218e+01   0.01115829  0.008987935  45.73 0.0004448144    1.265    0.210
       360  -9.5022     82.9797    181.0291   3.3229218042e+01  -4.2767596407e+01  0.009245089  0.008689907 -50.32  0.000337859    1.095    0.087
       361 -10.7899     73.7757    180.6601   3.3368825468e+01  -4.2827941296e+01   0.03378013   0.01786737 -64.42  0.002328936    3.465    0.711
       362  -9.2978     75.0185    177.0080   3.3319151643e+01  -4.2860277380e+01  0.009444318  0.008470966 -52.75 0.0003124683    1.163    0.140
       363  -9.3988     85.2833    178.3324   3.3171060241e+01  -4.2782930185e+01   0.01273529  0.008892274  36.82 0.0003994603    1.555    0.357
       364  -9.7715     88.0892    175.6411   3.3105142595e+01  -4.2795088538e+01   0.01499038  0.009753752 -10.08  0.001211397    1.792    0.442
       365 -10.0060     74.0173    198.5308   3.3513191509e+01  -4.2630952644e+01   0.01099863  0.009606045  59.50 0.0003662125    1.184    0.155
       366 -10.2092    231.9909    196.6281   3.1090028078e+01  -4.1664499375e+01    0.0172464   0.01101645  20.40  0.001646498    2.141    0.533
       367  -9.3749    210.4859    197.9792   3.1424630002e+01  -4.1787169865e+01  0.009427224  0.008377097 -25.18 0.0003600537    1.091    0.084
       368  -8.4907    149.2933    198.2772   3.2354421756e+01  -4.2169554133e+01  0.006484084  0.004910422  19.90 0.0002407468    1.526    0.345
       369  -9.8708    114.3394    197.3600   3.2881696886e+01  -4.2396515870e+01   0.01272073  0.009432273  21.75 0.0005698412    1.568    0.362
       370  -9.3761     93.0615    198.0018   3.3214537660e+01  -4.2520395770e+01  0.009464588   0.00910006   5.31 0.0003355629    1.034    0.033
       371  -9.2373    181.0780    197.1576   3.1861836365e+01  -4.1982281583e+01  0.009521344  0.008432916  14.60 0.0003058725    1.183    0.155
       372  -9.3071    162.6853    197.0792   3.2140384709e+01  -4.2098773921e+01  0.008806736  0.008298744  46.31 0.0003551957    1.085    0.078
       373  -9.1388    153.2666    197.0397   3.2283444976e+01  -4.2158167682e+01  0.008622419  0.008318293  43.73 0.0001973906    1.062    0.058
       374 -10.0822    124.0468    196.9942   3.2729681874e+01  -4.2340477216e+01  0.009510376   0.00916642 -24.73 0.0003519662    1.016    0.016
       375  -8.5697      6.4645    197.4859   3.4557280535e+01  -4.3048959309e+01  0.006505658  0.006189884   6.57 0.0005135798    1.048    0.046
       376  -9.8161    224.8194    195.0303   3.1183964302e+01  -4.1727565929e+01   0.01503535  0.009717321  37.06  0.001412726    1.723    0.420
       377  -8.8256    221.3316    195.6859   3.1241951176e+01  -4.1742782245e+01   0.01018577  0.006813566  63.85 0.0007756669    1.605    0.377
       378  -9.3883    167.8679    195.7090   3.2050034251e+01  -4.2081101302e+01   0.00947135  0.008320432   5.29 0.0004448288    1.192    0.161
       379 -10.0458    139.4101    195.4760   3.2481783774e+01  -4.2261595056e+01   0.01145817   0.01026224  31.08 0.0007031333    1.148    0.129
       380  -9.1659     12.5253    195.8094   3.4448626347e+01  -4.3031344400e+01   0.00882701  0.006394221  58.23 0.0008337793    1.409    0.290
       381  -9.1198    201.6774    194.9590   3.1531705401e+01  -4.1875724134e+01  0.008678096  0.008327134  61.17 0.0004397598    1.087    0.080
       382  -9.5202    157.0132    195.2305   3.2211131172e+01  -4.2154359088e+01  0.009507908  0.006540474 -23.34 0.0002354562    1.452    0.311
       383  -9.8257    162.2885    192.5469   3.2108178832e+01  -4.2150397619e+01    0.0185545   0.01160148  23.37  0.001759058    2.152    0.535
       384  -9.7857    158.4939    191.9961   3.2161303109e+01  -4.2180164447e+01   0.01459479   0.01264186  49.28 0.0007386501    1.176    0.150
       385  -8.6111    150.0446    195.0117   3.2315502799e+01  -4.2200316358e+01  0.007493991  0.007351975   1.90 0.0003082315    1.022    0.022
       386  -9.0566    144.8481    188.8523   3.2342977355e+01  -4.2299645180e+01  0.009194359  0.008850645  44.80 0.0005673863    1.064    0.060
       387 -10.1810    145.1964    194.3497   3.2383923633e+01  -4.2237770234e+01   0.01119534   0.01047041  28.07 0.0004081685    1.086    0.079
       388  -8.6419    142.5520    191.4500   3.2399932761e+01  -4.2285761420e+01  0.009440137  0.005799698  47.86 0.0001317657    1.657    0.397
       389  -9.9503    138.7411    189.0821   3.2438286172e+01  -4.2335243781e+01   0.01227192   0.01134296  34.14 0.0005052947    1.101    0.092
       390 -10.1029    138.9963    176.9447   3.2332056990e+01  -4.2465488744e+01  0.009531344  0.008716417 -56.86 0.0003344649    1.152    0.132
       391  -8.7451    138.7428    173.6542   3.2308126804e+01  -4.2502799842e+01  0.009302621  0.008454419 -31.50 0.0003828518    1.069    0.065
       392  -9.2647    134.2776    195.0376   3.2556601640e+01  -4.2298288779e+01  0.009721911  0.008351389  26.99  0.000382946    1.224    0.183
       393  -9.0484    134.5770    191.5041   3.2522367019e+01  -4.2334847007e+01  0.009731966  0.009467646   4.89 0.0001178539    1.023    0.023
       394  -9.2450    138.5499    185.2602   3.2409040428e+01  -4.2377959442e+01    0.0112524  0.007517489  48.54 0.0006168177    1.519    0.342
       395 -10.8729    142.5331    182.9515   3.2328626545e+01  -4.2378173632e+01   0.01628695   0.01092621 -35.62 0.0003199238    1.433    0.302
       396  -9.8223     69.9429    248.6944   3.3986623439e+01  -4.2105836338e+01   0.02186187   0.01104504  -9.09  0.001174594    2.960    0.662
       397 -13.0850     65.2673     86.0549   3.2702451214e+01  -4.3912670355e+01   0.08979646   0.04108252 -26.97  0.007903655    2.166    0.538
       398  -9.2087     49.6794    249.4180   3.4304983043e+01  -4.2219524482e+01  0.008971698  0.006218643 -12.34 0.0009383236    1.566    0.361
       399  -9.6041    110.7887    190.7385   3.2880992080e+01  -4.2490601198e+01   0.01063224  0.009222792  17.74 0.0005438342    1.220    0.180
       400  -9.9669    108.0667    185.7991   3.2881595590e+01  -4.2561242172e+01   0.03207796   0.01196182 -45.48  0.002400242    3.124    0.680
       401  -8.7177    246.4634    190.4631   3.0820510158e+01  -4.1637863554e+01  0.006483169  0.006185656   0.92 0.0002078374    1.042    0.040
       402 -10.4670    223.3661    189.1535   3.1155542151e+01  -4.1800124332e+01   0.02010817   0.01299652 -48.71  0.002073189    1.672    0.402
       403  -9.6346    216.7166    185.3157   3.1222729520e+01  -4.1883945386e+01   0.01404355   0.01116777 -87.91 0.0005921457    1.534    0.348
       404 -10.3356    219.1558    182.9901   3.1166088840e+01  -4.1893400814e+01   0.01589657   0.01284785 -75.64  0.001820118    1.488    0.328
       405  -9.6302    215.8774    190.0190   3.1275582402e+01  -4.1838636922e+01  0.009647857  0.009119561   5.18  0.000462989    1.061    0.058
       406  -9.2370    148.9235    190.2670   3.2292654594e+01  -4.2258824914e+01  0.008960416   0.00785382 -17.00 0.0003473507    1.128    0.113
       407  -9.9369    190.4958    189.0548   3.1650476144e+01  -4.2010378083e+01   0.01106665  0.008734456 -42.97 0.0004895858    1.270    0.212
       408  -8.7754    194.2596    188.0123   3.1584658650e+01  -4.1997787970e+01  0.008688641  0.007489326  19.16 0.0002848555    1.235    0.190
       409  -9.5177    181.0770    188.1673   3.1785641829e+01  -4.2079540549e+01   0.01826696   0.01086003  88.68  0.001563046    2.838    0.648
       410  -8.7915    171.0839    189.0111   3.1944514269e+01  -4.2133424195e+01  0.007612813  0.007227154 -19.65 0.0004175342    1.019    0.019
       411  -9.1254    206.5327    184.5360   3.1369581634e+01  -4.1957301863e+01  0.009626675  0.005835654  45.20 0.0008979299    1.711    0.416
       412  -9.1654    205.7198    188.3622   3.1414515287e+01  -4.1921213930e+01  0.009810379  0.008866603 -46.97  0.001206676    1.127    0.113
       413  -9.1247    202.6453    187.3058   3.1451910248e+01  -4.1952165841e+01    0.0107103  0.006306438 -36.21 0.0008956327    1.625    0.385
       414  -9.3440    155.4936    188.0146   3.2173414023e+01  -4.2242144895e+01  0.009322097  0.008506797 -19.30  0.000354845    1.068    0.063
       415 -10.2447    222.5086    185.4354   3.1136595212e+01  -4.1845631224e+01    0.0103085  0.008185985  48.03 0.0005179102    1.281    0.219
       416  -8.9747    210.7576    186.9865   3.1326794917e+01  -4.1903965943e+01  0.008533444  0.008354302  21.89 0.0002286019    1.035    0.034
       417  -9.0804    174.5193    187.0745   3.1875903087e+01  -4.2132744588e+01  0.009072953  0.006447373  58.89 0.0003235267    1.451    0.311
       418  -9.3859     91.1816    187.1374   3.3153225948e+01  -4.2650580593e+01  0.009781142  0.008378062  20.16  0.000475941    1.241    0.194
       419 -10.3905     72.7417    186.6924   3.3434957877e+01  -4.2768270949e+01   0.01153907   0.01065046  29.97 0.0002305959    1.104    0.094
       420  -9.1093    195.8320    193.8434   3.1610485905e+01  -4.1924843411e+01  0.009808811  0.008404212  21.50 0.0004542747    1.243    0.195
       421  -8.7826    237.9612    186.5576   3.0914236407e+01  -4.1734487892e+01  0.009368704  0.006243017 -27.60 0.0003972762    1.468    0.319
       422  -8.9170    147.3122    185.9442   3.2280810919e+01  -4.2315818035e+01  0.008751939  0.007984951  45.66 0.0003476033    1.117    0.105
       423 -10.2881    120.4178    185.8258   3.2691841285e+01  -4.2484544060e+01   0.01510945  0.009327604 -29.64 0.0004027266    1.557    0.358
       424  -8.7549    244.0035    184.9693   3.0810076470e+01  -4.1712686035e+01  0.007605598  0.007482169  20.42 0.0003878756    1.034    0.033
       425  -9.3246    166.9658    185.0324   3.1973431738e+01  -4.2202427779e+01   0.00941158   0.00890588   7.81            0    1.061    0.058
       426  -9.7227    151.4466    185.0506   3.2210126683e+01  -4.2299645176e+01   0.01094424  0.008780483  -2.64 0.0003479848    1.357    0.263
       427 -10.2135     86.0175    185.0046   3.3215305412e+01  -4.2705548216e+01  0.009427254  0.009045498   1.78            0    1.032    0.031
       428 -14.1357     96.7807    140.9355   3.2678283392e+01  -4.3119780424e+01     0.104298   0.05573251 -27.23  0.009318592    1.835    0.455
       429  -8.7185    183.4816    184.4441   3.1717534630e+01  -4.2104600979e+01  0.006473182  0.006195343  -7.47 0.0001228929    1.024    0.024
       430 -10.1182    163.6039    176.1215   3.1949027371e+01  -4.2320088935e+01   0.01856592  0.009824061  35.05  0.001629456    2.408    0.585
       431 -10.4210    164.6726    171.0399   3.1889521610e+01  -4.2368373619e+01   0.01142045   0.00982465 -19.30 0.0002918301    1.147    0.128
       432  -9.6599    157.6487    184.1859   3.2108188805e+01  -4.2270145596e+01   0.01142105  0.008728212 -27.43 0.0004464516    1.270    0.212
       433  -8.9159    158.9654    180.7463   3.2058987486e+01  -4.2299160204e+01   0.01424607  0.008850421 -20.22 0.0003431488    1.697    0.411
       434  -9.8906    155.8297    178.8862   3.2091068689e+01  -4.2339012457e+01    0.0191304   0.01145887  26.12  0.001305871    2.272    0.560
       435  -9.2425    152.7656    177.1623   3.2123250334e+01  -4.2376930189e+01   0.01156817  0.008438419 -34.40  0.000548024    1.320    0.243
       436  -9.6962    113.9172    248.1554   3.3308124063e+01  -4.1844841960e+01  0.009844142  0.009127979   0.57 0.0005331942    1.083    0.076
       437 -10.1133    125.0726    191.9484   3.2671720015e+01  -4.2389045072e+01   0.01051824  0.009104584   1.09 0.0003263173    1.210    0.174
       438  -9.4165    173.1733    182.8478   3.1860486473e+01  -4.2186973051e+01  0.009468083  0.008544264 -51.86 0.0003655786    1.151    0.131
       439  -9.2928    162.8782    182.8353   3.2017049267e+01  -4.2251936357e+01  0.009412051  0.008439224  13.67 0.0003285173    1.160    0.138
       440 -10.7888    210.5924    180.6071   3.1274721929e+01  -4.1973769877e+01   0.01699825      0.01198  72.69 0.0007044768    1.648    0.393
       441  -9.5561    177.8650    182.1631   3.1783380058e+01  -4.2164766187e+01  0.009731724  0.009093413  12.08 0.0002651863    1.086    0.079
       442  -9.9915    180.6939    179.7347   3.1719761202e+01  -4.2173144056e+01   0.02835315   0.01035754 -25.43  0.002140231    2.974    0.664
       443  -9.5596    149.9050    181.2060   3.2201179064e+01  -4.2351006316e+01   0.01978382   0.01090852  -7.93  0.001291016    2.623    0.619
       444  -9.9307    134.8573    181.2662   3.2431945959e+01  -4.2444375007e+01   0.01063333  0.008973797  44.26   0.00035263    1.209    0.173
       445  -9.2686    224.2860    180.9776   3.1071634077e+01  -4.1882224417e+01  0.008856079  0.008391931  37.91 0.0002957555    1.073    0.068
       446 -10.8110     89.8218    180.6221   3.3119928255e+01  -4.2730067055e+01   0.01211039   0.01045864  16.95 0.0003633396    1.228    0.186
       447  -8.9893    199.0588    180.2980   3.1446282841e+01  -4.2050578736e+01   0.00883294  0.007957294 -27.50 0.0002781629    1.074    0.069
       448  -9.7846    120.8515    179.7039   3.2633767524e+01  -4.2548479477e+01   0.01446776  0.009372977 -12.45  0.000951599    1.763    0.433
       449  -8.9738    235.9371    179.3430   3.0882552412e+01  -4.1825016533e+01  0.008945798   0.00806423 -18.15 0.0003552639    1.089    0.082
       450  -8.9812    204.5091    179.4354   3.1356527207e+01  -4.2025187666e+01  0.006464445  0.006190225 -27.79 0.0001255428    1.022    0.022
       451  -9.8226    145.8499    177.9969   3.2236033083e+01  -4.2411213470e+01   0.01026431   0.00905255 -18.49  0.000412515    1.114    0.103
       452 -10.5783    147.7399    173.5881   3.2169796042e+01  -4.2447205281e+01   0.01719604   0.01585353  34.58  0.002156019    1.105    0.095
       453  -9.4042    126.4013    187.6921   3.2615645872e+01  -4.2427113555e+01   0.01437977  0.006120663  57.42 0.0005325841    2.336    0.572
       454  -9.0668    226.5196    177.4741   3.1007943762e+01  -4.1905590898e+01  0.006506103  0.006187317   2.49 5.398345e-05    1.049    0.047
       455  -9.1168    219.0429    177.0750   3.1117048530e+01  -4.1957796866e+01   0.01212789  0.008946455  -7.17  0.001316698    1.532    0.347
       456  -8.7408    195.2638    177.3221   3.1478277378e+01  -4.2106819151e+01   0.00842282  0.006186745  67.77 0.0003119603    1.492    0.330
       457  -9.2491    196.0640    173.5069   3.1433531397e+01  -4.2142896780e+01  0.009255855  0.008776995  51.11 0.0003937327    1.085    0.078
       458  -9.1833    130.0847    177.1830   3.2470720182e+01  -4.2518485803e+01  0.009496484  0.008195083  14.47 0.0003012174    1.233    0.189
       459  -8.9535    110.0199    177.0029   3.2777795398e+01  -4.2645011289e+01  0.008791924  0.007363343  19.97 -0.005334738    1.288    0.223
       460  -9.6870    113.3385    174.1272   3.2702497695e+01  -4.2655774755e+01   0.01021507  0.008649577  -6.78 0.0003978795    1.224    0.183
       461  -9.0031     94.5690    176.5026   3.3012096942e+01  -4.2745833433e+01  0.009014288  0.006279091 -11.17 0.0001515156    1.592    0.372
       462  -9.6466    101.9934    176.3559   3.2896170247e+01  -4.2701665415e+01   0.01853661  0.008473725 -43.84 0.0006638964    2.300    0.565
       463  -9.7633     98.6680    174.7190   3.2933809381e+01  -4.2740028744e+01   0.01123564   0.00864753  28.43 0.0002701383    1.432    0.301
       464  -9.5187    176.7023    194.3129   3.1904097314e+01  -4.2040644723e+01  0.009349294  0.005857785  49.04 0.0005094804    1.616    0.381
       465  -9.1927    205.6818    175.7130   3.1306938401e+01  -4.2057840560e+01  0.008337438  0.006448369  74.37 0.0002569932    1.470    0.320
       466 -10.0636    202.7753    173.0533   3.1328080471e+01  -4.2105044742e+01   0.01441496   0.01115609 -12.26  0.001631582    1.370    0.270
       467  -9.1641    135.0120    176.1158   3.2386125973e+01  -4.2499365463e+01  0.009511792    0.0081246  17.18 0.0002685032    1.253    0.202
       468  -9.9417    124.3333    174.3983   3.2535584794e+01  -4.2584557483e+01   0.01185398     0.010421  -9.41 0.0006921914    1.149    0.130
       469  -9.6559    117.9179    175.0420   3.2639678518e+01  -4.2617415257e+01  0.009371661  0.008870002  -0.20 0.0002767458    1.050    0.048
       470  -9.8367    159.1571    173.8452   3.1997518474e+01  -4.2372728875e+01   0.01022617   0.00916548  53.54 0.0004722927    1.144    0.126
       471  -9.6137     56.8327    173.8248   3.3575484968e+01  -4.3006005804e+01  0.009390028  0.008405651  19.58 0.0003190699    1.158    0.136
       472  -8.5281    248.6770    173.7450   3.0643306664e+01  -4.1802993633e+01  0.006473349  0.004940731  12.84 0.0003150433    1.544    0.352
       473 -10.3216    189.8286    175.4809   3.1544893014e+01  -4.2161218314e+01   0.01400738   0.01042169  72.40  0.001048106    1.524    0.344
       474  -9.8944    153.0273    172.9227   3.2083303613e+01  -4.2421248769e+01  0.009514628   0.00902365   1.73 0.0002901666    1.051    0.048
       475  -9.3868    135.0552    166.3703   3.2303034164e+01  -4.2604929341e+01  0.009050607  0.008702672  35.54  0.000398965    1.057    0.054
       476 -10.0728    129.8527    172.5597   3.2435271726e+01  -4.2570176322e+01   0.01182384   0.01017024  -2.33  0.000397373    1.213    0.176
       477  -9.4676    133.9628    170.2761   3.2352868495e+01  -4.2569342424e+01   0.01083373  0.008215738  31.52 0.0002651144    1.442    0.307
       478 -10.5249    107.1677    171.5734   3.2776170025e+01  -4.2721801296e+01    0.0123785   0.01046304  38.10 0.0004374402    1.219    0.180
       479  -9.2557      2.4014    172.8554   3.4420158859e+01  -4.3344470701e+01   0.01010282   0.00827508  23.83 0.0003158258    1.317    0.241
       480  -9.4822      1.2849    169.7202   3.4412051609e+01  -4.3385651576e+01   0.01434214  0.006432774  65.82  0.001206164    2.515    0.602
       481 -10.2028    233.7855    171.8486   3.0850278401e+01  -4.1919368400e+01  0.009638045  0.008483036  18.72 0.0003737684    1.197    0.164
       482  -9.3366    225.0011    172.2565   3.0985896089e+01  -4.1971441011e+01  0.008878804  0.008381604 -12.47 0.0003794652    1.037    0.035
       483  -9.6914    193.0064    170.2809   3.1452242609e+01  -4.2197153770e+01   0.01031316  0.009198952  57.23 0.0003650453    1.158    0.136
       484 -10.9196    119.0226    168.7116   3.2569334445e+01  -4.2679425539e+01    0.0156299   0.01165587  76.18  0.001062029    1.554    0.356
       485 -10.3790    112.5062    169.1044   3.2673051996e+01  -4.2715611172e+01   0.01985232   0.01187992  66.96  0.001687274    1.868    0.465
       486  -9.6708    115.5052    165.5281   3.2596666106e+01  -4.2735913360e+01   0.01168971   0.01039321  18.54 0.0002481615    1.173    0.148
       487 -10.3226     95.7974    170.2714   3.2940900277e+01  -4.2806230260e+01   0.01108773  0.009966219  22.08 0.0003243583    1.151    0.131
       488 -10.1902    142.8242    169.3772   3.2209364079e+01  -4.2523683535e+01   0.01163359   0.01107289 -73.25  0.000452276    1.122    0.109
       489  -8.9437    138.1149    169.7798   3.2284965193e+01  -4.2548785991e+01   0.01204562  0.008971003  15.39 0.0003315302    1.593    0.372
       490  -9.5444    124.9748    169.9925   3.2488552479e+01  -4.2628467155e+01   0.01054818  0.009101623  52.91 0.0003226546    1.184    0.155
       491  -9.6314    124.1578    166.1252   3.2468447308e+01  -4.2675593763e+01   0.01046161  0.008449212  41.76 0.0002878697    1.273    0.215
       492 -10.6126    101.5216    169.0192   3.2841888644e+01  -4.2784544475e+01   0.01134898   0.00996933  -5.81 0.0003826142    1.162    0.139
       493 -10.3756    229.4066    165.3153   3.0859724862e+01  -4.2017732042e+01   0.02281181  0.009521561  44.57  0.001409096    2.623    0.619
       494  -9.3505      4.8878    168.8309   3.4347997678e+01  -4.3373934402e+01  0.009391117  0.008364239   6.77 0.0002878566    1.160    0.138
       495  -9.6899    244.9344    166.7651   3.0638998946e+01  -4.1902034716e+01   0.01343061    0.0069022  35.32 0.0007497835    2.531    0.605
       496  -9.3687    186.7224    167.0072   3.1519553885e+01  -4.2272429920e+01  0.008789751  0.008344135  46.18  0.000284401    1.078    0.072
       497  -9.6296    148.0510    166.5470   3.2105291851e+01  -4.2521606697e+01  0.009056401  0.008678756  31.62 0.0003751609    1.058    0.055
       498 -10.5343    200.0545    164.6463   3.1297112647e+01  -4.2213020886e+01    0.0190224    0.0111602  20.43   0.00161995    2.639    0.621
       499  -9.3726     49.9392    165.9717   3.3617795608e+01  -4.3133917513e+01  0.009515844  0.008957257  -8.33  0.000373545    1.044    0.042
       500 -10.2584     29.6051    166.0119   3.3936345047e+01  -4.3256557318e+01   0.01819876   0.00893694 -26.99  0.001169451    1.987    0.497
       501 -10.1888    129.5299    184.2543   3.2538775554e+01  -4.2445064083e+01   0.01887128   0.01108227  52.72  0.001897448    1.706    0.414
       502 -10.4946    111.5425    161.9597   3.2627670129e+01  -4.2799349844e+01   0.01276149  0.009731522 -21.33 0.0005432512    1.306    0.235
       503  -9.2396    234.1429    161.3640   3.0754300181e+01  -4.2029654212e+01  0.009118079  0.007898286 -28.88 0.0005717945    1.117    0.105
       504 -10.1107    115.5142    191.4440   3.2814234550e+01  -4.2453720042e+01   0.01182178    0.0101258  18.51  0.000289393    1.244    0.196
       505 -10.0556    106.9845    165.9821   3.2731955013e+01  -4.2783829670e+01  0.009559914  0.009148303   0.01 0.0003186504    1.034    0.033
       506  -9.2352    199.5186    190.9841   3.1530471518e+01  -4.1932334271e+01  0.009250299  0.006492698  61.04 0.0004059661    1.489    0.328
       507  -9.7138      1.9047    157.1565   3.4299017915e+01  -4.3520237815e+01   0.00946011  0.008902882 -15.01 0.0003791762    1.033    0.032
       508  -9.6966    227.7156    155.0222   3.0796136082e+01  -4.2139180566e+01  0.008743608  0.008370666  43.03 0.0002674094    1.068    0.063
       509  -9.2198      6.3794    154.7310   3.4208412941e+01  -4.3520130901e+01   0.01044738  0.007620465   5.13 0.0005381628    1.620    0.383
       510  -9.8778    217.7387    154.2317   3.0939827622e+01  -4.2211882954e+01   0.01341269  0.007806192 -50.18  0.001279167    1.958    0.489
       511 -10.0153     38.1915    151.3448   3.3679949439e+01  -4.3365497781e+01   0.01128701  0.009150915  25.56 0.0004556376    1.335    0.251
       512 -12.1773    230.3385    141.4275   3.0638474367e+01  -4.2268158659e+01   0.02829889    0.0174748 -47.72  0.002856463    1.739    0.425
       513 -12.6257    230.6532    148.2289   3.0692905314e+01  -4.2193153680e+01   0.03859134   0.02422614 -23.72  0.003840249    1.626    0.385
       514 -10.7756    227.4817    145.0651   3.0713230856e+01  -4.2247586239e+01   0.01558173   0.01399894 -76.29  0.001915138    1.240    0.193
       515  -9.6874      3.4499    145.6943   3.4179966911e+01  -4.3637056224e+01   0.01598647   0.01119217 -45.32 0.0009201824    1.469    0.319
       516 -10.7780    248.5048    143.3276   3.0381593871e+01  -4.2130042771e+01   0.01841057   0.01273947 -82.50  0.001838693    2.073    0.518
       517 -11.9029    238.2584    142.2124   3.0525956115e+01  -4.2208475641e+01   0.02650772   0.01585172 -58.48  0.002446451    2.236    0.553
       518 -11.7941    239.3609    138.8773   3.0480250934e+01  -4.2237067417e+01   0.03510597   0.01328437 -28.58  0.002681752    2.651    0.623
       519  -9.5815    250.1376    137.8645   3.0309298810e+01  -4.2177896983e+01   0.01790798  0.008416368  75.67  0.001250654    4.071    0.754
       520  -9.6814    185.9393    190.9643   3.1735691273e+01  -4.2018572062e+01  0.009509609   0.00913803  -3.15            0    1.026    0.025
       521 -10.0519    206.4724    134.1687   3.0936410953e+01  -4.2500003595e+01   0.01282362   0.01069813 -23.78 0.0008913802    1.174    0.148
       522  -9.1253    216.3480    134.2531   3.0787437044e+01  -4.2435505448e+01  0.006571899  0.004941416  11.33 0.0002972835    1.590    0.371
       523  -8.9510      2.7972    134.2287   3.4095201907e+01  -4.3767001248e+01  0.008708619  0.007256639  18.21  0.000360185    1.295    0.228
       524 -10.0460    212.7531    132.1376   3.0823476930e+01  -4.2481402478e+01   0.01244442  0.009493089 -17.54 0.0005277042    1.352    0.260
       525 -11.1806    222.1209    130.1151   3.0663970535e+01  -4.2442651669e+01   0.01569971   0.01130934  11.71  0.001653249    1.732    0.423
       526 -10.1327    202.7395    127.0221   3.0930926305e+01  -4.2600842624e+01    0.0087804   0.00843926  19.94 0.0003817887    1.049    0.047
       527  -8.5582    168.2934    191.2652   3.2006008673e+01  -4.2126569245e+01  0.006413375  0.004914538  17.94 0.0002213186    1.506    0.336
       528  -9.6830    203.1134    120.5198   3.0868552062e+01  -4.2668328871e+01  0.009748344  0.006284468 -27.87 0.0004931841    1.517    0.341
       529 -10.9039     59.4630    117.2031   3.3059358724e+01  -4.3608974549e+01   0.01540816   0.01110626  -4.62 0.0006501235    1.592    0.372
       530 -14.6904     64.6408    106.5782   3.2887827179e+01  -4.3692961767e+01    0.1444054   0.07461691 -44.28   0.01338233    2.022    0.506
       531 -10.5355    196.1847    111.0681   3.0891492890e+01  -4.2814523686e+01  0.009962434  0.008634279  17.19 0.0004369533    1.230    0.187
       532  -8.9457      1.5433    102.8855   3.3853162092e+01  -4.4118694741e+01  0.009113388  0.006419857  59.84 0.0004149495    1.460    0.315
       533 -12.5691    243.1799     94.5844   3.0032788731e+01  -4.2685964754e+01   0.02313773    0.0185403  67.18   0.00269642    1.350    0.259
       534 -10.2291    227.9743     95.2835   3.0269208551e+01  -4.2777837656e+01  0.009329699  0.008360554 -23.40 0.0004434675    1.086    0.079
       535 -14.2916     73.4490    141.5923   3.3046816197e+01  -4.3256754479e+01   0.08197268    0.0646017  36.57  0.009486138    1.334    0.251
       536 -11.2131    249.5986     86.7519   2.9866186210e+01  -4.2727449796e+01   0.01787896   0.01138632  31.53  0.001776551    1.899    0.473
       537  -9.8692     99.4973    248.0452   3.3527652677e+01  -4.1934002746e+01  0.009452726  0.006386611  57.78 0.0005131086    1.508    0.337
       538 -12.4311    242.9747     82.9515   2.9932495026e+01  -4.2811486259e+01   0.02226872   0.01491024  63.85  0.002245029    1.617    0.381
       539  -9.6211    129.7682    193.9606   3.2616611692e+01  -4.2338015627e+01  0.009632128  0.008232825  29.75 0.0003856615    1.225    0.184
       540  -9.4235    119.7768    193.9634   3.2769837874e+01  -4.2399913103e+01  0.009711989  0.008268905  26.00 0.0004405341    1.242    0.195
       541 -10.0132     94.8182    193.3732   3.3148983680e+01  -4.2560170294e+01   0.01089094  0.008896152  48.95 0.0003388037    1.244    0.196
       542  -8.8681      6.6988     81.9778   3.3594631043e+01  -4.4316634678e+01  0.008450682   0.00817119  32.95 0.0003279328    1.050    0.048
       543 -10.5743    231.8383     80.2782   3.0077476967e+01  -4.2913009031e+01    0.0149988  0.005829114 -27.65  0.001181621    2.662    0.624
       544 -11.3897    249.4651     78.3269   2.9793076680e+01  -4.2818154627e+01    0.0164498   0.01413114  40.02  0.001990261    1.195    0.163
       545 -11.5496    191.4661     76.2454   3.0657378873e+01  -4.3218937814e+01   0.01479122    0.0114389  -5.43  0.001405802    1.440    0.305
       546  -9.5263     18.5269     76.4713   3.3359612574e+01  -4.4304846852e+01   0.01096418  0.009289275 -15.04 0.0001654346    1.181    0.154
       547  -8.7921     22.2835     75.2910   3.3289839636e+01  -4.4294788119e+01  0.009747824  0.007817614 -25.17 0.0003752941    1.213    0.175
       548 -10.2143      3.5941     73.4543   3.3571755454e+01  -4.4428828267e+01   0.01129366   0.01007954 -39.52 0.0001950976    1.111    0.100
       549  -8.7139      1.4991     69.6494   3.3572837429e+01  -4.4483217005e+01  0.009632606  0.006480665  61.31  0.001016621    1.543    0.352
       550  -9.6454     74.1385    193.8174   3.3472339523e+01  -4.2681797182e+01  0.009529915  0.008909765   2.53 0.0004833386    1.072    0.067
       551  -8.9182     40.4732    194.5174   3.4001250523e+01  -4.2878092379e+01  0.006490296  0.006213262   1.19 0.0001234602    1.034    0.033
       552  -9.8987     43.4084     70.5193   3.2913948161e+01  -4.4217097264e+01   0.01414553  0.009794383 -49.53 0.0009061316    1.553    0.356
       553 -10.1770     36.9597     68.6790   3.3000311398e+01  -4.4276909558e+01   0.01995184   0.01295101  85.63  0.001896151    2.138    0.532
       554  -9.7865     39.8206     64.9981   3.2923327814e+01  -4.4299416877e+01     0.010919  0.008961188  54.52 0.0007731469    1.244    0.196
       555  -9.3503     86.8961    192.7071   3.3265764192e+01  -4.2616009051e+01  0.009446345  0.008434281  18.93 0.0003281712    1.163    0.141
       556  -8.8811     11.5340     58.4861   3.3317363175e+01  -4.4544174980e+01  0.009390783  0.006325928 -12.49 0.0005307104    1.646    0.392
       557 -11.0585      5.5580     60.7397   3.3432052234e+01  -4.4556011834e+01   0.03920225   0.01776989 -38.26  0.003483988    2.109    0.526
       558  -9.5924     90.6639    191.0015   3.3193382735e+01  -4.2611556291e+01   0.01016084  0.008596547  -7.39 0.0003783931    1.220    0.180
       559 -14.8103    105.9954    153.6223   3.2642931372e+01  -4.2924515874e+01    0.2346875   0.08668438 -18.22   0.01507561    4.376    0.772
       560 -12.6774     87.6087    105.3700   3.2517958761e+01  -4.3563731389e+01   0.03485446   0.02272449 -58.04  0.002302337    1.889    0.471
       561  -9.4585     16.0166     65.0924   3.3302424923e+01  -4.4444571463e+01  0.009458511  0.008951652 -29.31 0.0003133061    1.033    0.032
       562  -8.7421    219.6455    192.1029   3.1236697705e+01  -4.1792138778e+01  0.009029985  0.005649808  46.33 0.0003670028    1.641    0.391
       563  -9.3516     15.5097     57.0139   3.3241318782e+01  -4.4535940441e+01  0.009695552  0.008179376 -25.08 -4.85884e-05    1.150    0.131
       564  -9.0800    210.4781    192.0038   3.1373835704e+01  -4.1851657170e+01   0.00926401  0.006399409  56.88 0.0003414193    1.479    0.324
       565 -10.6112     63.5007     54.1878   3.2455183659e+01  -4.4270254848e+01   0.01189636  0.009994795 -18.03 0.0004377142    1.184    0.155
       566  -9.8385     22.1421     53.0073   3.3101171582e+01  -4.4539013518e+01   0.01843576   0.01457268  61.90  0.002138665    1.319    0.242
       567 -10.5091     10.8947     49.1882   3.3247819019e+01  -4.4649674329e+01   0.02272435   0.01472141 -48.55  0.002220108    1.664    0.399
       568  -9.0998      5.5035     50.5392   3.3345606357e+01  -4.4667875732e+01  0.009060044  0.006518225  77.24 8.315024e-05    1.640    0.390
       569  -9.3200      1.7760     51.6380   3.3414663272e+01  -4.4678608702e+01   0.01359362  0.008176962 -45.72   0.00034552    1.746    0.427
       570 -10.3046      9.7332     54.2203   3.3309562928e+01  -4.4601800396e+01   0.02296592  0.009679982 -30.85  0.001679066    2.223    0.550
       571  -9.3029      4.9604     54.0115   3.3384049438e+01  -4.4633232752e+01    0.0131974  0.008242056  21.34 0.0004204475    2.172    0.540
       572 -13.3006     99.4200    129.3762   3.2539072812e+01  -4.3229163934e+01   0.09501217   0.02235101 -29.43  0.006132894    3.984    0.749
       573  -9.8547     34.5429     52.0122   3.2895226389e+01  -4.4473519682e+01   0.01595735   0.01138375 -50.05  0.001732985    1.506    0.336
       574  -9.8800     21.8340    247.9010   3.4724183630e+01  -4.2401990149e+01  0.009894697  0.008385924  23.08 0.0004905401    1.251    0.201
       575 -11.5178    171.3218     49.7975   3.0732670585e+01  -4.3633053364e+01   0.01699631   0.01132766  -2.99 0.0008837428    1.925    0.481
       576  -8.6907     40.4368     50.0000   3.2784194624e+01  -4.4459023848e+01    0.0147687  0.003613038 -28.57 0.0009381035    3.962    0.748
       577  -9.7985     39.9986     38.9097   3.2695048327e+01  -4.4582465527e+01   0.01983203   0.01132956  20.00  0.001669751    2.790    0.642
       578 -11.3249     31.4546     38.7077   3.2829308395e+01  -4.4637542093e+01   0.01471631   0.01088245 -36.67 0.0002906357    1.311    0.237
       579  -9.3993     36.2007     38.1695   3.2749054734e+01  -4.4614047038e+01   0.01510158   0.01014901 -33.84  0.001085214    1.426    0.298
       580  -9.5716     23.8200     45.6277   3.3010843384e+01  -4.4609203851e+01   0.01429147  0.009271985 -57.11 0.0009704836    1.876    0.467
       581 -10.5001     21.8453     40.9673   3.3002102734e+01  -4.4672179824e+01   0.01971812    0.0130187  23.25  0.001398249    1.915    0.478
       582 -10.1888     26.7598     41.1854   3.2925590362e+01  -4.4639525663e+01   0.01216164   0.01135069 -60.63 0.0005338828    1.133    0.117
       583 -11.3653     17.8652     20.1608   3.2885362415e+01  -4.4923476248e+01   0.02154383    0.0167237 -40.72  0.002480895    1.275    0.216
       584 -10.8586      8.1056     43.8168   3.3246237849e+01  -4.4725416798e+01   0.04521456   0.01922408 -16.24  0.003308728    3.390    0.705
       585 -11.1089     12.1468     39.7383   3.3146456387e+01  -4.4745184776e+01   0.02687015    0.0157186  81.14  0.002422269    2.477    0.596
       586  -9.7134      6.4573     40.0376   3.3240094309e+01  -4.4776782477e+01   0.01631871   0.01311214  16.81  0.001297913    1.382    0.276
       587 -10.1915      2.8167     36.8053   3.3270587849e+01  -4.4834362805e+01   0.02754824    0.0105366 -26.38  0.002192586    2.638    0.621
       588 -11.4026      8.4149     32.6608   3.3145110617e+01  -4.4845323292e+01   0.03325368   0.02071563  19.49  0.002639791    2.228    0.551
       589 -10.7538      2.4743     28.8495   3.3207449151e+01  -4.4923339476e+01   0.02879661   0.01651398  86.53  0.002279595    2.895    0.655
       590  -9.3725      1.8575    248.1435   3.5036994447e+01  -4.2517231168e+01  0.008901225  0.007399811  17.88  0.000410722    1.297    0.229
       591 -10.4467    194.0529    247.3515   3.2087802946e+01  -4.1357305669e+01  0.009926911  0.008699152   7.77 0.0005335191    1.200    0.166
       592  -9.2690    197.2217    243.9876   3.2012117656e+01  -4.1373845445e+01   0.01113541  0.006768766  33.13  0.001067254    1.981    0.495
       593  -9.6871    108.9874    247.0763   3.3374580962e+01  -4.1886753188e+01  0.009675439  0.009199344   7.90 0.0003277574    1.052    0.049
       594 -10.9948     33.5826    246.0141   3.4526711679e+01  -4.2353023680e+01   0.01718739   0.01272157  20.37 0.0004494793    1.566    0.362
       595  -8.8432    152.9515    192.7445   3.2252078823e+01  -4.2206749971e+01  0.007999827  0.005490716 -26.02 0.0003174605    1.428    0.300
       596 -10.6710    145.9679     43.7950   3.1072003987e+01  -4.3860886402e+01  0.009996687  0.008590215  11.60 0.0004525379    1.249    0.200
       597 -13.8674     92.6578     93.4188   3.2336402456e+01  -4.3662115154e+01    0.1458205   0.05221817 -22.15   0.01026217    3.528    0.717
       598  -9.6990     37.3283    243.3031   3.4446827046e+01  -4.2360561699e+01   0.01584609  0.009349795   1.05  0.001076503    2.450    0.592
       599 -10.9547     92.9852     39.2818   3.1860306470e+01  -4.4246925979e+01   0.02765564   0.01865916  67.83  0.002928807    1.648    0.393
       600  -9.9149     98.1331     37.8488   3.1766793560e+01  -4.4229891223e+01   0.01277963   0.01101886   4.31 0.0006158726    1.230    0.187
       601 -10.1235     96.5109     34.5689   3.1763418291e+01  -4.4275617831e+01   0.01491898   0.01369647 -56.41  0.001018862    1.144    0.126
       602 -10.8980     83.9819     35.9641   3.1972916642e+01  -4.4339611434e+01    0.0221576   0.01202691  50.90  0.001895059    1.846    0.458
       603  -9.8129     81.0298     34.0000   3.2002226102e+01  -4.4379468311e+01   0.01371088  0.008861181 -14.30 0.0006212536    1.741    0.426
       604  -9.4092     52.9500     37.9576   3.2481050121e+01  -4.4512349139e+01  0.009730396  0.008963461  -2.80 0.0004400403    1.090    0.082
       605  -8.7603     45.2946     37.9762   3.2602747469e+01  -4.4559760360e+01  0.007445189  0.005907213  60.80 0.0007469271    1.310    0.236
       606  -9.7250    131.0317    188.6644   3.2552815982e+01  -4.2387770523e+01  0.009521076  0.008390711   6.98 0.0003837713    1.187    0.157
       607  -9.8988     73.7215     36.1292   3.2136265699e+01  -4.4402330739e+01   0.02100723   0.01141221  72.19 0.0009231343    2.376    0.579
       608 -10.7828     70.3507     33.1382   3.2163342689e+01  -4.4455904254e+01   0.02540852   0.01117968  41.44  0.002080938    2.686    0.628
       609 -10.8045    150.3281     34.3065   3.0919960823e+01  -4.3934886423e+01   0.01151541  0.009920221  13.89 0.0007037966    1.245    0.197
       610 -10.2234    132.4970     35.1922   3.1205402659e+01  -4.4039854436e+01   0.01621706  0.008703485 -47.33  0.001498513    2.049    0.512
       611  -9.6252    133.4665     32.4826   3.1166234121e+01  -4.4062821313e+01   0.00959717   0.00634481 -14.62 0.0009720709    1.694    0.410
       612  -9.7318     56.0275     34.3834   3.2401065680e+01  -4.4531991472e+01    0.0243318   0.01251384 -13.79  0.001765679    2.581    0.613
       613  -9.6012     20.5235     35.1212   3.2972653124e+01  -4.4744058379e+01   0.01393726  0.008625674 -21.44  0.001404328    1.664    0.399
       614  -9.1565     46.7368     33.0163   3.2536647931e+01  -4.4604722035e+01  0.008801236  0.008257533  55.80 0.0003472133    1.101    0.092
       615  -8.8352      7.8715    247.2097   3.4935832674e+01  -4.2492132955e+01  0.008807589  0.007309834  17.64 0.0003624453    1.301    0.231
       616  -8.9364    123.5083     31.5129   3.1313141679e+01  -4.4136975037e+01   0.00647234  0.006237633 -10.50 -4.822356e-05    1.013    0.012
       617  -9.0038     63.3090     30.9188   3.2255360673e+01  -4.4524095371e+01  0.008760188  0.008355356  13.32 0.0005822431    1.054    0.051
       618  -9.3747     22.9629     31.5010   3.2902313432e+01  -4.4768479680e+01  0.009852517  0.006305902 -25.73 0.0005658662    1.536    0.349
       619  -8.7203     17.8034     31.6097   3.2985729440e+01  -4.4799090157e+01  0.009200933  0.005641798 -39.30 0.0004671927    1.592    0.372
       620  -8.9753    114.0891     24.4909   3.1398352493e+01  -4.4272788405e+01  0.009320641   0.00854915 -11.55 0.0007553491    1.080    0.074
       621  -8.6085    212.2857    246.3071   3.1805640407e+01  -4.1253956931e+01  0.006603137  0.004887401  23.41 0.0002598805    1.568    0.362
       622 -10.5057    114.3740     27.7521   3.1422797539e+01  -4.4235801834e+01   0.01426348  0.009898448   5.12  0.001453803    1.843    0.457
       623 -10.0239     37.5004     30.4088   3.2660904085e+01  -4.4690446994e+01   0.01744231  0.007551459 -39.76  0.001497393    2.245    0.554
       624  -9.0053     38.4795     26.5643   3.2611809070e+01  -4.4726185338e+01  0.009124718  0.005997609  48.43 0.0005633202    1.545    0.353
       625 -10.5025     76.4143     28.7799   3.2029252820e+01  -4.4465048889e+01   0.01697512   0.01179625 -57.47  0.001615593    1.697    0.411
       626  -9.6378     48.3724     28.9825   3.2475461329e+01  -4.4638377668e+01   0.01300465  0.008855775 -35.08 0.0009668732    1.411    0.291
       627  -8.8400     43.6193     28.1507   3.2543800622e+01  -4.4676999177e+01  0.009168977   0.00776353 -40.18 0.0002733941    1.169    0.144
       628 -10.1357    118.8883     24.5708   3.1323851878e+01  -4.4241301945e+01   0.01458031   0.01043283  43.06   0.00159998    1.451    0.311
       629 -10.2087     67.4361     27.8044   3.2162702323e+01  -4.4532012495e+01   0.01491051  0.008507251 -32.84 0.0009807573    1.666    0.400
       630  -9.9853     71.4310     26.4619   3.2087685279e+01  -4.4521486660e+01   0.02157138   0.01101741  37.03  0.001877749    2.431    0.589
       631 -11.2825     30.0954     24.1472   3.2724478970e+01  -4.4804470934e+01   0.02657123   0.01397045 -18.03  0.001496106    2.198    0.545
       632 -10.3255    103.3706    188.5814   3.2977189479e+01  -4.2559868719e+01   0.01474278   0.01086785  31.26  0.001313185    1.502    0.334
       633 -10.2511     89.2807     23.7190   3.1781596065e+01  -4.4438665910e+01   0.02626606   0.01330315  31.79  0.002135795    2.896    0.655
       634  -9.3858     95.7761     17.6649   3.1625685986e+01  -4.4462939272e+01   0.01604227  0.008973102  -5.82  0.001345642    2.717    0.632
       635  -8.3788     44.4983     24.4297   3.2497320079e+01  -4.4711968195e+01  0.006495624    0.0061557  -2.24 0.0001013997    1.046    0.044
       636  -9.9628     97.3736     23.2809   3.1650235426e+01  -4.4392147274e+01   0.01345966  0.008356175 -41.58  0.001158986    1.601    0.375
       637  -9.2677    114.0371    186.7450   3.2797624532e+01  -4.2514041938e+01  0.008930713  0.007975938 -15.08 0.0002193122    1.106    0.096
       638  -8.6886     39.7977     23.3597   3.2562841023e+01  -4.4752837372e+01  0.008707837  0.006059644 -14.62 0.0002234084    1.548    0.354
       639  -8.9675     60.3172     22.0076   3.2224684319e+01  -4.4639486863e+01  0.008800622  0.008272511  52.48 0.0003509254    1.094    0.086
       640  -9.5542    117.9676     20.2057   3.1299494755e+01  -4.4294222973e+01    0.0213751  0.006216781 -42.91  0.001433208    3.751    0.733
       641  -9.7088    112.1316     19.8503   3.1387872917e+01  -4.4335309173e+01   0.01033398  0.008533051 -60.12  0.001202028    1.344    0.256
       642 -10.2029     64.3487     18.9240   3.2133630492e+01  -4.4647643766e+01   0.01694426   0.01208255 -43.27  0.001215531    1.412    0.292
       643  -9.6488     43.1934     20.1112   3.2480339310e+01  -4.4767011990e+01   0.01192032  0.008875373   8.70 0.0008033226    1.596    0.373
       644 -10.0151    102.9884     17.3106   3.1508997992e+01  -4.4420941747e+01  0.009544932  0.008577787 -16.27  0.001169817    1.097    0.088
       645  -8.3392     49.3063     16.2933   3.2349543281e+01  -4.4770348327e+01   0.00662977   0.00491463  20.66 0.0005644594    1.580    0.367
       646  -9.0418    164.3027    246.3313   3.2527670407e+01  -4.1554096949e+01  0.006814498  0.004864982  24.35 0.0003701336    1.653    0.395
       647  -9.7302     23.9891     15.2992   3.2744956172e+01  -4.4938563607e+01  0.008931127  0.008227654 -22.49 0.0004704845    1.051    0.049
       648 -10.0455    156.5896    245.8738   3.2640569549e+01  -4.1606951145e+01   0.01342913  0.009688371  11.38   0.00060513    1.693    0.409
       649  -9.9754    150.1936    245.0471   3.2730637913e+01  -4.1655566851e+01   0.01377575  0.008298215  39.14   0.00114183    1.840    0.457
       650  -9.5060    136.1423    245.9031   3.2951037325e+01  -4.1733011133e+01   0.01083284  0.009285529  51.82 0.0006047574    1.189    0.159
       651 -10.7151    127.3224    240.2365   3.3038586626e+01  -4.1849076201e+01   0.02287393   0.00876635  43.29  0.001492525    3.051    0.672
       652  -9.8742    130.8136    234.7878   3.2940415835e+01  -4.1886984883e+01   0.01103476  0.009549526  13.45 0.0005533232    1.225    0.184
       653  -9.7743    134.1179    242.1383   3.2950785669e+01  -4.1786513256e+01  0.009838301  0.009370578  -6.32 0.0004412762    1.031    0.030
       654  -9.3788    131.2725    239.6849   3.2973861398e+01  -4.1830781084e+01  0.009652534   0.00828683 -22.27 0.0002740081    1.136    0.120
       655  -9.7609    119.4647    246.0488   3.3206196995e+01  -4.1833891956e+01   0.01149841  0.008886074  -3.99 0.0003903703    1.422    0.297
       656 -10.8768    104.6573    245.3754   3.3426864463e+01  -4.1931768427e+01   0.01215034   0.01093641  17.83 0.0002173095    1.149    0.129
