#   1 NUMBER                 Running object number                                     
#   2 MAG_AUTO               Kron-like elliptical aperture magnitude                    [mag]
#   3 X_IMAGE                Object position along x                                    [pixel]
#   4 Y_IMAGE                Object position along y                                    [pixel]
#   5 X_WORLD                Barycenter position along world x axis                     [deg]
#   6 Y_WORLD                Barycenter position along world y axis                     [deg]
#   7 A_WORLD                Profile RMS along major axis (world units)                 [deg]
#   8 B_WORLD                Profile RMS along minor axis (world units)                 [deg]
#   9 THETA_WORLD            Position angle (CCW/world-x)                               [deg]
#  10 FWHM_WORLD             FWHM assuming a gaussian core                              [deg]
#  11 ELONGATION             A_IMAGE/B_IMAGE                                           
#  12 ELLIPTICITY            1 - B_IMAGE/A_IMAGE                                       
         1 -12.3045    233.9308      7.7788   3.1237791690e+01   2.7026661947e+01     1.093941    0.8301244 -20.60  0.007267507    1.715    0.417
         2 -10.4408    241.5250      2.5694   2.9668880227e+01   2.6037662914e+01    0.6334148    0.2313089 -57.94  0.003031238    2.611    0.617
         3 -13.7131    238.0125     76.1605   4.5546431910e+01   1.7326791466e+01     2.101575     1.360308 -13.66   0.01016566    2.314    0.568
         4 -11.3036    238.4556     16.9392   3.2771171284e+01   2.5112760526e+01    0.7802846    0.2773268 -48.06  0.003717703    2.365    0.577
         5 -12.4164    248.9063     22.4527   3.3076727240e+01   2.2404724652e+01     1.395424    0.5102137 -34.61  0.006707503    2.496    0.599
         6 -10.5561    250.1007      7.8160   3.0126075688e+01   2.3808200020e+01     0.294191    0.2088635 -44.27  0.001235499    1.300    0.231
         7 -12.1130    239.8390     31.4773   3.5670399068e+01   2.3126569518e+01    0.7356009    0.6535641 -66.69  0.002687189    1.109    0.098
         8 -11.1449     16.0085     16.9198   8.5012309873e+01   7.0262895432e+01    0.3514867    0.1608432 -48.49  0.001794219    2.521    0.603
         9 -10.9655     26.0621     10.3588   7.6680972009e+01   7.0120678781e+01    0.4612527    0.4153935  65.13  0.001545923    2.307    0.566
        10 -11.5260     15.3737      9.0968   8.1673083553e+01   7.1474220919e+01     0.930307    0.4121151   2.26  0.003827744    3.957    0.747
        11 -10.6677    134.1264     17.1388   4.5330524976e+01   4.8763084271e+01    0.4182319     0.310173   9.75  0.002347389    1.611    0.379
        12 -10.8648     87.8489     16.3645   5.5595246641e+01   5.9138369833e+01    0.3803718    0.3189323 -49.17  0.002340819    1.570    0.363
        13  -9.2490     91.3887     12.7630   5.3170096697e+01   5.8764346983e+01     0.248273    0.1773087  23.41  0.001442345    1.341    0.254
        14 -12.4635    113.1211     12.5315   4.7888692861e+01   5.4045288061e+01    0.3341675    0.2548768 -15.03 0.0003263939    1.445    0.308
        15 -10.0054    112.8802      5.1936   4.5304136376e+01   5.4737377836e+01    0.3944148    0.2544298  52.92  0.001936896    1.304    0.233
        16 -10.6907    204.6169     12.3696   3.4687618724e+01   3.2805225698e+01    0.3261002    0.1902861 -64.21 0.0009210974    1.719    0.418
        17 -11.1878    101.3815     13.7037   5.0995073664e+01   5.6539090874e+01    0.2687153    0.2308099  37.51 0.0002802958    1.006    0.006
        18  -9.3397    100.2874      9.7138   4.9732013282e+01   5.7146258873e+01    0.1811141    0.1525296  73.51 0.0001980674    1.362    0.266
        19 -10.1300     66.5649     13.4357   6.1026431864e+01   6.3572868762e+01    0.3213354     0.210825 -14.21  0.001479201    1.518    0.341
        20  -9.7065     41.7531     12.3800   7.0264556818e+01   6.7774778414e+01    0.4384294    0.2013506 -14.04  0.001737467    2.960    0.662
        21 -10.8724    141.0946     12.7457   4.2732311122e+01   4.7545237421e+01    0.3025448    0.2383916  12.85 0.0006050973    1.493    0.330
        22  -9.8218     60.5690     12.4916   6.2736608142e+01   6.4742995977e+01    0.2784562    0.2245358   7.11  0.001332482    1.064    0.061
        23 -11.5863      6.4052      7.4574   8.5928235426e+01   7.2541859259e+01    0.6156487     0.201081 -41.69  0.003042711    2.576    0.612
        24  -9.7721    209.2362      9.9828   3.3712463422e+01   3.2031849499e+01    0.1926134    0.1600484  72.83 0.0002029651    1.200    0.167
        25 -10.5275    223.6099      6.2015   3.1685280091e+01   2.9329560493e+01    0.3445753    0.2185515 -64.25 0.0002474892    1.406    0.289
        26  -8.7992    217.7917      3.1999   3.1494849840e+01   3.0863488026e+01    0.1483843    0.1318206  60.41 0.0006715269    1.343    0.255
        27 -11.4325     65.6105      6.0265   5.8002427509e+01   6.4496884864e+01    0.4266767    0.2538564  33.72  0.001294634    1.436    0.303
        28 -10.5296     32.5970      6.3981   7.1492268487e+01   6.9784354470e+01    0.2444674    0.2018232   5.72  0.000656714    1.194    0.163
        29  -8.6200    148.4984      7.4862   3.9986764320e+01   4.6274555354e+01    0.1279348    0.1124287  69.44 0.0003089547    1.008    0.008
        30  -9.8677     94.9411      5.4665   4.9362056934e+01   5.8667355235e+01     0.376602    0.2184507  67.64  0.001931748    1.922    0.480
        31 -11.0153    186.3943      3.8119   3.4413106175e+01   3.7756267651e+01    0.3023299    0.2144107 -30.03  0.001019222    1.566    0.361
        32  -9.2553    138.6602      6.0426   4.1024997721e+01   4.8714148003e+01    0.1624546    0.1531071  20.58  0.000360074    1.173    0.147
        33  -9.7037     73.7839      5.0210   5.4934792017e+01   6.3039245164e+01    0.2783972     0.203298 -44.52  0.001658209    1.898    0.473
        34  -9.3876     77.9944      2.7422   5.2696300020e+01   6.2405395223e+01    0.1933917    0.1597689   7.73 0.0003778284    1.170    0.145
        35  -9.4383     14.9994      2.9666   7.8768640232e+01   7.2340861126e+01    0.1776213    0.1293352  -6.58 0.0007213962    1.006    0.006
        36  -9.2870    248.3459      1.9026   2.9105267783e+01   2.4768174879e+01    0.1957723    0.1161428 -65.78  0.000645341    1.421    0.296
        37  -9.3519    237.2983    169.4738   6.5930650653e+01   1.9179359073e+00    0.2278791    0.1496274 -49.74  0.001170511    1.834    0.455
        38  -8.9932    234.2955    164.3297   6.5394232297e+01   3.2636016291e+00    0.2639743    0.1464552 -52.58   0.00115437    2.484    0.597
        39  -9.8316    213.5655    163.7078   6.9035587023e+01   6.8762465432e+00    0.2762398    0.1249363 -35.22  0.001133812    2.077    0.519
        40 -10.4414    246.1038    158.2533   6.2147542857e+01   2.3856530713e+00    0.2932095    0.2410505 -20.01   0.00115968    1.024    0.024
        41  -8.8651    250.6689    158.4614   6.1452911176e+01   1.6374806293e+00    0.2324552    0.1034197 -36.40   0.00106076    1.890    0.471
        42  -9.3863    226.3006    156.9674   6.5257136342e+01   5.8693140780e+00    0.2078235    0.1615974 -27.60 0.0006217028    1.121    0.108
        43  -8.8361    146.5388    157.5054   8.2203441481e+01   2.0687000989e+01    0.1510045    0.1461611 -13.75 0.0002945823    1.017    0.017
        44 -10.4457    250.0644    151.1836   6.0053172542e+01   2.9213896253e+00    0.4444807    0.2904009 -33.40  0.002269491    1.275    0.216
        45  -9.8320    242.5924    153.7846   6.1796291120e+01   3.6912142135e+00     0.241566    0.2093173 -27.57  0.001011121    1.095    0.086
        46 -11.4604    244.1043    148.6837   6.0482803993e+01   4.2983724268e+00    0.6550604    0.2913937 -30.50  0.002812782    2.164    0.538
        47  -9.7680    222.1016    153.2712   6.5218992882e+01   7.2529260827e+00    0.2622547    0.1743319 -58.06  0.001227115    2.088    0.521
        48  -8.9807    233.2849    153.0208   6.3197680413e+01   5.3655933111e+00    0.2041339    0.1544894 -29.67  0.001144954    1.137    0.120
        49  -8.6270     39.6943    152.6540   1.0974170169e+02   3.8334378173e+01    0.1397949   0.09073793 -42.45 0.0007042174    1.695    0.410
        50 -10.2723    235.6208    148.3432   6.1806643920e+01   5.7742575788e+00    0.2757671      0.19102 -70.46  0.001254954    2.700    0.630
        51  -9.4423    229.4924    147.5107   6.2671231439e+01   6.9748858974e+00      0.13995    0.1199561 -23.60  4.80783e-05    1.003    0.003
        52 -10.3965    224.3572    146.0902   6.3259000579e+01   8.1323775867e+00      0.33005    0.2234062 -38.03  0.001480904    1.320    0.242
        53 -10.0868    230.4345    140.7983   6.1055111412e+01   7.9840128045e+00    0.2809691    0.1793043 -52.54  0.001362137    1.810    0.448
        54  -9.5357    250.2065    140.1268   5.7728934912e+01   4.7198974563e+00    0.2033086    0.1591901 -19.11 0.0009731485    1.188    0.159
        55  -9.7812    224.9516    140.2750   6.1880481105e+01   9.0598832514e+00    0.1965246    0.1740989 -22.13 0.0007908166    1.026    0.025
        56  -9.1697    199.6344    139.4373   6.6369891877e+01   1.3996068101e+01    0.2926655    0.1169017 -51.06 0.0009412761    3.320    0.699
        57  -9.4813    218.8105    138.5933   6.2588550694e+01   1.0489459224e+01    0.1836673    0.1389411  59.08 0.0008492786    1.689    0.408
        58  -8.8107    209.4957    138.4744   6.4262154603e+01   1.2269104704e+01    0.1456473    0.1305711 -24.69 0.0001963796    1.002    0.002
        59 -10.9856    242.4091    133.4396   5.7514815261e+01   7.1507441447e+00    0.4897159    0.2910559 -26.52  0.002211682    1.649    0.394
        60 -10.3472    248.8496    135.3134   5.6922681702e+01   5.7414914176e+00    0.3862664    0.1975621 -39.37  0.001169978    1.646    0.392
        61 -10.0967    248.7835    130.7785   5.5972182871e+01   6.5047710690e+00    0.2558487    0.2398224  65.98  0.001312334    1.350    0.259
        62 -10.1983    233.8048    134.5534   5.9131561275e+01   8.4715023716e+00    0.2733711     0.198518 -15.64  0.001075474    1.469    0.319
        63  -8.4203     13.6586    133.2807   1.1446050765e+02   4.5370639116e+01    0.1271078   0.08629803  67.44 0.0004030685    1.628    0.386
        64  -8.8056     65.4701    132.0432   9.8999690176e+01   4.0474226105e+01    0.2140392     0.132392 -60.63 0.0003436982    1.490    0.329
        65  -8.6507    234.2555    129.9587   5.8052177010e+01   9.1852645828e+00    0.1833309     0.104225 -38.12 0.0007636916    1.519    0.342
        66  -9.1550    221.7947    129.5992   6.0046811681e+01   1.1549046850e+01    0.1840547    0.1385464  62.00 0.0009503252    1.701    0.412
        67  -8.6607     86.6431    129.3255   9.2116140353e+01   3.8075431746e+01    0.1552629    0.1166173  74.94 0.0007044981    1.775    0.436
        68  -9.0723    193.6656    128.3186   6.4949213720e+01   1.7331171235e+01    0.1487019    0.1183836 -75.29 0.0007048784    1.698    0.411
        69 -10.9539    241.2619    124.6799   5.5799576132e+01   8.8315123621e+00    0.3801737     0.245931 -48.28  0.001858001    1.509    0.337
        70  -9.4424    228.1509    125.0968   5.7967200258e+01   1.1151410108e+01    0.2694213    0.1761292 -40.74  0.001368375    1.354    0.261
        71  -9.1936    206.4945    126.4976   6.2062711482e+01   1.5086287572e+01    0.1465987    0.1329941 -30.45 -4.046197e-05    1.010    0.010
        72  -9.0680    213.2880    123.3930   6.0111618596e+01   1.4310817614e+01    0.2587985    0.1617887 -53.36  0.001142011    1.792    0.442
        73  -8.9558    188.6765    123.5366   6.4798178967e+01   1.9288695665e+01    0.2796943    0.1315379 -40.38  0.001082822    1.991    0.498
        74  -9.8807     69.1957    122.9227   9.6010190490e+01   4.2231061873e+01    0.2186217    0.2091246  21.89 0.0003674833    1.136    0.120
        75 -10.4212    235.7400    116.8774   5.4931577813e+01   1.1156166039e+01    0.2833242    0.1985511 -47.66  0.001018351    1.349    0.259
        76 -10.9009    231.2369    116.6117   5.5570260986e+01   1.2043843038e+01    0.3640671    0.2607822  58.45  0.001625818    1.687    0.407
        77 -12.8113    246.8683    106.0400   5.0938366196e+01   1.0914241691e+01     1.425899    0.5934057 -38.48  0.006257605    2.009    0.502
        78  -9.1182    233.2884    247.1549   8.0956044819e+01  -9.1220832031e+00    0.1981392    0.1475713  45.70  0.001246841    2.132    0.531
        79  -9.2885    224.9682    242.6947   8.1730482776e+01  -7.4774811700e+00     0.198647    0.1484262 -38.29  0.001292913    1.678    0.404
        80 -12.3873    246.8382     82.0648   4.5750897214e+01   1.4712729394e+01     1.445516    0.5581951 -39.06  0.006299502    2.152    0.535
        81  -9.8526    246.9079    240.3482   7.7435722537e+01  -9.9234073858e+00    0.2426685    0.1751938 -36.04   0.00161902    1.705    0.414
        82  -9.4439    240.0955    240.1975   7.8601204312e+01  -9.0708415763e+00    0.1959915    0.1609063 -22.50  0.001118308    1.403    0.287
        83 -10.5871    243.8503     58.2405   4.0959643454e+01   1.8797284216e+01    0.3262769    0.2320352 -75.54  0.001216644    1.477    0.323
        84 -12.0267    243.4740     51.4579   3.9549189271e+01   1.9810095572e+01    0.7361762    0.6383014  45.38  0.004831379    1.474    0.322
        85 -10.6567    249.8284     41.4049   3.6835610711e+01   1.9895575883e+01    0.5523481    0.2533507 -30.07  0.002674477    2.354    0.575
        86 -11.8518    244.3978     41.6987   3.7396510871e+01   2.0923989631e+01    0.8198021    0.5848066  32.98  0.004690388    2.230    0.551
        87  -9.2794    230.8371    236.5863   7.9648956931e+01  -7.4162055205e+00    0.2104398     0.149938 -42.31  0.001302719    1.855    0.461
        88  -9.2417    205.0132    235.5043   8.4285016448e+01  -3.7542900815e+00    0.2370392    0.1599024 -55.09  0.001276059    2.443    0.591
        89  -8.7068    219.6839    115.2955   5.7138694960e+01   1.4502456953e+01    0.1390535    0.1069221 -67.06 0.0004335125    1.605    0.377
        90  -8.4456     52.4748    113.5360   9.9330824729e+01   4.6664482479e+01    0.1408224    0.1261065 -55.60 0.0008087786    1.036    0.035
        91  -9.1136    104.9832    111.6899   8.2427912038e+01   3.9125430999e+01    0.2151686    0.1936409  30.53  0.000587597    1.150    0.130
        92  -9.2463     25.9528    111.9698   1.0765674125e+02   4.9662040255e+01    0.1924103    0.1634871 -63.68  0.001189477    1.042    0.040
        93  -8.8330     15.4379    112.2085   1.1106538809e+02   5.0387277874e+01    0.1753687    0.1090543 -80.62 0.0005632926    1.572    0.364
        94 -10.9374    242.7245     92.1532   4.8470384852e+01   1.3918691032e+01     0.437845    0.2775877 -47.03   0.00155535    1.391    0.281
        95  -8.5510    211.3811    105.1783   5.6156811772e+01   1.7968097595e+01    0.2055608    0.1207456 -46.46 0.0007569481    1.619    0.383
        96  -8.7424    230.6111    102.7503   5.2538566229e+01   1.4519832733e+01    0.2014432    0.1122722 -44.90 0.0008480907    1.613    0.380
        97  -9.5517    119.9736    103.0173   7.5791331120e+01   3.8149796273e+01    0.2303675    0.2246623 -35.73            0    1.060    0.056
        98 -11.8631    235.3974     59.7722   4.2226712494e+01   2.0272938478e+01    0.8851976    0.2522752 -40.65  0.002663574    2.838    0.648
        99  -8.5257    164.9936     95.0106   6.2429847005e+01   2.9974181906e+01    0.1863551    0.1693399 -36.52 0.0004278813    1.069    0.064
       100  -9.0877     72.4957     95.5270   8.8369532724e+01   4.8290639140e+01    0.1467578    0.1322211 -31.29 2.074433e-05    1.007    0.007
       101 -10.2330    225.1788     93.0949   5.1133319855e+01   1.7208784000e+01     0.206165    0.1796113 -21.05 0.0005286409    1.215    0.177
       102  -9.1149    197.4122     92.1651   5.5373643686e+01   2.3234660216e+01    0.2167267    0.1244958 -47.46 0.0009484253    1.710    0.415
       103  -8.9819     19.9441     91.4654   1.0594519758e+02   5.5032255539e+01    0.2392078    0.1286395 -43.61  0.001222919    1.605    0.377
       104 -10.7075    237.0196     90.1204   4.8783051230e+01   1.5340147546e+01    0.2670071     0.234069  87.57  0.001152621    1.280    0.218
       105  -8.8309    249.0762    234.1032   7.6004659246e+01  -9.3832214444e+00    0.1511934    0.1414992 -20.25  0.001030805    1.691    0.409
       106  -8.6887     99.3110     90.3490   7.8228273785e+01   4.4909896751e+01     0.158662    0.1146571 -10.15 0.0007045374    1.715    0.417
       107  -8.4922     38.3164     89.9778   9.8975925031e+01   5.3814952612e+01      0.18526    0.1474654 -46.17 0.0002679147    1.062    0.058
       108 -12.1831    228.7157     84.6039   4.8672394076e+01   1.7872710481e+01     0.731706    0.4737175  29.22  0.003083096    2.364    0.577
       109  -9.7623    188.9649     88.0820   5.5839238615e+01   2.5820673293e+01    0.2087277    0.1980792 -56.85  0.001179297    1.034    0.033
       110 -10.9978    195.5413     82.1950   5.3177153271e+01   2.5356983911e+01    0.3217085    0.2590414  53.33 0.0002287451    1.307    0.235
       111 -10.0488    188.9293     82.0510   5.4285113920e+01   2.6867099801e+01    0.2822903     0.203546  48.29  0.000356555    1.460    0.315
       112  -9.1091    195.4946     77.4953   5.1988157364e+01   2.6147457451e+01    0.2633195    0.1163481 -45.98 0.0009506543    2.234    0.552
       113  -8.3610    135.4438     83.5011   6.6054434838e+01   3.8818107659e+01    0.1499165    0.1463505 -16.64 0.0008078421    1.026    0.026
       114  -9.5909     87.8584     82.0595   7.9377428078e+01   4.8733584712e+01    0.2886091    0.2540182 -74.02  0.001108312    1.449    0.310
       115 -10.3643    214.9039     80.8032   4.9761802199e+01   2.1355349508e+01    0.2831868     0.159741 -57.60  0.001249655    2.059    0.514
       116  -9.3608    175.1379     78.5436   5.5889761601e+01   3.0617897299e+01    0.2704718     0.205329 -36.94 0.0007292824    1.290    0.225
       117  -8.4724     48.7231     79.6500   9.2482241465e+01   5.5030087301e+01     0.146157   0.09053425 -29.35 0.0006395063    1.639    0.390
       118  -9.9548    199.6631     77.0054   5.1183376834e+01   2.5294864264e+01    0.2237659    0.1992962  64.91  0.001277709    1.174    0.148
       119 -10.4325    128.7476     71.1363   6.3997813554e+01   4.2573181165e+01    0.2846557    0.2467087 -11.34  0.000346907    1.199    0.166
       120 -10.4586    114.3404     70.5017   6.7652810796e+01   4.5820416459e+01    0.4215395    0.3323044  82.43  0.001688207    1.841    0.457
       121  -9.7906     28.7170     71.3992   9.8003281914e+01   5.8891761202e+01     0.239938     0.190392 -68.68  0.001099013    1.442    0.307
       122 -10.4057    203.8189     69.3876   4.8631907380e+01   2.5580603263e+01    0.3230673    0.1972188 -23.66 0.0009780882    1.951    0.487
       123  -8.7415    161.4625     71.5060   5.6629588713e+01   3.4987337315e+01    0.1438547    0.1428755 -58.96 8.088776e-05    1.003    0.003
       124  -8.9502     59.4210     70.7442   8.5832806039e+01   5.5562316860e+01    0.2664939    0.1278113 -51.54 0.0009268543    2.094    0.522
       125  -8.9292     37.2119     71.1740   9.4555428978e+01   5.8136973677e+01    0.1585787     0.153435 -67.92 0.0003893536    1.292    0.226
       126  -8.8309    211.9318     70.0148   4.7598894669e+01   2.3698647765e+01    0.2021145    0.1648777  12.49 0.0004702367    1.646    0.392
       127  -8.3874     71.3158     70.7162   8.1468772061e+01   5.3809473553e+01    0.1286431    0.1148788  80.51 0.0003275854    1.581    0.367
       128 -10.3162    227.6989     66.5852   4.4681424911e+01   2.0862966449e+01    0.3809066    0.2315058 -34.68  0.001485969    1.558    0.358
       129 -11.7225    222.8932     63.2791   4.4527443020e+01   2.2359763920e+01    0.7707171    0.3156351 -36.02  0.003289351    2.234    0.552
       130  -8.6222    192.2092     69.5837   5.0496480263e+01   2.8165154063e+01    0.1966084    0.1280087  47.07 0.0009413073    1.656    0.396
       131 -10.1676    138.7152     68.6199   6.0771438330e+01   4.0755314605e+01    0.3417832    0.2538407  40.95  0.001684381    1.345    0.257
       132 -10.0887     94.9191     66.4944   7.2118956142e+01   5.0482188385e+01    0.3323096    0.2076772 -26.97  0.001335285    1.697    0.411
       133  -9.0539    173.1174     66.5622   5.2987250105e+01   3.3062887798e+01    0.2195564    0.1848412 -38.52 0.0004969144    1.179    0.152
       134  -9.0410    168.8629     67.2009   5.3957879672e+01   3.3958250223e+01    0.2229943    0.1936657 -71.51 0.0008290575    1.234    0.190
       135 -10.2188    148.9286     67.0075   5.7962169267e+01   3.8663070929e+01    0.3416882    0.2046905  51.54 0.0004706922    1.637    0.389
       136  -9.5748    144.7555     64.5695   5.8150420610e+01   4.0034662501e+01    0.2827593    0.2316226 -71.35  0.001030542    1.472    0.321
       137  -9.5072     28.8698     65.9270   9.6449927419e+01   6.0055191823e+01    0.1886856    0.1589744 -35.96 0.0003950304    1.053    0.050
       138  -9.5643     15.2006     66.0697   1.0213479980e+02   6.1095530991e+01    0.2103535    0.1558481 -21.44 0.0003818551    1.294    0.227
       139 -10.1457    208.4764     64.4002   4.6725118852e+01   2.5311083948e+01    0.2720816     0.203197 -44.27  0.001494744    1.240    0.193
       140 -10.8271    100.9682     62.9226   6.9051553011e+01   4.9933543351e+01    0.4102712     0.339521  74.48  0.001083925    1.664    0.399
       141  -8.4378     67.0000     64.9508   8.1143435919e+01   5.5618132442e+01    0.2165807   0.07382169 -45.21 0.0004481994    2.768    0.639
       142  -8.5721     49.8073     65.3904   8.7837367516e+01   5.7923402524e+01    0.1873021    0.1211575   9.61 0.0009471494    1.740    0.425
       143 -10.4913    134.9589     59.7959   5.8918231130e+01   4.3069937130e+01    0.6133842    0.2828582 -52.86  0.002103119    3.320    0.699
       144  -9.2417     81.5662     62.0342   7.4986867549e+01   5.3764381647e+01    0.2556608    0.1810076  11.46  0.001269153    1.584    0.369
       145 -10.5765     39.5509     60.2863   9.0351369165e+01   6.0160219930e+01    0.2839602     0.246479  39.16 0.0005548436    1.474    0.322
       146 -10.2673     34.8726     59.6869   9.2108387023e+01   6.0776846328e+01    0.2564132    0.1959435 -21.24 0.0004891607    1.164    0.141
       147  -8.9004    183.5178     61.1656   4.9710546589e+01   3.1470146888e+01     0.376204    0.1254293  47.30  0.001260138    3.387    0.705
       148  -9.5189    174.5208     56.6500   5.0000902302e+01   3.4252793752e+01    0.5997818    0.2918352 -34.71  0.002554078    2.049    0.512
       149  -9.0980     92.9971     59.2530   7.0263564151e+01   5.2145126120e+01    0.1952395    0.1770255  16.22 0.0003364916    1.053    0.050
       150  -9.8011     25.1473     58.8456   9.5973849213e+01   6.1861802765e+01    0.2209584    0.2098972 -23.16  0.001522397    1.248    0.199
       151  -8.6917    106.5227     58.4533   6.5896807906e+01   4.9559323540e+01    0.1448998    0.1325316  11.49 0.0002047377    1.019    0.018
       152 -10.2140    192.5797     56.1228   4.6959806461e+01   3.0120506674e+01    0.3112933    0.1994483 -59.02 0.0007725185    1.705    0.414
       153  -8.6325     89.8154     57.1362   7.0542856765e+01   5.3119963810e+01    0.1897668    0.1511912   9.25 0.0002465511    1.268    0.211
       154  -9.7169     63.8398     56.2849   7.9346939948e+01   5.7740009346e+01    0.3182546    0.2564563  83.89  0.001290386    2.286    0.563
       155  -9.5447     20.0440     57.0403   9.7647889010e+01   6.2650681642e+01    0.1927866    0.1531339 -38.36 0.0005245517    1.045    0.043
       156  -9.6242    250.3042     54.7631   3.9556996811e+01   1.8022443773e+01    0.2744955    0.1435755 -41.98    0.0014558    1.594    0.373
       157  -8.8527    120.0349     56.5166   6.1546043215e+01   4.6963312317e+01    0.2152341    0.1381645  49.99 0.0004175688    1.521    0.343
       158  -9.9244    112.2854     54.3332   6.2876895333e+01   4.9003948495e+01    0.3802199     0.332716 -66.71  0.002048068    1.434    0.303
       159  -9.4634    221.4779     53.9926   4.2550755958e+01   2.3995869816e+01    0.2875794    0.1290947 -27.76  0.001019898    2.616    0.618
       160  -9.8683    207.4899     48.4600   4.2974268505e+01   2.7819895280e+01    0.2543023     0.205257 -60.73 0.0006116063    1.160    0.138
       161 -10.3591    208.0781     54.9868   4.4484115703e+01   2.6777785091e+01    0.2922253    0.2272339  73.50  0.001066957    1.308    0.236
       162 -10.5379    205.0234     51.5869   4.4059250765e+01   2.7939193058e+01    0.2426779    0.2187629 -51.21 0.0001368344    1.075    0.070
       163  -8.7979     28.5051     54.4278   9.3173189903e+01   6.2456187614e+01    0.2446575    0.0829686 -42.97  0.001023459    2.396    0.583
       164  -9.3486    142.6170     54.0407   5.5391845411e+01   4.2179604409e+01    0.2257238    0.1870491  30.77 0.0003933007    1.258    0.205
       165  -9.9136    124.9887     53.9962   5.9458418637e+01   4.6249046600e+01    0.2155164    0.2027528  20.85 0.0003186852    1.016    0.016
       166  -8.9948    153.0111     52.7157   5.2838056062e+01   3.9924827952e+01    0.1974898    0.1821816  59.46 0.0006191158    1.052    0.049
       167  -9.4054      9.7955     52.7485   1.0095458003e+02   6.4248762969e+01    0.1992698    0.1873569 -56.49  0.001436863    1.323    0.244
       168 -11.1340    226.9320     33.3602   3.7282605078e+01   2.5559796588e+01    0.4668263    0.2289609 -50.75   0.00235487    1.863    0.463
       169 -11.4348    228.8559     50.1696   4.0824873715e+01   2.2964686119e+01    0.5119727    0.3814178 -67.93  0.003058013    1.287    0.223
       170 -11.0480    233.2641     45.2635   3.9261587323e+01   2.2709781397e+01     0.356567    0.1842676 -37.30  0.001193699    1.756    0.431
       171  -9.2808    186.0137     51.5279   4.6754030458e+01   3.2297851666e+01     0.212466    0.1319034  63.95  0.000893232    1.600    0.375
       172  -9.8345    120.2818     50.6184   5.9515991520e+01   4.7818501044e+01     0.240348      0.21683  17.22  0.000308118    1.079    0.073
       173  -9.6473     84.7557     50.9972   7.0003011348e+01   5.5103104300e+01    0.2426098    0.1761804  28.74 0.0008566811    1.332    0.249
       174  -9.5127     80.2799     49.8330   7.1082838382e+01   5.6116348031e+01    0.3872524    0.1761064  33.70  0.001594527    2.334    0.571
       175  -9.5067     73.2065     49.6000   7.3471164416e+01   5.7399128116e+01    0.3376861    0.2156293 -14.14  0.001641457    1.786    0.440
       176 -10.8598    192.6948     48.8582   4.5071728413e+01   3.1122010314e+01    0.3139387    0.2492354  72.84 0.0008679781    1.244    0.196
       177  -9.3333    159.5600     49.7081   5.0695636333e+01   3.8801955949e+01    0.2357379    0.1655017  85.73 0.0007423235    1.752    0.429
       178  -9.6743    213.9210     46.8736   4.1796058445e+01   2.6613260300e+01    0.3874035    0.1912342 -69.29  0.001527458    3.103    0.678
       179  -8.9545     55.1279     46.5500   7.9188495676e+01   6.0768343028e+01    0.2244393    0.1398109 -32.72 0.0006088584    1.468    0.319
       180  -8.9085     20.2123     47.2162   9.4559745545e+01   6.4602941580e+01    0.1467781    0.1382899 -26.16  0.000350756    1.299    0.230
       181  -9.1718    163.6158     45.7827   4.8827880620e+01   3.8381304748e+01    0.1961995    0.1226693 -43.90 0.0004475117    1.644    0.392
       182  -9.6352    154.2923     42.5251   4.9544986288e+01   4.1039837976e+01    0.4357859    0.2228691 -64.33  0.001501703    3.761    0.734
       183  -9.4272    134.5143     43.5079   5.3818784179e+01   4.5579185956e+01    0.5172503    0.1884542 -48.95  0.001280334    4.473    0.776
       184  -9.6223    189.6027     43.7720   4.4197018778e+01   3.2525641009e+01    0.1944019    0.1149497 -44.65 0.0009498654    1.645    0.392
       185  -9.9350     96.7626     43.2329   6.3379185441e+01   5.3956588833e+01     0.265808    0.1992541  15.91 0.0007692343    1.383    0.277
       186  -9.2925    223.0264     40.9968   3.9395266821e+01   2.5420413461e+01    0.3321915    0.1978602 -38.88  0.001796192    1.553    0.356
       187 -10.5851     32.1787     43.9748   8.8007686293e+01   6.4093393259e+01    0.5098374    0.2065736  28.93  0.001778004    2.583    0.613
       188 -10.8417    217.6200     41.5024   4.0107503885e+01   2.6518891242e+01    0.4502091    0.2315497 -63.08  0.002058042    2.287    0.563
       189 -10.8570    212.1318     37.1972   3.9721914666e+01   2.8273338050e+01    0.5163938    0.2408181  49.79  0.002335417    2.515    0.602
       190 -10.3966    211.8359     31.7653   3.8480219619e+01   2.9013900295e+01    0.3408167    0.2432083  80.56   0.00132167    1.358    0.263
       191  -8.2021    147.6570     42.0288   5.0648901136e+01   4.2683253221e+01    0.2205025    0.1174575  -0.96 0.0007047449    4.357    0.771
       192  -8.3256    130.3058     42.3555   5.4374294914e+01   4.6712951736e+01    0.1480683    0.1030138  21.99 0.0007041169    1.718    0.418
       193  -9.9540      1.9230     40.4500   1.0107510251e+02   6.7159170501e+01    0.3138318    0.1919787 -77.75   0.00158646    2.618    0.618
       194  -8.8128     92.7444     40.9891   6.3758163595e+01   5.5096138454e+01    0.1832174    0.1665817  -4.40 0.0003927637    1.087    0.080
       195  -8.5994    172.4778     40.4829   4.5861238316e+01   3.6978315236e+01    0.1346031    0.1274717  73.40 7.156809e-05    1.036    0.035
       196  -8.6030    106.6034     39.7711   5.9328672211e+01   5.2377676709e+01    0.1769248    0.1282397 -38.21 0.0003784356    1.500    0.333
       197  -8.6436     19.9720     40.2305   9.2311753958e+01   6.5949162317e+01    0.1465489   0.09402768  15.02 0.0007389954    1.615    0.381
       198  -9.7265    185.3739     37.7828   4.3226371410e+01   3.4287145873e+01     0.374215    0.1445891 -37.14  0.001545259    2.453    0.592
       199  -9.1991    119.5908     38.9507   5.5722314416e+01   4.9618758451e+01    0.2040994    0.1710642  47.69 0.0001570631    1.118    0.106
       200  -9.4223     61.2195     38.1937   7.3543034065e+01   6.1220514347e+01    0.2716207    0.2021654 -38.29   0.00108895    1.448    0.309
       201  -9.8770     51.7625     37.5408   7.7058537282e+01   6.2756896996e+01     0.236151    0.1955544 -12.84 0.0004761357    1.059    0.055
       202 -10.6172    124.3612     35.4256   5.3404034819e+01   4.8987158864e+01     0.392321    0.2315216 -34.36  0.001745156    1.788    0.441
       203  -9.6939    113.0985     36.1966   5.6360122494e+01   5.1432144582e+01    0.3448245    0.1968227  43.16  0.001162028    1.629    0.386
       204  -9.9938    192.1883     36.2788   4.1919912836e+01   3.2894395112e+01    0.3479687    0.1599445  79.08  0.001393127    2.779    0.640
       205  -8.7837     92.4778     35.5268   6.1778961875e+01   5.5910823844e+01    0.1361364    0.1208664  18.81 0.0008095992    1.017    0.017
       206  -9.0705     33.2783     33.9777   8.3704251639e+01   6.5727753536e+01    0.1807912    0.1359956 -25.84 0.0006843893    1.122    0.109
       207  -9.6863      4.9266     33.2632   9.7284756772e+01   6.8350150610e+01    0.2402178    0.1597601 -65.86  0.001444658    1.969    0.492
       208  -9.4670    134.0882     32.3790   5.0297882671e+01   4.7105079878e+01    0.2319347    0.1939027 -37.61 0.0003486646    1.291    0.225
       209  -9.0740     39.6498     32.9171   8.0380021134e+01   6.5137113708e+01    0.1796283    0.1393124 -22.51  0.001138027    1.121    0.108
       210  -8.8755     24.0000     31.8649   8.7255853159e+01   6.7069957495e+01    0.1978782   0.05951354 -46.83 0.0002269041    2.973    0.664
       211  -9.8686     20.4899     31.8598   8.8968598284e+01   6.7404553324e+01    0.2283649    0.1425339   0.30 0.0003059362    1.586    0.370
       212  -9.8814     68.7632     30.0660   6.7408406945e+01   6.1146829898e+01    0.3600027    0.2978981  71.16  0.002065099    1.961    0.490
       213 -10.4039     14.8102     30.2184   9.1167930480e+01   6.8184596649e+01    0.3569898    0.1737824   7.67 0.0009263474    2.308    0.567
       214 -10.9065      8.4884     26.3520   9.2941333956e+01   6.9349071131e+01    0.2963088    0.2625625  18.72  0.001436622    1.501    0.334
       215 -10.6092    224.7946     26.7951   3.6040591794e+01   2.6807617447e+01     0.365598    0.2936123  37.56 0.0002654089    1.692    0.409
       216 -10.2152    224.1959     22.4013   3.5130856860e+01   2.7447654456e+01    0.3546405    0.2161476  81.60  0.001950446    1.602    0.376
       217  -8.8804    166.8979     28.3897   4.3337297119e+01   3.9783642252e+01    0.2246409    0.1669875 -48.11 0.0005279314    1.393    0.282
       218  -8.9253     84.6661     28.9276   6.1600106399e+01   5.8333431562e+01    0.1826191    0.1604694  10.36 0.0004510881    1.047    0.045
       219  -9.3896    202.1971     27.2271   3.8462764966e+01   3.1706308281e+01    0.2280978    0.1540745 -10.64  0.001196599    2.105    0.525
       220  -9.8977    218.8163     26.0823   3.6456355652e+01   2.8171089725e+01     0.189089    0.1696166 -47.91 0.0004106108    1.179    0.152
       221  -8.9995    174.2763     26.0482   4.1629807540e+01   3.8302853118e+01    0.3018213    0.1206156 -44.06  0.001255619    2.566    0.610
       222  -9.1870    123.3350     26.4282   5.0568258526e+01   5.0294529388e+01       0.2561    0.1622594  -4.53 0.0007636456    2.012    0.503
       223  -9.7806     62.9166     25.7901   6.7757345414e+01   6.2730074154e+01    0.2363581    0.1710498  -0.93 0.0005044247    1.309    0.236
       224  -9.6943    192.7985     25.6815   3.9164743884e+01   3.4025195456e+01     0.195856    0.1706481 -26.49 0.0003785744    1.308    0.236
       225  -9.8400    136.9343     25.6731   4.7566850594e+01   4.7209883631e+01    0.2177437    0.1888515 -32.58 0.0003273924    1.253    0.202
       226  -8.1625    105.3012     26.3109   5.4756959187e+01   5.4356179230e+01    0.1397498   0.09247855  25.30 0.0002778962    1.606    0.377
       227  -9.1046     37.9304     25.8482   7.8168275905e+01   6.6457289118e+01    0.1968145    0.1367351  -6.49 0.0004842644    1.287    0.223
       228  -9.8897    142.4173     23.4998   4.5871559647e+01   4.6151930803e+01    0.3394601    0.2341392 -33.54  0.001844068    1.560    0.359
       229  -9.5260     78.2509     24.3317   6.1780922164e+01   6.0146821509e+01    0.2837384    0.1666336 -28.05  0.001482793    1.742    0.426
       230 -10.3184    157.7195     22.9848   4.3183021739e+01   4.2570479068e+01    0.3610296    0.1969787  58.18  0.001426622    1.637    0.389
       231  -8.3257      1.3036     24.2881   9.5987150090e+01   7.0190939064e+01    0.1203879   0.06337917 -27.35 0.0001836194    1.565    0.361
       232  -9.0293    215.2586     23.0599   3.6120229196e+01   2.9293440602e+01    0.1747602    0.1430808 -57.12  0.000449447    1.112    0.101
       233  -9.5953    199.2167     21.1679   3.7325318089e+01   3.3071058370e+01    0.2175913    0.1971882 -68.86 0.0008579902    1.074    0.069
       234  -9.2341    103.1821     20.7933   5.3234592925e+01   5.5430055742e+01      0.25621    0.1730823 -38.26  0.001162469    1.701    0.412
       235  -9.2302    244.9539    231.1487   7.6212898552e+01  -8.4854622291e+00    0.1716976    0.1432519  -6.05 0.0008423068    1.240    0.194
       236 -10.4227    237.4395    230.4912   7.7424922265e+01  -7.4414151811e+00    0.3017057    0.2393305  67.12  0.001634261    3.267    0.694
       237 -10.4944    229.0999    227.9689   7.8493104398e+01  -5.9915793374e+00    0.2364074    0.1635341 -33.50  0.001112583    1.496    0.332
       238  -9.3458    233.1679     20.4298   3.3924040903e+01   2.5797220358e+01    0.2288443    0.1813791  45.44  0.001488437    1.671    0.402
       239  -9.3959     70.9312     20.2803   6.2517063897e+01   6.2003116000e+01    0.2001984    0.1751735 -47.06 0.0007208031    1.577    0.366
       240  -9.7001    248.2307    227.3279   7.4981492732e+01  -8.3840264549e+00    0.2010436    0.1453251 -21.14 0.0009419874    1.222    0.182
       241 -10.3820    238.7694    219.8230   7.5317576459e+01  -6.1269400250e+00    0.4256355    0.2552629 -42.36  0.002383505    1.969    0.492
       242 -10.0663    227.2602    219.3259   7.7311407535e+01  -4.4890803969e+00    0.2411204    0.1330234 -23.58  0.001258958    1.761    0.432
       243  -9.2228     62.5494     18.3686   6.4657704663e+01   6.3727012331e+01    0.3341607    0.1855252   3.10  0.001574243    2.365    0.577
       244 -10.0759     50.7260     18.2563   6.9206505187e+01   6.5688987324e+01    0.3795036     0.177797  36.39  0.001497273    1.980    0.495
       245  -9.3052     45.3851     17.0863   7.0909879720e+01   6.6649844136e+01    0.2050868    0.1406747  19.12 0.0004757636    1.281    0.220
       246  -9.1572    168.9970     18.3354   4.0238853477e+01   4.0386610293e+01    0.1811108     0.150221  73.17 0.0004676353    1.090    0.083
       247  -8.7325    127.6266     18.2062   4.6903088347e+01   5.0174933357e+01    0.1819182    0.1243158  -2.80 0.0009558364    1.779    0.438
       248 -10.2640    121.7919     17.7229   4.7903120280e+01   5.1571984591e+01    0.2147046    0.1956867  61.65 0.0002142869    1.096    0.087
       249 -10.8477     23.9972     17.6058   8.1176740560e+01   6.9342421070e+01     0.432453    0.1841785  30.44  0.001492368    2.356    0.575
       250  -8.9674    195.4478     17.2991   3.6790452770e+01   3.4347874031e+01     0.213015     0.132127 -81.64 0.0006850107    1.695    0.410
       251  -9.2070    193.6180    219.8015   8.3866774909e+01   3.6464388689e-01     0.171407    0.1218809 -47.56  0.000947724    1.716    0.417
       252 -10.8299    247.6915    216.4968   7.3156452913e+01  -6.8280401291e+00    0.5326632    0.2270411 -35.34  0.002663994    2.128    0.530
       253  -9.2080    212.4749    219.4567   8.0111086558e+01  -2.4011399629e+00    0.1288245     0.106513   2.38 0.0001348141    1.028    0.028
       254  -8.8687    156.4480     16.0027   4.1339623070e+01   4.3596193618e+01    0.1871007    0.1290223 -26.67  0.001034422    1.611    0.379
       255  -8.6903     33.5348     16.4908   7.5981961712e+01   6.8366713529e+01    0.1224323   0.09420166  -3.46 6.935601e-05    1.004    0.004
       256 -10.4432    214.1125    214.1984   7.8858348558e+01  -1.8219840968e+00    0.2837953     0.163239 -46.11   0.00143362    2.103    0.524
       257  -9.6734    232.9207    212.6290   7.5070263691e+01  -4.2826674253e+00    0.2836868    0.1654618 -32.28  0.001329493    1.574    0.365
       258  -8.8644    241.1396    209.9422   7.3109516894e+01  -5.0165468038e+00    0.1811133    0.1436369 -53.33   0.00107974    2.031    0.508
       259  -9.2616    235.7668    203.8079   7.2927638743e+01  -3.3518318164e+00    0.1607674    0.1451489 -22.92  0.001064235    1.348    0.258
       260  -9.2859    249.9673    201.1376   6.9945513171e+01  -4.9172833163e+00    0.3070169    0.1453456 -37.92  0.001289816    1.951    0.487
       261  -8.8613    192.5368     13.2550   3.6109474437e+01   3.5434359989e+01    0.1477743    0.1240209 -11.18 0.0003723463    1.507    0.336
       262  -8.7209     64.5413    202.5250   1.0972808727e+02   2.3577314353e+01    0.1283231    0.1155754  76.96 0.0001106182    1.024    0.024
       263  -9.6157    242.3876    200.3737   7.1110268765e+01  -3.7622098738e+00    0.2492959     0.136326 -35.76  0.001324543    1.666    0.400
       264  -8.2208     80.2792     11.6542   5.5843839453e+01   6.1141698437e+01    0.1138955   0.09919241 -58.57 0.0003747296    1.635    0.388
       265 -10.3739    247.8136    193.8348   6.8932057343e+01  -3.5289286804e+00    0.3449611    0.2847204 -43.15  0.002199001    1.556    0.358
       266  -9.7087    231.6875    194.2938   7.1856183719e+01  -1.2750563739e+00    0.2668934    0.1751781  37.21  0.001483394    1.665    0.399
       267  -9.3147    237.6224    191.8411   7.0320264468e+01  -1.7624967757e+00    0.2605325    0.1755511 -33.76 0.0008523211    1.359    0.264
       268 -10.0681    237.1630    187.8657   6.9629028657e+01  -1.0640132091e+00    0.2513199    0.2101755 -28.26  0.001387765    1.216    0.178
       269  -8.9774    250.1314    185.8316   6.6999058578e+01  -2.6302202869e+00    0.1832389    0.1270532 -10.81  0.001069302    1.326    0.246
       270  -9.4900    224.4867    184.0140   7.1161174789e+01   1.5112555374e+00    0.2063656    0.1192744 -36.75  0.001029683    1.589    0.371
       271 -10.4154    242.4730    179.8935   6.7134142837e+01  -5.8061713861e-01    0.4162154    0.2231835 -38.34  0.002112008    1.684    0.406
       272  -9.8330    235.8433    181.5682   6.8621437185e+01   1.5079354277e-01    0.3322074    0.1323073 -33.91  0.001406157    2.283    0.562
       273 -10.2351    226.8231    179.0803   6.9743873118e+01   1.9706660996e+00     0.281308    0.2383482  -0.30  0.001381266    1.081    0.075
       274  -9.3092    219.0172    178.3065   7.1034193243e+01   3.3650195549e+00    0.1936751    0.1702388   5.49  0.001166264    1.103    0.093
       275  -9.4528     33.0497     12.5091   7.4312437627e+01   6.8962108782e+01    0.1674881    0.1023729  27.75 0.0004082017    1.521    0.342
       276  -9.4446    233.2321    174.5110   6.7667339513e+01   1.7206113761e+00    0.2588374    0.1645742 -34.63   0.00137538    1.392    0.282
       277  -9.6773    225.8064    173.2036   6.8735992513e+01   3.1335541067e+00    0.3415793    0.1745166 -41.44   0.00120502    1.857    0.462
