#   1 NUMBER                 Running object number                                     
#   2 MAG_AUTO               Kron-like elliptical aperture magnitude                    [mag]
#   3 X_IMAGE                Object position along x                                    [pixel]
#   4 Y_IMAGE                Object position along y                                    [pixel]
#   5 X_WORLD                Barycenter position along world x axis                     [deg]
#   6 Y_WORLD                Barycenter position along world y axis                     [deg]
#   7 A_WORLD                Profile RMS along major axis (world units)                 [deg]
#   8 B_WORLD                Profile RMS along minor axis (world units)                 [deg]
#   9 THETA_WORLD            Position angle (CCW/world-x)                               [deg]
#  10 FWHM_WORLD             FWHM assuming a gaussian core                              [deg]
#  11 ELONGATION             A_IMAGE/B_IMAGE                                           
#  12 ELLIPTICITY            1 - B_IMAGE/A_IMAGE                                       
         1 -10.3786     45.1923     12.1713   3.1800524019e+01   7.1610457749e+01    0.2717711    0.2092464  36.74 0.0008538018    1.216    0.178
         2 -11.7981     49.8803     14.3880   3.0846921480e+01   7.0330606425e+01    0.5554549    0.3867293  42.31  0.001820813    1.352    0.260
         3 -11.5508     55.9453     19.9059   3.1351056475e+01   6.8246193196e+01    0.5041908     0.341821  59.14  0.001464895    1.635    0.388
         4 -10.1109     24.1310     17.9480   4.9429770749e+01   7.4311290467e+01     0.390646    0.1872151 -57.65  0.001516621    2.914    0.657
         5  -9.4027     78.8741     11.8260   1.8163648934e+01   6.3912714076e+01    0.1895265     0.162088 -85.36 0.0007641783    1.304    0.233
         6 -10.6551     69.0404     10.1689   2.0307138811e+01   6.6512372620e+01    0.3701878    0.2199441  -6.51   0.00104097    2.109    0.526
         7 -10.2057     27.5122     11.3437   4.2418388915e+01   7.4981357704e+01    0.2317012    0.2199755 -18.14   0.00123362    1.187    0.157
         8 -10.5043    241.4300      9.3135   3.5834952867e+02   2.5066740023e+01    0.2218255   0.09971406 -23.34  0.001153258    2.183    0.542
         9  -9.8649     32.2972     10.1130   3.8127912729e+01   7.4370042355e+01    0.1872533    0.1595613 -20.11  0.001131229    1.139    0.122
        10  -9.9106     74.6054      8.2429   1.7427600436e+01   6.5354247340e+01    0.2519852    0.1603204 -35.51 0.0008344896    1.672    0.402
        11 -10.9304     78.9047      5.5263   1.4694523698e+01   6.4541743695e+01    0.3751637     0.261175  26.81  0.001297435    1.576    0.366
        12 -10.9743     16.1623      8.3195   4.9541579466e+01   7.7165569453e+01    0.3456778    0.2090277  25.53  0.001759056    1.643    0.391
        13 -11.9773     11.7026      3.5744   5.0148343059e+01   7.8576909231e+01    0.6908872    0.3730704  39.74  0.003053038    2.095    0.523
        14 -12.7258    173.7078      5.5451   1.2746708315e+00   3.9992016812e+01      0.48139    0.4021831 -79.16    0.0029838    1.089    0.082
        15 -10.2586    178.9771      1.4502   3.5971195908e+02   3.9094269515e+01    0.2288928    0.1135955  73.92 0.0003418899    1.950    0.487
        16 -11.3195    124.2285      6.7544   6.6774776273e+00   5.2544010144e+01    0.4123018     0.247153 -74.85  0.001803211    1.816    0.449
        17  -9.3037    115.0281      8.7829   8.8611939412e+00   5.4802317429e+01    0.1889711    0.1076441  72.86 0.0006181837    1.635    0.388
        18 -10.7518     85.6673      7.3065   1.3942737372e+01   6.2649418480e+01    0.2795757    0.2474446 -62.94 0.0007806696    1.224    0.183
        19 -10.8516     88.6575      5.7225   1.2423683949e+01   6.2024538387e+01    0.2534122    0.2407874  61.14 0.0003895254    1.033    0.032
        20  -9.8603      3.3421      8.1385   6.2251811596e+01   7.8556692244e+01    0.2105378    0.1546241 -10.57 0.0006568533    1.287    0.223
        21  -9.8445      4.3117      3.9503   5.8360169312e+01   7.9306987513e+01     0.224368    0.1348577 -44.92 0.0006960034    1.487    0.328
        22 -10.6868    130.6918      4.9883   5.1651254039e+00   5.0989474443e+01     0.402873    0.2373369  -3.33  0.001820045    2.210    0.547
        23  -9.1546    236.1725      6.6477   3.5799115319e+02   2.6315075351e+01    0.1463553   0.09717885  69.20 0.0009424276    1.783    0.439
        24  -9.4966     96.4945      5.0081   1.0425560025e+01   6.0042783149e+01    0.2003021    0.1397853 -20.39 0.0006049315    1.559    0.358
        25 -11.1233    183.3288      3.0427   3.5988463749e+02   3.7924404585e+01    0.2580575    0.1715783 -82.36 0.0009853655    1.408    0.290
        26 -11.2717    114.5794      1.8104   5.9786964189e+00   5.5521585868e+01     0.429825    0.1874087  76.03  0.001059004    2.145    0.534
        27  -9.8726    153.5267      1.5036   1.6150961623e+00   4.5360547736e+01    0.1349317    0.1183068 -73.25 0.0008100771    1.001    0.001
        28  -9.5865     89.1799      1.3492   1.0063887373e+01   6.2261882284e+01    0.1909426    0.1223896  83.23 0.0002600851    1.604    0.377
        29  -9.6238     13.0108    106.0517   8.0851850199e+01   5.3320619426e+01    0.2028961     0.184169 -88.35 0.0003232965    1.014    0.014
        30  -9.0471     44.3052    105.6845   6.8115370383e+01   5.0477424560e+01    0.1553449    0.1076199  65.26 0.0002981808    1.624    0.384
        31 -10.0139      1.7665    104.7589   8.5275580369e+01   5.4322130289e+01    0.2468724     0.156947 -64.74  0.000958837    1.431    0.301
        32  -9.5324     77.1322    103.1885   5.5059558923e+01   4.6252821257e+01    0.2074928    0.1779504  74.43  0.000322214    1.280    0.219
        33  -9.4556    108.2139    100.6074   4.4154056887e+01   4.0880594672e+01     0.216205    0.1483031  30.84 0.0005827907    1.629    0.386
        34  -9.2462     72.3337     98.8658   5.5709051429e+01   4.8170266618e+01    0.3165644    0.1472613 -64.40  0.001094978    2.557    0.609
        35 -12.3374    244.1655     95.5047   1.7131342972e+01   1.4461344771e+01    0.4165019    0.2617824 -64.78  0.002255389    2.424    0.588
        36 -10.4318    103.0265     96.0189   4.4438876699e+01   4.3002142565e+01    0.3554347    0.2219669 -48.48  0.001006433    1.594    0.373
        37 -10.8832     64.6246     96.1936   5.7959997573e+01   5.0125835849e+01     0.342147    0.2828483  37.81 0.0008291978    1.230    0.187
        38 -11.9670    235.3694     94.9760   1.8017889978e+01   1.5977146042e+01    0.3464213    0.2326406 -77.69  0.001857055    2.499    0.600
        39  -9.3559      4.1826     95.8875   8.3504095176e+01   5.6590758937e+01    0.1934977    0.1409853 -53.55  0.000466265    1.332    0.249
        40  -9.2886     89.8601     94.1523   4.8180587922e+01   4.6104979559e+01    0.2143638    0.1871428   1.53 0.0007181871    1.325    0.246
        41 -10.1235     16.0121     94.4896   7.8179662242e+01   5.6252562385e+01    0.2064047    0.1417556  14.71  0.001043239    1.625    0.385
        42 -10.4432    132.6955     92.7240   3.5206358834e+01   3.7246936332e+01    0.2745996    0.2563594  86.78 0.0005128072    1.149    0.130
        43 -10.5882     11.9377     85.9875   7.8857645806e+01   5.8829960717e+01    0.2540293    0.1792959 -74.02 0.0003375176    1.268    0.212
        44  -9.5420      6.0405     85.3343   8.1539607950e+01   5.9343378247e+01    0.1770214     0.171632  51.69  0.000450661    1.133    0.118
        45  -9.6409     37.0349     90.0019   6.8041795796e+01   5.5542028344e+01    0.1791248     0.159096 -67.62 0.0003263986    1.059    0.056
        46 -11.1576    238.5001     81.5145   1.4699406275e+01   1.7244224718e+01    0.2938742     0.150211 -56.31  0.001413053    2.509    0.602
        47 -11.1836     54.5528     78.7238   5.7391392696e+01   5.6162610910e+01     0.321237    0.2787143  83.40 0.0004221653    1.289    0.224
        48 -10.6089     39.5220     77.0169   6.3837563123e+01   5.8681855460e+01    0.4099517    0.2695751 -84.88   0.00149414    1.859    0.462
        49 -10.8374     34.7034     74.6695   6.5573281812e+01   5.9864102137e+01    0.4922724       0.2801  54.00  0.001930082    2.196    0.545
        50  -8.9258    160.2609     81.2994   2.5847665978e+01   3.3107800236e+01    0.1410024     0.114886   3.93 0.0002033825    1.510    0.338
        51  -8.8322     77.7032     78.2753   4.7724354529e+01   5.2234146106e+01    0.1513212    0.1222281  78.91            0    1.529    0.346
        52  -9.2696    144.0004     77.2606   2.7977327527e+01   3.7598049693e+01    0.1924956    0.1319302  54.93 0.0007783917    1.506    0.336
        53  -9.8082    153.9794     77.0000   2.5827770930e+01   3.5302646436e+01    0.2393842   0.08564371  55.48 0.0006414648    2.924    0.658
        54  -9.9004      3.8529     75.3335   8.1358072010e+01   6.2132287072e+01    0.2189499    0.1566203  44.90  0.001178129    1.515    0.340
        55  -9.3357     89.8506     71.8784   4.1156644221e+01   5.1189819511e+01    0.2098664    0.1839126  86.16 0.0003741345    1.304    0.233
        56  -9.3271     76.6020     71.7847   4.5981769492e+01   5.3949235705e+01    0.2165469    0.1470909 -57.76 0.0008932104    1.578    0.366
        57 -12.2850     63.7454     69.4781   5.0442357952e+01   5.6901462245e+01    0.3904006    0.2671081  41.99  0.001798865    1.494    0.331
        58  -9.8791      7.6735     68.8489   7.8400260554e+01   6.3667333331e+01    0.2086849    0.1798436 -27.64 0.0004446448    1.213    0.176
        59  -9.5298     83.2685     68.0576   4.2155844662e+01   5.3419196267e+01    0.2074937    0.2004317 -46.89 0.0003861769    1.032    0.031
        60 -10.1121    204.7544     65.9056   1.4815188440e+01   2.5738116945e+01    0.2609437    0.1527395 -47.28  0.001315026    1.561    0.359
        61 -10.3356    250.3035     65.3022   1.0025870971e+01   1.7289760504e+01     0.200642   0.09674194 -24.21 0.0006059326    1.976    0.494
        62  -9.1620    192.2439     65.7147   1.6360159029e+01   2.8414077448e+01    0.1350679   0.09264131 -55.09 0.0002380654    1.461    0.315
        63  -9.2510    174.5543     64.5357   1.8581609750e+01   3.2544112927e+01    0.1435364     0.129025 -50.74 0.0002460094    1.028    0.027
        64 -10.2942      4.4965     63.7138   7.9308705960e+01   6.5179790676e+01     0.249988     0.195797 -53.19 0.0006817954    1.148    0.129
        65 -10.3612     99.3848     61.9084   3.4427173193e+01   5.1104524224e+01    0.4011973    0.2625793 -66.05   0.00162331    2.117    0.528
        66 -10.9847     43.5068     62.0942   5.7424133843e+01   6.1923498507e+01    0.3275638    0.2450937 -40.03 0.0006717411    1.315    0.239
        67 -11.6942     66.7068     59.9248   4.5705447704e+01   5.8536814070e+01    0.4439588    0.3867564  78.35  0.001442525    1.361    0.265
        68 -11.1432    231.2740     60.5873   1.0684580377e+01   2.1237511123e+01    0.2751532     0.233048  51.55  0.001848909    1.460    0.315
        69  -9.4549    114.4835     60.9438   2.9703276193e+01   4.7682090163e+01    0.2222106    0.1518352 -36.16 0.0003312805    1.481    0.325
        70  -9.9735     56.8764     59.9087   5.0100610056e+01   6.0334005956e+01    0.2255612    0.1945663 -19.06 0.0003172357    1.229    0.186
        71  -9.3803     35.1815     60.6848   6.1334668080e+01   6.3373328752e+01    0.1890367    0.1329385  11.56            0    1.605    0.377
        72 -10.8316     22.4194     58.1928   6.7748081311e+01   6.5376102730e+01    0.3391152     0.267413  77.84 0.0008458442    1.496    0.331
        73 -11.1853     25.2207     55.9744   6.5468537389e+01   6.5664169582e+01    0.5150097    0.2505788 -71.80  0.001862797    2.329    0.571
        74 -10.5913      3.5496     58.8691   7.9035285984e+01   6.6488196421e+01    0.2802493    0.2441988 -11.81  0.001705851    1.239    0.193
        75 -10.0572    106.9327     56.6579   3.0215563593e+01   5.0296897287e+01    0.2759055      0.21758 -22.06  0.001320873    1.420    0.296
        76 -11.3575    249.2496     55.0339   7.8895862277e+00   1.8701468913e+01    0.3253751    0.1711981 -28.71  0.001835242    1.588    0.370
        77  -9.5194     78.5277     55.5254   3.9174540534e+01   5.7061811918e+01    0.2767902    0.1399987  35.41  0.001027158    2.306    0.566
        78  -9.8427    150.0000     50.9602   1.8501726932e+01   4.0488741402e+01    0.3397179   0.08129819 -31.47 0.0009529375    4.083    0.755
        79  -9.6553     39.7095     54.5898   5.6793430485e+01   6.4261802286e+01     0.245009    0.1263061  42.03 0.0006498743    2.115    0.527
        80 -11.0694     34.5130     51.5414   5.8582078687e+01   6.5681258815e+01     0.468393     0.325262  13.23  0.002139415    1.607    0.378
        81  -9.2646     45.6665     53.3032   5.3125180187e+01   6.3688737847e+01    0.1451823    0.1150843  71.31 0.0003841701    1.659    0.397
        82 -11.1832     69.7808     51.8508   4.1163865189e+01   5.9644483117e+01    0.3438361    0.2114288  48.03  0.001510115    1.666    0.400
        83 -10.9125     80.5634     49.8342   3.6063740947e+01   5.7736859794e+01    0.3562594    0.3179784  81.95  0.001179988    1.273    0.214
        84 -11.1326     87.2324     52.0581   3.4596522375e+01   5.5808302046e+01    0.4245827    0.2894222 -46.30  0.001882856    1.508    0.337
        85  -9.7780    121.4088     54.4879   2.5618587129e+01   4.7105014750e+01    0.3277252     0.150411  58.47  0.001219107    2.206    0.547
        86 -11.4883     94.0457     48.4084   3.0842405923e+01   5.4882196578e+01    0.3316191    0.2265202 -32.56  0.001514607    1.529    0.346
        87  -9.3328     91.5239     43.5527   2.9608147600e+01   5.6329683620e+01    0.2153263    0.1788155 -79.87 0.0001555649    1.432    0.301
        88 -11.1704     52.1804     46.2684   4.6856650484e+01   6.4169394966e+01     0.482215    0.3030081  29.64  0.001470601    1.701    0.412
        89 -11.1904    248.8718     44.5643   5.6410255587e+00   1.9983563834e+01    0.3172659    0.1993739 -42.90  0.001589201    1.217    0.179
        90 -10.7311     38.3981     43.6607   5.3197928220e+01   6.6963383072e+01    0.3637772    0.2717746  51.84  0.001827998    1.604    0.376
        91 -10.4096     33.0014     43.7712   5.6455035443e+01   6.7688913273e+01    0.2988257    0.1997827  22.53 0.0009578207    1.573    0.364
        92  -9.0472    137.3246     44.3154   1.8577926098e+01   4.4667817422e+01    0.1510652    0.1134587  28.12 0.0007042954    1.667    0.400
        93 -10.4616    118.9975     42.6492   2.1788518211e+01   4.9611244655e+01    0.3595523    0.2168364 -28.96 0.0005208077    1.751    0.429
        94  -9.4653    185.8120     41.4160   1.0514892311e+01   3.3166454681e+01    0.1739116    0.1227427  56.03 0.0004332835    1.569    0.363
        95 -10.5919    159.0449     39.4052   1.3341828105e+01   3.9855857223e+01    0.2531422    0.2204661 -39.43 0.0003336669    1.121    0.108
        96 -10.3544    221.2153     38.6192   6.3724025703e+00   2.5865895278e+01    0.1600265    0.1120469  60.41  0.000953661    1.685    0.407
        97  -9.7351     96.0396     38.0421   2.5851934623e+01   5.6126528818e+01    0.2179439    0.2082688  57.93 0.0003404467    1.017    0.017
        98  -9.9323     55.7868     38.7785   4.1605015401e+01   6.5026843393e+01    0.2347846    0.1123654  51.74 0.0008892101    2.497    0.600
        99  -9.7672     17.8071     38.5757   6.4335669597e+01   7.0609085599e+01    0.2307573    0.1746045  25.69 0.0006388724    1.401    0.286
       100 -10.0615     13.3490     36.6722   6.6821955203e+01   7.1446726274e+01    0.4101818    0.2314277  72.09  0.001626027    3.346    0.701
       101  -9.9283     48.6094     32.1811   4.1948350889e+01   6.7636709370e+01    0.2548151    0.1715839 -22.85 0.0006440234    1.700    0.412
       102  -9.9573     47.2050     35.4843   4.4402548883e+01   6.7255110160e+01    0.3304868    0.1761756  32.47  0.001009285    1.996    0.499
       103  -9.3363     51.5411     33.4586   4.1075112438e+01   6.6849530155e+01    0.2235987    0.1704182  -3.41 0.0006912162    1.545    0.353
       104 -11.0139     40.0222     35.8555   4.8657480311e+01   6.8389485874e+01    0.5316614    0.2287944  38.23  0.002142531    2.348    0.574
       105  -9.0005      2.6942     36.2446   7.4624849659e+01   7.2237165709e+01    0.1200202   0.09562006  52.07 0.0001739796    1.497    0.332
       106  -9.1764    174.2579     34.9735   9.9932493138e+00   3.6695050318e+01    0.1757094     0.110917 -32.65 0.0007499682    1.486    0.327
       107  -9.8936    130.9110     34.4909   1.6254985196e+01   4.7692910706e+01    0.2224556    0.1398229  64.77 0.0007985941    1.544    0.352
       108  -9.5302     24.9667     33.9951   5.7424844963e+01   7.0894462529e+01    0.2181368    0.1478626 -23.55 0.0005032304    1.582    0.368
       109  -9.5575    139.0506     33.2213   1.4363624101e+01   4.5747943813e+01    0.1950759    0.1147788  66.38 0.0004644112    1.657    0.397
       110 -10.2624    153.7173     31.6205   1.1577685659e+01   4.2189287442e+01    0.2457954    0.1611471 -81.53 0.0006669457    1.687    0.407
       111 -11.0454    153.2022     27.7505   1.0368879944e+01   4.2788283861e+01     0.249303    0.2295408 -26.69  0.000343962    1.173    0.147
       112 -10.2519     17.7188     31.4497   6.1499823473e+01   7.2258809628e+01    0.2227614    0.1890502 -50.08 0.0003748232    1.135    0.119
       113 -10.6418      4.2770     31.4589   7.1948698843e+01   7.3306388359e+01    0.3416135    0.1739059  37.16  0.001287789    2.283    0.562
       114  -8.8886    233.6840     31.3219   3.7273414273e+00   2.4252832777e+01    0.1306287   0.06849345 -53.39 0.0006331184    1.662    0.398
       115 -10.2971    119.1577     35.0468   1.8810025267e+01   5.0672560304e+01    0.2370621    0.2077461  66.76 0.0004056609    1.104    0.095
       116  -9.9410     92.4989     31.0352   2.3762702104e+01   5.8061659703e+01    0.2161228    0.1922141  56.53 0.0003563209    1.080    0.074
       117  -9.8015     69.7806     31.1142   3.1558170553e+01   6.3466094167e+01    0.2877067    0.1747257  28.73  0.001000094    2.050    0.512
       118  -9.6962     59.1395     29.8714   3.5478606229e+01   6.5978671466e+01    0.2074271    0.2030927  80.68  0.001212327    1.157    0.135
       119  -9.9925    103.9937     28.1704   1.9427236586e+01   5.5534838726e+01    0.2157067    0.1986444  60.92 0.0003392432    1.041    0.039
       120 -10.2714    160.7948     27.0305   9.1645411212e+00   4.0955830061e+01    0.2395251    0.1912849  80.76 0.0005683365    1.228    0.186
       121 -10.4436    119.7735     26.3136   1.5227993751e+01   5.1654826139e+01    0.4385466    0.2076051  52.31  0.001498468    2.048    0.512
       122 -10.4163     46.9795     26.8508   3.9929275664e+01   6.8914124274e+01    0.2155046    0.1926242 -25.56 0.0004211458    1.104    0.094
       123  -9.3205     49.6369     24.2555   3.7024762927e+01   6.8852406310e+01    0.2072784    0.1394745 -37.83 0.0002868104    1.506    0.336
       124  -9.7638     88.1465     25.2418   2.2313558337e+01   5.9957565900e+01    0.2845338    0.1700457 -53.46  0.001218479    2.056    0.514
       125  -9.8634     82.9459     25.5080   2.4031087168e+01   6.1208372743e+01    0.2260136    0.1364347  55.67 0.0008801318    1.565    0.361
       126  -9.5103    239.3233     23.8868   1.6881258266e+00   2.3988093806e+01     0.240622   0.06593968 -35.39  0.001070007    2.422    0.587
       127  -9.5163    128.9284     24.2507   1.2768492407e+01   4.9496225803e+01    0.1957504    0.1771573  76.38 0.0003148779    1.056    0.053
       128 -10.9516     98.3521     22.6663   1.8350954110e+01   5.7696075582e+01    0.3052603    0.2470255  84.18 0.0009580535    1.300    0.231
       129 -10.8114     39.0977     22.6492   4.2041611078e+01   7.1087933878e+01    0.4004932     0.211658  40.84   0.00150435    1.883    0.469
       130 -11.1678    238.1994    186.9923   3.5791501189e+01   3.2635398587e+00    0.2496807    0.2075444  89.42  0.001403728    3.916    0.745
       131 -11.1310    244.9465    181.3140   3.3813916318e+01   3.1648800188e+00    0.3227811    0.2585327 -67.60  0.001909226    3.393    0.705
       132  -9.0451     25.4820    175.4949   8.2508426587e+01   3.4410384119e+01    0.1307512     0.112273  59.63 0.0003294865    1.012    0.012
       133 -11.1953     49.8431     19.4385   3.4046178858e+01   6.9589458992e+01    0.4367595    0.2164077  37.97  0.001508081    2.069    0.517
       134  -9.0949    159.2781     20.6402   7.2944133699e+00   4.2056594817e+01    0.1511727   0.08913559 -56.10  0.000233872    1.664    0.399
       135  -9.8380    109.4685     19.8734   1.4607930755e+01   5.5129441786e+01    0.2060326    0.1436878 -25.76 0.0004441452    1.521    0.343
       136  -9.8827     84.8204     20.1589   2.0784692210e+01   6.1449716688e+01    0.2097224    0.1887954 -77.73 0.0003879322    1.216    0.177
       137  -9.1925     66.5732     20.5953   2.7212890414e+01   6.5786373445e+01    0.1411793    0.1293718  30.83 0.0001310738    1.029    0.028
       138 -10.3775    224.4703    173.0479   3.5438124495e+01   6.7778730415e+00     0.179626   0.09838001 -31.09 0.0008011544    1.578    0.366
       139 -10.7400     14.6726     17.9160   5.7152138670e+01   7.5489905193e+01    0.2697949    0.2271218  10.06 0.0006344655    1.174    0.148
       140 -10.2668      5.7807     19.3644   6.5886863737e+01   7.5985291133e+01    0.3010455    0.1458933  19.65  0.001173343    2.115    0.527
       141  -9.6540    120.9724     16.0207   1.0878219057e+01   5.2511504091e+01    0.1965097    0.1850019  86.77 0.0003076911    1.017    0.017
       142  -9.9756    120.6414     12.7096   9.5933339997e+00   5.2936649762e+01    0.2787344    0.1804299  51.59 0.0007070114    1.538    0.350
       143 -10.1392     85.7511     15.8914   1.8358503225e+01   6.1727611634e+01    0.3204494    0.1809864  60.57  0.001448776    1.637    0.389
       144  -9.3790     19.8394     16.0975   5.1679181364e+01   7.5240627428e+01    0.1812638    0.1386896 -10.87 0.0003612881    1.290    0.225
       145 -10.9692    183.3039     14.9389   3.2570914400e+00   3.6790058032e+01    0.2295403    0.1585387 -76.29 0.0006411133    1.384    0.277
       146 -10.3948    127.2783     14.6437   9.3390981029e+00   5.0984865250e+01    0.4334971    0.1636389  66.10  0.001659245    2.359    0.576
       147  -9.7606     34.9992     13.7094   3.8886245896e+01   7.3324454908e+01    0.1909212     0.161972  24.16 0.0004324939    1.108    0.098
       148 -10.2813     21.6395    170.0837   8.3230165326e+01   3.6045685184e+01    0.2304403    0.1823274  21.52 0.0006498341    1.357    0.263
       149  -9.8745      6.6200    159.9619   8.6969917941e+01   3.9709657076e+01     0.311496    0.1675523 -51.95 0.0008287536    2.179    0.541
       150  -9.2435     10.9994    147.9911   8.4996577338e+01   4.2378671606e+01    0.1596792    0.1395653  58.29   0.00058018    1.066    0.062
       151 -10.3091    162.7573     11.5933   4.0464666943e+00   4.2115851412e+01    0.1907498    0.1179231 -85.08 0.0006581223    1.608    0.378
       152  -9.3164     39.8418    147.6006   7.5815948589e+01   3.9868176335e+01    0.1992459    0.1129315  41.08  0.000429737    1.627    0.385
       153  -9.7113     25.4891    146.4536   8.0294223325e+01   4.1584535777e+01    0.2588992       0.1318  22.36 0.0006753268    2.031    0.508
       154  -9.5208     75.0803    143.9137   6.4144279766e+01   3.6280773481e+01    0.2128131     0.183291  60.53            0    1.154    0.133
       155  -9.8431      7.0290    142.5611   8.5925880607e+01   4.4045012407e+01      0.25525     0.158265 -66.55  0.001182206    1.575    0.365
       156 -11.5970    240.9826    139.7480   2.6653440179e+01   9.0164582601e+00    0.2269447    0.1285422 -39.34  0.001305048    1.642    0.391
       157 -11.0911    246.0119    137.7083   2.5580622414e+01   8.5854364143e+00    0.1649743    0.1321907 -12.86  0.001079415    1.080    0.074
       158 -10.1270     28.7651    138.0958   7.8425852765e+01   4.3454011846e+01     0.213567     0.191812  42.86 0.0003679835    1.124    0.110
       159  -9.3997     11.4590    133.5275   8.3873521416e+01   4.6080433214e+01    0.1360883    0.1194346  78.43 0.0003317406    1.004    0.004
       160 -12.0384    235.9088    129.6611   2.5317173482e+01   1.1122000473e+01    0.4331492    0.1493959 -30.01  0.001850967    2.574    0.612
       161  -9.9737     17.7871    132.1980   8.1601163356e+01   4.5956749538e+01    0.2672816    0.1609529  40.36  0.001054867    1.581    0.368
       162 -10.1662     58.0301    129.9682   6.7358071316e+01   4.2258956680e+01    0.2174759    0.2071353  71.37            0    1.010    0.010
       163 -10.5680    135.0307    124.7404   4.3047070795e+01   3.0114915147e+01    0.2121263    0.2029479  19.94 0.0005944128    1.036    0.035
       164 -12.4062    246.1064    120.4080   2.2107361438e+01   1.0860144445e+01     0.335217    0.2621288 -56.41  0.002218766    1.687    0.407
       165  -9.7331    103.2099    119.8306   5.0597886249e+01   3.7416458317e+01    0.2049679    0.1786732 -15.19 0.0002512891    1.293    0.227
       166  -9.2043     13.4742    117.5161   8.1823525731e+01   5.0193059803e+01    0.1385998    0.1240061  89.27 4.518797e-05    1.013    0.013
       167  -9.8250     91.8170    116.1793   5.3262055666e+01   4.0407608050e+01    0.2252233    0.2053853  66.33 0.0003580856    1.138    0.121
       168  -9.6413     96.1416    111.8719   5.0841945822e+01   4.0648601852e+01     0.224268    0.2075718 -85.25 0.0004581054    1.139    0.122
       169  -9.0153     79.5057    110.5510   5.6021816536e+01   4.3987469009e+01    0.1517795    0.1501987  86.98 0.0008083997    1.014    0.014
       170 -11.3709    241.4658    107.4854   1.9990119361e+01   1.3294008176e+01    0.2905803    0.1756057 -73.86  0.001214427    4.491    0.777
       171  -9.3573     18.8778    108.1215   7.8721644357e+01   5.2334913834e+01    0.1862087    0.1580724 -33.11 0.0007614585    1.312    0.238
