#   1 NUMBER                 Running object number                                     
#   2 MAG_AUTO               Kron-like elliptical aperture magnitude                    [mag]
#   3 X_IMAGE                Object position along x                                    [pixel]
#   4 Y_IMAGE                Object position along y                                    [pixel]
#   5 X_WORLD                Barycenter position along world x axis                     [deg]
#   6 Y_WORLD                Barycenter position along world y axis                     [deg]
#   7 A_WORLD                Profile RMS along major axis (world units)                 [deg]
#   8 B_WORLD                Profile RMS along minor axis (world units)                 [deg]
#   9 THETA_WORLD            Position angle (CCW/world-x)                               [deg]
#  10 FWHM_WORLD             FWHM assuming a gaussian core                              [deg]
#  11 ELONGATION             A_IMAGE/B_IMAGE                                           
#  12 ELLIPTICITY            1 - B_IMAGE/A_IMAGE                                       
         1 -14.1895    248.8173     33.1374   2.3711397293e+01   2.1149136358e+01     1.153395    0.2651966 -29.13  0.004672174    2.978    0.664
         2 -14.2328    246.3202      6.1988   1.7722197976e+01   2.4157877583e+01    0.9008033    0.5863139 -33.08  0.005943683    1.219    0.180
         3 -13.7384     12.3333     23.1037   8.2230352361e+01   7.4474891723e+01    0.7853919    0.3039873 -42.30  0.003282708    2.388    0.581
         4 -13.0711     25.1098      4.0891   5.9171972366e+01   7.6512168675e+01    0.6238621    0.3490894  23.54  0.002961743    2.137    0.532
         5 -12.5737     13.3859     12.6294   7.5469427711e+01   7.6596978862e+01    0.3824265    0.2153815 -34.33  0.001456752    1.711    0.416
         6 -12.6973     16.1283      6.3441   6.8513507478e+01   7.7470106379e+01    0.5216491    0.3146016 -21.10  0.002568401    1.874    0.466
         7 -13.5193      6.6942     10.5341   8.0464554630e+01   7.7691234184e+01     1.015442    0.4524596 -41.49  0.004786968    1.994    0.498
         8 -12.5683     10.5910      1.9970   7.0306997992e+01   7.8955060673e+01     1.059792    0.2358128  30.27  0.003410693    5.060    0.802
         9 -11.2776     26.5073     15.9967   6.6992564105e+01   7.4250980138e+01    0.2018835     0.100733 -26.66 0.0008106059    2.647    0.622
        10 -12.4766     19.9173     13.8731   7.0687897821e+01   7.5567267096e+01    0.4297461    0.1954432 -36.27  0.001879594    2.235    0.553
        11 -10.5016     41.6507      2.6650   4.7379029080e+01   7.3612876364e+01    0.1459786   0.09280021  20.45 0.0007047344    1.780    0.438
        12 -10.8133    110.1369    248.6870   8.8934645168e+01   1.2533375203e+01    0.1841122     0.103497  39.96   0.00118146    1.453    0.312
        13 -11.2905    233.7755    250.4577   6.7492835809e+01  -1.4007342302e+00    0.3003579   0.08916059  28.21   0.00145934    2.750    0.636
        14 -12.9294    234.3886    244.2426   6.6563027867e+01  -8.9156545918e-01    0.4184768    0.2021281   0.54  0.002631723    2.127    0.530
        15 -13.3154    242.8510    235.1875   6.4040723298e+01  -8.9540077135e-01    0.8021154     0.301588 -12.37  0.003585317    4.417    0.774
        16 -11.6772    249.9868    232.6794   6.2644071863e+01  -1.3727432193e+00    0.2518014    0.1335619 -14.16  0.001414665    1.550    0.355
        17 -12.2403    247.6511    239.1016   6.3894357480e+01  -1.7284942587e+00    0.3497875    0.1775626  -8.02  0.001858435    1.723    0.419
        18 -12.6250    242.9189    245.6058   6.5483770701e+01  -1.8538004062e+00    0.5041137    0.2221558 -12.66  0.003153905    2.312    0.568
        19 -11.5265    248.7971    249.9471   6.5221290150e+01  -2.7924532385e+00      0.39944    0.1479805  24.05  0.002514883    2.202    0.546
        20 -11.3350    248.8754    244.9015   6.4523634376e+01  -2.3620002894e+00    0.2464237    0.1461945   1.76   0.00195931    1.204    0.169
        21 -12.0367    225.7990    248.4895   6.8442333411e+01  -4.2566088241e-01    0.2619037    0.1416589   5.40  0.001843384    1.570    0.363
        22 -11.1483     87.7371    250.5417   9.3487384706e+01   1.4789832582e+01    0.3298342   0.08718788  28.82  0.001423413    3.066    0.674
        23 -11.4973     74.4594    250.2081   9.6085879900e+01   1.6280002843e+01    0.3483531      0.08828  35.76  0.001652137    2.517    0.603
        24 -11.9631     65.4067    249.0977   9.7808436493e+01   1.7404879241e+01    0.3687612    0.1622905  39.23  0.001786073    1.620    0.383
        25 -11.5942     50.3506    250.0897   1.0084603513e+02   1.8779278341e+01     0.509661    0.1048092  30.05  0.002190157    3.287    0.696
        26 -11.4209     44.8205    245.0496   1.0168837999e+02   2.0124482337e+01    0.3445511    0.1665125  50.85  0.001654884    1.684    0.406
        27 -12.0003     36.8440    248.7042   1.0343905738e+02   2.0299364897e+01    0.4165556    0.1627973  45.74  0.002310281    1.821    0.451
        28 -11.9492     20.3781    249.1175   1.0666227582e+02   2.1719860488e+01    0.3504826    0.1501963  40.71  0.001725362    1.561    0.359
        29 -11.9677     12.2022    248.9441   1.0822824833e+02   2.2443157006e+01    0.3535601     0.144681  41.02  0.001621106    1.602    0.376
        30 -11.3802      3.4669    250.3886   1.0991643196e+02   2.2921460399e+01    0.3030179     0.134954  22.25  0.001814537    2.173    0.540
        31 -12.5606      3.3129    243.0592   1.0980034491e+02   2.4129104147e+01    0.4571182    0.2020508  58.43  0.002186223    1.752    0.429
        32 -10.2625     49.5188    243.4819   1.0066326848e+02   1.9915390022e+01     0.110929   0.07997685  43.33 0.0001102813    1.041    0.039
        33 -11.9934     29.6081    240.5714   1.0454027363e+02   2.2299131324e+01    0.3857645    0.1866617  56.16  0.001699167    1.734    0.423
        34 -12.5817     16.1457    240.4001   1.0722341982e+02   2.3517505172e+01    0.5562908    0.1861272  43.05  0.002566767    1.925    0.480
        35 -11.7524      2.4498    212.4976   1.0929113916e+02   2.9624594887e+01    0.3509927    0.1809883  71.15  0.001467785    1.714    0.416
        36 -10.9334      1.4072    206.2414   1.0936365030e+02   3.0905741456e+01     0.262354   0.09890946 -85.99  0.001273943    2.655    0.623
        37 -11.8778      6.6996    236.3133   1.0898867416e+02   2.4994464532e+01    0.3791864    0.1789485  61.23  0.001453797    1.734    0.423
        38 -12.0564      4.9125    228.2533   1.0915647765e+02   2.6541493740e+01      0.42227    0.1783502  60.38  0.001767773    1.914    0.478
        39 -11.9509      2.2641    220.7757   1.0952885295e+02   2.8096729771e+01    0.3319775    0.1678909  79.75   0.00153363    1.883    0.469
        40 -11.8495     72.8226    240.3279   9.5722967980e+01   1.7991557279e+01    0.3565609    0.1619217  44.14  0.001787899    1.753    0.430
        41 -11.0494     38.3947    240.6277   1.0276920785e+02   2.1468891156e+01    0.2779076    0.1283619  51.48  0.001334875    1.747    0.428
        42 -12.4110    226.3001    240.3932   6.7268032410e+01   2.9782935462e-01    0.2317976    0.1225637   2.94  0.001539464    1.744    0.427
        43 -11.8351    107.6495    240.2480   8.8639450584e+01   1.4040762893e+01    0.3674133     0.127008  42.52  0.001767646    2.525    0.604
        44 -11.0112     64.7161    240.2557   9.7378598542e+01   1.8874645165e+01      0.24627     0.129868  51.43  0.001512152    1.697    0.411
        45 -10.4979    129.6526    240.3093   8.4289023313e+01   1.1411234342e+01    0.1113814   0.07225703  47.69 0.0004928228    1.707    0.414
        46 -11.4813     45.2298    237.4329   1.0121498350e+02   2.1338682803e+01    0.2940638    0.1460161  49.45  0.001721468    1.615    0.381
        47 -11.6740     82.7561    236.7771   9.3407887821e+01   1.7455259914e+01    0.3509863    0.1402235  44.38  0.001387965    2.092    0.522
        48 -10.6079     33.1315    236.2895   1.0364529130e+02   2.2695317842e+01    0.2180121   0.09318118  58.79  0.001227282    2.147    0.534
        49 -12.1658    231.6360    234.3537   6.5602658948e+01   3.3148623266e-01    0.2556191    0.1232804 -17.36  0.001648898    1.959    0.490
        50 -11.7545     95.6723    235.5893   9.0641329151e+01   1.6155668255e+01    0.3464754    0.1277709  41.74  0.001733072    2.204    0.546
        51 -11.7762     14.3432    232.0682   1.0733377237e+02   2.5096734901e+01    0.3658216    0.1641344  55.56  0.001726868    1.752    0.429
        52 -11.4326     11.2974    225.7291   1.0777150453e+02   2.6473644440e+01    0.3523015    0.1465779  51.28  0.001361653    1.777    0.437
        53 -11.7701     60.0576    232.2893   9.7818540806e+01   2.0686775871e+01    0.3451658    0.1362694  43.46  0.001847021    1.931    0.482
        54 -11.3363     39.9312    231.1804   1.0199171956e+02   2.2925430704e+01    0.3239737    0.1699396  63.03  0.001969469    1.858    0.462
        55 -11.1093     48.6653    230.6152   1.0011983554e+02   2.2155760014e+01    0.2996847    0.1580126  65.18  0.001768183    2.011    0.503
        56 -12.1354     25.8479    228.6773   1.0483300647e+02   2.4686702932e+01    0.4490355    0.2415298  67.80   0.00245988    1.771    0.435
        57  -9.8751      1.2310    235.0021   1.1004492752e+02   2.5653284795e+01    0.1214487   0.07546853  83.28 0.0008702682    1.610    0.379
        58 -10.6472     32.3451    229.3257   1.0349665499e+02   2.3974027125e+01    0.2373816   0.09718332  52.60  0.001309721    2.001    0.500
        59 -12.3199    237.1820    227.7372   6.3808075899e+01   3.9977058816e-01    0.2720318    0.1351294  -8.86   0.00170978    1.972    0.493
        60 -10.6085     73.7230    228.0132   9.4604929013e+01   1.9916019995e+01    0.2598647   0.08711451  46.77  0.001182365    2.673    0.626
        61 -12.2704    248.8146    225.2535   6.1727931395e+01  -5.6215743559e-01    0.2760604     0.141296 -19.09  0.001922515    1.641    0.391
        62 -11.5457     19.0221    222.0226   1.0601905149e+02   2.6489091647e+01    0.3170496    0.1536994  56.78  0.001320884    1.693    0.409
        63 -10.7535     55.0329    222.4501   9.8238852324e+01   2.2930565066e+01     0.216295    0.1402391  67.24  0.001334118    1.598    0.374
        64 -10.1555     77.9886    222.4974   9.3229683888e+01   2.0371532061e+01     0.179364   0.06371643  46.07 0.0008102147    2.518    0.603
        65 -11.0738     43.8859    221.3758   1.0060832873e+02   2.4274768445e+01    0.2858647    0.1305008  48.43   0.00159528    1.769    0.435
        66  -9.8332     63.6771    221.3373   9.6266080321e+01   2.2194528054e+01    0.1252691   0.06850681  53.58 0.0004628437    1.715    0.417
        67 -10.4430     96.3239    228.6387   8.9860749659e+01   1.7180786802e+01    0.1209078   0.07320865  53.69 0.0007042136    1.782    0.439
        68 -11.5863     35.0665    217.2407   1.0231785734e+02   2.5901908078e+01    0.3092012    0.1717587  54.43  0.001891791    1.519    0.342
        69 -12.0366     12.2796    217.0294   1.0729384929e+02   2.7984667406e+01    0.4237961    0.1992158  51.74  0.002093596    1.621    0.383
        70 -10.6587     24.3597    217.3503   1.0467867230e+02   2.6878699920e+01    0.2423666    0.1006134  54.54  0.001196905    1.997    0.499
        71 -12.2447    248.5590    214.7347   6.0174924136e+01   4.8355309726e-01     0.308057    0.1485822 -19.41  0.001987632    1.774    0.436
        72 -10.2015     44.6001    212.7831   9.9927828148e+01   2.5792174990e+01    0.1565948   0.09773037  77.20 0.0009487077    1.713    0.416
        73 -11.0554     28.8207    211.3411   1.0341136763e+02   2.7605624205e+01    0.2536239    0.1300747  60.87   0.00120393    1.766    0.434
        74 -10.8485     21.6385    210.9411   1.0500659545e+02   2.8334006254e+01    0.2473715    0.1770069  73.30  0.001687696    1.304    0.233
        75 -10.5248     36.0874    208.0042   1.0158029993e+02   2.7556289357e+01    0.2085862    0.1011103  54.20   0.00113693    1.795    0.443
        76 -12.4824     12.6648    205.2406   1.0680535831e+02   3.0209872512e+01    0.5327698    0.2250629  47.37  0.002402528    1.773    0.436
        77 -10.0392     36.6839    201.3516   1.0104631834e+02   2.8805823487e+01    0.1320339   0.06773669  55.58 0.0007046855    1.735    0.424
        78  -9.8582     31.3235    201.6569   1.0232757838e+02   2.9263296723e+01    0.1316738   0.06578457  54.86 0.0007050608    1.732    0.423
        79 -10.6855     25.9629    203.2357   1.0366407358e+02   2.9448422335e+01    0.2146139    0.1217957  69.12  0.001119712    1.670    0.401
        80  -9.9810    250.4873    200.4950   5.7644856514e+01   1.7136416474e+00    0.1079731   0.07525748  -2.30 0.0001258375    1.006    0.006
        81 -11.5642      9.2012    197.9591   1.0734360788e+02   3.1942305758e+01     0.254164    0.1174106  65.32  0.001069134    1.912    0.477
        82 -12.3124      4.1481    188.5236   1.0822449530e+02   3.4274440725e+01    0.5284811    0.1738087  55.57  0.002488204    2.437    0.590
        83 -12.3663      3.4899    196.9062   1.0863754407e+02   3.2599864713e+01    0.4118955    0.1842767  58.80  0.001828413    1.817    0.450
        84 -11.4283     11.4056    191.0585   1.0656593310e+02   3.3180118629e+01    0.2287942    0.1169035  72.56   0.00110339    1.812    0.448
        85 -12.2113     11.6264    184.0586   1.0622712901e+02   3.4638391211e+01    0.3650887    0.1918282  76.32  0.001607429    1.783    0.439
        86 -12.2841     16.5880    188.8949   1.0521451411e+02   3.3204852782e+01    0.4512965    0.1639459  70.92  0.001964324    2.972    0.664
        87 -10.8535     18.3436    184.6823   1.0457885208e+02   3.3949080561e+01    0.2268791    0.1354381  43.31  0.001340501    1.375    0.273
        88 -11.0685     16.9982    181.2130   1.0474607222e+02   3.4809817325e+01    0.2520952    0.1398889  72.92  0.001155589    1.688    0.408
        89 -11.2758     24.2147    186.3137   1.0319574651e+02   3.3086018107e+01    0.2481496    0.1443927  75.92  0.001404099    1.667    0.400
        90 -10.0083     30.5083    184.4923   1.0150266889e+02   3.2893179372e+01    0.1241003     0.101837  55.33 -5.406062e-05    1.013    0.013
        91 -11.6242      5.4001    183.0817   1.0773520004e+02   3.5330702602e+01    0.2298465    0.1388933  58.05 0.0009683508    1.353    0.261
        92 -11.2055     23.0254    179.6755   1.0312205524e+02   3.4623150401e+01    0.2423066    0.1345375  62.18  0.001224694    1.634    0.388
        93 -11.6709      1.9666    177.8611   1.0841555341e+02   3.6707383328e+01    0.3310215    0.1715637  87.04   0.00139313    1.790    0.441
        94 -11.5262      9.1158    177.8403   1.0660000691e+02   3.6179802989e+01    0.1969126    0.1318785  58.29  0.000895558    1.234    0.190
        95 -12.2775      6.5092    171.2027   1.0700164372e+02   3.7842845119e+01    0.3333168    0.1580893  77.31  0.001703106    1.972    0.493
        96 -10.7788      1.4388    170.2406   1.0829414363e+02   3.8421416713e+01    0.2153703    0.1025707 -80.38  0.001054246    1.993    0.498
        97 -10.3487     28.6655    170.3310   1.0103729576e+02   3.6186159224e+01    0.1412847    0.0747462  56.52 0.0004571182    1.729    0.422
        98 -11.3995     11.0863    166.8482   1.0558767734e+02   3.8477618497e+01    0.2082291    0.1339701  56.82  0.001104551    1.320    0.242
        99 -11.5971      2.4773    165.4927   1.0784761115e+02   3.9416542719e+01    0.3598535    0.1149636  42.92  0.001638201    2.373    0.579
       100  -9.9795     19.6674    164.3237   1.0310161920e+02   3.8360324291e+01    0.1404307   0.07362817  56.25 0.0004104404    1.706    0.414
       101 -11.7619      5.7112    161.1947   1.0679293029e+02   4.0171755780e+01    0.2567423    0.1442627  61.04 0.0009775138    1.538    0.350
       102 -10.1894     16.6842    159.3204   1.0362902959e+02   3.9769785594e+01    0.1389179    0.0749955  57.05 0.0003863234    1.658    0.397
       103 -11.9441     10.1360    155.4538   1.0527167940e+02   4.1187823030e+01    0.2740486    0.1345571  73.09  0.001343225    1.933    0.483
       104 -12.0604      4.0235    153.2743   1.0691551821e+02   4.2136448581e+01    0.2865181    0.1487511 -73.91  0.001496356    1.827    0.453
       105  -9.9422     16.3459    150.6733   1.0318007139e+02   4.1846242477e+01    0.1444929   0.07560128  56.57 0.0007050239    1.748    0.428
       106 -11.4494      2.2839    143.0385   1.0695578999e+02   4.4697119427e+01     0.186838    0.1421453  81.49  0.000889098    1.139    0.122
       107 -12.2683      4.1726    136.7470   1.0605486410e+02   4.6113897725e+01    0.3270448    0.1617381  86.33  0.001579842    1.855    0.461
       108 -10.5189     10.3059    132.6590   1.0384181099e+02   4.6720030159e+01     0.143352   0.07975772  59.66 0.0007041746    1.683    0.406
       109 -10.2894    248.3033    129.6669   4.4991346474e+01   1.0044875852e+01    0.1116301   0.08124313 -44.04 0.0007036661    1.659    0.397
       110 -11.5230      2.6587    127.0453   1.0600287213e+02   4.8621518567e+01    0.2990191    0.1315012  81.20  0.001327038    2.168    0.539
       111 -11.3466    248.4988    118.9825   4.2771917038e+01   1.1316147955e+01    0.1914997   0.09431741 -28.86  0.001039204    1.610    0.379
       112 -11.0282      4.0000    116.0003   1.0484253641e+02   5.1348458263e+01    0.2196786   0.06642386 -81.00 0.0008001403    2.927    0.658
       113 -10.4828    248.4728    106.9806   4.0246136733e+01   1.2783183635e+01    0.1715478   0.07650971 -44.32 0.0008091843    2.476    0.596
       114 -10.6742    247.3131    102.6636   3.9454113001e+01   1.3491475699e+01    0.1198799   0.07984982 -47.55 0.0005147633    1.689    0.408
       115 -11.0443    249.3863     98.1664   3.8248436132e+01   1.3708305147e+01    0.1801834   0.08542232 -36.16  0.000946975    1.720    0.419
       116 -10.6133      1.5496     93.9911   1.0409068486e+02   5.7191750211e+01     0.213467    0.1149137 -81.05  0.001035851    1.614    0.380
       117 -10.2921    248.2740     92.6237   3.7163982773e+01   1.4555271365e+01    0.1240527   0.07522023 -45.64 0.0005105051    1.693    0.409
       118 -11.2354    249.4876     87.9774   3.6015666461e+01   1.4914539261e+01    0.1924135   0.09490532 -29.44 0.0009273443    1.581    0.368
       119 -10.6661    242.6719     93.3183   3.7936087009e+01   1.5390694617e+01    0.1221981   0.08163958 -49.80 0.0007044614    1.682    0.405
       120 -11.7666    248.6105     74.5750   3.3128850250e+01   1.6642519807e+01    0.3221848    0.0742868 -33.02  0.001256666    2.968    0.663
       121 -11.3782      2.6469     66.7555   1.0057424267e+02   6.4281234922e+01    0.2521797    0.1585197 -88.99  0.001301807    1.511    0.338
       122 -11.2888      2.3329     60.5338   9.9820796930e+01   6.5911796441e+01    0.2488274    0.1084486 -74.90  0.001087107    1.977    0.494
       123  -9.5870    213.5005     58.5292   3.2869497658e+01   2.5148053461e+01    0.1318155    0.1131497 -34.50 0.0001829858    1.004    0.004
       124 -10.0840    222.4872     53.5007   3.0669354459e+01   2.3940119874e+01    0.1286373    0.1084972 -33.76 -3.003007e-05    1.018    0.017
       125 -12.3298      3.1081     49.6647   9.7433350933e+01   6.8667148566e+01    0.5657226    0.2151213 -70.13  0.002384378    2.186    0.543
       126 -11.6259      8.4388     43.7890   9.2627073531e+01   6.9858805340e+01    0.3379241    0.1081462 -66.41   0.00129503    2.582    0.613
       127 -12.1714      2.6525     40.2495   9.5644518738e+01   7.1055310485e+01    0.4386713    0.1952114 -65.11  0.002025252    1.842    0.457
       128 -11.8310      3.1089     33.1214   9.3392836890e+01   7.2783505161e+01    0.3937409    0.1211992 -57.41  0.001599895    2.380    0.580
       129 -12.6562    212.8185    247.8790   7.0396016116e+01   9.7068703530e-01     0.358437    0.1764055  11.60  0.002268236    1.891    0.471
       130 -10.9787     27.2352    248.6194   1.0531569872e+02   2.1194651585e+01    0.2496099    0.1091926  43.65   0.00100512    1.572    0.364
       131 -11.9624      1.7496     25.2621   9.1947277711e+01   7.4735526691e+01    0.4729887    0.1643086 -69.74  0.001899331    2.692    0.629
       132 -10.4316    221.3295    248.3032   6.9109430840e+01   4.6634399017e-02    0.1056611   0.05657298   5.13 0.0003727196    1.650    0.394
       133 -11.5493    127.5511    247.8747   8.5486417927e+01   1.0626149754e+01    0.2372574    0.1064336  41.25  0.001339229    1.977    0.494
       134 -12.0042    143.7786    247.4914   8.2370889973e+01   8.7776472201e+00    0.3352931   0.07884037  33.22  0.001436047    3.117    0.679
       135 -11.4024     77.3640    246.6630   9.5259214584e+01   1.6507169932e+01    0.1741724   0.09619978  50.63  0.001048948    1.672    0.402
       136 -12.4574     97.5281    245.0604   9.1100241038e+01   1.4501638083e+01    0.3858562    0.1550175  41.32   0.00209537    1.986    0.496
       137 -12.3178     84.6180    244.8089   9.3665099297e+01   1.5993874005e+01    0.3392552    0.1635285  44.96  0.001614511    1.743    0.426
       138 -12.0481    116.2924    244.1905   8.7303891173e+01   1.2453641039e+01    0.2726107    0.1306833  43.22   0.00156524    1.897    0.473
       139 -12.1063     12.6334     36.9675   8.7670370489e+01   7.1235507909e+01    0.3566669    0.1489696 -64.14  0.001518654    2.149    0.535
       140 -12.0953     57.5374    242.2271   9.8968016414e+01   1.9306340433e+01    0.4165735    0.1741436  47.83  0.002352365    1.948    0.487
