#   1 NUMBER                 Running object number                                     
#   2 MAG_AUTO               Kron-like elliptical aperture magnitude                    [mag]
#   3 X_IMAGE                Object position along x                                    [pixel]
#   4 Y_IMAGE                Object position along y                                    [pixel]
#   5 X_WORLD                Barycenter position along world x axis                     [deg]
#   6 Y_WORLD                Barycenter position along world y axis                     [deg]
#   7 A_WORLD                Profile RMS along major axis (world units)                 [deg]
#   8 B_WORLD                Profile RMS along minor axis (world units)                 [deg]
#   9 THETA_WORLD            Position angle (CCW/world-x)                               [deg]
#  10 FWHM_WORLD             FWHM assuming a gaussian core                              [deg]
#  11 ELONGATION             A_IMAGE/B_IMAGE                                           
#  12 ELLIPTICITY            1 - B_IMAGE/A_IMAGE                                       
         1 -14.9717    164.8680     48.8677   7.1354041994e+01   3.7703540136e+01     1.334068     1.132491  -2.44  0.003800019    1.281    0.219
         2 -15.3855    179.7396     19.1098   5.9313547469e+01   3.7663906612e+01     2.188189     1.549923  70.84  0.007645767    1.372    0.271
         3 -13.4803    189.5328     14.9912   5.6735080472e+01   3.5553985608e+01    0.5699511     0.318583  66.55  0.002030768    1.681    0.405
         4 -10.2041    127.9963    245.9421   1.2030538914e+02   9.7928056664e+00    0.1114725   0.08582269 -64.11 0.0004516553    1.636    0.389
         5 -20.1129     72.5906    170.5902   1.2246283438e+02   3.1251480869e+01     15.06911     6.218516 -67.87   0.06935717    2.418    0.586
         6 -10.8144    126.8558    219.8775   1.1762517042e+02   1.3909106978e+01    0.2047923    0.1362348 -55.60 0.0007354721    1.799    0.444
         7 -12.6919    176.8875    169.2732   1.0001095683e+02   1.3560958333e+01    0.3474774    0.2094015 -53.10  0.001606076    2.062    0.515
         8 -12.1426    194.0659    171.4984   9.7077115499e+01   9.8663303630e+00    0.3082703    0.2757382  49.07 0.0008592784    1.194    0.162
         9 -11.8952    240.0228    169.4855   8.8394527871e+01   1.5928797599e+00    0.1943018    0.1170493  39.95 0.0005613099    1.575    0.365
        10 -11.5124    152.3341    219.3027   1.1286617349e+02   9.8747775620e+00     0.223996    0.1847041  38.85 0.0003506468    1.089    0.082
        11  -8.9759     29.6378    245.3320   1.3626233001e+02   2.2632636672e+01    0.2039657   0.07140857 -89.94   0.00109102    3.208    0.688
        12 -10.2812     20.2868    166.7556   1.3312756835e+02   3.7989806713e+01    0.1585699    0.1369732  27.80 0.0007293495    1.607    0.378
        13 -10.6486     25.4126    165.1200   1.3194099951e+02   3.7847363686e+01    0.1897654    0.1628287   4.72 0.0008542453    1.834    0.455
        14 -11.4962    156.9072    217.3414   1.1175971569e+02   9.4109748761e+00    0.2048202    0.1311832  53.89   0.00118584    1.487    0.327
        15  -9.8276     14.4668    162.4878   1.3399789651e+02   3.9389899399e+01    0.1116055    0.0845197  86.26 0.0008095237    1.022    0.022
        16 -11.2355     22.9769    156.0928   1.3169074252e+02   3.9969407192e+01    0.1898201    0.1590491  45.83 0.0004762126    1.392    0.281
        17 -11.6021     18.1030    154.4193   1.3259870079e+02   4.0760207581e+01     0.342537    0.1840081  88.37  0.001350834    1.614    0.381
        18 -11.4404    187.3586    154.4301   9.4936467769e+01   1.4018691466e+01    0.5275369    0.2426819  38.22  0.002124181    2.207    0.547
        19 -10.8257    191.6893    151.5944   9.3479235305e+01   1.3618690331e+01    0.3082114    0.1882812 -48.90 0.0009486115    1.917    0.478
        20 -12.0298    163.0969    151.3620   9.9287927687e+01   1.9509808824e+01    0.2566945    0.2205773  72.89 0.0006607223    1.324    0.245
        21 -10.9561      7.5302    149.7088   1.3450044676e+02   4.2627332789e+01    0.2084067    0.1387857 -51.82 0.0007534252    1.811    0.448
        22 -11.5234    174.5609    148.9596   9.6375970247e+01   1.7607235414e+01     0.280452      0.23551  50.88 0.0006290669    1.186    0.157
        23 -10.6029     24.5367    215.9135   1.3555315534e+02   2.8119308640e+01    0.1233064   0.09089445  76.71  0.000410149    1.076    0.071
        24 -11.3887    109.4516    244.6541   1.2331829671e+02   1.2693596074e+01    0.1195519    0.1049314 -57.52 0.0008992538    1.539    0.350
        25 -13.0699     11.5804    206.0879   1.3721650142e+02   3.1155242459e+01    0.3165152    0.2112935  36.92  0.001979984    1.760    0.432
        26 -10.7708    163.9915    243.4849   1.1389086863e+02   4.6195380152e+00    0.1746049   0.08836967  41.91 6.176956e-05    1.514    0.340
        27 -12.7613    160.5701    127.6734   9.4605847575e+01   2.4573505938e+01    0.4698759    0.3775771 -76.35  0.001501258    1.572    0.364
        28 -10.4191    140.2433    240.5711   1.1763243754e+02   8.6977843748e+00    0.1384268    0.1276121 -46.50 0.0006551607    1.425    0.298
        29 -11.5018    168.3345    113.4040   8.9406522370e+01   2.5605479431e+01    0.3971891    0.3031287 -73.59  0.001165629    1.756    0.431
        30 -11.1284    231.2361    113.7952   7.7550569250e+01   1.1432745021e+01    0.2506444     0.224902  23.95  0.000775359    1.116    0.104
        31 -11.0894    135.6342    238.1473   1.1816085378e+02   9.7523492364e+00     0.248575    0.2272587 -71.76  0.001021999    1.359    0.264
        32 -10.9801    205.3675    110.2799   8.1184381638e+01   1.7704990965e+01    0.3179941    0.2010505  45.48  0.001015937    1.591    0.371
        33 -10.9118    116.9246    236.0541   1.2119646229e+02   1.2895991060e+01     0.167993    0.1389289  88.60 0.0006028067    1.328    0.247
        34 -11.5037     32.9116     99.6477   1.2232298841e+02   5.1579901914e+01    0.2776168    0.2101892  62.70 0.0008408728    1.476    0.322
        35 -11.6405     13.5624    100.9130   1.2810375833e+02   5.2842974377e+01    0.3100119    0.1786522  23.13  0.001862931    2.224    0.550
        36 -11.2635    133.9797    196.2272   1.1316274146e+02   1.6721503133e+01    0.2014815    0.1763276  89.52 0.0003704936    1.234    0.189
        37 -11.0988     98.4350    249.6000   1.2559355685e+02   1.3511025691e+01    0.1085402   0.09877244 -88.69  0.000894335    1.372    0.271
        38 -11.4744    126.9183    228.5350   1.1862036957e+02   1.2533861753e+01    0.2759524    0.1924181  31.73  0.001754157    1.551    0.355
        39 -13.4363    207.9817    225.8919   1.0391436703e+02  -1.8279233795e-01    0.3800249    0.2260024 -31.96  0.002062829    1.986    0.496
        40 -12.7057    162.6248    181.4108   1.0508776357e+02   1.4195055043e+01    0.3105156    0.2285493 -63.91  0.001262797    1.733    0.423
        41 -14.4475    153.1285     63.0869   7.8364178286e+01   3.8404075549e+01     1.307367     1.015806  32.77  0.000917104    1.372    0.271
        42 -13.6146    187.3092    175.0689   9.9064038087e+01   1.0589312410e+01    0.7602146    0.4194933 -48.06  0.002465054    2.174    0.540
        43 -13.3557    169.6079     40.5752   6.7794095465e+01   3.7663869883e+01    0.4781543    0.4297414  43.42 0.0009177414    1.104    0.094
        44 -11.4227     13.6229     59.9597   1.2111906355e+02   6.1848100132e+01    0.1768664    0.1689092  69.27 0.0005035418    1.306    0.234
        45 -11.4596    186.9267    165.4334   9.7270246122e+01   1.2244332041e+01    0.3254873    0.2626007 -53.02  0.001070495    1.475    0.322
        46 -11.6875    166.9312    176.1828   1.0329685423e+02   1.4286688140e+01    0.1997546    0.1722986  62.21 0.0004088817    1.240    0.194
