#   1 NUMBER                 Running object number                                     
#   2 MAG_AUTO               Kron-like elliptical aperture magnitude                    [mag]
#   3 X_IMAGE                Object position along x                                    [pixel]
#   4 Y_IMAGE                Object position along y                                    [pixel]
#   5 X_WORLD                Barycenter position along world x axis                     [deg]
#   6 Y_WORLD                Barycenter position along world y axis                     [deg]
#   7 A_WORLD                Profile RMS along major axis (world units)                 [deg]
#   8 B_WORLD                Profile RMS along minor axis (world units)                 [deg]
#   9 THETA_WORLD            Position angle (CCW/world-x)                               [deg]
#  10 FWHM_WORLD             FWHM assuming a gaussian core                              [deg]
#  11 ELONGATION             A_IMAGE/B_IMAGE                                           
#  12 ELLIPTICITY            1 - B_IMAGE/A_IMAGE                                       
         1 -14.8104      7.9432    150.6119   1.2975880118e+02   4.2680205538e+01     6.180553     1.032618 -81.73   0.01843831    7.049    0.858
         2 -12.9235    199.6091     33.6625   5.7693365323e+01   3.0928667191e+01     1.336108     1.098328  -2.79  0.006884026    1.342    0.255
         3 -13.5721    216.4967     16.9202   5.0645181936e+01   2.8494684331e+01       1.5366      1.05422  22.12  0.007341594    1.872    0.466
         4 -11.4171      2.1380     13.9196   1.1085903798e+02   7.2505407490e+01    0.4687144    0.1460103 -57.18  0.002306147    2.236    0.553
         5 -10.5564      1.8223      5.2136   1.0759674753e+02   7.4177333312e+01    0.6318597   0.08879147 -56.74  0.002191665    4.716    0.788
         6 -10.6090      8.4894      2.6032   1.0244135417e+02   7.4204333636e+01    0.1901229     0.184562 -57.23  0.001541729    1.435    0.303
         7 -11.3561     19.4638     26.6503   1.0663175897e+02   6.8831496323e+01    0.3806001      0.23623  46.08  0.001387749    2.292    0.564
         8 -10.4160    248.9360    248.8721   9.7015164070e+01  -6.5688947847e+00    0.2245358    0.1406573 -11.34  0.001702868    1.727    0.421
         9 -12.2420    174.3543    249.1178   1.0839398691e+02   4.0610627303e+00    0.6802374    0.1654387  44.13  0.003032365    3.015    0.668
        10  -8.3663     62.6934    250.3605   1.2605264753e+02   1.9212588386e+01    0.1064182   0.05046191  64.28 0.0007039867    1.733    0.423
        11 -10.9194      2.0145    246.3892   1.3480165010e+02   2.6191932951e+01    0.5724894    0.1321251 -85.58  0.003037346    4.156    0.759
        12 -12.1353      5.5105    225.2261   1.3364441355e+02   2.9159566172e+01    0.8322589    0.2117606  62.96  0.004464703    2.977    0.664
        13 -11.3851     29.2927    248.9615   1.3097072317e+02   2.3141038090e+01    0.5744575    0.2108799  45.05  0.003861133    1.941    0.485
        14 -11.0780     38.2155    245.1549   1.2948449637e+02   2.2760762002e+01    0.4438796    0.2338113  66.98  0.002804659    1.401    0.286
        15 -12.0603     14.8854    240.6631   1.3277015120e+02   2.5841490281e+01    0.7376841    0.1604884  56.05  0.004071463    2.829    0.647
        16 -10.8228     14.7025    249.4760   1.3309657726e+02   2.4534357532e+01    0.3078767    0.1266905  63.16 0.0007415268    1.654    0.395
        17 -10.2114      8.8472    250.3020   1.3395209618e+02   2.4975335813e+01    0.2658596   0.09327013  43.08 0.0009979326    2.113    0.527
        18 -14.4932     96.0469    229.5320   1.1924340653e+02   1.8038323603e+01     4.163247    0.4037394  43.62   0.01376783    5.577    0.821
        19 -10.1429    226.2685    201.5068   9.3406190091e+01   1.2897516479e+00     0.256124    0.2006785 -55.25 0.0009387032    2.102    0.524
        20  -9.4783    193.4641    195.6757   9.7981052521e+01   7.5204700125e+00    0.4281309    0.2218201 -62.51  0.001306861    8.105    0.877
        21 -11.4120     56.7862    192.1924   1.2309295288e+02   2.9489270528e+01    0.2690645     0.227241 -52.08  0.001257488    1.736    0.424
        22  -7.9942    181.5050    192.4686   9.9586113580e+01   1.0042682897e+01    0.1246992    0.1046183  38.01 0.0001023492    1.007    0.007
        23 -11.5385     63.1004    184.7989   1.2124951294e+02   3.0095334764e+01    0.2333567    0.2012848 -76.30 0.0004159182    1.345    0.257
        24  -8.9040     40.6100    178.2549   1.2508630773e+02   3.4007514228e+01     0.145892   0.08845361 -71.83 0.0008244687    1.569    0.363
        25 -12.4294     27.9490    224.0993   1.3009459140e+02   2.7151947336e+01    0.2470148    0.2076432 -89.24 0.0007971224    1.463    0.316
        26 -10.6268     73.8449    173.0881   1.1792760112e+02   3.0960666871e+01      0.21055    0.1736797 -81.03 0.0003653537    1.202    0.168
        27 -12.9180     60.3315    170.4082   1.2043116598e+02   3.3247829991e+01    0.4201268    0.2495681 -49.81  0.001723605    2.286    0.563
        28 -11.6123     81.9505    164.4746   1.1522178266e+02   3.1553857771e+01    0.5682667    0.4504415  65.10  0.003704746    1.091    0.083
        29 -13.6859     34.1908    216.6330   1.2870655993e+02   2.7735790328e+01    0.7405456    0.5043186  66.14  0.002782872    1.028    0.027
        30  -9.6075     95.4193    149.3910   1.1016366541e+02   3.2633284545e+01    0.2479595    0.2029455  73.21 0.0007791538    1.114    0.102
        31 -11.7509     83.8373    148.1605   1.1261458236e+02   3.4651494213e+01    0.2613569     0.215287 -63.91 0.0005514889    1.261    0.207
        32 -12.2053     67.4777    143.8288   1.1578826649e+02   3.7859636058e+01    0.7249625    0.4133007  67.73  0.003034114    1.894    0.472
        33 -10.7232     18.0995    233.4159   1.3202360737e+02   2.6651529792e+01    0.1913494    0.1612016 -77.32  0.001758978    1.688    0.407
        34  -8.7807     98.7710    145.4342   1.0877618022e+02   3.2926686592e+01    0.1663389    0.1254712  33.16 0.0004089558    1.557    0.358
        35  -9.1584    107.7862    135.4294   1.0495282970e+02   3.3532042298e+01    0.2869834     0.198488 -22.23  0.001301497    2.594    0.615
        36 -10.2591     95.1357    132.2917   1.0740812068e+02   3.6311462696e+01    0.2328309    0.2084416 -51.47 0.0005205606    1.257    0.205
        37 -10.7606     56.4443    129.2099   1.1645136176e+02   4.2462109824e+01    0.3685431    0.1366981 -67.36  0.001602225    2.416    0.586
        38  -8.8443    105.8499    122.4889   1.0292515022e+02   3.6635346676e+01     0.181812    0.1345083  45.49 0.0003292571    1.377    0.274
        39  -9.6439    167.6680    112.6854   8.6360482611e+01   2.6111041139e+01    0.3408254    0.2673989 -82.03   0.00108664    1.676    0.403
        40  -8.7356    203.3062    111.3398   7.9043324794e+01   1.8322086889e+01    0.1526221    0.1107352  12.03 0.0007041778    1.681    0.405
        41 -10.6665    242.6054    101.6384   7.0194358078e+01   1.1169779248e+01    0.4147421     0.200928  24.54  0.001408655    3.794    0.736
        42 -10.0498    241.4990     93.4956   6.8349760465e+01   1.2535371395e+01    0.1414243    0.1270907 -10.22 0.0008105807    1.022    0.022
        43  -8.9892    159.7554     78.9952   7.8893126949e+01   3.4163342855e+01    0.2056891    0.1290151 -36.18 0.0005366089    1.570    0.363
        44 -14.0961     41.3894    200.8453   1.2653945575e+02   2.9698347371e+01     4.101136     1.212025  65.52   0.01558781    4.913    0.796
        45 -11.0934    139.1704    248.4619   1.1390860291e+02   9.2909105988e+00    0.2385532    0.1860362 -84.30  0.001882153    1.667    0.400
        46 -12.9335     10.8467    206.9805   1.3211182791e+02   3.1723285506e+01    0.6988093    0.3691838  40.43  0.002684949    1.832    0.454
        47  -9.8069    100.7711    249.4330   1.2008890756e+02   1.4524163961e+01    0.1406823   0.07881994  39.56  0.000644093    1.613    0.380
        48 -10.4662     90.0086    246.0321   1.2153121001e+02   1.6422926671e+01      0.16514    0.1138718  57.26 0.0008272899    1.026    0.025
        49 -10.8916    105.9777    241.5012   1.1861805329e+02   1.4919002958e+01    0.1870323    0.1236389  76.96 0.0006893441    1.599    0.374
        50  -8.4259     49.3468    238.2779   1.2743602402e+02   2.2567581388e+01   0.08101976   0.07300043  46.82 0.0007007435    1.634    0.388
        51 -12.3462      4.1043    184.6610   1.3231048516e+02   3.6336768604e+01    0.8843195    0.3111991  88.39 0.0009128981    2.449    0.592
