#   1 NUMBER                 Running object number                                     
#   2 MAG_AUTO               Kron-like elliptical aperture magnitude                    [mag]
#   3 X_IMAGE                Object position along x                                    [pixel]
#   4 Y_IMAGE                Object position along y                                    [pixel]
#   5 X_WORLD                Barycenter position along world x axis                     [deg]
#   6 Y_WORLD                Barycenter position along world y axis                     [deg]
#   7 A_WORLD                Profile RMS along major axis (world units)                 [deg]
#   8 B_WORLD                Profile RMS along minor axis (world units)                 [deg]
#   9 THETA_WORLD            Position angle (CCW/world-x)                               [deg]
#  10 FWHM_WORLD             FWHM assuming a gaussian core                              [deg]
#  11 ELONGATION             A_IMAGE/B_IMAGE                                           
#  12 ELLIPTICITY            1 - B_IMAGE/A_IMAGE                                       
         1 -12.9062     54.8254    146.4945   1.0328834810e+02   3.8813243669e+01     4.876214    0.8780043 -62.51   0.01347684    4.536    0.780
         2 -13.1661    200.1704     42.4091   4.2148146391e+01   3.0333493757e+01     1.058484    0.9071099 -68.67  0.003340786    1.047    0.044
         3 -13.6870    210.3874     32.6547   3.8696521489e+01   2.9315109025e+01     1.141423    0.9023733 -13.06  0.001666994    1.833    0.454
         4 -12.8823    235.7476      6.7031   3.1001332046e+01   2.6966163093e+01    0.8178558    0.6114151 -77.78   0.00492136    1.063    0.059
         5 -12.1855     81.3614    158.8586   9.7858966309e+01   3.1928424437e+01     1.132597    0.6535608  66.00 0.0009380111    2.342    0.573
         6 -10.7469    139.5926    249.9987   9.7633191805e+01   2.8689634862e+00    0.3553157     0.176028  42.12  0.001789166    1.724    0.420
         7 -12.7786     54.7346    186.0319   1.0873249209e+02   2.8961466892e+01     1.737044    0.9337803  77.54   0.00755031    2.297    0.565
         8 -15.1601     41.2389    194.6852   1.1290885751e+02   2.8547733197e+01     9.453849     3.281042  67.18   0.02378177    7.494    0.867
         9 -10.0875    202.9925    200.4934   7.6900647963e+01   1.4985911830e+00    0.2035124    0.1249184  36.72  0.001040019    1.616    0.381
        10 -10.8468    122.3365    198.6028   9.4058480798e+01   1.5687123406e+01    0.3824662     0.262978 -75.70  0.001354228    1.802    0.445
        11  -9.5583     59.2830    197.0018   1.0889210481e+02   2.5755199868e+01    0.2096931    0.1785408  55.59  0.001263906    1.119    0.106
        12  -8.7118     82.0396    194.7305   1.0314035226e+02   2.3079679462e+01    0.2010414    0.1733132  53.44    0.0011543    1.093    0.085
        13 -10.7990    110.9304    203.2799   9.7453938547e+01   1.6569910345e+01     0.321516    0.2305994  70.16 0.0005660192    1.601    0.375
        14 -17.1184     14.4419    242.5396   1.2198401650e+02   2.1072467472e+01     6.358649      2.20762  26.25   0.02688558    4.202    0.762
        15  -8.9511    151.2203    193.5754   8.6539295007e+01   1.1705063666e+01    0.2457279     0.209513  75.64   0.00132302    1.402    0.287
        16  -9.3623    148.3075    189.6280   8.6493375802e+01   1.3056603850e+01     0.298619    0.2167285  74.48  0.001385821    1.945    0.486
        17  -9.6356    146.4155    186.2473   8.6313819580e+01   1.4121288872e+01    0.2719602    0.2269795  78.02 0.0006638144    1.440    0.305
        18  -9.1257     79.8196    182.7078   1.0201907937e+02   2.6275962741e+01     0.355441    0.1836977 -83.73  0.001348679    2.761    0.638
        19  -8.2832     76.4257    184.5623   1.0313655701e+02   2.6331962818e+01    0.1413952    0.1258187  76.90  0.000105983    1.020    0.020
        20  -9.2230     88.9900    210.4855   1.0354834807e+02   1.8440492305e+01    0.2309384    0.1741547  88.55 -8.263297e-05    1.395    0.283
        21 -10.1845     99.3912    180.8965   9.6793749536e+01   2.3620650229e+01    0.2721169    0.2610803 -70.11 0.0006238369    1.095    0.087
        22  -9.9932     64.8753    179.1630   1.0532508087e+02   2.9288697610e+01    0.3438164    0.2746798 -83.85  0.001795147    1.172    0.147
        23  -8.1649     88.6708    179.2526   9.9253527052e+01   2.5749260168e+01    0.1479896    0.1024569  64.19 0.0003927165    1.552    0.356
        24 -10.9265     42.6608    177.3153   1.1073960474e+02   3.2559434491e+01    0.5891648     0.441431   7.48  0.002241348    1.886    0.470
        25 -10.4507    186.9106    175.1364   7.5271686225e+01   8.9729399145e+00    0.3855906    0.3126428 -48.39  0.001235399    1.274    0.215
        26  -8.3238     91.3279    176.7031   9.8171628168e+01   2.5943927290e+01    0.1529389      0.10581  68.58 0.0004122082    1.633    0.388
        27 -11.1918    107.5393    203.9747   9.8350145673e+01   1.6970909235e+01    0.3607031    0.2562455  74.39  0.001440763    1.657    0.397
        28 -12.8846     69.7364    153.6382   1.0020197774e+02   3.4982540133e+01    0.7083752    0.4500355 -55.47  0.001534459    1.505    0.335
        29 -14.5112     68.6679    144.4103   9.8916104983e+01   3.7473327328e+01     5.400352     2.202843  60.11   0.01193494    6.508    0.846
        30  -9.0679     34.7509    171.6273   1.1211412823e+02   3.4842366729e+01    0.2141858    0.1467989  49.53 0.0006808153    1.434    0.303
        31 -10.1999    240.4901    169.9079   6.4292102027e+01   7.9473172722e-01    0.2069513    0.1121365 -38.92  0.001039262    1.612    0.380
        32  -8.5443    120.5765    165.7523   8.8728220726e+01   2.3522142838e+01    0.1987676    0.1453438 -68.94 0.0004390519    1.504    0.335
        33 -11.6150     88.8233    151.9449   9.4555392241e+01   3.2468305709e+01    0.7018569    0.4812454 -23.62  0.003026445    2.166    0.538
        34 -10.4852    134.3260    147.8366   8.1557984098e+01   2.5100610433e+01      1.10018    0.2833759 -54.12  0.002747141    4.881    0.795
        35  -9.3878    174.7216    149.0032   7.2359902893e+01   1.6651581799e+01    0.2155488    0.1929116 -46.23 0.0005434689    1.090    0.083
        36  -8.7495    111.2613    149.2930   8.7882745836e+01   2.9198260588e+01     0.328819     0.171988  58.17  0.001169897    2.613    0.617
        37  -9.9959     37.9128    146.0722   1.0810394945e+02   4.0894441869e+01    0.3334849    0.1653846  42.29  0.001524283    2.090    0.522
        38 -11.0479     28.8945    143.7698   1.1038171071e+02   4.2388037077e+01    0.4757035    0.3729599  37.63   0.00281011    1.409    0.290
        39 -10.5588    102.2285    138.3019   8.8046455907e+01   3.3539449729e+01     0.611349    0.4020546 -16.36  0.002340163    2.655    0.623
        40 -10.1532    105.8117    131.0517   8.5428132557e+01   3.4646893283e+01      0.42945    0.3262588 -58.62  0.001675484    1.304    0.233
        41 -11.5663     89.8001    137.7765   9.1484212632e+01   3.5845074339e+01    0.2906003    0.2620295 -42.70 0.0004171816    1.152    0.132
        42 -10.1624    135.3480    128.4015   7.6847460360e+01   2.9382022903e+01    0.4366246    0.2149356 -49.25  0.001648693    2.013    0.503
        43  -9.6378    111.5347    129.2177   8.3398889646e+01   3.4000260663e+01    0.2930561    0.2512259   9.07 0.0009181933    1.392    0.282
        44 -11.4344     68.6572    171.7299   1.0331107554e+02   3.0595892144e+01     0.462456    0.3121186 -31.95  0.002150518    2.106    0.525
        45 -10.4186     28.8066    129.3208   1.0840750757e+02   4.6021282665e+01    0.2986626    0.1896097  78.89  0.001419862    1.818    0.450
        46 -10.0663     67.7934    125.2876   9.5517729997e+01   4.2419985833e+01    0.4456826    0.2099264 -61.11  0.001709788    2.036    0.509
        47  -8.8628    160.9891    127.9933   7.0577128789e+01   2.4001901933e+01    0.2852564    0.1636416 -65.19  0.001026481    2.587    0.613
        48 -11.4161     73.0659    167.1154   1.0145232566e+02   3.1111468465e+01     0.402007     0.310188 -65.35 0.0009950435    1.237    0.192
        49 -10.1998     98.9346    124.9618   8.6002381087e+01   3.7392105478e+01    0.3189279    0.2683394 -12.86  0.001236122    1.442    0.306
        50  -9.8367    117.4291    123.6378   8.0440069150e+01   3.4162312926e+01    0.3071321    0.1987177  37.79 0.0006964926    1.618    0.382
        51  -8.3863    163.4730    120.9831   6.8326597348e+01   2.4954935114e+01    0.2159209    0.1303778 -66.23 0.0008070944    2.362    0.577
        52  -9.3083    135.0000    119.9377   7.4865063183e+01   3.1371790538e+01    0.2607307   0.08797758 -46.73 0.0007993188    2.921    0.658
        53  -9.1689     87.5839    121.0286   8.8473208383e+01   4.0352178879e+01    0.3630499    0.2350798  70.65  0.001468229    2.304    0.566
        54  -9.3096    107.9343    118.2845   8.1794098626e+01   3.7291444506e+01    0.2402619    0.2114122 -48.84 0.0002825203    1.114    0.102
        55 -11.8285     33.6255    117.9535   1.0506992233e+02   4.8394784434e+01    0.4448514    0.2917733 -57.11  0.002171042    1.322    0.243
        56  -9.8443    231.1853    113.7007   5.4182933388e+01   1.2198393092e+01     0.256224    0.2380493 -62.78 0.0007679861    1.095    0.087
        57  -9.2445    135.0000    111.0247   7.2598150192e+01   3.3347312826e+01    0.2606131   0.08774731 -45.52 0.0008012327    2.934    0.659
        58  -9.3422    205.6511    110.1195   5.7457529447e+01   1.7971613149e+01    0.2564892    0.2117778  47.91 0.0006157529    1.335    0.251
        59 -10.9653     33.2452    108.8691   1.0357053527e+02   5.0666679570e+01     0.354861    0.2041626 -81.34  0.001634128    2.036    0.509
        60  -9.8744     45.2366    117.9766   1.0128232260e+02   4.7159708464e+01    0.2004077    0.1656653 -63.57 0.0003208883    1.084    0.077
        61 -10.6223    115.5155    108.2227   7.7077241542e+01   3.8094354828e+01    0.4148112    0.3273194 -66.66  0.001985101    1.400    0.286
        62  -9.6519    142.7708    208.7647   9.1014344683e+01   1.0055427069e+01    0.1890964     0.159801  66.58  0.001054227    1.330    0.248
        63 -11.4503     42.0410    103.9710   9.9568684714e+01   5.0947279657e+01    0.3967262    0.3300686  41.68  0.001329556    1.344    0.256
        64  -9.0557    137.7759    104.5865   7.0207569471e+01   3.4126622649e+01    0.2108617    0.1472953  60.21 0.0005062556    1.572    0.364
        65  -9.4974    242.6669    102.3205   5.0140729150e+01   1.1975821704e+01    0.1374233    0.0914177 -66.03 0.0007049394    1.699    0.411
        66  -9.9592     34.0065    100.0508   1.0158307706e+02   5.2722787864e+01     0.205427    0.1829572 -57.06 0.0005908773    1.028    0.027
        67  -8.6967    125.4416     92.9566   7.0204091084e+01   3.9285613604e+01    0.2327425    0.1484319 -46.12   0.00101442    1.568    0.362
        68  -9.8876     15.1687     89.6086   1.0638526058e+02   5.6767912079e+01    0.2883832    0.1233894  35.41   0.00133201    2.681    0.627
        69  -8.6934     32.6609     86.9571   9.9235289994e+01   5.5922855853e+01    0.2074901    0.1073693 -85.84 0.0007031275    4.245    0.764
        70  -8.5954    154.4973     86.4782   6.1387120751e+01   3.3953240836e+01    0.1516926    0.1431699 -82.37 0.0002196068    1.034    0.033
        71  -8.5282     75.1550     85.1684   8.3240027127e+01   5.0750769802e+01    0.1837277     0.168199  76.40 0.0003923844    1.287    0.223
        72  -9.4107    113.1288     82.5208   7.0550091380e+01   4.4065095342e+01    0.4243095    0.2592208  69.99  0.001487386    2.628    0.619
        73  -8.9418    159.1426     82.8576   5.9408985996e+01   3.3540909670e+01    0.2051653    0.1799081  27.48 0.0005959942    1.333    0.250
        74  -8.7857     55.9915     66.2525   8.4506160877e+01   5.7633593626e+01    0.1799547    0.1626909  -6.37 0.0002521299    1.052    0.049
        75 -11.0678     12.4506     59.2007   1.0072113466e+02   6.3665786044e+01    0.4433059    0.2963806  56.21  0.002479429    2.308    0.567
        76 -12.8489    189.7945     50.3541   4.5472031515e+01   3.1618424855e+01    0.9942942     0.747365  52.92 0.0009711916    1.449    0.310
        77 -10.6328    197.1453    203.4504   7.8585427897e+01   1.9230680239e+00    0.4705924    0.2271666 -53.49  0.001946984    2.848    0.649
        78 -10.6036    191.9969    192.9979   7.7691457957e+01   4.6644218168e+00    0.5273662    0.2905996 -63.52  0.001937621    3.713    0.731
        79 -11.1793    117.6193    191.5321   9.4036748814e+01   1.8067989012e+01    0.4218182    0.3032727 -19.61  0.001819375    2.049    0.512
        80  -9.1758    198.0466     23.7555   3.7941572318e+01   3.3213890110e+01    0.1992407    0.1693343 -12.83 0.0007031419    1.618    0.382
        81 -11.2013    111.4832    197.3508   9.6428047005e+01   1.7796785563e+01     0.688549    0.3932278   9.31  0.002242194    4.362    0.771
        82  -8.7001    189.4905     14.9862   3.6748457176e+01   3.6191222383e+01    0.1746647    0.1209349 -37.07 0.0006940551    1.543    0.352
        83 -15.9182      7.4933    203.0952   1.2110996853e+02   3.0117631820e+01     14.53902     1.302073 -76.69   0.01228389    9.891    0.899
