#   1 NUMBER                 Running object number                                     
#   2 MAG_AUTO               Kron-like elliptical aperture magnitude                    [mag]
#   3 X_IMAGE                Object position along x                                    [pixel]
#   4 Y_IMAGE                Object position along y                                    [pixel]
#   5 X_WORLD                Barycenter position along world x axis                     [deg]
#   6 Y_WORLD                Barycenter position along world y axis                     [deg]
#   7 A_WORLD                Profile RMS along major axis (world units)                 [deg]
#   8 B_WORLD                Profile RMS along minor axis (world units)                 [deg]
#   9 THETA_WORLD            Position angle (CCW/world-x)                               [deg]
#  10 FWHM_WORLD             FWHM assuming a gaussian core                              [deg]
#  11 ELONGATION             A_IMAGE/B_IMAGE                                           
#  12 ELLIPTICITY            1 - B_IMAGE/A_IMAGE                                       
         1 -14.9601      9.1857    151.9309   1.4557174391e+02   4.2593040003e+01      8.05724     3.365952  76.19   0.03900821    2.534    0.605
         2 -13.5512    192.7792     28.7903   7.0476956909e+01   3.3724690727e+01     1.430721     1.392713 -40.92  0.007403698    1.109    0.098
         3 -13.7631    207.6438      9.1412   6.3225270257e+01   3.2146084757e+01     1.478909     1.025466  46.51  0.007462123    1.650    0.394
         4 -12.9191      3.3415     10.9998   1.2081851972e+02   7.2975380066e+01     1.463624    0.2430749 -51.46  0.005664393    4.091    0.756
         5  -9.6669    152.2997    248.3345   1.2715963162e+02   4.5555888588e+00     0.109306   0.08288103  18.42  0.000234916    1.654    0.395
         6 -11.0819    248.8929    249.2440   1.1103348056e+02  -1.0207250907e+01    0.2539016    0.1842122  28.01  0.001900263    1.165    0.142
         7 -12.0742    139.9455    249.0762   1.2939855475e+02   6.3888201535e+00    0.4624999    0.2835224  53.87  0.002904517    1.391    0.281
         8  -9.9712    110.2911    250.5908   1.3468785995e+02   1.0679761233e+01     0.230902   0.08063893  46.00    0.0011398    2.149    0.535
         9 -10.5112     97.5003    250.5272   1.3686705590e+02   1.2553716666e+01    0.2603789    0.1956943  18.06  0.001665258    2.300    0.565
        10 -11.1244    101.5230    247.0083   1.3586376772e+02   1.2530735413e+01    0.2895713    0.1984342 -57.08  0.001967791    1.875    0.467
        11  -9.7800     29.7129    250.0906   1.4790769538e+02   2.1298326480e+01    0.2662352   0.08520861  49.73  0.001539995    2.131    0.531
        12 -10.7596     34.4672    245.2111   1.4691097985e+02   2.1585102047e+01    0.3642982     0.216227 -63.42  0.002550562    2.144    0.534
        13  -9.9295      2.7944    249.4314   1.5194575044e+02   2.4209898389e+01    0.1930417    0.1650715  55.98  0.001765832    1.609    0.379
        14 -11.0029    196.0166    241.5224   1.1865889164e+02  -1.4937494831e+00    0.3297115    0.2248743  85.15  0.001520486    4.290    0.767
        15  -8.8160     23.0978    245.5443   1.4871560503e+02   2.2784734264e+01    0.1462008   0.07402438  48.77 0.0009408453    1.552    0.356
        16  -9.2386    156.4788    250.4825   1.2668679218e+02   3.5995138436e+00    0.1167535   0.09013262  44.09 0.0008100386    1.007    0.007
        17  -9.4310      5.6761    240.9595   1.5120071094e+02   2.5354154951e+01    0.1438408    0.1055822  63.66 0.0004174392    1.232    0.188
        18  -9.1240     13.4941    240.4861   1.4997909504e+02   2.4654312397e+01    0.1035566   0.06812099  69.92 -4.48895e-05    1.006    0.006
        19 -10.2487    183.5405    238.3245   1.2038580289e+02   9.1709206244e-01    0.2071632    0.1229898  27.34 0.0008519226    1.719    0.418
        20 -12.0629     56.3907    226.1896   1.4201963450e+02   2.2314685607e+01     1.842405     1.157225 -53.45  0.009148702    2.295    0.564
        21 -14.1258      9.7218    206.5197   1.4899097220e+02   3.1226864684e+01     8.470312          nan  40.07  0.007126944   10.786    0.907
        22 -10.8990    238.1456    248.4803   1.1263390798e+02  -8.6319103657e+00    0.1641356    0.1469564  17.08  0.001310531    1.357    0.263
        23  -9.5307      7.8039    226.1678   1.5025462041e+02   2.7745355524e+01    0.1225888    0.1013356  72.07   0.00050368    1.347    0.258
        24  -8.9234    152.4991    212.9944   1.2250072854e+02   9.9461478290e+00    0.1589286    0.1283181 -53.36 0.0003391691    1.450    0.310
        25 -11.6335     63.8106    199.0536   1.3831608864e+02   2.6583852952e+01    0.2863354    0.2310649 -52.65  0.000628998    1.671    0.401
        26 -12.2428     19.0737    199.2075   1.4689823839e+02   3.1746114213e+01    0.5090832    0.1596113  55.74  0.002504131    2.678    0.627
        27 -10.4994      9.8783    195.4945   1.4836511688e+02   3.3372767180e+01    0.2941983    0.1260458  49.99  0.001487401    1.935    0.483
        28  -9.8596    191.9849    192.9993   1.1165270009e+02   6.1009026682e+00    0.4024109    0.2306171 -64.89  0.001551164    3.893    0.743
        29 -12.7462     38.0129    233.6174   1.4567726895e+02   2.3194798890e+01     0.269247    0.2246573 -88.84  0.000756658    1.383    0.277
        30 -11.9080     69.6625    190.9570   1.3630772908e+02   2.7455445476e+01    0.2531286    0.2241343 -70.94 0.0005254735    1.331    0.248
        31 -10.9653     79.3516    178.1406   1.3275212022e+02   2.8797781646e+01      0.23321    0.2011995 -85.15 0.0004242878    1.122    0.109
        32 -13.3126     66.3404    176.1061   1.3534233180e+02   3.1067633340e+01    0.4648527    0.2659364 -47.89  0.001894683    2.312    0.567
        33  -8.8982    101.6997    178.3148   1.2788297167e+02   2.5293558530e+01    0.1391521   0.09329186  74.21 0.0004413336    1.612    0.380
        34 -11.9570     87.0489    168.4645   1.2972781730e+02   2.9753991679e+01    0.6186542     0.592908  53.99  0.003991281    1.259    0.206
        35  -8.6237     97.6535    171.7252   1.2780985519e+02   2.7364482248e+01    0.1226251     0.109133  -7.60 0.0003458677    1.628    0.386
        36 -14.2453     43.8333    225.6621   1.4418241390e+02   2.3951067590e+01     2.641575     1.156503  38.05  0.004461238    2.299    0.565
        37  -9.8271    188.1302    151.5440   1.0419475182e+02   1.4022410666e+01    0.4748595    0.2992198 -74.65  0.001727776    3.376    0.704
        38 -10.0959     98.9528    152.5314   1.2441724217e+02   3.1403368940e+01    0.2825972    0.2473865  59.57 0.0007957616    1.119    0.107
        39 -12.2009     87.5892    151.8092   1.2704033610e+02   3.3410867148e+01    0.2817101    0.2500098 -49.04 0.0006267785    1.310    0.236
        40 -12.6627     67.1551    144.0686   1.3084342872e+02   3.8190772835e+01    0.7753445    0.4996673  78.64  0.003972775    1.714    0.416
        41  -9.2593    102.6594    225.3126   1.3352576699e+02   1.6003452804e+01    0.1283806   0.07540545  66.18 0.0006377269    1.698    0.411
        42  -9.2505    101.9058    148.0994   1.2291431615e+02   3.1906273483e+01    0.2098269    0.1728877 -24.05   0.00078764    1.676    0.403
        43  -8.8365    182.2484    145.4716   1.0404964002e+02   1.6406514434e+01    0.1941575    0.1412433  59.78 0.0004670117    1.519    0.341
        44 -10.5355    173.8859    222.5650   1.1987231194e+02   4.7439122982e+00    0.3720126     0.261311  67.64  0.002103435    1.906    0.475
        45  -8.4915    192.0021    143.9711   1.0173926396e+02   1.4592719996e+01    0.1704834    0.1649317  -7.50 0.0003933873    1.023    0.022
        46  -9.8742    110.1394    137.4416   1.1882412148e+02   3.2872205823e+01    0.3781941    0.2546901 -28.03   0.00137793    2.248    0.555
        47 -11.5006     57.4967    132.2371   1.3147250314e+02   4.2217533810e+01    0.7036602    0.2944486 -79.76  0.002486866    3.550    0.718
        48 -10.5882     97.3242    134.9070   1.2156047903e+02   3.5712638377e+01    0.2642585    0.2485383   2.47 0.0005368946    1.327    0.246
        49 -10.1244     93.6765    133.3327   1.2219024493e+02   3.6690522763e+01    0.2722105    0.1986634  73.11 0.0009819551    1.530    0.346
        50 -10.2320     83.5471    134.4770   1.2503602912e+02   3.8049905973e+01    0.2700433    0.2076265  74.77  0.000616931    1.355    0.262
        51 -12.0036     33.8800    132.9872   1.3772075188e+02   4.4677555956e+01    0.4970352    0.2530846 -83.81  0.002477979    1.902    0.474
        52  -8.4357    160.4318    125.4655   1.0406239750e+02   2.5159411664e+01    0.1546812    0.1446816 -83.61 0.0001290812    1.111    0.100
        53  -9.2472    107.0848    124.0379   1.1674808457e+02   3.6492310675e+01     0.204809     0.193966 -77.54 0.0002879437    1.028    0.027
        54 -10.9761     53.9759    120.9281   1.3055753758e+02   4.5310627198e+01     0.501288    0.1785999 -71.75  0.001758614    3.366    0.703
        55 -10.9497    153.7230    228.7142   1.2445012842e+02   7.2144144778e+00    0.4063396   0.09438188  37.86  0.001225616    5.089    0.804
        56  -9.5292    203.3792    111.7442   9.1801216758e+01   1.7939370750e+01    0.2108874    0.1411626 -25.12  0.000445785    1.621    0.383
        57 -10.4898    167.8662    113.0391   9.9288312677e+01   2.5980728944e+01    0.3303474    0.2868851 -86.90 0.0006634037    1.302    0.232
        58  -9.0674     94.3923    216.6885   1.3416605122e+02   1.8812515068e+01    0.1892728    0.1141342  69.26 0.0005824922    1.656    0.396
        59  -9.1147     72.8259     86.0689   1.1735578401e+02   5.0881326199e+01    0.2005838    0.1736868 -87.61 0.0005068074    1.302    0.232
        60  -8.5480     67.2506     82.6811   1.1824017548e+02   5.2439658819e+01    0.1307296    0.1021768 -81.95 0.0002193997    1.530    0.346
        61  -9.5859    156.7601     75.9922   9.1306849398e+01   3.5794642492e+01    0.2094493     0.129911 -36.73 0.0008728184    1.600    0.375
        62 -10.4211     12.8233     64.8636   1.3296371328e+02   6.1889717462e+01    0.2869802   0.09457882  34.10  0.001319219    3.578    0.721
        63  -9.8124     32.8902     62.1566   1.2474915910e+02   6.0907876808e+01    0.2331902    0.1808678 -81.68 0.0008125051    1.544    0.352
        64 -11.3027     25.0592     59.3564   1.2699960150e+02   6.2181510803e+01    0.7086875    0.2111754  40.49  0.002734031    4.715    0.788
        65 -11.0117      1.7675     62.1806   1.3653688641e+02   6.3090695823e+01     0.401614   0.07717897 -68.58  0.001389475    4.298    0.767
        66 -10.8289      2.7484     46.6932   1.3277870079e+02   6.6284894481e+01    0.2036425     0.133933 -60.12 0.0009803376    1.182    0.154
        67 -10.2250    162.2930    249.0064   1.2550056647e+02   2.8843046456e+00    0.1597169    0.1347427  43.36 0.0005169538    1.089    0.082
        68  -9.4041     81.8048    248.8041   1.3938007286e+02   1.5033156663e+01    0.1622636   0.09750443  64.40 0.0009617393    1.371    0.271
