#   1 NUMBER                 Running object number                                     
#   2 MAG_AUTO               Kron-like elliptical aperture magnitude                    [mag]
#   3 X_IMAGE                Object position along x                                    [pixel]
#   4 Y_IMAGE                Object position along y                                    [pixel]
#   5 X_WORLD                Barycenter position along world x axis                     [deg]
#   6 Y_WORLD                Barycenter position along world y axis                     [deg]
#   7 A_WORLD                Profile RMS along major axis (world units)                 [deg]
#   8 B_WORLD                Profile RMS along minor axis (world units)                 [deg]
#   9 THETA_WORLD            Position angle (CCW/world-x)                               [deg]
#  10 FWHM_WORLD             FWHM assuming a gaussian core                              [deg]
#  11 ELONGATION             A_IMAGE/B_IMAGE                                           
#  12 ELLIPTICITY            1 - B_IMAGE/A_IMAGE                                       
         1 -14.2890     68.5627    144.3598   9.8671856551e+01   3.7654547475e+01     4.545703     2.201004  64.40  0.005861498    4.044    0.753
         2 -13.4224    201.7402     42.0470   4.1473350081e+01   2.9906930031e+01     1.240223     1.063097 -31.04  0.004365829    1.375    0.273
         3 -12.9395      2.1446     11.7012   8.9684782613e+01   7.2900358262e+01     1.913897     0.429034 -50.23  0.007547567    4.512    0.778
         4 -12.7780    238.2731      6.1545   3.0397946838e+01   2.6341807430e+01    0.7839016    0.5730833 -82.03  0.005305956    1.116    0.104
         5 -13.4950    212.6053     31.7206   3.7877201370e+01   2.8805667060e+01    0.8854337    0.7747848  41.74   0.00215874    1.532    0.347
         6  -8.6831     59.2857      7.3259   5.9767775966e+01   6.5945798480e+01    0.1247159   0.07779046  19.86 0.0002391213    1.606    0.377
         7 -14.8856      9.5699    207.5223   1.2085153224e+02   2.9141932056e+01     1.321064     1.108974 -20.37  0.008774418    1.831    0.454
         8 -10.0036    102.2180    249.2625   1.0496619208e+02   8.9006776377e+00    0.2777055    0.2016366  81.83  0.001125625    1.627    0.385
         9 -10.9573    101.4248    244.1451   1.0456925794e+02   9.9725999304e+00    0.4058356    0.2415946 -72.80  0.002153964    2.083    0.520
        10 -15.1738     40.8990    195.3892   1.1290173484e+02   2.8647419576e+01     7.157447     2.380985  62.74   0.01148521    6.313    0.842
        11 -13.4351     52.5394    186.6692   1.0916158564e+02   2.9311077146e+01     1.509183     1.087481  63.91  0.008384333    1.324    0.245
        12  -8.8674     67.8275    199.5402   1.0695331917e+02   2.4265173469e+01    0.2028182    0.1815648 -52.19 0.0007128323    1.298    0.230
        13  -9.8274    122.1035    198.2887   9.3737252645e+01   1.6080750702e+01    0.3359198    0.2386351 -70.74   0.00166216    1.657    0.397
        14  -8.7510     82.5264    194.5262   1.0275391277e+02   2.3318660263e+01     0.141329    0.1250378  68.29 3.231299e-05    1.036    0.035
        15 -15.4159      5.4271    174.1457   1.1947058991e+02   3.7133090108e+01     9.090915    0.9025536 -73.61    0.0247026    6.366    0.843
        16  -8.7801    118.5174    191.5068   9.3490905335e+01   1.8194236145e+01    0.1453015    0.1347098  57.07 -4.201217e-07    1.035    0.034
        17 -10.1461    107.6065    203.8433   9.8028919121e+01   1.7278380058e+01     0.261692     0.188179  57.71 0.0006463978    1.410    0.291
        18 -10.0323    147.7297    188.0285   8.5942517217e+01   1.3770653281e+01    0.4350094    0.2922954 -85.26  0.001789996    2.625    0.619
        19  -8.8765     85.1834    185.9423   1.0088199024e+02   2.4935327844e+01     0.289075     0.177099  77.69  0.001019316    2.191    0.544
        20  -9.1009     82.5158    182.4094   1.0103936470e+02   2.6184746177e+01     0.234365    0.2118517 -51.45 0.0007530224    1.210    0.174
        21  -9.4388     79.4569    181.5168   1.0169053099e+02   2.6859217648e+01    0.2934644    0.2099358  50.89  0.001294843    1.349    0.259
        22  -9.6678     99.4228    180.7815   9.6471811626e+01   2.3894129960e+01    0.2686426    0.2476048  45.97 0.0006239692    1.074    0.069
        23  -8.5558     88.4845    178.4968   9.8911010000e+01   2.6202860900e+01    0.1455329    0.1334602  73.33 5.248958e-05    1.028    0.027
        24 -10.2940    186.9335    175.3729   7.4839545529e+01   9.1607531410e+00    0.3639708    0.3035175 -47.60  0.001189618    1.257    0.204
        25 -12.2582     80.3678    159.1351   9.7902126810e+01   3.2209195189e+01      1.18358    0.5767777  61.02 0.0004569517    3.225    0.690
        26 -12.9013     68.4508    154.2382   1.0040824410e+02   3.5190678338e+01     0.695181    0.4489797 -52.62 0.0009090012    1.517    0.341
        27  -9.1445     89.0326    210.7661   1.0333668735e+02   1.8661904969e+01    0.2157359    0.1855326 -83.22 0.0006748276    1.183    0.155
        28  -8.4771     84.2913    173.6951   9.9246299037e+01   2.8019137722e+01    0.1483526    0.1058313  70.97 0.0002134363    1.574    0.365
        29 -17.0522     14.4018    242.5567   1.2190845632e+02   2.1329968280e+01      5.63695     2.159646  26.04   0.02602452    3.520    0.716
        30  -9.6423     34.6679    171.6046   1.1196859146e+02   3.5032959583e+01    0.3243372    0.1575029  55.01  0.001068205    2.178    0.541
        31 -10.8982    240.4820    169.2185   6.3625307785e+01   1.1250185971e+00    0.2200147    0.1809801  28.93  0.000566811    1.327    0.246
        32  -7.9829    120.4835    165.4865   8.8339104883e+01   2.3830090199e+01      0.15063    0.1450859  68.24 0.0007662018    1.023    0.022
        33 -10.1858     33.3826    156.0535   1.1049843822e+02   3.9001667208e+01    0.3046197    0.2582869  78.92 0.0008753284    1.109    0.098
        34 -11.7659     87.7676    152.4336   9.4638229011e+01   3.2704453776e+01    0.7205628    0.4971905 -17.36  0.003089088    2.240    0.553
        35 -10.5302    133.6852    145.1751   8.0725886998e+01   2.6028614238e+01     1.228947    0.2908262 -54.42  0.002661311    6.572    0.848
        36  -8.6685    112.1569    150.3972   8.7509869708e+01   2.8955322068e+01    0.2207669    0.1383241  49.77 0.0005909626    1.666    0.400
        37  -9.5061    174.7214    149.2154   7.1933447137e+01   1.6794550569e+01    0.2560732    0.2227608  38.56 0.0006653257    1.173    0.147
        38  -8.5260     49.6502    144.7016   1.0428601683e+02   4.0045588595e+01    0.1423731    0.1018129 -33.45  0.000247802    1.686    0.407
        39 -10.5872    101.7136    138.5252   8.7889343376e+01   3.3734795219e+01    0.5740261    0.3650786 -20.03  0.002172354    2.660    0.624
        40 -11.5548     88.9987    138.0627   9.1454030693e+01   3.6059150427e+01    0.2993809    0.2658287 -43.58 0.0003715045    1.148    0.129
        41 -10.2333     26.1461    137.6510   1.1019625286e+02   4.4276706392e+01    0.3314976    0.1907296  41.87  0.001106497    1.861    0.463
        42 -10.1362    106.0799    131.0503   8.4984684433e+01   3.4734697725e+01    0.4118216    0.3525773 -63.64   0.00142675    1.185    0.156
        43  -9.7132    111.0709    129.2332   8.3152334009e+01   3.4219532535e+01    0.3292288    0.2578961   0.86 0.0008898707    1.688    0.408
        44 -10.4717    134.9669    127.5365   7.6311255429e+01   2.9789900840e+01    0.6212334    0.3238028 -46.46  0.002432281    1.908    0.476
        45 -10.0703     67.4523    125.1843   9.5318131133e+01   4.2599970223e+01    0.3644246    0.2414334 -51.34   0.00145468    1.418    0.295
        46 -11.5576     71.8250    167.4924   1.0159464280e+02   3.1405119691e+01    0.5412949    0.3068462 -52.28  0.001635694    1.776    0.437
        47  -9.5560     28.3212    128.5689   1.0825350457e+02   4.6333579773e+01    0.2390028    0.1217935  31.38  0.001137326    2.123    0.529
        48  -9.1403    160.4842    127.4836   7.0107281284e+01   2.4350229244e+01    0.1523924    0.1492097 -63.38 0.0001644098    1.014    0.014
        49 -10.2675     98.1754    125.3422   8.5956869648e+01   3.7557532683e+01    0.3117271    0.2623563  -5.24 0.0007788544    1.428    0.300
        50 -10.1278    117.2973    123.7477   8.0106609355e+01   3.4281340542e+01    0.3714513    0.2309743  26.03  0.001494449    2.042    0.510
        51  -8.6725    163.4364    121.2182   6.7925296697e+01   2.5024380180e+01    0.2142492    0.1426959 -55.32 0.0005948348    1.606    0.377
        52  -9.2402    107.5239    118.4750   8.1577493483e+01   3.7427553936e+01    0.2472004    0.2390186  -0.77 0.0001266568    1.078    0.072
        53  -8.7134     85.1184    119.1323   8.8455074353e+01   4.1328843036e+01    0.2405709    0.1799399  76.24 0.0008784436    1.754    0.430
        54 -11.4537     67.1150    172.4406   1.0358706236e+02   3.0849363954e+01    0.4406223    0.2991761 -37.97  0.001976355    1.860    0.462
        55 -10.0602    231.2219    113.7695   5.3686271890e+01   1.2276199430e+01    0.2689341      0.23942 -48.99 0.0007417606    1.022    0.021
        56  -9.6037    135.0000    112.5237   7.2553634148e+01   3.3103117952e+01    0.3443539   0.08801897 -45.22 0.0009305307    3.901    0.744
        57  -9.3642    205.3315    110.2303   5.7043603840e+01   1.8099315833e+01    0.2893566    0.2031119  47.57  0.001083716    1.549    0.354
        58 -11.2884     52.6907    108.0569   9.6515010139e+01   4.8759991792e+01    0.7874809    0.2766368 -60.82  0.002830176    2.768    0.639
        59 -10.3681    119.6067    103.2357   7.4202701618e+01   3.8406237841e+01    0.3353575    0.1385411 -39.33  0.001130624    2.674    0.626
        60  -8.8768     42.9477    104.0000   9.9010129054e+01   5.0877037008e+01    0.2066507   0.07892053  26.31 0.0007359271    2.894    0.655
        61 -11.2814    241.7540    102.1139   4.9722678313e+01   1.2251085482e+01    0.3074366    0.1976649  67.28  0.001637668    1.887    0.470
        62  -9.2108     41.4518     98.3501   9.8316529427e+01   5.2379379695e+01     0.237906    0.1550967  49.19   0.00119074    1.871    0.466
        63  -9.4086     38.0038    102.0000   1.0033069795e+02   5.1881563931e+01    0.2086624   0.07792073  24.97 0.0008087052    2.986    0.665
        64 -10.9871     33.5525    108.5233   1.0317765206e+02   5.0761360826e+01    0.4772976    0.2127258 -66.87  0.002042818    2.126    0.530
        65 -13.8878     19.7382    220.2014   1.1955450360e+02   2.5387962643e+01    0.8914051    0.5893036  58.28  0.003089854    1.257    0.205
        66  -8.3657     75.4739     85.4553   8.2876017375e+01   5.0637899619e+01    0.1410224     0.135683 -22.00 0.0003365437    1.039    0.037
        67  -9.1555    159.1566     83.1638   5.9042050925e+01   3.3470792872e+01    0.2086257    0.1736575 -77.35 0.0005053214    1.311    0.237
        68  -8.9747    150.9980     82.9735   6.0749632653e+01   3.5418392696e+01     0.238062    0.1789871 -79.90 0.0005945789    1.669    0.401
        69  -8.2405     69.1544     81.3598   8.3902024405e+01   5.2527272603e+01    0.1865311     0.127036  45.43 0.0003746462    1.633    0.388
        70  -8.7920    109.9397     79.9464   7.0288415929e+01   4.5233578565e+01    0.2248257    0.1829054  87.38 0.0006970156    1.603    0.376
        71  -8.4376    184.6728     76.7180   5.2500576558e+01   2.8617814435e+01    0.1384602    0.1130085  25.56 0.0003321225    1.601    0.375
        72  -8.4259     58.4502     67.4086   8.3618660231e+01   5.7005431471e+01     0.135333    0.1202309 -12.62 8.814732e-05    1.032    0.031
        73 -10.9213     13.0852     59.7469   1.0036165293e+02   6.3440242245e+01    0.2770782    0.2556941  42.54  0.000768939    1.391    0.281
        74 -12.9189    191.6417     49.4287   4.4573252401e+01   3.1217851057e+01      1.12826    0.7430143  47.52  0.001172819    1.751    0.429
        75 -10.8481    119.1779    244.4909   1.0088160574e+02   7.2556258395e+00    0.3222924    0.1680271  39.93  0.001275024    1.600    0.375
        76 -11.2478      1.9139     42.8216   1.0096890557e+02   6.7511055513e+01    0.8033574   0.08286685 -58.52   0.00248979    5.731    0.826
        77 -10.6445      1.9603     29.0511   9.6594397362e+01   7.0050384671e+01    0.3035242    0.2366915 -47.14   0.00130353    1.290    0.225
        78  -8.3496    224.4232    206.5423   7.3471195870e+01  -2.5433538993e+00    0.1278319     0.106263  -6.80 3.046664e-05    1.022    0.022
        79  -9.1240    198.1858     23.6851   3.7554488898e+01   3.3027927683e+01    0.2082766    0.1497084 -21.80 0.0007297623    1.814    0.449
        80  -8.9251    189.5233     14.9950   3.6414125694e+01   3.5997753703e+01    0.1716488     0.121424 -36.18 0.0005265568    1.540    0.351
        81 -11.1431    193.6521    196.0547   7.7459589879e+01   4.0884086892e+00    0.9236995    0.4838719 -63.87  0.002831598    5.619    0.822
        82 -10.2532    110.8922    203.1191   9.7144367454e+01   1.6900909986e+01    0.2826451    0.2307287  57.09 0.0007123962    1.187    0.158
