#   1 NUMBER                 Running object number                                     
#   2 MAG_AUTO               Kron-like elliptical aperture magnitude                    [mag]
#   3 X_IMAGE                Object position along x                                    [pixel]
#   4 Y_IMAGE                Object position along y                                    [pixel]
#   5 X_WORLD                Barycenter position along world x axis                     [deg]
#   6 Y_WORLD                Barycenter position along world y axis                     [deg]
#   7 A_WORLD                Profile RMS along major axis (world units)                 [deg]
#   8 B_WORLD                Profile RMS along minor axis (world units)                 [deg]
#   9 THETA_WORLD            Position angle (CCW/world-x)                               [deg]
#  10 FWHM_WORLD             FWHM assuming a gaussian core                              [deg]
#  11 ELONGATION             A_IMAGE/B_IMAGE                                           
#  12 ELLIPTICITY            1 - B_IMAGE/A_IMAGE                                       
         1 -15.6551    242.3614     96.0955   7.0622723334e+01   1.1953612659e+01     2.327415    0.9789776 -14.43  0.007517023    3.667    0.727
         2 -11.0770      5.2350     42.2434   1.1833545196e+02   6.6416206080e+01     0.189375   0.08097316 -76.95 0.0008883991    2.440    0.590
         3 -10.3287     92.6448    238.3217   1.2214562496e+02   1.7039030941e+01    0.1115151   0.05811841  63.72 0.0003158984    1.759    0.432
         4 -10.7542    145.1929    233.0322   1.1318912081e+02   1.0354896998e+01     0.166781     0.112596  76.80  0.001083411    2.007    0.502
         5 -10.7179     84.2352    227.0200   1.2261051374e+02   1.9828502456e+01    0.1229296    0.0805797 -75.84 0.0008875119    1.651    0.394
         6 -10.5188    162.7753    224.4137   1.0929845061e+02   8.7922735632e+00    0.1622049    0.0862958  36.92 0.0009462541    1.642    0.391
         7 -10.4103    183.4859    223.5040   1.0577135612e+02   5.6648433494e+00    0.1131087   0.08861411  39.30  0.000151358    1.030    0.029
         8 -10.6379    143.8729    216.3608   1.1150208148e+02   1.2832784881e+01     0.178151    0.1513128 -86.94  0.001312447    1.388    0.280
         9 -10.4475    199.3336    215.6635   1.0208617152e+02   4.0784812105e+00    0.1069502   0.08509156  66.05  0.000705205    1.741    0.426
        10 -10.1695    154.6701    215.3102   1.0952405881e+02   1.1281839850e+01    0.1143057   0.07873274  65.65 0.0007041658    1.667    0.400
        11 -10.3708    186.3392    214.6938   1.0409071727e+02   6.2807656977e+00    0.1101011   0.08293358  63.83 0.0005179038    1.679    0.405
        12 -10.6756     76.4009    213.2127   1.2280858273e+02   2.3057096646e+01    0.1472739   0.08706513  89.56 0.0009534823    1.736    0.424
        13 -11.2564    116.6000    210.0591   1.1551475842e+02   1.7956049223e+01     0.255711    0.1766349  85.48  0.001511686    1.666    0.400
        14 -10.4551    177.3487    210.6779   1.0503516943e+02   8.2495449241e+00    0.1143647   0.08412676  66.75 0.0003750209    1.743    0.426
        15 -10.3140    148.4836    209.9901   1.0991515449e+02   1.3021352035e+01    0.1489056   0.09752155 -86.50 0.0008102247    2.546    0.607
        16 -10.6271     99.0139    205.2988   1.1812657651e+02   2.1301505822e+01    0.2294374     0.122805  83.98   0.00117558    2.688    0.628
        17 -11.7814    186.2799    204.6656   1.0264019944e+02   7.5595791581e+00    0.2337215    0.1843665  68.97   0.00134862    1.680    0.405
        18 -10.6103    198.8311    204.6073   1.0051028547e+02   5.4829920071e+00    0.1694905   0.09609817  50.07  0.000944838    1.727    0.421
        19 -12.6182    165.0374    202.1598   1.0595399460e+02   1.1443973839e+01    0.4429032    0.2812238 -48.38  0.002679595    1.912    0.477
        20 -11.8455    162.7251    193.9453   1.0516616019e+02   1.3031781831e+01    0.3603578    0.2691292 -75.36  0.001823786    1.889    0.471
        21 -11.1361    148.9788    197.8114   1.0820596178e+02   1.4758412353e+01    0.2639342    0.1661696 -73.75  0.001408426    2.471    0.595
        22 -11.5329    177.3372    197.8487   1.0315616468e+02   9.9793033068e+00    0.2143633    0.1811963  79.60  0.001418086    1.542    0.352
        23 -11.5713    124.2275    197.2279   1.1264211959e+02   1.8856736286e+01    0.2870538    0.1967835 -88.21  0.001728898    1.812    0.448
        24 -11.0322    112.6755    197.1419   1.1475545477e+02   2.0658614500e+01    0.1834871    0.1335939  83.48  0.001143858    1.454    0.312
        25 -10.1179    193.6674    196.3502   1.0008657917e+02   7.3985818426e+00    0.1150934   0.09310851  74.51 0.0007047573    1.776    0.437
        26 -11.2983    186.7658    193.8912   1.0088817240e+02   8.9098167248e+00    0.2056658    0.1759803 -72.54  0.001349676    1.631    0.387
        27 -10.5152    205.8306    191.6089   9.7230638596e+01   5.9282174145e+00    0.1703968    0.1028931  49.63 0.0007977288    1.651    0.394
        28 -11.1531    172.8709    191.1560   1.0291415028e+02   1.1698069685e+01    0.1896205    0.1578178  61.92  0.001232171    1.308    0.235
        29 -11.1205    138.9050    188.8659   1.0880669611e+02   1.7856141625e+01    0.3080105    0.1709628 -60.77  0.001623502    2.221    0.550
        30 -10.7313    192.7956    187.9882   9.8867457931e+01   8.6668147892e+00     0.182053    0.1455769 -77.03   0.00107886    1.983    0.496
        31 -10.6531    129.1028    187.6886   1.1048798190e+02   1.9670940607e+01      0.20899    0.1621355 -79.95   0.00132712    1.451    0.311
        32 -10.8360     86.4994    188.0445   1.1862835197e+02   2.6091414168e+01    0.1681898    0.1061759 -71.89   0.00103751    1.606    0.377
        33 -10.7753    165.5793    186.7655   1.0354557556e+02   1.3622475543e+01    0.2343751    0.1840095  81.62  0.001097654    1.689    0.408
        34 -10.6802    156.0021    186.5312   1.0527464570e+02   1.5325419632e+01    0.2465921    0.1530071 -67.86   0.00125859    2.424    0.587
        35 -11.7175    120.1110    183.6898   1.1166222130e+02   2.1819835687e+01    0.5290375    0.1766696 -61.74  0.002011217    4.146    0.759
        36 -11.2149     95.1599    184.8808   1.1662153459e+02   2.5434332356e+01    0.3947912    0.1437481 -61.27  0.001828655    2.879    0.653
        37 -11.1473    204.1508    184.5178   9.6301633985e+01   7.1377360459e+00    0.1843677    0.1790311  88.13 0.0008774761    1.366    0.268
        38 -10.5358    183.2985    184.4306   9.9952826518e+01   1.0842238484e+01    0.1981821    0.1558766 -67.61  0.001180795    1.805    0.446
        39 -11.0669     88.3790    197.5894   1.1926653104e+02   2.4119550856e+01     0.213928   0.09506877 -81.66 0.0009575237    3.416    0.707
        40 -11.6914    147.6420    179.7513   1.0580111573e+02   1.7878165152e+01    0.3355465    0.2198739 -57.01  0.001794072    1.771    0.435
        41 -11.0396    137.8768    178.6223   1.0750514304e+02   1.9756089763e+01    0.2316137    0.1836545 -68.45  0.001025969    1.412    0.292
        42 -11.1336    192.5953    177.9109   9.7164142407e+01   1.0108653268e+01    0.2223993    0.2023061  74.42  0.001444795    1.386    0.278
        43 -11.0960    183.4252    175.9946   9.8479529298e+01   1.2056833187e+01    0.2467226    0.1710218  56.88  0.001367525    1.577    0.366
        44 -10.2434     88.4844    176.4992   1.1694615534e+02   2.7969970293e+01    0.1214849   0.09959006  72.55 6.804819e-05    1.010    0.010
        45 -11.5919     77.3427    175.7343   1.1907259960e+02   2.9672030987e+01    0.3623065     0.130486  57.99  0.001476976    3.314    0.698
        46 -11.2752    174.5406    183.5562   1.0139029583e+02   1.2527340649e+01    0.2564441    0.2169314  69.94  0.001330957    1.391    0.281
        47 -10.8602    177.3681    170.8859   9.8688055092e+01   1.3951065931e+01    0.2835257     0.224683 -78.41  0.001605815    1.798    0.444
        48 -10.4202    134.4908    170.5363   1.0692100801e+02   2.1762689248e+01    0.2510172    0.1264538 -52.62  0.001211967    2.170    0.539
        49 -10.2258    198.6750    170.3299   9.4697176864e+01   1.0078719136e+01    0.1220981    0.1035425  85.09 0.0007050398    1.702    0.413
        50 -10.6275    168.0048    168.5356   1.0003437912e+02   1.6063448106e+01    0.2405005    0.1851306 -63.90  0.001367566    1.629    0.386
        51 -10.6807    149.5141    169.0061   1.0369826813e+02   1.9373192625e+01    0.1879822    0.1290687 -51.00  0.001036158    1.607    0.378
        52 -11.3334    121.0682    167.7715   1.0919484387e+02   2.4558873919e+01    0.3456495    0.1842407 -59.98  0.001721294    2.047    0.512
        53 -10.6119     88.4076    167.7236   1.1588705982e+02   2.9686024482e+01    0.2308365        0.112 -69.89  0.001135678    2.178    0.541
        54 -10.2578    185.4178    167.1819   9.6515712973e+01   1.3020761535e+01    0.1714337    0.1246015 -51.13 0.0007519496    1.663    0.399
        55 -10.0978    111.4042    166.6276   1.1100081443e+02   2.6366701465e+01    0.2392059    0.1128206 -72.75 0.0009551157    3.290    0.696
        56 -11.0226    192.3400    165.2431   9.4879060062e+01   1.2009933982e+01    0.2833509    0.1565504 -41.40  0.001394551    1.997    0.499
        57 -11.6984    138.9733    163.6301   1.0489360894e+02   2.2222663720e+01    0.4857596    0.2433331 -59.91  0.002173528    2.484    0.597
        58 -10.6017     98.6022    165.1967   1.1344380438e+02   2.8662640917e+01    0.1718697    0.1110274 -53.60  0.000960068    1.696    0.410
        59 -11.0103     79.3008    162.9762   1.1718413255e+02   3.1929646229e+01    0.4286583    0.1914772 -88.00   0.00154606    4.343    0.770
        60 -11.9000    213.5067    163.9878   9.0871426681e+01   8.2127769695e+00    0.2425008    0.1814995  57.77  0.001265669    1.625    0.385
        61 -10.5958    159.5947    163.0297   1.0067442326e+02   1.8550864027e+01    0.2802205    0.1294826 -45.36  0.001243025    2.363    0.577
        62 -12.2254    205.2497    162.1842   9.1962657075e+01   1.0016354802e+01    0.3199583    0.2338173 -32.23  0.001701541    1.446    0.308
        63 -11.2313    177.6715    159.6185   9.6537634820e+01   1.5687601459e+01    0.3537895    0.2328691 -49.38  0.001815663    1.749    0.428
        64 -10.5162    151.5018    160.0407   1.0174137254e+02   2.0582055612e+01    0.2852328     0.129195 -53.70  0.001197965    2.627    0.619
        65 -10.8829     92.3778    159.4077   1.1395073904e+02   3.0762137222e+01    0.3004001      0.11669 -66.75  0.001241197    2.911    0.657
        66 -12.0098    196.5721    157.1622   9.2525531473e+01   1.2419290475e+01    0.3804865    0.2532956 -46.03  0.001618676    1.745    0.427
        67 -11.0669    167.8257    156.2148   9.7786755539e+01   1.8151574953e+01    0.4176908    0.1880562 -48.56  0.001759851    2.533    0.605
        68 -10.8564    104.9488    156.8901   1.1089918653e+02   2.9317488888e+01    0.3542712    0.1756784 -66.50  0.001636779    2.255    0.557
        69 -11.1915    218.4780    157.0445   8.8622015469e+01   8.2360043374e+00    0.1962834    0.1248124 -29.91  0.001035494    1.602    0.376
        70 -10.5657    188.4756    157.0430   9.3996100743e+01   1.4008973674e+01    0.1978855    0.1319772 -36.89  0.001033712    1.597    0.374
        71 -11.8371    204.8723    154.7814   9.0542524475e+01   1.1165986532e+01    0.2810405    0.1890153 -36.28  0.001057344    1.569    0.363
        72 -10.3210    157.4975    155.0667   9.9618259056e+01   2.0334717304e+01    0.2008222    0.1340817 -45.83  0.001038057    1.605    0.377
        73 -10.9644    119.2107    153.6525   1.0732666922e+02   2.7591300041e+01    0.3999298    0.1742247 -55.49  0.001737523    2.389    0.581
        74 -10.7193     49.0181    154.3110   1.2262260149e+02   3.7561596590e+01    0.2564196    0.1178326  81.46  0.001173734    2.695    0.629
        75 -10.4425    144.4989    154.0090   1.0206838827e+02   2.2980821159e+01    0.2002522    0.1329116 -50.14  0.001035919    1.600    0.375
        76 -11.2081     81.0058    153.5065   1.1559123802e+02   3.3634746403e+01    0.2946958    0.1495992 -71.67   0.00145406    2.004    0.501
        77 -10.8424    132.7849    151.3092   1.0402653136e+02   2.5647996524e+01    0.3935825    0.1785942 -60.82  0.001559257    2.879    0.653
        78 -10.5910     67.4922    153.0094   1.1847788099e+02   3.5577285683e+01    0.1819026   0.09136092  86.77 0.0008103915    2.611    0.617
        79 -11.8595    190.1674    149.3958   9.2125344649e+01   1.4886235824e+01    0.3744988    0.3037051 -56.47  0.002090206    1.509    0.337
        80 -10.2155    162.3851    150.1774   9.7689280306e+01   2.0256483974e+01    0.1918731    0.1278871 -55.95 0.0009491005    1.749    0.428
        81 -10.4327     98.2692    149.0250   1.1113516941e+02   3.1983558635e+01    0.3889445     0.108085 -58.08  0.001382692    3.565    0.719
        82 -10.9103     38.8612    147.1449   1.2409603095e+02   4.0190530112e+01    0.3087382    0.1231283  81.68  0.001210673    3.730    0.732
        83 -11.5910    148.4266    142.4437   9.9020450824e+01   2.4397511060e+01    0.6961792    0.2669342 -50.88   0.00260158    2.899    0.655
        84 -11.3338    106.3204    143.4324   1.0841958585e+02   3.1843867009e+01    0.5298244    0.2407597 -68.17  0.002081339    2.933    0.659
        85 -11.3784     55.2622    144.6398   1.2017196504e+02   3.8887233230e+01    0.3804516    0.1824652  90.00  0.001749985    2.511    0.602
        86 -10.2430    175.5009    145.5021   9.4130428614e+01   1.8468365609e+01    0.1372119    0.1301448  35.75 0.0008105967    1.022    0.021
        87 -10.5258    165.6284    143.0000   9.5577323685e+01   2.0889643433e+01    0.3133758    0.1332716 -42.19  0.001249054    2.462    0.594
        88 -11.2844    124.3520    141.2427   1.0399690757e+02   2.9164853153e+01    0.5778793    0.2427617 -63.28  0.002006573    3.599    0.722
        89 -11.3394     87.7623    142.3906   1.1246027168e+02   3.4995740878e+01     0.452383    0.1631153 -64.50  0.001766241    2.940    0.660
        90 -12.5272    200.3007    147.9550   8.9947873039e+01   1.3092232243e+01    0.4174694    0.2431912 -35.72  0.001940499    1.773    0.436
        91 -10.8114    182.0629    140.6817   9.1824117915e+01   1.7954985389e+01    0.2737699    0.2082133 -29.33   0.00129117    1.380    0.275
        92 -12.6082    198.0098    135.8055   8.7719096896e+01   1.5463556594e+01    0.6017413    0.2144888 -35.84   0.00220342    2.845    0.649
        93 -10.8330    172.2219    136.7448   9.2910661409e+01   2.0659110558e+01    0.3210185    0.2010647 -45.81   0.00152494    1.686    0.407
        94 -11.0987     22.2691    137.0172   1.2682700331e+02   4.3975778329e+01    0.3156607    0.1186487  74.90   0.00129138    3.583    0.721
        95 -10.4160    162.5537    135.2515   9.4555964969e+01   2.2915543117e+01    0.2724325    0.1367513 -46.69  0.001145171    2.094    0.522
        96 -10.5856    187.7083    134.5642   8.9383074358e+01   1.7814109475e+01     0.256567     0.125553 -37.71  0.001075033    2.081    0.520
        97 -10.9228    179.3680    132.5145   9.0544896480e+01   1.9912314394e+01    0.3626307    0.1943204 -38.40  0.001586171    1.907    0.476
        98 -11.3377    131.5028    129.1618   9.9976375702e+01   3.0286260348e+01    0.5489235    0.2171737 -54.52  0.002003498    2.826    0.646
        99 -11.8941     82.9450    129.6550   1.1151975102e+02   3.8479510842e+01    0.6556734    0.2029539 -63.66  0.002286906    3.471    0.712
       100 -10.9566    142.8088    129.2229   9.7461216128e+01   2.8062241289e+01    0.4244485     0.180795 -40.99  0.001617884    2.549    0.608
       101 -11.5811    204.6450    129.6802   8.5101711118e+01   1.5048177228e+01    0.2868577    0.2204325 -49.79  0.001233329    1.521    0.343
       102 -10.8875    193.0498    128.8896   8.7065787091e+01   1.7631308095e+01    0.3188017    0.2065222 -27.64    0.0015146    1.613    0.380
       103 -11.4723    212.1148    128.8850   8.3580998633e+01   1.3603897215e+01    0.2116339    0.1956871 -48.66 0.0008936924    1.264    0.209
       104 -10.0926    186.4892    128.9607   8.8337679287e+01   1.9016003075e+01    0.2179557    0.1399909 -35.61 0.0009163541    1.574    0.365
       105 -10.9083    168.4894    127.9695   9.1701283980e+01   2.3013442170e+01    0.3841752    0.1417563 -40.53  0.001370834    2.760    0.638
       106 -11.1366    152.5270    126.9109   9.4825410483e+01   2.6544335286e+01    0.5147237    0.1395702 -44.88  0.001581177    3.737    0.732
       107 -11.9532     98.2827    125.7475   1.0709274352e+02   3.6947708736e+01    0.7624812      0.28077 -63.54  0.002629628    3.409    0.707
       108 -10.7538     72.6411    128.4261   1.1382369585e+02   4.0219689511e+01    0.3377496    0.1525106 -78.18  0.001312455    3.044    0.672
       109 -11.1794     12.0054    128.2092   1.2840560826e+02   4.6743521904e+01    0.2742443   0.09186603  85.35   0.00106289    3.811    0.738
       110 -11.2890    179.9321    123.1675   8.8261205566e+01   2.1425134480e+01    0.4401587    0.2498718 -29.38   0.00188627    1.946    0.486
       111 -10.8773    116.9358    123.9018   1.0224206633e+02   3.4110361833e+01    0.4099546    0.1906686 -57.94  0.001651892    2.299    0.565
       112 -11.6230     58.5979    122.6641   1.1640426559e+02   4.3338512599e+01    0.5622098    0.2303327 -82.12   0.00193533    4.088    0.755
       113 -11.6020     42.7482    120.9010   1.2014392751e+02   4.5548948686e+01     0.627853    0.2184128 -82.01    0.0020602    4.628    0.784
       114 -10.7643    188.5049    122.5785   8.6441939292e+01   1.9667362443e+01    0.3006354    0.1407861 -36.70   0.00120023    2.129    0.530
       115 -11.5101     27.6485    121.3716   1.2397560562e+02   4.6929125591e+01    0.4712471    0.1765338  79.33  0.001539592    5.363    0.814
       116 -10.8782    195.1108    121.4510   8.4912748906e+01   1.8420142615e+01    0.3004025    0.1809159 -48.89  0.001319656    1.930    0.482
       117 -10.9006    202.8794    121.1278   8.3396058932e+01   1.6785787692e+01    0.2186789     0.202486 -53.06 0.0008986368    1.234    0.190
       118 -10.5818    172.5436    119.7248   8.8923640526e+01   2.3643579496e+01    0.2869041    0.1440542 -34.06  0.001144766    2.116    0.527
       119 -11.5334    141.3379    116.5184   9.4897174459e+01   3.0897109823e+01     0.802345    0.2539482 -46.87  0.002621655    3.166    0.684
       120 -11.5234    160.4487    239.3192   1.1142855317e+02   7.2925314351e+00    0.1936408    0.1048059  54.85   0.00119233    1.786    0.440
       121 -11.6575    108.5535    111.2312   1.0152039356e+02   3.8358897909e+01    0.7297248    0.2537044 -54.92  0.002532307    2.939    0.660
       122 -11.4789     78.4178    111.4166   1.0933508279e+02   4.3232882965e+01    0.5742231    0.2703345 -75.17   0.00214471    3.111    0.679
       123 -11.7633     92.0919    109.6316   1.0538278951e+02   4.1528786281e+01    0.8639463    0.2311639 -56.54  0.002735181    3.660    0.727
       124 -11.1701    121.8917    110.5089   9.8049258247e+01   3.6026844241e+01     0.425755    0.1783288 -40.75  0.001546102    2.667    0.625
       125 -10.7590    174.5497    110.1558   8.6130625117e+01   2.4934855049e+01    0.3673893    0.1467945 -35.61  0.001294221    2.559    0.609
       126 -11.0698    159.2652    109.6002   8.9202802301e+01   2.8437276238e+01    0.3994954    0.1309931 -35.33  0.001192952    3.623    0.724
       127 -11.1608     66.1313    109.1152   1.1216540049e+02   4.5465121870e+01    0.4202954    0.1364513 -65.64  0.001499353    3.174    0.685
       128 -10.6337    130.1273    117.0385   9.7610806300e+01   3.3048387541e+01     0.335878    0.1872088 -61.54  0.001378638    2.186    0.542
       129 -10.5867    182.5945    108.2673   8.4029674021e+01   2.3456536610e+01    0.2960554    0.1373283 -40.13  0.001136825    2.116    0.527
       130 -10.7674    189.4546    106.5032   8.2237564203e+01   2.2202014268e+01    0.3209662     0.143626 -34.80  0.001211737    2.185    0.542
       131 -10.4395    205.3012    104.3611   7.8751311625e+01   1.8945925159e+01     0.157043    0.1116618   9.88 0.0007036433    1.721    0.419
       132 -12.4458     21.6356    100.1624   1.2295923888e+02   5.2242786866e+01    0.7904832    0.2898524 -89.11  0.002825223    4.204    0.762
       133 -10.6060    166.7148    102.1466   8.5662704398e+01   2.8175211101e+01     0.366129    0.1353869 -35.85  0.001213712    2.778    0.640
       134 -11.1649    149.8318    100.6264   8.8946785051e+01   3.2254384379e+01    0.6580632    0.1622264 -45.35  0.001792065    4.168    0.760
       135 -11.9506     44.0904    100.5029   1.1670971863e+02   5.0071731489e+01    0.6009414    0.2835203  88.09  0.002311735    3.512    0.715
       136 -10.8750    139.4818    102.4616   9.1818729735e+01   3.4129541239e+01    0.4997024    0.1441239 -42.98  0.001518485    3.380    0.704
       137 -10.5076    175.5732    100.7151   8.3444296397e+01   2.6405883567e+01     0.294951    0.1476496 -31.63   0.00113127    2.084    0.520
       138 -10.8566     81.3857     98.7754   1.0587172240e+02   4.5664223648e+01    0.4216695    0.1287841 -61.88  0.001260244    4.157    0.759
       139 -11.6099     13.7542    109.4314   1.2618306000e+02   5.0758718545e+01    0.4047865    0.1500809 -81.14  0.001899016    2.331    0.571
       140 -11.5911    107.8118     97.9340   9.8522835431e+01   4.1398569865e+01     0.415865    0.2664066 -68.31  0.001854952    1.863    0.463
       141 -11.0179     94.7656     94.5756   1.0117868000e+02   4.4453134926e+01    0.5842575    0.1563833 -47.64  0.001833747    3.484    0.713
       142 -11.5996     63.0096     94.7464   1.1020028710e+02   4.9177108089e+01    0.4767829    0.2083248 -73.64  0.001748727    3.210    0.688
       143 -11.3349      2.2779    115.6673   1.2966781155e+02   5.0187240544e+01    0.3773375   0.08332443 -83.90  0.001214531    5.257    0.810
       144 -11.1396    128.2380    100.1172   9.3902038194e+01   3.6955676448e+01    0.3853979    0.1998594 -43.09  0.001585196    1.878    0.467
       145 -11.2646    124.4060     88.0953   9.1579710601e+01   4.0246999513e+01    0.6906161    0.2503214 -38.83  0.002266319    2.941    0.660
       146 -11.2067     47.8597     83.7458   1.1241252902e+02   5.3535727505e+01    0.2593139    0.1543206 -88.77  0.001246907    2.151    0.535
       147 -10.8143    158.4412    119.5625   9.1841294701e+01   2.6713758559e+01    0.3940069     0.181402 -40.65  0.001541696    2.194    0.544
       148 -11.6218    104.1030     81.1907   9.4988208460e+01   4.5714629616e+01      0.62306    0.2272854 -48.85   0.00220441    2.559    0.609
       149 -11.0079    140.6610     81.4994   8.5642981823e+01   3.8055127971e+01    0.2901624    0.1388392 -39.42  0.001099007    2.000    0.500
       150 -11.2244     24.2975     80.3424   1.1915103619e+02   5.6572485930e+01    0.2570199    0.1241768 -88.47  0.001166223    2.560    0.609
       151 -11.0810    193.0971    113.8663   8.3425018433e+01   2.0131061486e+01    0.3432384    0.2071384 -29.56   0.00152477    1.680    0.405
       152 -10.2107    150.0000     78.9837   8.2708127757e+01   3.6391078797e+01    0.2656954   0.08564764 -37.47 0.0008075808    2.978    0.664
       153 -11.4106     34.5623     87.4785   1.1723132709e+02   5.4032918190e+01    0.7378228    0.1809449 -65.46  0.002709935    3.188    0.686
       154 -10.5997    211.5213     75.4899   6.9813956566e+01   2.2004419088e+01    0.1523607    0.1410864 -12.17 0.0008100593    1.028    0.027
       155 -11.5606     85.9305     84.4823   1.0107802502e+02   4.8172508373e+01     0.604834    0.1926945 -54.55   0.00205161    3.002    0.667
       156 -11.2270     81.8834     72.0148   9.8799587162e+01   5.1578779574e+01    0.3472102    0.1790199 -68.20  0.001250496    3.176    0.685
       157 -10.6853    185.9548    114.5340   8.4964217692e+01   2.1608782940e+01    0.2955954    0.2049292 -18.75   0.00136797    1.636    0.389
       158 -11.1677     51.1451     69.1734   1.0792728768e+02   5.6489818499e+01    0.3990847    0.1445227 -66.66  0.001354038    3.656    0.726
       159 -11.5121     63.0000     68.0033   1.0366050308e+02   5.5258444989e+01    0.3958179   0.06686579 -54.17  0.001058752    5.002    0.800
       160 -10.6827     94.6218     70.4223   9.4470302472e+01   4.9749283309e+01    0.2940599    0.1201246 -57.31 0.0009556315    3.295    0.696
       161 -10.4104    203.6689     65.6602   6.8225418923e+01   2.5416324675e+01    0.1629577    0.1150571  18.97 0.0007051694    1.743    0.426
       162 -10.5703     73.1563     59.4823   9.7699276849e+01   5.5647934019e+01    0.2648176    0.1537605 -65.78  0.001144238    2.262    0.558
       163 -10.1883    100.4477     54.7021   8.7464029788e+01   5.1847955415e+01    0.2096931    0.1314831 -31.00 0.0009463992    1.600    0.375
