#   1 NUMBER                 Running object number                                     
#   2 MAG_AUTO               Kron-like elliptical aperture magnitude                    [mag]
#   3 X_IMAGE                Object position along x                                    [pixel]
#   4 Y_IMAGE                Object position along y                                    [pixel]
#   5 X_WORLD                Barycenter position along world x axis                     [deg]
#   6 Y_WORLD                Barycenter position along world y axis                     [deg]
#   7 A_WORLD                Profile RMS along major axis (world units)                 [deg]
#   8 B_WORLD                Profile RMS along minor axis (world units)                 [deg]
#   9 THETA_WORLD            Position angle (CCW/world-x)                               [deg]
#  10 FWHM_WORLD             FWHM assuming a gaussian core                              [deg]
#  11 ELONGATION             A_IMAGE/B_IMAGE                                           
#  12 ELLIPTICITY            1 - B_IMAGE/A_IMAGE                                       
         1  -8.4743    139.4881     34.4335   8.0584115169e+01   4.6136618162e+01    0.1385821     0.126005  47.49 7.625986e-05    1.009    0.009
         2 -12.7650    248.8534    214.4473   1.0333327030e+02  -9.3231860247e+00      2.99428    0.9834113 -28.68   0.01090074    3.950    0.747
         3 -10.9402    247.5066    249.8363   1.0978121939e+02  -1.3680116947e+01     1.253199    0.2027254  40.45  0.004057654    5.385    0.814
         4 -12.3864    247.0360    244.3306   1.0894508677e+02  -1.2953274981e+01     1.529258    0.9286773  38.45  0.009340039    1.532    0.347
         5 -13.9674      6.6776    175.2889   1.4709112584e+02   3.7431240766e+01     3.829725     1.298163 -78.61   0.01813847    2.444    0.591
         6  -9.9830     54.4181    240.2991   1.4367490795e+02   1.8776161345e+01    0.3473148    0.1931886  82.29  0.001463526    1.667    0.400
         7  -8.7498    173.1288    241.4922   1.2199336178e+02  -4.4289720237e-01    0.2261201     0.193536  20.45   0.00123534    1.236    0.191
         8 -10.3824    146.1125    239.4518   1.2683049728e+02   4.6148973552e+00    0.4665439    0.2134145 -60.80  0.002083902    2.978    0.664
         9 -10.6690    141.6626    235.1622   1.2709601455e+02   6.1336611590e+00    0.3558047     0.231997  35.83  0.001945024    1.536    0.349
        10  -9.5572    188.0931    238.9634   1.1878440027e+02  -2.6597751767e+00    0.3144901    0.2550197 -70.45    0.0013138    1.729    0.422
        11  -8.6874    157.6036    240.5839   1.2480327660e+02   2.4187965825e+00    0.2880644    0.1262162 -50.12  0.001331669    2.723    0.633
        12  -9.4264     74.5179    240.5071   1.4020131737e+02   1.5972848399e+01    0.2599722    0.1606344  68.17  0.001099868    1.387    0.279
        13  -9.6039    151.6782    238.7843   1.2567830208e+02   3.7561644295e+00    0.2790311    0.2059541  13.58  0.001533112    1.958    0.489
        14  -9.7940     45.0716    237.3098   1.4502668888e+02   2.0543558007e+01    0.3312644    0.1683135  70.86  0.001339176    1.761    0.432
        15  -8.6157    199.2313    237.8052   1.1650897058e+02  -4.4093104133e+00    0.1715015    0.1341348  11.03  0.000672008    1.348    0.258
        16  -8.4731    178.9641    238.4874   1.2043731078e+02  -9.9286974314e-01    0.2001369    0.1089208  42.02 0.0009891161    1.550    0.355
        17  -9.1196    162.3170    249.9676   1.2522287018e+02   1.0341261006e-01    0.3247263    0.1946721  45.33  0.001667251    1.365    0.267
        18  -9.3742     83.0617    236.6842   1.3830024407e+02   1.5445332584e+01    0.2974226      0.15825  59.64  0.001154813    1.651    0.394
        19  -8.4908     39.1285    235.6244   1.4590122178e+02   2.1599051159e+01    0.1535545    0.1113453  67.39 0.0005947054    1.108    0.098
        20 -10.2144     63.1519    231.8251   1.4142467358e+02   1.9231737060e+01    0.4983736    0.2480407  70.61  0.002166495    2.057    0.514
        21  -8.8279    173.3623    233.5741   1.2075479165e+02   7.8259147774e-01    0.2197038    0.1656784 -39.43 0.0009621677    1.564    0.361
        22  -8.2684    179.3549    232.8096   1.1948410395e+02  -1.6115030440e-01    0.1619157    0.1213788 -30.21 0.0006363607    1.607    0.378
        23  -9.0718    155.0533    233.5488   1.2428471393e+02   4.0508182360e+00    0.2081793    0.1117328  42.18  0.001006117    1.606    0.377
        24 -11.1730    148.1171    229.2442   1.2500955639e+02   6.0391338748e+00    0.5540571    0.3990155  83.79   0.00301233    1.793    0.442
        25 -10.0808     81.2857    228.5974   1.3779780994e+02   1.7272155183e+01    0.5717577     0.166417  54.19  0.002105502    3.627    0.724
        26  -8.0530    190.4933    230.5199   1.1698245892e+02  -1.7767988897e+00    0.1308266    0.1121404  33.87 0.0008103224    1.002    0.002
        27  -8.3926    183.3754    230.1306   1.1828547365e+02  -4.4757749155e-01    0.1680316    0.1238036 -61.03 0.0009360421    1.792    0.442
        28  -9.8429    135.3162    230.2343   1.2764894082e+02   8.1261275410e+00    0.2352206    0.1722496  49.07   0.00107633    1.167    0.143
        29  -9.0959     40.0591    229.5269   1.4528395944e+02   2.2666479793e+01    0.2330708    0.1313097  67.64 0.0008963768    1.470    0.320
        30  -9.3406     31.8526    229.7046   1.4669506219e+02   2.3606519868e+01    0.2301533    0.1385971  63.85  0.000950968    1.322    0.243
        31  -9.0544    177.7645    227.5842   1.1896246555e+02   9.7687393595e-01    0.2223222    0.1897945 -40.41  0.001026955    1.348    0.258
        32  -9.7114     48.3003    230.1261   1.4390307204e+02   2.1524907231e+01    0.3309554    0.1788973  75.80  0.001462268    1.695    0.410
        33  -9.3043    160.1601    246.1448   1.2509868824e+02   1.0744457282e+00    0.3764076    0.1775931 -39.85   0.00176729    2.892    0.654
        34  -8.2631    187.3836    227.2056   1.1703735678e+02  -6.9465715698e-01     0.161846    0.1263065 -57.21 0.0004971676    1.609    0.379
        35  -8.4753    198.5457    231.4784   1.1560730786e+02  -3.3425857798e+00    0.1290375      0.11069  30.91 0.0001265989    1.014    0.014
        36  -8.9027     90.6503    227.6924   1.3594041677e+02   1.6027885277e+01    0.1098207     0.101712  -2.33   0.00051711    1.708    0.415
        37  -8.2956    202.5180    226.0588   1.1394452551e+02  -3.2080614250e+00    0.1744194    0.1286421 -38.91 0.0006627056    1.527    0.345
        38 -10.4201    165.8824    225.2728   1.2092036579e+02   3.5266727793e+00    0.3294532    0.2332756  44.51   0.00133771    1.227    0.185
        39  -9.4896     70.1382    222.8576   1.3928942164e+02   2.0035038683e+01    0.3110473    0.2140929 -83.48  0.001720756    1.323    0.244
        40  -9.8046     74.5209    222.0044   1.3837834209e+02   1.9578685953e+01    0.4161018    0.1713531  58.72  0.001861356    2.484    0.597
        41  -8.5662    157.0905    223.6993   1.2241262588e+02   5.4070883463e+00    0.1940894    0.1569771  44.93 0.0009771184    1.085    0.078
        42  -9.2990     54.9881    222.2130   1.4202585119e+02   2.2233985363e+01    0.3904506    0.1871043  69.10  0.001815246    2.151    0.535
        43  -8.3771     39.0038    224.3009   1.4505918896e+02   2.3825143902e+01    0.1611297    0.1154636  68.84 0.0005577107    1.111    0.100
        44  -8.5337     33.5789    224.2626   1.4599960001e+02   2.4474982359e+01    0.1379525   0.08953653 -76.29 0.0003447432    1.388    0.280
        45  -8.1997    209.5123    223.4886   1.1217563188e+02  -4.0416220687e+00    0.1311671    0.1124321  22.84 1.017645e-05    1.018    0.017
        46  -8.8310    133.5290    223.3219   1.2703730711e+02   9.7212571274e+00    0.2209876    0.1567404  27.49  0.001113786    1.753    0.430
        47 -10.2087     83.3020    222.2750   1.3673864523e+02   1.8225910594e+01    0.5266732    0.1187824  48.05  0.001856539    3.763    0.734
        48  -8.5859    183.4055    221.2578   1.1682411527e+02   1.0047984203e+00    0.2294232    0.1294683 -38.73  0.001115069    2.047    0.511
        49  -9.2155    177.3510    221.2473   1.1801228943e+02   2.1179959944e+00    0.2643108    0.1626275 -50.26 0.0007354314    1.897    0.473
        50  -7.9523    121.3200    225.2962   1.2972050503e+02   1.1475836294e+01    0.1186939    0.1036086  12.06 0.0007018399    1.615    0.381
        51  -9.7572    150.4842    221.1851   1.2334224574e+02   7.0674077874e+00    0.3652257    0.2143573  40.12  0.001322096    1.564    0.360
        52  -8.4144    220.9559    221.7778   1.0972859273e+02  -5.7646847519e+00    0.1712088    0.1417468 -57.10 0.0009712984    1.675    0.403
        53  -9.3238     45.1498    220.5516   1.4366135208e+02   2.3825808186e+01     0.303267    0.1616231  71.64    0.0012652    1.727    0.421
        54  -8.1168     77.0092    250.7904   1.4070181690e+02   1.3723456643e+01    0.1534912    0.0769411  46.47 0.0006796312    1.688    0.407
        55  -9.0442     63.4788    220.7476   1.4032289347e+02   2.1390733597e+01    0.2972565    0.1121409  55.77  0.001335388    2.528    0.604
        56  -8.7201     29.7835    221.4595   1.4644601649e+02   2.5469114175e+01    0.1884081   0.08606777  48.29 0.0007561476    1.929    0.481
        57  -8.3431    189.0307    219.9873   1.1550882678e+02   1.8705661430e-01    0.1572127    0.1455588  25.91 0.0006043994    1.059    0.056
        58  -8.6000    141.0596    219.5106   1.2497884585e+02   9.0918005749e+00    0.1938097     0.181032  88.43  0.000774994    1.135    0.119
        59  -9.3100     33.9756    217.0896   1.4537468339e+02   2.5867447275e+01    0.3024619    0.1477544  89.57   0.00154448    1.900    0.474
        60  -8.7360    161.4671    217.9807   1.2063945114e+02   5.6296494125e+00    0.2552875    0.1765717  31.76 0.0007918992    1.499    0.333
        61  -8.6325    197.5260    216.3125   1.1321632746e+02  -7.5965834608e-01    0.2148889    0.1322734 -46.75 0.0007649977    1.874    0.466
        62  -8.1505     38.7809    217.5572   1.4455441407e+02   2.5207766781e+01     0.155401   0.08540888  57.24 0.0004175137    1.562    0.360
        63  -7.5001    214.3079    216.6635   1.1005965255e+02  -3.8329857607e+00    0.1221563    0.1055773  80.25 0.0007042312    1.677    0.404
        64  -8.5476    182.3087    215.8869   1.1613034386e+02   2.1203538592e+00    0.1953604    0.1692976 -75.13 0.0006952311    1.440    0.305
        65  -8.3583    121.7072    216.4306   1.2843473532e+02   1.3131321545e+01    0.1878437    0.1205685  35.95 0.0008847176    1.675    0.403
        66  -9.2813     84.5123    215.2126   1.3570549162e+02   1.9479262798e+01    0.2278488    0.1717656  83.42  0.001392887    1.181    0.153
        67  -8.3211     91.9675    215.5201   1.3427208713e+02   1.8261998196e+01    0.1966154    0.1138507  45.74  0.001031377    1.588    0.370
        68  -9.3236     72.7622    214.7577   1.3794487147e+02   2.1313610409e+01    0.2172056    0.1461138 -72.62  0.001292512    1.411    0.291
        69  -9.1158    173.9802    213.4738   1.1738014698e+02   4.1014638925e+00    0.2428271    0.2155084 -49.76 0.0008760801    1.265    0.209
        70  -8.8700    145.9904    213.8891   1.2312216175e+02   9.2575831054e+00    0.2870265    0.1723739  45.13  0.001290753    1.483    0.326
        71 -11.0045     57.6512    211.2559   1.4048635898e+02   2.4132419328e+01    0.5813164    0.3333303  52.14  0.003349442    1.564    0.360
        72  -9.2403     44.9826    213.0287   1.4303578224e+02   2.5384021330e+01    0.2887587     0.157436  70.83  0.001072638    1.698    0.411
        73  -8.5920    156.2697    212.4754   1.2079967569e+02   7.6129417963e+00    0.2307938    0.1931969 -53.42 0.0007751529    1.329    0.248
        74  -8.6160    133.8708    213.5178   1.2554024320e+02   1.1544043192e+01    0.2141063    0.1211708  44.81  0.001030309    1.584    0.369
        75  -9.6013     52.3033    206.6612   1.4105604334e+02   2.5795653669e+01    0.4122376    0.1810139  59.36  0.001988969    2.262    0.558
        76  -9.2428     98.7347    210.9014   1.3233878707e+02   1.8131809352e+01    0.2696962    0.1424799  64.09    0.0012331    2.107    0.525
        77  -9.0506    180.6297    209.2960   1.1532062101e+02   3.5903447505e+00    0.2872345    0.2156138  71.09  0.001484599    1.734    0.423
        78  -8.3209    196.4568    208.9014   1.1210043260e+02   6.7642641502e-01    0.1905046    0.1347924 -42.08 0.0007626695    1.547    0.354
        79  -9.0834    163.8544    208.2229   1.1854080967e+02   6.9774267309e+00    0.2788981    0.2260481  66.01  0.001009992    1.315    0.240
        80  -9.0746     35.9352    208.4490   1.4430741253e+02   2.7416106910e+01     0.277984    0.1399268  70.77  0.001125359    1.907    0.476
        81  -9.6419     66.8989    249.7717   1.4233413498e+02   1.5335278278e+01    0.2804291    0.1586195  59.55  0.001156033    1.402    0.287
        82  -8.0659    173.3634    206.6983   1.1633430758e+02   5.4447530145e+00    0.1423073    0.1056826  72.09 0.0007035872    1.728    0.421
        83  -9.0591    150.3404    206.1346   1.2097879979e+02   9.9414725884e+00    0.2820291    0.1863516  50.22  0.000994059    1.387    0.279
        84  -8.0292    120.4804    206.4410   1.2724912942e+02   1.5361292330e+01    0.1368926    0.1202611  65.70 0.0001132817    1.022    0.021
        85  -9.2224     40.5782    204.9278   1.4312888206e+02   2.7609388936e+01    0.3321938     0.132195  69.60   0.00135662    3.378    0.704
        86  -8.4287     36.0189    202.5130   1.4377336375e+02   2.8652216312e+01    0.2150509    0.1214257  56.38 0.0009797874    1.599    0.374
        87  -9.8294     52.5039    250.1756   1.4476232394e+02   1.7195232479e+01    0.2911878    0.1304283  47.43  0.001369253    1.854    0.461
        88  -9.2127     78.0316    208.1748   1.3616955154e+02   2.1921178568e+01     0.289286    0.1694742 -75.06  0.001543106    1.662    0.398
        89  -8.9064     89.1048    204.8703   1.3352573030e+02   2.0935748122e+01    0.2155756    0.1540194  74.59 0.0007063805    1.314    0.239
        90  -8.4477     26.4602    203.9502   1.4567784346e+02   2.9414587787e+01    0.1764082   0.09161966 -77.41  0.001027585    1.584    0.369
        91  -8.6372    189.1199    202.6864   1.1242239857e+02   3.1484350333e+00    0.2205479    0.1934049 -63.24 0.0007165037    1.351    0.260
        92  -8.5940     31.1399    202.5976   1.4469779453e+02   2.9185711607e+01    0.2025573    0.1244783  88.12 0.0009222522    1.337    0.252
        93  -8.1495    181.5052    202.4875   1.1392449771e+02   4.6501176925e+00    0.1398756    0.1282593  40.33 0.0003644232    1.018    0.018
        94  -7.8772    175.4865    202.4701   1.1514926157e+02   5.8167459490e+00    0.1404246    0.1283491  45.38 0.0002377884    1.025    0.025
        95  -8.6846    142.3958    201.6685   1.2190291414e+02   1.2326121821e+01    0.2732372    0.1637549  41.60 0.0009820119    1.575    0.365
        96  -7.9015    112.6837    202.3798   1.2828361327e+02   1.7571117750e+01    0.1481604   0.09614912  76.87 0.0007024962    1.813    0.448
        97 -10.9590     54.2926    199.8685   1.3997609216e+02   2.6990569769e+01    0.7810127    0.1907695  51.49  0.002721124    4.305    0.768
        98 -10.2370     45.3507    201.6815   1.4191097604e+02   2.7723715425e+01    0.3283226    0.1672691  45.59  0.001811946    1.880    0.468
        99  -8.6404     71.0147    200.8211   1.3672308094e+02   2.4513289788e+01    0.2255689    0.1196736  65.59  0.001089318    1.995    0.499
       100  -8.2828    132.0470    200.4794   1.2389826278e+02   1.4499109460e+01    0.2129631    0.1279609  44.68 0.0005571012    1.541    0.351
       101  -8.3333    100.6941    200.3561   1.3051621970e+02   2.0033324699e+01    0.1445007   0.09341552  76.36 0.0005591573    1.720    0.419
       102  -9.0763    166.3872    199.0665   1.1641774174e+02   8.2282126670e+00    0.2890616     0.195563  52.28  0.001431384    1.434    0.303
       103  -8.2171     29.6518    197.2597   1.4451670172e+02   3.0479957577e+01    0.1956188    0.1160875 -76.29  0.001087836    1.390    0.280
       104  -8.4412     29.1598    193.2146   1.4425260587e+02   3.1398663724e+01    0.2344603    0.1158689  80.59  0.001013207    2.050    0.512
       105  -8.2171    151.0253    196.7637   1.1924320661e+02   1.1666994545e+01    0.1905303     0.111509  44.84 0.0006268797    1.578    0.366
       106  -8.6342     92.1099    195.9197   1.3171458667e+02   2.2389713130e+01    0.2167709    0.1605149  73.60 0.0006562399    1.274    0.215
       107 -12.0328     24.0459    229.5651   1.4799037400e+02   2.4519605335e+01     1.906461    0.5367445  62.51  0.007462907    4.323    0.769
       108  -8.0964    178.4697    195.5311   1.1326297783e+02   6.5332462105e+00    0.1418704    0.1318064  46.19 0.0002161234    1.034    0.033
       109  -7.6888    141.3022    195.6987   1.2113413816e+02   1.3749336612e+01    0.1438524    0.1056318  75.87 0.0004035555    1.588    0.370
       110  -9.3989     39.3698    193.7110   1.4230542558e+02   3.0150794898e+01    0.2663651    0.1493531  71.62  0.001064692    1.717    0.417
       111  -9.4513     51.9850    192.0238   1.3960141804e+02   2.8992843708e+01    0.2133986    0.1216314  70.95 0.0008472258    1.767    0.434
       112  -8.4864     66.6612    191.3602   1.3649279437e+02   2.7196336183e+01    0.2103825    0.1280434  71.92  0.001097743    1.675    0.403
       113 -11.3617     14.2172    217.3901   1.4882436785e+02   2.7959121601e+01     1.023166    0.2464412  55.12  0.004366918    3.764    0.734
       114  -8.3980     82.4258    199.2666   1.3418939447e+02   2.3169839446e+01    0.1808043    0.1135398 -81.30  0.000831575    1.598    0.374
       115  -8.0291    175.4630    188.5187   1.1256002602e+02   8.4757747291e+00    0.1438973    0.1356038  47.54 0.0001403558    1.021    0.021
       116  -9.0349     36.6788    186.5040   1.4212984204e+02   3.2030720678e+01    0.2512552    0.1216936  65.63  0.001090389    2.196    0.545
       117 -13.3959      8.5901    205.2885   1.4898069533e+02   3.0953814664e+01     3.604226     1.292578  86.07   0.01630425    3.083    0.676
       118  -8.1300     79.6668    189.3115   1.3347381002e+02   2.5775545531e+01     0.141794   0.08939105  73.36 0.0007044043    1.678    0.404
       119 -12.3469      4.3329    225.5074   1.5094755597e+02   2.7358465125e+01     1.332788    0.4613034 -88.30  0.006751334    2.657    0.624
       120  -9.3230     45.5052    180.0012   1.3961265921e+02   3.2456242616e+01    0.2678384     0.111007  65.55  0.001040106    3.453    0.710
       121  -8.7595     28.5807    178.7056   1.4299991616e+02   3.4623265043e+01    0.2004196    0.1164252  64.80  0.001155505    1.667    0.400
       122  -8.3725     29.5836    172.7715   1.4218752215e+02   3.5838061843e+01    0.1751665   0.09463156 -84.51 0.0009441994    1.641    0.391
       123 -12.7878      6.0007    245.8385   1.5178281809e+02   2.3394518077e+01     1.483192    0.6039931  52.22  0.009462162    1.911    0.477
       124 -12.3756     14.2070    240.4634   1.5024366183e+02   2.3522514343e+01     1.063794    0.4010377  62.06  0.005994759    2.193    0.544
       125 -11.2573     34.1486    248.6918   1.4761762330e+02   1.9755072679e+01    0.9261228    0.4221071  68.58  0.005433498    1.890    0.471
       126 -10.8814     20.3068    209.1495   1.4719246367e+02   2.8992959671e+01    0.9572191    0.3343308  66.74  0.004113596    3.447    0.710
       127  -8.4415    201.3555    246.8000   1.1753567673e+02  -6.0586134602e+00    0.1611361    0.1106822 -22.07 0.0009010755    1.767    0.434
       128  -9.9005    182.5640    245.6320   1.2083696056e+02  -2.7094821730e+00    0.3899502    0.2781817  26.45  0.001565183    1.391    0.281
       129  -9.4299     18.3624    141.8067   1.4121582694e+02   4.3864942073e+01    0.2463692    0.1497826  67.27  0.001166866    1.813    0.448
       130 -10.1383    162.3826    231.1512   1.2250892784e+02   3.1508062965e+00    0.5163792    0.2367149  57.26  0.002070333    2.846    0.649
       131  -8.8910    166.7137    243.2896   1.2346551863e+02   3.9166712791e-01    0.4850701    0.1972352 -42.95  0.002162495    3.067    0.674
       132 -10.5145    166.0097    236.7611   1.2264727104e+02   1.5674534250e+00    0.5026754    0.3416508  48.94  0.002868619    1.287    0.223
       133  -9.7376      3.2858    122.8009   1.4256749671e+02   4.9221435678e+01    0.2747118     0.143594  56.01  0.001543464    2.370    0.578
       134  -9.8477     45.7732    245.4055   1.4551470900e+02   1.8933361294e+01    0.2866949    0.1557123  55.62  0.001101722    1.464    0.317
       135  -8.6152     85.4318    244.7223   1.3866960082e+02   1.3590983596e+01    0.2068132    0.1075376 -74.99  0.000987458    2.083    0.520
       136  -8.5578      5.2621    110.5562   1.4045477297e+02   5.1784746256e+01    0.2257032    0.1157831 -78.64  0.001247669    1.766    0.434
       137  -8.7004    177.5665     79.7898   8.6213857253e+01   2.9901673400e+01     0.222713    0.1390016 -49.23 0.0008057932    1.665    0.399
       138  -9.2983    173.0060     72.0073   8.4961652958e+01   3.2386104684e+01    0.2453406    0.1871567  22.07  0.001138784    1.689    0.408
       139  -8.4290    148.3096     68.3353   8.9169087678e+01   3.9017794533e+01    0.1539683    0.1164828  16.05 0.0007043306    1.678    0.404
       140  -9.6271    112.2949     65.1558   9.7237258761e+01   4.7547458036e+01    0.4030571      0.10457  51.35  0.001117544    4.752    0.790
       141  -9.0647    160.6883     63.0312   8.4898223608e+01   3.6914966409e+01    0.2090374    0.2023104 -42.04 0.0008778283    1.072    0.067
       142  -8.9333    167.6826     60.6752   8.2794957538e+01   3.5571159866e+01     0.152166    0.1143771  24.21 0.0007044486    1.672    0.402
       143  -8.8421    243.4521     57.7521   7.0207005162e+01   1.7583804507e+01    0.2281457    0.1776541  73.44 0.0003442362    1.288    0.223
       144  -8.4135    165.8141     54.5982   8.1401514326e+01   3.6975350099e+01    0.2130032    0.1376227  70.64 0.0008899046    1.677    0.404
       145  -9.6030    156.1968     52.9764   8.2847080428e+01   3.9580843769e+01    0.2301268    0.1529317  37.25  0.001060823    1.651    0.394
       146  -8.8428    171.2434     45.9897   7.7896679755e+01   3.6884896031e+01    0.1854008    0.1230397 -33.37  0.000657864    1.602    0.376
