#   1 NUMBER                 Running object number                                     
#   2 MAG_AUTO               Kron-like elliptical aperture magnitude                    [mag]
#   3 X_IMAGE                Object position along x                                    [pixel]
#   4 Y_IMAGE                Object position along y                                    [pixel]
#   5 X_WORLD                Barycenter position along world x axis                     [deg]
#   6 Y_WORLD                Barycenter position along world y axis                     [deg]
#   7 A_WORLD                Profile RMS along major axis (world units)                 [deg]
#   8 B_WORLD                Profile RMS along minor axis (world units)                 [deg]
#   9 THETA_WORLD            Position angle (CCW/world-x)                               [deg]
#  10 FWHM_WORLD             FWHM assuming a gaussian core                              [deg]
#  11 ELONGATION             A_IMAGE/B_IMAGE                                           
#  12 ELLIPTICITY            1 - B_IMAGE/A_IMAGE                                       
         1  -9.0133     74.0942     19.6049   7.5301977041e+01   6.3758592241e+01    0.3399953    0.1963244 -48.87 0.0006997312    2.068    0.516
         2  -8.6047     55.8432     10.1231   7.7644178656e+01   6.8743277106e+01    0.1998186    0.1765821 -45.69 0.0007521523    1.320    0.242
         3  -8.0656     47.5549     10.0623   8.1639986874e+01   7.0176933958e+01    0.1843932    0.1077861 -55.29 0.0008078188    2.535    0.605
         4  -8.3863     90.5261      9.0008   6.4116076044e+01   6.1645463643e+01    0.2153549    0.1335374 -25.98 0.0005228134    1.545    0.353
         5  -7.7537     27.9777      9.7389   9.2658745994e+01   7.3013687819e+01    0.1439333    0.1087856  20.85 0.0004817589    1.467    0.318
         6  -7.9327    101.3822      8.2748   6.0778747503e+01   5.9123343253e+01     0.199654    0.1261192 -32.88 0.0002867182    1.572    0.364
         7  -7.6285     12.6974      8.4040   1.0229984678e+02   7.4815803641e+01    0.1178087   0.09277818  88.20 0.0006991799    1.843    0.457
         8  -8.5795     33.4068      5.2243   8.6523773634e+01   7.3137545698e+01    0.2817401    0.1964138 -62.98  0.001319654    2.244    0.554
         9  -8.6261     79.0957      4.1427   6.4950190436e+01   6.4839796439e+01    0.3300163    0.1749821 -33.35  0.001042664    1.836    0.455
        10  -7.6518     44.5348      3.4809   7.9039384029e+01   7.1728135544e+01    0.1322654    0.1131036 -16.24 0.0001729319    1.038    0.036
        11  -7.4511    115.2886      2.3111   5.4718643645e+01   5.6212391921e+01     0.153056    0.1008711  30.24  0.000422536    1.581    0.367
        12  -8.2752     62.1568      1.4621   6.9488641459e+01   6.8767674964e+01    0.1822495    0.1325888  50.67 0.0004312247    1.491    0.329
        13  -7.4609     39.4599      1.4769   8.0461635862e+01   7.2858419432e+01    0.1302123    0.1106408 -18.51 3.733494e-05    1.054    0.051
        14  -8.4596    190.8620    245.8875   1.0057150743e+02   4.1442331679e+00    0.1568453    0.1027487  20.38 0.0004472331    1.244    0.196
        15  -8.0893    239.9151    250.5089   9.3654876885e+01  -2.2656495673e+00    0.1471055   0.06925271  33.18  0.001023039    1.567    0.362
        16  -8.9742    242.9038    246.5129   9.2700431177e+01  -2.3043241314e+00    0.2404004    0.1206937 -16.77  0.001458401    2.097    0.523
        17  -9.4979    211.2580    247.3003   9.7539994026e+01   1.4436276210e+00    0.2564363    0.1643814 -42.62   0.00142647    2.576    0.612
        18  -8.3910    191.0829    249.9763   1.0101474231e+02   3.7202845901e+00    0.1454715    0.1042977  46.81 0.0008433313    1.689    0.408
        19  -8.4946     93.8347    249.5161   1.1709629064e+02   1.5929531353e+01     0.203841    0.1142398  73.77  0.001336756    2.461    0.594
        20  -9.0545    169.2039    244.0087   1.0387698126e+02   7.1318304165e+00    0.2169531    0.1708394 -61.22  0.001281058    2.122    0.529
        21  -9.6008     10.5267    245.2535   1.3072340050e+02   2.5092637019e+01    0.3541679   0.03929459  52.06  0.001780459    3.430    0.708
        22  -8.1503     67.5380    245.0191   1.2127082966e+02   1.9531471302e+01    0.1232542   0.09033126 -87.80  0.001024561    1.574    0.365
        23  -9.3381    248.6794    242.3835   9.1313945092e+01  -2.6577932841e+00    0.1952156    0.1524802 -13.60  0.001098454    1.610    0.379
        24  -9.5522    248.1223    235.6201   9.0465826422e+01  -2.0617882126e+00    0.3024288     0.170872 -32.34  0.001509839    2.374    0.579
        25  -9.4751    246.4065    229.1578   8.9803675166e+01  -1.3296353004e+00    0.3099703    0.1568301 -20.74  0.001508525    2.011    0.503
        26  -8.8026    201.9656    243.1303   9.8473746883e+01   2.9936457054e+00    0.2195097    0.1359223 -30.59   0.00131852    2.009    0.502
        27  -9.2495     77.9249    243.2448   1.1938599632e+02   1.8620713589e+01    0.2534996    0.1181692  65.10  0.001514113    2.544    0.607
        28  -9.4219    160.3215    240.5749   1.0497922015e+02   8.6733488413e+00    0.2457797    0.1911721 -85.53  0.001584608    2.407    0.584
        29  -9.3946    182.7433    240.1685   1.0120620694e+02   5.7716852369e+00    0.3696918    0.2380501  38.37  0.001928316    1.292    0.226
        30  -7.8617    153.3980    242.1903   1.0632086197e+02   9.3954973083e+00    0.1121399     0.100895 -83.53 0.0006094945    1.664    0.399
        31  -8.1075     88.3322    242.1674   1.1751666714e+02   1.7566831278e+01    0.1218291   0.08472656  82.88 0.0006233979    1.712    0.416
        32  -8.4083    214.4696    241.5191   9.6314982323e+01   1.5611680746e+00    0.1031591   0.07249149  22.92 9.844294e-05    1.046    0.044
        33  -8.6422    139.2990    244.4153   1.0893525926e+02   1.0960379125e+01    0.1484155    0.1147255  69.13 0.0007420017    1.743    0.426
        34  -8.8088    240.4953    240.0544   9.2190098251e+01  -1.5084155976e+00    0.1715335   0.08430242 -18.33   0.00116459    2.159    0.537
        35  -9.1716    194.1238    239.4862   9.9274138505e+01   4.3562288512e+00    0.2253202     0.144099  -7.01  0.001105238    1.837    0.456
        36  -8.7710    194.9506    233.1945   9.8348500248e+01   4.8833066865e+00     0.230697    0.1983069  81.05  0.001333721    2.369    0.578
        37  -8.3745    146.1427    239.8300   1.0730718334e+02   1.0621893460e+01    0.1542628    0.1122486  44.35 0.0005025417    1.221    0.181
        38  -9.2026    135.7358    238.8873   1.0900220031e+02   1.2096155443e+01    0.2220703     0.127257  53.62  0.001275464    1.861    0.463
        39  -8.1061    129.0522    238.9537   1.1016717019e+02   1.2953991609e+01    0.1631907     0.101978  56.00 0.0006020471    1.712    0.416
        40  -7.9323     40.7855    239.0518   1.2552053213e+02   2.3199411694e+01    0.1111785   0.06930897  89.88 0.0005524307    1.686    0.407
        41  -9.0045    230.9500    237.0966   9.3211871438e+01  -1.0260008875e-01    0.1814089    0.1628427 -35.31  0.001189025    2.055    0.513
        42  -8.6006    209.0800    238.0999   9.6716197091e+01   2.5597283510e+00    0.1754219    0.1196357   1.78 0.0009758063    1.419    0.295
        43  -9.1063     79.0740    235.2180   1.1865102716e+02   1.9633047642e+01    0.3043135    0.1600808  86.62  0.001451151    2.676    0.626
        44  -8.4687     25.9298    237.4216   1.2796744073e+02   2.4875195939e+01     0.281762   0.04429687  55.52  0.001212994    4.426    0.774
        45  -9.9100    215.0018    233.4404   9.5172990630e+01   2.2363896942e+00    0.3658468    0.3054496 -86.66  0.002381593    3.570    0.720
        46  -7.8096     58.5972    237.1859   1.2236606611e+02   2.1632786848e+01    0.1951262   0.05173897  37.33  0.001002837    2.597    0.615
        47  -9.0494    203.2097    234.9153   9.7236065484e+01   3.6243729489e+00    0.2079454     0.173307 -51.99  0.001350467    2.167    0.539
        48  -9.7651    175.7185    233.4503   1.0156525945e+02   7.4253035425e+00    0.3225166    0.2031426 -54.42  0.002119488    2.696    0.629
        49  -9.3702    109.3000    234.7615   1.1325224112e+02   1.6030922604e+01     0.445165    0.1500132  48.78  0.001822384    2.699    0.630
        50  -8.0699    170.3350    235.3042   1.0269257608e+02   7.9401643735e+00    0.1143199    0.1006929 -48.66  0.000673334    1.656    0.396
        51  -8.8498    132.8586    233.6870   1.0898389115e+02   1.3132100262e+01    0.1929023    0.1536691 -69.00  0.001278929    1.753    0.429
        52  -8.4113    122.9776    234.2818   1.1078547499e+02   1.4345876587e+01    0.1808112    0.1243115  62.06 0.0008182611    1.661    0.398
        53  -8.4881     99.6127    234.3056   1.1493530632e+02   1.7302924605e+01    0.2106273    0.1350369  72.22  0.000969464    1.902    0.474
        54  -9.2481     68.2509    232.1844   1.2037154542e+02   2.1316623224e+01    0.3789448    0.1455269  61.51   0.00195195    3.063    0.673
        55  -9.0021      8.4936    233.9700   1.3077631439e+02   2.6955566178e+01    0.1284081   0.07621668  86.57  0.001033691    1.597    0.374
        56  -9.4428    186.5574    230.8273   9.9428183907e+01   6.2531997168e+00    0.2519501    0.2120795 -88.37  0.001304578    2.417    0.586
        57  -8.1403    144.7811    233.1881   1.0684157634e+02   1.1613070649e+01    0.2221174    0.1020967  52.11  0.001175766    2.606    0.616
        58  -8.5391    140.1796    230.1457   1.0732369190e+02   1.2613921786e+01    0.2017801    0.1137898  47.47 0.0007307067    1.580    0.367
        59  -8.5484     92.2486    232.0080   1.1606679814e+02   1.8532183432e+01    0.2166152     0.128749  69.59  0.000949799    1.991    0.498
        60  -8.9575    236.2271    230.9836   9.1575270545e+01  -2.3111972860e-01    0.1940289    0.1571656 -18.43 0.0006074265    1.625    0.384
        61  -7.8387    157.9989    232.2244   1.0443990013e+02   9.9547555951e+00    0.1326411    0.1098634  62.95  0.000683261    1.618    0.382
        62  -8.8339      1.7432    230.9311   1.3182578761e+02   2.7988531652e+01    0.1739576   0.08196221  64.62 0.0007752256    1.552    0.356
        63  -8.9864    151.4935    229.0067   1.0520514365e+02   1.1228088689e+01    0.2096607    0.1504762  59.25  0.001460548    1.762    0.433
        64  -9.5167    148.8468    224.7277   1.0518327444e+02   1.2129766162e+01    0.2938208    0.1965121  62.90  0.001351019    2.135    0.532
        65  -8.1744    229.8553    229.0727   9.2272968090e+01   7.3658092470e-01    0.1263159    0.1185376 -30.93  0.000761031    1.952    0.488
        66  -8.5997    162.5377    228.2598   1.0319200846e+02   9.8116849706e+00    0.2587634    0.1335087  52.88  0.001093488    2.545    0.607
        67  -8.8901    128.0258    227.3927   1.0920383449e+02   1.4603755209e+01    0.2515353    0.1534231  58.58   0.00125587    1.904    0.475
        68  -8.1540    119.9893    227.7434   1.1068867289e+02   1.5619755751e+01    0.1687414    0.1268323  72.06  0.001229227    1.635    0.388
        69  -9.5222      8.3461    227.8134   1.3064384031e+02   2.7924409230e+01    0.1533981     0.106472 -89.52  0.001306964    1.474    0.321
        70  -7.9219    223.3971    227.2304   9.3010498004e+01   1.7318510724e+00    0.1203342   0.09308124 -25.51 0.0006629199    1.663    0.399
        71  -8.1564    215.3300    226.7386   9.4208462449e+01   2.8310024963e+00    0.1471935    0.1090928  10.89 0.0004115488    1.124    0.110
        72  -8.8869    216.4916    223.6022   9.3585656562e+01   2.9818382896e+00    0.1891705    0.1666474 -34.51 0.0008644275    1.796    0.443
        73  -8.8010    206.0219    226.4855   9.5663527165e+01   4.0906825385e+00    0.1584843    0.1475874 -25.12 0.0007319274    1.641    0.391
        74  -8.2428     49.3557    226.8359   1.2343584414e+02   2.4189030183e+01    0.2128784   0.09756273  65.57  0.001311763    2.106    0.525
        75  -8.2039    200.0187    225.9513   9.6567917328e+01   4.9519034795e+00    0.1591709    0.1335458 -36.39 0.0008037284    1.717    0.417
        76  -8.6339    202.6844    220.5434   9.5388189116e+01   5.1543094302e+00    0.2158267     0.145171 -12.45  0.001521433    1.600    0.375
        77  -8.8397    180.6325    224.4186   9.9603667919e+01   7.7690273326e+00    0.2197451    0.1541174  49.51 0.0006008982    1.676    0.403
        78  -8.9595    104.7254    223.6913   1.1309201861e+02   1.8180536878e+01    0.2640495    0.1678283  75.25  0.001406714    2.096    0.523
        79  -8.9537     94.0208    224.2378   1.1511292427e+02   1.9453949631e+01    0.3120264    0.1342127  55.01  0.001679384    2.385    0.581
        80  -8.9444    173.0596    223.4136   1.0077358058e+02   8.9349026537e+00     0.165004     0.154514 -85.03 0.0007105278    1.649    0.394
        81  -8.0387    113.9876    224.0030   1.1141793420e+02   1.6932895946e+01     0.168521     0.106165  58.03 0.0006520517    1.638    0.390
        82  -8.3028     59.4068    224.1621   1.2146584834e+02   2.3530479383e+01    0.1381336   0.08267396  79.32 0.0009532544    1.752    0.429
        83  -7.9819     38.2817    224.6417   1.2530866180e+02   2.5666903118e+01    0.1080616   0.05211101  59.83 0.0005305075    1.668    0.401
        84  -8.1894    163.3300    222.6876   1.0237767456e+02   1.0377373777e+01    0.1601274    0.1309392  63.74  0.001084096    1.694    0.410
        85  -8.8221    159.3562    220.9250   1.0286180785e+02   1.1151722352e+01    0.2180656    0.1559565  55.67 0.0009057156    1.699    0.411
        86  -9.2817    239.2777    221.4754   8.9749725375e+01   2.1655529926e-01    0.2577979    0.1879774   0.15  0.001499944    1.208    0.172
        87  -9.0519    225.4827    221.8695   9.1923150428e+01   1.9620813747e+00    0.1971964    0.1433436  39.72  0.001034022    1.605    0.377
        88  -9.2565    192.3518    221.3250   9.7212419054e+01   6.4934702350e+00    0.2094877    0.1932639  62.41  0.000959507    1.718    0.418
        89  -9.2640      6.1716    221.9421   1.3086407384e+02   2.9042943014e+01    0.2687053   0.06111976  39.06  0.001505761    2.563    0.610
        90  -9.2799    120.2626    218.9731   1.0975504413e+02   1.6819691080e+01     0.370043    0.2087708  64.58  0.001832229    2.568    0.611
        91  -8.7301     82.9024    220.5952   1.1687785122e+02   2.1374187832e+01    0.2578918    0.1338989  68.67  0.001482454    2.393    0.582
        92  -8.1026     73.1572    220.7620   1.1870607415e+02   2.2507307516e+01    0.1858366   0.07532212  59.97 0.0009253769    2.775    0.640
        93  -8.0467     27.4965    221.5263   1.2710096048e+02   2.7213043969e+01   0.09972217   0.07300619  57.16 7.216844e-05    1.041    0.039
        94  -9.3934    248.4176    218.1366   8.7888166170e+01  -6.4526018194e-01    0.2839865    0.2463971  69.99  0.001947323    3.185    0.686
        95  -9.7917    133.1531    216.3415   1.0707585175e+02   1.5428548380e+01    0.4144221    0.2454075  68.36  0.002179925    3.004    0.667
        96  -8.5586    179.4064    218.1874   9.8994832234e+01   8.6602172208e+00    0.1244837    0.1075944 -50.20 0.0009340328    1.698    0.411
        97  -8.7237     62.3921    217.4812   1.2048891177e+02   2.4263901071e+01    0.3084148    0.1209279  57.22  0.001650864    2.427    0.588
        98  -8.8134     51.8428    217.5059   1.2246028362e+02   2.5416878380e+01    0.2348683    0.1329742  72.17  0.001177667    1.710    0.415
        99  -8.7482    169.3756    216.2831   1.0049685504e+02   1.0313415842e+01    0.2062972    0.1801769 -87.39 0.0009200047    1.844    0.458
       100  -8.7355    142.8136    216.7427   1.0534112188e+02   1.4022530450e+01    0.2242641    0.1598206  60.20  0.001161823    1.703    0.413
       101  -7.9736    111.9569    217.4901   1.1115509076e+02   1.8148723491e+01    0.1628973    0.0681249  51.86  0.000808448    2.452    0.592
       102  -8.7615    232.5600    214.5971   8.9750672913e+01   1.7168813886e+00     0.275912    0.1747815 -18.98  0.001965456    1.600    0.375
       103  -8.4145     18.5737    215.2129   1.2846483741e+02   2.9070784021e+01    0.1791397   0.08035595  87.58  0.001144928    2.151    0.535
       104  -8.4211    185.7634    214.6364   9.7413999104e+01   8.1742060701e+00    0.1645475    0.1448415  79.44 0.0008508202    1.951    0.487
       105  -8.2200    154.2558    215.2198   1.0306887358e+02   1.2606090427e+01    0.1446521     0.116387  51.93 0.0005820375    1.367    0.268
       106  -9.0437     93.6129    214.3036   1.1432551007e+02   2.1025116201e+01    0.4214914    0.1318461  50.23  0.001862461    3.130    0.680
       107  -9.5318    214.0197    212.4285   9.2364246080e+01   4.4409917573e+00    0.2868634      0.21467  42.53  0.001480501    1.593    0.372
       108  -8.0349    197.2024    214.5584   9.5455762325e+01   6.5623630274e+00     0.165232   0.08166995  28.50 0.0009451231    1.720    0.419
       109  -9.5541     73.6239    212.3463   1.1799046820e+02   2.3801233602e+01    0.5522414    0.1753228  55.13  0.002376601    3.582    0.721
       110  -8.0558    224.9303    212.8619   9.0681300301e+01   2.9042393787e+00     0.142383    0.1275563  39.94  0.001106594    1.714    0.417
       111  -8.6002    161.5584    212.3413   1.0137800282e+02   1.1934428213e+01     0.170356    0.1479934  57.56 0.0005534644    1.437    0.304
       112  -8.4486    106.7798    213.0559   1.1169292288e+02   1.9505357930e+01    0.1748987    0.1227872  57.08 0.0007834274    1.346    0.257
       113  -9.0565    204.2624    210.9863   9.3755868936e+01   5.9592310516e+00    0.2286594    0.1828748 -42.02  0.001023788    1.840    0.457
       114  -9.4142    175.3520    210.0434   9.8597134160e+01   1.0225819312e+01    0.3020773    0.2309151  74.29  0.001291481    2.456    0.593
       115  -9.2635      6.8437    209.5579   1.3040795518e+02   3.1035531030e+01    0.4348073   0.08088879  65.75  0.001603703    5.887    0.830
       116  -8.2484    210.1057    219.3003   9.4000443960e+01   4.2697262560e+00    0.1482757    0.1102552  25.29 0.0005335471    1.108    0.097
       117  -8.2882    192.1581    210.6982   9.5758895418e+01   7.7162460959e+00    0.1608923    0.1477096 -11.33 0.0006831484    1.378    0.274
       118  -8.8215    147.8194    210.4494   1.0365100474e+02   1.4171060012e+01    0.2433528    0.1622736  59.21  0.001031198    1.903    0.475
       119  -8.9275    116.3117    210.5011   1.0960506757e+02   1.8608802521e+01    0.2727941    0.1611144  61.07  0.001109936    2.014    0.504
       120  -8.2555     32.9598    211.0338   1.2564259399e+02   2.8426602833e+01    0.2279775   0.07367964  53.04  0.001230191    2.329    0.571
       121  -8.5770     85.5289    209.4251   1.1544980314e+02   2.2825585071e+01    0.2872257    0.1469339  65.94  0.001411727    2.410    0.585
       122  -9.0588    236.3307    208.3178   8.8205883829e+01   1.8117176186e+00    0.2070981    0.1737366 -27.95  0.001092217    1.731    0.422
       123  -8.3158    139.2623    208.2358   1.0497622001e+02   1.5714682626e+01    0.2114593    0.1406755  63.00  0.000671702    1.991    0.498
       124  -9.4300    246.4033    207.3271   8.6520809012e+01   5.7361795241e-01    0.2067816    0.1549474 -11.67 0.0005665938    1.352    0.261
       125  -7.8577    156.4347    208.1799   1.0176640365e+02   1.3229603297e+01    0.1308291     0.113095 -68.00 0.0007916543    1.639    0.390
       126  -9.2724     99.5161    206.4037   1.1243599079e+02   2.1513578906e+01    0.3127819    0.1806959  66.93  0.001375509    2.157    0.536
       127  -8.6154     56.8337    205.8483   1.2077127484e+02   2.6822297887e+01    0.2759139    0.1155441  60.78  0.001460118    2.402    0.584
       128  -8.7482     12.1377    206.8095   1.2935216387e+02   3.1057787772e+01    0.1210842    0.1084045  65.46 0.0006358466    1.327    0.246
       129  -9.3507    194.8110    203.7269   9.4276468702e+01   8.1435137560e+00    0.2968495    0.2525134  44.44  0.001609471    1.469    0.319
       130  -9.5622    192.4064    197.4367   9.3733327398e+01   9.2553454688e+00    0.3003383    0.2669295 -65.63  0.001456637    1.855    0.461
       131  -9.1297    183.6409    203.8513   9.6245338093e+01   9.7757841427e+00    0.2418429    0.1896544  57.75 0.0009305421    1.795    0.443
       132  -8.7680    131.5682    204.4421   1.0597855658e+02   1.7377367516e+01    0.2768846    0.1531618  60.78  0.001148651    2.604    0.616
       133  -8.2054    109.0798    205.1218   1.1042904526e+02   2.0432255923e+01    0.1772843    0.1167441  63.45 0.0008064128    1.678    0.404
       134  -8.2942     92.6180    205.3208   1.1368672269e+02   2.2592956188e+01    0.1812763    0.1080871  61.46  0.001096534    1.728    0.421
       135  -7.9411     25.3279    205.6394   1.2683504053e+02   3.0079134080e+01    0.1167162   0.05153735  59.17 0.0007041703    1.792    0.442
       136  -9.4967    250.1271    202.1646   8.5140555392e+01   5.5957450800e-01    0.3021844     0.136793 -24.96  0.001305544    2.166    0.538
       137  -7.9040    218.3440    204.3155   9.0426285099e+01   4.6857805636e+00    0.1196165    0.0689864  13.34 0.0007048027    1.714    0.416
       138  -9.6100    163.9550    203.1276   9.9695420114e+01   1.2799157578e+01    0.3897732    0.1968219  50.51  0.001171154    2.274    0.560
       139  -7.6276     18.6669    204.3512   1.2804247063e+02   3.0911222823e+01     0.115957   0.05003684  58.67 0.0007046871    1.780    0.438
       140  -7.2393    227.6669    203.6596   8.8827784781e+01   3.4493160680e+00    0.1196883   0.06755047  11.74 0.0007051402    1.750    0.429
       141  -8.4654     48.6589    202.5777   1.2215967228e+02   2.8279756671e+01     0.187721    0.1020177  70.75 0.0007812679    1.772    0.436
       142  -9.1266    242.8820    200.8387   8.6014350502e+01   1.6470835394e+00     0.219622    0.1626919 -18.03 0.0008735458    1.434    0.303
       143  -7.7624    222.4092    201.9215   8.9392522742e+01   4.3636517305e+00    0.1257577   0.09568118 -50.11 0.0008023222    2.438    0.590
       144  -8.4175    210.9924    202.0340   9.1277555660e+01   5.9807089248e+00    0.1510396    0.1370087  51.91 0.0005775375    1.711    0.416
       145  -8.9394    140.3893    201.0131   1.0384944458e+02   1.6600993257e+01      0.28034    0.1922804  72.88  0.001249741    2.323    0.570
       146  -8.5830     79.9416    201.2579   1.1583328288e+02   2.4884760246e+01    0.2769618      0.14317  70.41  0.001461461    2.499    0.600
       147  -7.8902     10.5134    202.4922   1.2951164390e+02   3.1945095709e+01    0.1033111   0.07303181  61.55 0.0001089625    1.012    0.012
       148  -9.3174    237.0842    198.5583   8.6532852162e+01   2.6587201897e+00    0.2345083    0.1445049 -27.80  0.001079655    1.756    0.431
       149  -8.5706    177.1679    199.3022   9.6731570341e+01   1.1319361595e+01    0.1978372    0.1599676  56.50 0.0006979911    1.619    0.383
       150  -9.5717    149.4823    198.4333   1.0176180538e+02   1.5623464389e+01    0.3348101    0.2431284 -76.91  0.001147127    2.305    0.566
       151  -8.9473    124.0226    199.2723   1.0682072643e+02   1.9255633989e+01    0.2498831    0.1800739  89.34  0.001347306    1.997    0.499
       152  -9.4881    112.8729    198.2497   1.0891551713e+02   2.1007537536e+01    0.4003914    0.2689992  79.11  0.001692996    2.061    0.515
       153  -9.1867     88.7376    198.7220   1.1382626007e+02   2.4198475614e+01    0.3230848    0.1788064  67.74  0.001535054    2.217    0.549
       154  -8.3526    202.3903    197.9615   9.2087649482e+01   7.7008957950e+00    0.1826909    0.1494529  46.16 0.0008154186    1.549    0.354
       155  -7.9416    101.9935    199.0000   1.1118104871e+02   2.2389950956e+01    0.1943604   0.05524526  36.71 0.0007994371    2.922    0.658
       156  -9.2770     61.5106    197.1299   1.1920996106e+02   2.7814383413e+01    0.3436066     0.162102  66.36  0.001688395    2.354    0.575
       157  -8.2772     12.5837    197.3531   1.2893952402e+02   3.2677841562e+01    0.2559952   0.08617356  76.12  0.001293403    2.959    0.662
       158  -8.6922    215.9132    195.5448   8.9428874541e+01   5.9832884806e+00    0.1844495    0.1532689 -37.44 0.0008000219    1.710    0.415
       159  -8.9464    185.2065    195.0561   9.4640027141e+01   1.0643997448e+01    0.2014491    0.1847509 -36.75 0.0005587458    1.449    0.310
       160  -8.6090    133.1270    195.7704   1.0458325759e+02   1.8468750179e+01    0.1832975    0.1579567 -80.49 0.0007026402    1.473    0.321
       161  -7.9651     53.4093    196.2492   1.2078789842e+02   2.8884495834e+01    0.1487684   0.08890734  81.28 0.0006639814    1.694    0.410
       162  -7.8902     35.6775    196.3357   1.2436120216e+02   3.0728287496e+01    0.1185162   0.05780691  59.77 0.0007050571    1.710    0.415
       163  -9.0363    245.6577    193.5266   8.4388442314e+01   1.9753986543e+00    0.2305116    0.2244928  55.80  0.001235024    1.979    0.495
       164  -9.3509    241.4699    190.8719   8.4579212590e+01   2.8164149299e+00    0.3076294     0.161436 -13.44  0.001526977    1.909    0.476
       165  -8.8112    224.5360    194.1042   8.7785306319e+01   4.8876092541e+00    0.2059368    0.1755192 -35.66   0.00103469    1.722    0.419
       166  -7.7208    209.3035    195.6751   9.0551687620e+01   6.9406861310e+00   0.09882586   0.09046844  50.36 0.0007032033    1.641    0.391
       167  -8.9806    160.9179    194.4556   9.9024314908e+01   1.4453433540e+01    0.2639187    0.1802293  58.35 0.0009425179    1.915    0.478
       168  -8.9991     43.5882    193.2964   1.2258505283e+02   3.0473356621e+01    0.3434337     0.146192  66.76  0.001791579    2.457    0.593
       169  -8.1791    230.8895    194.1898   8.6784222523e+01   3.9688761365e+00    0.1608597    0.1339955  12.93 0.0005239403    1.230    0.187
       170  -8.5990     76.9412    193.7232   1.1576432098e+02   2.6568986862e+01    0.2033962    0.1473783  81.50 0.0006850853    1.429    0.300
       171  -8.6326    172.5204    192.0082   9.6483686641e+01   1.3000316429e+01    0.2253964    0.1853327  66.54 0.0009126665    1.753    0.430
       172  -8.2834    198.9523    191.5658   9.1658663622e+01   8.9802255066e+00    0.1716108    0.1406916  -8.28 0.0005340859    1.229    0.186
       173  -8.4921    179.1206    191.6456   9.5211445339e+01   1.2024636889e+01    0.1756699    0.1603288 -30.14  0.000554752    1.359    0.264
       174  -9.2891    139.5848    190.6866   1.0262220208e+02   1.8284797787e+01    0.3147362    0.2261032  77.07  0.001141804    2.150    0.535
       175 -10.5307     92.2737    188.8403   1.1208609220e+02   2.5445500423e+01    0.8657739    0.2025785  46.67  0.003143152    3.915    0.745
       176  -8.3841    148.3265    189.3750   1.0071142289e+02   1.7141238380e+01    0.1765468    0.1453517 -84.18 0.0007470947    1.743    0.426
       177  -8.9506    129.3188    188.7541   1.0441716993e+02   2.0148485368e+01    0.2567642    0.1816284  69.50 0.0009390878    1.858    0.462
       178  -8.2154    237.0738    188.5061   8.4856629147e+01   3.6774453597e+00    0.1691614    0.1237734  -8.10 0.0006257176    1.225    0.183
       179  -8.7208    216.7285    188.1663   8.8072565550e+01   6.6909933920e+00    0.2228202    0.1701299  50.25 0.0008238059    1.805    0.446
       180  -9.4127    155.9468    187.4774   9.8943611128e+01   1.6236398327e+01    0.3091231    0.2359495 -69.12  0.001281631    1.972    0.493
       181  -9.8507    120.9126    186.8737   1.0588610875e+02   2.1716590098e+01    0.4191124    0.2566437 -80.20  0.002137159    2.731    0.634
       182  -8.6727     34.3031    188.0943   1.2417086581e+02   3.2376196996e+01    0.2916706    0.1194485  67.66     0.001097    2.475    0.596
       183  -8.8340    191.2701    187.2169   9.2304625828e+01   1.0710023379e+01    0.2420764    0.2055026 -71.12 0.0009900216    2.048    0.512
       184  -8.8073    165.0789    186.8266   9.7085564438e+01   1.4891683376e+01    0.2701982    0.2155527 -76.12  0.001076965    2.038    0.509
       185  -9.2409    109.6968    186.3400   1.0814685761e+02   2.3450984235e+01    0.3513955    0.2091241  67.28  0.001239789    2.271    0.560
       186  -9.1910     54.8853    186.9740   1.1979763433e+02   3.0415860692e+01    0.3859086    0.1643245  65.00  0.001709233    2.695    0.629
       187  -8.7523    229.3536    185.8730   8.5623670686e+01   5.0725286851e+00    0.2461878    0.2278104  61.58  0.001768748    1.892    0.472
       188  -8.5373    249.0518    185.4789   8.2504856279e+01   2.2962100748e+00    0.1875669     0.140221 -28.39 0.0008946539    1.646    0.392
       189  -9.0111    182.9297    185.1206   9.3471837182e+01   1.2298519416e+01     0.249703     0.176414 -37.71 0.0008944659    1.648    0.393
       190  -8.9652    210.2701    184.1880   8.8481970213e+01   8.1346356900e+00     0.235316    0.1473041 -24.29 0.0007818128    1.648    0.393
       191  -8.5423    202.8187    184.7366   8.9855768813e+01   9.2207564055e+00    0.1797204    0.1556326 -61.22 0.0006366409    1.938    0.484
       192  -9.1144     66.5821    184.4230   1.1709876374e+02   2.9532010609e+01    0.3180992    0.1730676  64.73  0.001056588    1.889    0.471
       193  -8.4024    224.0942    183.6484   8.6088108078e+01   6.0970811121e+00    0.1807853    0.1411392 -20.44 0.0005967622    1.368    0.269
       194  -8.7682    197.1334    183.6776   9.0673260581e+01   1.0242054175e+01    0.1814284    0.1619454 -28.64 0.0008163172    1.401    0.286
       195  -8.8613    174.3209    183.6008   9.4823280540e+01   1.3878777897e+01    0.2396294    0.2034194  83.06  0.001104196    1.871    0.466
       196  -7.6906     11.3228    184.6410   1.2871028410e+02   3.5113352952e+01    0.1194897    0.0529037  60.07 0.0007043888    1.773    0.436
       197  -8.9490     44.3328    182.2926   1.2169115601e+02   3.2448434734e+01    0.3024173    0.1553138  67.94  0.001094678    1.881    0.468
       198  -8.1280      2.1220    183.6722   1.3053279538e+02   3.6033569156e+01    0.1966496   0.05797006  37.63  0.001068367    2.454    0.592
       199  -8.8280    240.9681    181.3657   8.3013615169e+01   3.8594484692e+00    0.2605571    0.1739851 -44.14  0.001550597    2.485    0.598
       200  -9.3096    147.6103    180.7695   9.9574160493e+01   1.8582506313e+01    0.2979506    0.2139504  68.32  0.001116082    1.992    0.498
       201  -8.1588     21.5019    191.2573   1.2693847525e+02   3.2999375193e+01    0.2812599   0.01656268  51.59 0.0009096779    6.114    0.836
       202  -9.4973     25.6743    179.2228   1.2547621703e+02   3.4885129890e+01     0.544687    0.1757641  70.63  0.002260749    3.848    0.740
       203  -7.7453     90.6636    181.6938   1.1164092924e+02   2.6948569655e+01    0.1112021   0.09297564  -3.69 0.0007040869    1.673    0.402
       204  -8.7516    137.7596    179.5446   1.0139151375e+02   2.0344174000e+01    0.2851457    0.1865215  66.41  0.001221505    2.217    0.549
       205  -9.3234    230.7896    176.6440   8.3770470200e+01   5.8714948529e+00    0.3103411    0.1803752 -33.70  0.001831579    1.912    0.477
       206  -8.8210    205.1503    178.0169   8.8292645657e+01   9.6874496506e+00    0.2208406    0.1832996 -20.24 0.0009766098    1.304    0.233
       207  -9.3025    191.4432    178.2502   9.0765807075e+01   1.1853507822e+01     0.240851    0.2216665  55.10  0.000564206    1.476    0.323
       208  -8.2290    169.7346    178.9765   9.4939194121e+01   1.5279727904e+01     0.176432    0.1448424 -86.29  0.001051208    2.007    0.502
       209  -9.0354     35.9251    176.7228   1.2312287911e+02   3.4386485984e+01    0.4097564    0.1473494  72.63  0.001692744    3.758    0.734
       210  -9.5438    248.3447    176.4363   8.1011837907e+01   3.3064607347e+00    0.3598707    0.2226803 -34.79  0.002233347    1.967    0.492
       211  -8.5078    250.5208    172.8819   8.0041370577e+01   3.3580577377e+00    0.1617309   0.09652511 -19.63 0.0005470713    1.510    0.338
       212  -8.6167    217.6175    177.4071   8.6059962263e+01   7.8026226740e+00    0.1992504    0.1749782 -40.70  0.000877668    1.653    0.395
       213  -8.7345    128.9947    177.4257   1.0290038741e+02   2.2075501896e+01    0.2138263    0.1724608 -88.52 0.0006144115    1.595    0.373
       214  -8.7689     89.0819    177.0360   1.1145359162e+02   2.8025480997e+01     0.260464    0.1684185  74.45 0.0008566225    1.814    0.449
       215  -9.2676    183.2154    176.3040   9.1940676935e+01   1.3456466614e+01    0.2307984    0.2124515 -57.92 0.0007588931    1.519    0.342
       216 -10.9014    101.7546    175.7459   1.0851704082e+02   2.6483099466e+01    0.4469581    0.2459063  34.65 -5.119154e-05    1.699    0.411
       217 -10.0834     57.3648    173.3142   1.1812267471e+02   3.2750643292e+01    0.7104653    0.2899204  73.68  0.002709092    4.258    0.765
       218  -9.0713     13.0097    176.9604   1.2804492261e+02   3.6436138669e+01    0.2403938     0.108611  59.67  0.000971576    1.774    0.436
       219  -7.7261    211.4946    176.5002   8.6932085872e+01   8.8703619796e+00    0.1225149   0.09822173  14.18 0.0008106485    1.011    0.011
       220  -9.2949    158.6537    175.0964   9.6465705246e+01   1.7676851100e+01    0.3172579    0.2342755  69.12  0.001395718    2.026    0.506
       221 -10.7981     75.7542    170.0891   1.1364812994e+02   3.1131693524e+01     1.030347    0.4030392 -80.67   0.00366337    4.855    0.794
       222  -8.8416     78.7585    158.5763   1.1159918894e+02   3.3038179163e+01    0.3451087    0.1588699  24.15  0.001429768    3.139    0.681
       223  -8.4439    224.2562    174.1714   8.4380672667e+01   7.1511554297e+00    0.1900254    0.1527236 -33.20 0.0007068091    1.570    0.363
       224  -9.6968    197.8053    171.7401   8.8471889450e+01   1.1680234834e+01    0.3414836    0.2327353  21.47 0.0006947752    1.339    0.253
       225  -9.5765    175.8209    171.9997   9.2590261007e+01   1.5292086863e+01    0.3318578     0.210178 -34.58 0.0008918201    1.732    0.423
       226  -8.5051    142.8785    172.5864   9.9264382030e+01   2.0667227426e+01     0.219804    0.1687419 -74.10 0.0007266124    1.826    0.452
       227  -8.6553    134.8527    172.0467   1.0085899116e+02   2.2060222931e+01     0.192356    0.1594489  61.34 0.0007405888    1.313    0.238
       228  -9.8246    121.3987    170.4160   1.0349405000e+02   2.4486383529e+01    0.3576527    0.2545663 -81.53  0.001034627    1.929    0.481
       229  -9.0905     45.0531    171.0417   1.2069503437e+02   3.4567895373e+01    0.3409897    0.1642898  73.98  0.001226717    2.276    0.561
       230  -8.4244    205.7920    170.4428   8.6823805358e+01   1.0541967140e+01    0.2103906    0.1552709 -45.08 0.0008472234    1.845    0.458
       231  -8.3550    237.1276    169.7085   8.1501313890e+01   5.6807632988e+00     0.186052    0.1451986 -22.01 0.0006926968    1.371    0.271
       232  -8.7556    230.5553    169.7131   8.2542699853e+01   6.6883956792e+00    0.2194264    0.1582417  -4.09  0.001423822    1.210    0.173
       233  -8.6785    149.7457    169.5751   9.7356032683e+01   2.0029541997e+01    0.2296105    0.1878406  85.71 0.0009112333    1.733    0.423
       234  -7.7046     68.3370    170.6649   1.1539416843e+02   3.1958812509e+01    0.1311252   0.07566901  63.12  0.000482022    1.746    0.427
       235  -8.5569    244.4650    169.0823   8.0252914140e+01   4.6446540436e+00    0.1661322   0.09984925 -21.68 0.0004796568    1.532    0.347
       236  -9.1951    167.0835    168.6551   9.3703959268e+01   1.7260721428e+01    0.2520687    0.2067303  60.17 0.0009426622    1.520    0.342
       237  -8.3609     88.9389    168.9697   1.1052191118e+02   2.9578683714e+01    0.2060004    0.1282601  63.51  0.001119028    1.728    0.421
       238  -8.5553    218.8697    168.0522   8.4146711505e+01   8.7249918816e+00     0.201952    0.1549092 -23.08  0.000773439    1.343    0.255
       239  -8.1397    211.4744    168.0797   8.5404525222e+01   9.9160138030e+00    0.1728124    0.1130611 -27.12 0.0004418216    1.549    0.354
       240  -8.5808    111.6534    167.3498   1.0519030563e+02   2.6557760630e+01    0.3074147    0.2008667  74.68  0.001119529    2.140    0.533
       241  -8.9575    191.9092    166.5550   8.8596446168e+01   1.3362835156e+01    0.2448854     0.172066 -35.34 0.0006098114    1.566    0.361
       242  -9.0314    185.0113    166.5718   8.9879857462e+01   1.4527416333e+01     0.213431     0.177693 -49.73 0.0008112025    1.585    0.369
       243  -9.9945    137.0712    164.5802   9.9192973905e+01   2.2982292876e+01    0.6267756    0.2696003  53.88  0.002408913    3.221    0.690
       244 -10.0534     95.0547    162.8448   1.0832815308e+02   2.9900429009e+01    0.7590547    0.4163512  77.19  0.003190417    3.232    0.691
       245  -8.9503     20.6913    166.2431   1.2584587600e+02   3.7898426568e+01    0.3446225    0.1140971  56.41  0.001109962    2.628    0.619
       246  -8.4183    233.9630    165.0304   8.1122648261e+01   6.6933631280e+00    0.1822332    0.1459024   3.53 0.0005484475    1.056    0.053
       247  -8.7532    159.4685    164.4228   9.4485083363e+01   1.9220198114e+01    0.2515483    0.2059143  75.56  0.001075766    1.723    0.420
       248  -9.6974     33.3818    163.1890   1.2276411866e+02   3.7347976224e+01    0.5119774    0.1624352  55.84  0.002214655    3.063    0.673
       249  -9.0439    246.0531    163.2274   7.8911463778e+01   5.0370303207e+00    0.1967447    0.1422519 -10.94 0.0004263857    1.190    0.160
       250  -8.1211    240.1722    164.2212   7.9998387642e+01   5.8239550958e+00    0.1470607    0.1311382  -1.13  0.000626479    1.326    0.246
       251  -8.5994    212.9868    163.5812   8.4300434470e+01   1.0235635458e+01    0.2139236     0.161961 -37.90 0.0007570416    1.609    0.378
       252  -8.3095    204.8237    162.8898   8.5586645636e+01   1.1683688159e+01    0.2033281    0.1575395 -26.78 0.0005615209    1.354    0.261
       253  -9.3718      3.2892    162.3768   1.2954286506e+02   4.0086486945e+01    0.3631317    0.1192102  52.36  0.001898408    2.328    0.570
       254  -9.0705    177.6333    160.7197   9.0205434762e+01   1.6653478162e+01     0.273926     0.239366 -70.86  0.001100237    1.657    0.397
       255  -8.7843    151.6759    161.1302   9.5508738721e+01   2.1097679968e+01    0.2616501    0.2139861 -86.45 0.0009539454    1.753    0.429
       256  -8.8535     60.7976    160.4402   1.1608964024e+02   3.4941434825e+01    0.2953886    0.1539105  61.73  0.001273467    1.995    0.499
       257  -9.9030    250.2158    157.7964   7.7246226298e+01   4.9939018079e+00    0.2976613     0.142626 -26.40 0.0008059024    1.900    0.474
       258  -8.8238    243.9117    159.1155   7.8446919393e+01   5.8147804347e+00    0.3730031    0.1510692  27.41  0.001638654    2.889    0.654
       259  -8.4104    227.3385    159.1755   8.1060993335e+01   8.4308839224e+00    0.2094623     0.148897 -36.05 0.0009113429    1.660    0.398
       260  -8.5910    128.0087    159.0859   1.0026342874e+02   2.5467030475e+01    0.2427294     0.187052 -74.75 0.0008013021    1.639    0.390
       261  -9.9491    105.9475    157.7698   1.0507464333e+02   2.9258205927e+01    0.5233147    0.3739914  87.33  0.001687293    1.777    0.437
       262  -8.4747    237.0531    159.0378   7.9488146209e+01   6.8937675130e+00    0.1645267    0.1457673 -39.25 0.0006931733    1.647    0.393
       263  -8.4966    196.5745    158.0043   8.6127480348e+01   1.3752563641e+01    0.2155849    0.1751885  50.85 0.0006657143    1.490    0.329
       264  -8.5170    187.9927    157.5801   8.7632767424e+01   1.5307382643e+01    0.2267203    0.1744962 -46.47 0.0006273338    1.629    0.386
       265  -9.1089    167.5621    157.3245   9.1556512292e+01   1.8944909863e+01    0.2768776    0.2387353  88.79   0.00112465    1.674    0.403
       266  -9.6128     82.0149    155.2152   1.1038713509e+02   3.3282053372e+01    0.5064252    0.2734623  77.00  0.001863893    2.876    0.652
       267  -8.4457    217.9349    156.4869   8.2088645715e+01   1.0310958488e+01    0.2174825    0.1600107 -38.00 0.0007449043    1.629    0.386
       268  -8.8201    157.6598    155.9472   9.3322685503e+01   2.0917628075e+01    0.3240226     0.199263 -48.71  0.001205353    1.888    0.470
       269  -9.3947    119.4822    155.1890   1.0154242505e+02   2.7598688764e+01    0.3477353    0.2456827 -83.72  0.001272773    1.969    0.492
       270  -8.6692    144.8949    155.2699   9.5900630414e+01   2.3274079235e+01    0.3297785    0.2041291  61.72   0.00112828    2.267    0.559
       271  -9.2057     49.6087    155.3197   1.1826286036e+02   3.7301199494e+01     0.366134    0.1724173  61.03  0.001523611    2.210    0.547
       272  -9.1739    241.7683    154.2224   7.7816843117e+01   6.6985483409e+00    0.3161083    0.2403163  76.78    0.0016574    3.230    0.690
       273  -8.4484    204.3510    155.0148   8.4144709899e+01   1.2816906680e+01     0.187999    0.1509835 -39.43   0.00114293    1.509    0.337
       274  -9.7657    132.9797    153.1116   9.8131523301e+01   2.5721910070e+01    0.4250121    0.3194708  76.34  0.001395828    1.806    0.446
       275  -9.3853    133.4886    148.4875   9.7184966732e+01   2.6486950369e+01    0.2845674    0.2161065 -26.27   0.00110947    1.574    0.365
       276  -9.8181     68.0237    153.7175   1.1359996777e+02   3.5449442113e+01    0.4414766    0.2427102  71.34  0.001821692    2.213    0.548
       277  -8.0509    232.9279    153.9614   7.9140510420e+01   8.1455472158e+00    0.1647843    0.1493084 -43.92 0.0004812613    1.637    0.389
       278  -8.7863    151.8249    152.5679   9.3918745894e+01   2.2522052860e+01     0.247421    0.1767362 -62.08 0.0007596383    1.879    0.468
       279  -9.4475     20.0366    152.5216   1.2518376171e+02   4.0793204133e+01    0.2207357    0.1249686  75.76 0.0006289877    1.546    0.353
       280  -8.8563      8.4592    153.4308   1.2797522747e+02   4.1535625752e+01     0.316147    0.1134597  20.73  0.001483862    3.553    0.719
       281  -8.1414    182.4829    151.4911   8.7489932685e+01   1.7187743593e+01    0.2093531    0.1223647 -47.48 0.0008502373    2.143    0.533
       282  -9.0718     98.4009    150.9505   1.0582378398e+02   3.1771760323e+01    0.3119248    0.2003496  86.61  0.001002277    2.183    0.542
       283  -9.5436     29.8008    151.1053   1.2272449141e+02   4.0221873788e+01    0.4088489    0.1615685  62.06  0.001891765    2.604    0.616
       284  -8.6829      2.8223    150.3322   1.2915504036e+02   4.2598328293e+01    0.3686013    0.1320207 -89.68  0.001827517    2.445    0.591
       285  -8.2227    250.4911    140.9556   7.3836981542e+01   6.8116508242e+00    0.1775088    0.1323505  -8.61 0.0005353571    1.101    0.092
       286  -9.6182    248.7578    149.5628   7.5839714377e+01   6.1220056629e+00    0.3033425    0.1681085 -22.55 0.0007668379    1.603    0.376
       287  -9.0088    247.0353    143.8354   7.4934874873e+01   7.0402510376e+00    0.2537809    0.1519558 -21.03 0.0005179458    1.470    0.320
       288  -8.7953    189.4864    150.4723   8.5953514722e+01   1.6080566781e+01    0.2415567    0.2026059 -58.18 0.0007526605    1.678    0.404
       289  -8.3701    162.8093    150.4176   9.1205108982e+01   2.0913614891e+01    0.2827355    0.1763519 -49.79  0.001191688    1.915    0.478
       290  -8.5312    243.0800    149.8828   7.6753153312e+01   6.9844450983e+00     0.217602    0.1494356 -18.94  0.001038048    1.298    0.229
       291  -8.8383    238.0458    150.1472   7.7576875565e+01   7.7638556394e+00    0.3124926    0.1138394  36.83  0.001272172    2.684    0.627
       292  -8.1711    212.9797    149.9783   8.1630285008e+01   1.1995334655e+01    0.1693895    0.1573922 -55.04 0.0003682592    1.564    0.361
       293  -9.8110     39.9911    147.9771   1.1994449409e+02   3.9897291890e+01    0.5076615     0.201957  61.43   0.00195839    2.843    0.648
       294  -8.3973    198.8297    149.0958   8.3949024574e+01   1.4605908221e+01    0.1825036    0.1729613 -31.14 0.0005489543    1.323    0.244
       295 -10.2647     89.1619    146.1088   1.0735087963e+02   3.4152968716e+01     0.611956    0.3405993  82.16  0.002497296    3.133    0.681
       296 -10.4546     54.5188    143.9137   1.1584468031e+02   3.9195923916e+01    0.8668817      0.39867  74.69  0.003033045    3.214    0.689
       297  -9.0337     57.4829    135.5044   1.1405596633e+02   4.0707145520e+01    0.3227827    0.1687118  20.55  0.001474931    2.663    0.624
       298  -9.3668    233.7654    147.4008   7.7688275442e+01   8.7910025958e+00    0.2837352     0.173519  -8.56  0.001088745    1.608    0.378
       299 -10.5048    106.5136    143.9709   1.0272895797e+02   3.1916181773e+01    0.7339128    0.4606533  89.91  0.002139905    2.571    0.611
       300  -9.1468     78.1583    147.1401   1.1024751580e+02   3.5500009009e+01    0.3252077    0.1969588  77.91  0.001064446    2.089    0.521
       301  -8.3982    223.4030    147.0918   7.9290663615e+01   1.0573560719e+01    0.1818334    0.1699164  13.27 0.0004381829    1.295    0.228
       302 -10.2840    149.0963    145.0885   9.3072730141e+01   2.4317906143e+01    0.4858504    0.3543363  86.22  0.002127497    2.330    0.571
       303  -9.9574    139.2122    145.2115   9.5282480837e+01   2.6080616493e+01    0.4036522    0.2844476 -75.07  0.001232406    2.147    0.534
       304  -9.4911    139.2979    137.6931   9.3787038303e+01   2.7459778974e+01    0.3658033    0.2463305   4.87  0.001640014    2.343    0.573
       305  -9.1736     13.6500    146.2525   1.2634877775e+02   4.2653857505e+01    0.3341423     0.133139  60.06  0.001185814    2.268    0.559
       306  -8.9003    240.1737    145.2273   7.6251048881e+01   7.9929305937e+00    0.1742132    0.1551881  -8.18 0.0005143421    1.267    0.211
       307  -9.4287    243.2938    142.5734   7.5233013197e+01   7.7920220770e+00    0.4232861    0.2144336 -11.65  0.002066082    2.129    0.530
       308  -7.9350    206.7486    146.5595   8.2013904276e+01   1.3548374938e+01    0.1607573    0.1208495  47.54 0.0005935809    1.499    0.333
       309  -8.2242    175.2664    146.1751   8.7835200433e+01   1.9325501171e+01    0.1699158    0.1588116 -70.29 0.0006368181    1.394    0.283
       310 -10.0504     73.3971    129.4583   1.0889507343e+02   4.0016085233e+01     0.432573    0.2687334 -81.26  0.001721472    1.801    0.445
       311 -10.9448     69.4008    140.6469   1.1159250975e+02   3.8073747122e+01    0.7626703    0.4856482  83.85  0.003263996    1.789    0.441
       312  -9.7550     70.2452    134.1464   1.1045492842e+02   3.9395656503e+01    0.3531276    0.2003593  26.93  0.001319062    2.070    0.517
       313  -8.9195    165.5268    144.2383   8.9415647439e+01   2.1440518151e+01    0.2484999    0.2159173  64.58 0.0005745697    1.410    0.291
       314 -10.0432    125.0044    142.3438   9.8005329516e+01   2.9133061212e+01    0.5931686    0.3592172 -65.51  0.001848379    2.190    0.543
       315  -7.8159    194.1637    144.0893   8.3774607256e+01   1.6168801234e+01    0.1629847      0.16131 -57.70 0.0004946401    1.335    0.251
       316  -9.3866      2.5636    141.4800   1.2881883132e+02   4.4495988745e+01    0.3715628    0.1471134  72.66   0.00155471    2.274    0.560
       317  -8.5100    181.9134    141.6663   8.5595308132e+01   1.8800780438e+01     0.250518    0.1735977 -51.98 0.0007188485    1.895    0.472
       318  -9.9434     23.3829    138.0420   1.2333785927e+02   4.3643194202e+01    0.5174055    0.2008497  63.77  0.001976891    2.747    0.636
       319  -7.9518    218.6216    138.7567   7.8339395480e+01   1.2483324428e+01    0.1723696    0.1122957 -34.08 0.0005800845    1.578    0.366
       320  -8.6939    172.2882    138.4109   8.6821228406e+01   2.1133481604e+01    0.2654417    0.2152899  87.20 0.0007755623    1.918    0.479
       321  -8.2651    207.6441    138.1558   8.0088222957e+01   1.4546982977e+01    0.1960391    0.1592554 -42.79 0.0006274171    1.506    0.336
       322  -8.6848    197.4667    137.5801   8.1786665690e+01   1.6510107757e+01    0.2354305    0.2112241 -41.26 0.0009763911    1.353    0.261
       323  -8.8775    151.0625    136.4104   9.0885933595e+01   2.5502371026e+01    0.4348816    0.2529015  20.83   0.00180654    2.505    0.601
       324  -8.8440     85.0719    123.0424   1.0460815506e+02   3.9765294191e+01    0.5194178    0.3400605   5.02   0.00225365    2.778    0.640
       325  -8.8225     80.6634    137.6965   1.0823620142e+02   3.7179061510e+01    0.1947276      0.19003  33.70 0.0008416551    1.174    0.148
       326 -10.3191     83.3732    133.0442   1.0678908244e+02   3.7803694857e+01    0.5170212    0.2916624 -75.19  0.001251293    2.113    0.527
       327  -9.4506     39.0293    136.3081   1.1907254466e+02   4.2566024734e+01    0.3021094    0.1441075  54.56 0.0007961402    2.034    0.508
       328  -8.4124    246.9674    130.3030   7.2106351070e+01   8.6148219572e+00    0.2048984     0.146743 -26.61 0.0005660929    1.329    0.247
       329  -9.0965    248.4126    135.2131   7.2941451764e+01   7.8040294879e+00    0.2987981    0.1640261 -26.92   0.00071553    1.623    0.384
       330  -9.0080    250.7222    130.2260   7.1550786473e+01   7.9968810180e+00    0.4266745    0.1057228 -26.21  0.001479598    3.796    0.737
       331  -7.9566    187.8581    135.8104   8.3198585755e+01   1.8585271609e+01    0.1683014    0.1635399 -54.15 0.0004032231    1.301    0.231
       332  -8.3079    162.6368    136.1870   8.8344690771e+01   2.3343763879e+01    0.2019901    0.1732479 -62.83 0.0005945168    1.460    0.315
       333  -8.6470    179.5107    134.0347   8.4431769915e+01   2.0460687427e+01    0.2560726    0.2118084 -58.52 0.0007473543    1.587    0.370
       334  -8.1274    237.4834    133.5833   7.4220182847e+01   9.8351406406e+00    0.2115277    0.1015882 -36.94 0.0009361446    2.179    0.541
       335  -7.8277    231.5081    134.4460   7.5329284274e+01   1.0763286220e+01    0.1293334     0.107463   1.08 0.0001517652    1.022    0.022
       336 -10.0532    132.5231    131.5114   9.4096692819e+01   2.9888768457e+01    0.5549708    0.4010058  84.00  0.001679356    2.127    0.530
       337  -9.3024    112.8842    133.0425   9.9181478578e+01   3.3091726400e+01    0.3666199    0.2751586 -69.85  0.001336642    1.514    0.340
       338  -9.2932    143.0544    131.5258   9.1651048479e+01   2.7912873183e+01    0.3605548    0.2276656 -55.91  0.001171457    1.896    0.472
       339 -10.5100     98.2076    130.1877   1.0239129310e+02   3.6139829051e+01    0.6415462    0.3084892 -58.98  0.001817393    2.179    0.541
       340  -8.9096     98.7805    120.8221   1.0044399256e+02   3.8073837893e+01    0.5840986    0.3451452   7.57  0.001940473    4.498    0.778
       341 -10.5739     60.2068    125.6035   1.1196270228e+02   4.2617405526e+01     0.781825    0.3861621  76.51  0.003017921    3.301    0.697
       342  -9.6067    152.9316    129.0945   8.8904939679e+01   2.6463367625e+01     0.462685    0.2629032 -52.89  0.001281744    2.148    0.534
       343 -10.1061     12.8188    129.0011   1.2546333042e+02   4.6511470860e+01    0.5490474    0.2251382  77.58  0.002241316    2.456    0.593
       344  -7.8283    220.5372    130.4261   7.6214751437e+01   1.3239311374e+01    0.1317694    0.1126497   2.18 0.0001610337    1.026    0.026
       345  -7.7978    204.7972    130.5853   7.8934060557e+01   1.6143894415e+01    0.1702624    0.1280764  54.40 0.0004221265    1.609    0.378
       346  -8.1117    192.8184    130.1932   8.1023281005e+01   1.8491061002e+01    0.1929661    0.1804297 -22.99 0.0005185081    1.188    0.158
       347  -9.2068    168.4018    129.6580   8.5714857629e+01   2.3340759830e+01    0.2705061    0.2253715 -86.48 0.0008353336    1.742    0.426
       348  -8.0710      1.7796    130.5322   1.2847958156e+02   4.6936498447e+01    0.1591709   0.08409754  45.29 0.0009454192    1.725    0.420
       349  -8.0270    211.7097    129.3439   7.7454861987e+01   1.5017990486e+01    0.1247071    0.1051182 -55.54 0.0003274166    1.654    0.396
       350  -8.4054    161.6788    129.6956   8.7138053788e+01   2.4650928223e+01     0.143894    0.1059079   8.56 0.0007030155    1.635    0.388
       351 -10.7522     44.8564    123.4739   1.1602173736e+02   4.4885041011e+01     1.082532    0.4636994  72.64   0.00390172    3.898    0.743
       352  -8.2311     26.0083    129.5166   1.2193170016e+02   4.5328153717e+01    0.1707804    0.1147295  32.50   0.00103637    1.602    0.376
       353 -10.0936    118.1869    125.3336   9.6309295725e+01   3.3745610648e+01    0.5691335    0.3981932  82.20  0.001682619    2.139    0.532
       354 -10.2686     28.3951    122.3296   1.2058821953e+02   4.6765202765e+01    0.7856465    0.3046498  71.01  0.002985795    3.622    0.724
       355  -8.5974     27.0103    113.7811   1.2010337283e+02   4.8882230507e+01    0.2092876    0.1575798  21.29  0.001113609    1.620    0.383
       356  -8.9543    179.2617    124.9014   8.2430998833e+01   2.1981768820e+01    0.2469951    0.2304676  62.22 0.0007252039    1.286    0.223
       357  -8.0571    188.4709    124.2678   8.0495368074e+01   2.0251471606e+01    0.1817171    0.1286445 -42.28 0.0006447526    1.544    0.352
       358 -10.1675    133.3815    109.5146   8.8918060188e+01   3.4060440782e+01    0.6811951    0.3381951 -37.85  0.002638073    2.167    0.539
       359 -10.0380    130.8571    118.6395   9.1697730719e+01   3.2739045023e+01     0.511083    0.3579518  84.47  0.001900067    2.351    0.575
       360  -7.7318    211.5590    123.5056   7.6161191053e+01   1.5859062938e+01    0.1349575    0.1190661  -3.10 5.482899e-05    1.051    0.049
       361  -8.9086    158.7248    121.6913   8.5958024517e+01   2.6648307825e+01    0.3165946    0.2587275 -83.67  0.001011233    1.731    0.422
       362  -7.9917    203.1695    121.9649   7.7262829936e+01   1.7701372806e+01    0.2119688    0.1459084 -51.59 0.0006162122    1.964    0.491
       363  -8.5471    172.0699    121.6841   8.3135077434e+01   2.3957231052e+01    0.2244545    0.1897231 -44.86 0.0004361355    1.303    0.233
       364 -10.0853    141.4992    118.1788   8.9037126474e+01   3.0745909650e+01    0.5544224    0.2979254 -54.52  0.001418839    2.279    0.561
       365  -9.7108     70.9210    119.7595   1.0800558674e+02   4.2557617665e+01    0.3886209    0.2302777 -80.23  0.001399367    1.944    0.486
       366  -9.6810      2.9578    117.3526   1.2741608135e+02   4.9825706738e+01    0.5419002    0.1986424  69.58  0.002428307    2.752    0.637
       367 -10.0340    109.3591    114.1421   9.6188879878e+01   3.7687894140e+01    0.5305939    0.3467914 -77.63  0.001579772    2.231    0.552
       368  -9.7230    108.8644    107.9572   9.4910861451e+01   3.9107436639e+01    0.7647111      0.37706  20.99  0.002084663    5.737    0.826
       369  -7.6765    219.3015    116.3425   7.3216585886e+01   1.5361662679e+01    0.1428071   0.09458992   8.63 0.0007038093    1.676    0.403
       370  -7.9739    185.5410    116.0568   7.9118274788e+01   2.2135088691e+01    0.2066479    0.1337881 -33.18 0.0004797777    1.515    0.340
       371  -8.1455    153.1341    115.8490   8.5812353645e+01   2.8838818113e+01    0.2118169     0.199945 -87.33 0.0005583412    1.231    0.188
       372  -9.0094     59.6938    115.0106   1.1048953877e+02   4.5135049389e+01    0.3283359    0.2217075   6.19  0.001618308    2.285    0.562
       373  -8.4455    250.0504    115.2604   6.8367555312e+01   9.8557016965e+00    0.1766821    0.1468972  10.75  0.001136491    1.123    0.110
       374  -8.2096    193.0141    115.2744   7.7519579428e+01   2.0730693879e+01    0.1909905    0.1735502  -1.74 0.0004993037    1.027    0.026
       375 -10.2277     92.6138    112.3186   1.0040200585e+02   4.0974594345e+01    0.6095799    0.3358879 -71.52   0.00131357    2.431    0.589
       376  -9.0066     93.4545    104.6913   9.8493608015e+01   4.2545717613e+01    0.4989712    0.2862623  16.59  0.001844727    3.285    0.696
       377 -10.0087     78.7602    112.3399   1.0439140549e+02   4.3141021723e+01    0.5532221    0.3518406  84.17  0.001875342    2.170    0.539
       378  -8.4025     77.8305    105.7618   1.0335254875e+02   4.4798040113e+01    0.2667616    0.2096113   3.28  0.001049181    1.741    0.425
       379  -7.6911    167.4253    114.5050   8.2383566558e+01   2.6133386738e+01    0.1408396    0.1364298  -5.92  0.000153936    1.077    0.071
       380  -9.9849    122.0147    112.5590   9.2509780788e+01   3.5671670435e+01    0.4395116    0.3236945 -79.16 0.0005833064    1.853    0.460
       381  -9.7523    118.6044    106.7083   9.1999816401e+01   3.7542740786e+01    0.3467023     0.274765 -70.49  0.001416553    1.465    0.317
       382 -10.6820    109.1742     99.0013   9.2641353700e+01   4.0981656993e+01    0.9141963    0.4685164  62.46  0.001416166    3.483    0.713
       383  -9.0489    107.9132     92.5944   9.1327532855e+01   4.2603404275e+01    0.4979081    0.2816317  25.90  0.001929366    2.569    0.611
       384  -9.8563     14.2403    111.2458   1.2367927835e+02   5.0487739176e+01    0.4308085     0.181406  67.97  0.001720513    2.576    0.612
       385  -8.5241    174.7236    111.9225   8.0243383320e+01   2.5051604684e+01    0.2623231    0.1879796 -49.27 0.0007580392    1.606    0.377
       386  -8.5415    159.3008    111.8491   8.3471377042e+01   2.8291479340e+01    0.2568805    0.2139319 -64.37 0.0006417218    1.485    0.326
       387 -10.2245     66.4585    109.7104   1.0755415258e+02   4.5497331942e+01    0.6214756    0.3126225 -64.58  0.002162798    1.896    0.473
       388  -8.0038    149.7894    110.0120   8.5141921305e+01   3.0608274443e+01    0.1968848    0.1164509 -40.15 0.0005811522    1.702    0.412
       389  -9.4934    248.5243    108.5166   6.7048309742e+01   1.0924541247e+01     0.254837    0.2031778 -49.71  0.001272955    1.665    0.399
       390 -10.6432    249.7595    103.4547   6.5715551752e+01   1.1305277794e+01    0.5799419    0.2654271 -25.92  0.002545807    1.860    0.462
       391  -7.7986    182.7563    109.3917   7.8020705087e+01   2.3781946067e+01    0.1416223     0.108915 -56.83 0.0005462252    1.664    0.399
       392  -8.8956     43.5051    109.3629   1.1452611168e+02   4.8344269209e+01    0.3123364     0.175543   9.78   0.00141768    2.854    0.650
       393  -8.2220    189.3087    108.0200   7.6428083295e+01   2.2623283657e+01     0.204502    0.1672215 -27.29 0.0004212576    1.179    0.152
       394  -9.6112    150.8162    103.3226   8.3203290192e+01   3.1637939404e+01    0.4806165    0.3090943 -65.28  0.001466743    2.448    0.592
       395  -9.7092    139.9913    104.3448   8.6008014541e+01   3.3725126806e+01    0.4634574    0.2842868 -54.78 0.0009042224    1.917    0.478
       396 -10.7171     45.5759    102.3508   1.1280514152e+02   4.9798343488e+01    0.7970236    0.3841386  69.52  0.003110355    3.180    0.686
       397  -9.2757     45.7259     92.9632   1.1115501373e+02   5.2046586437e+01    0.4417121    0.2669853  -1.53  0.001967252    2.896    0.655
       398 -10.6557     22.8969    102.8101   1.2015209458e+02   5.1829993075e+01    0.7510411    0.3250891  68.81  0.002910814    2.889    0.654
       399  -8.6546    166.6289    104.3999   8.0012794213e+01   2.8053447375e+01    0.2724056     0.208006 -58.26 0.0006368565    1.626    0.385
       400  -9.4634      6.5570    102.6547   1.2530284084e+02   5.3018174797e+01     0.322706    0.1535828  81.97  0.001444039    1.948    0.487
       401  -9.9926    128.4461    102.2452   8.8328655244e+01   3.6515876081e+01      0.36416     0.297475  79.99  0.001018232    1.532    0.347
       402  -9.1468    217.5303    101.0817   6.9824200331e+01   1.7797116684e+01    0.2309686    0.2100048  25.50  0.000365482    1.150    0.130
       403  -7.9889    175.5346    102.0353   7.7568244138e+01   2.6531931718e+01    0.2203113    0.1384528 -36.30 0.0005089943    1.558    0.358
       404  -8.2332    159.8252    101.1470   8.0620917002e+01   3.0096257063e+01     0.221898     0.196456 -63.92  0.000509226    1.325    0.245
       405  -9.3974     82.0610     99.7127   1.0076261262e+02   4.5545454052e+01    0.4580017    0.2784742 -70.36  0.001502783    1.875    0.467
       406 -10.4219     63.8207     94.9399   1.0549918474e+02   4.9346428674e+01      1.07031    0.4812959 -56.48  0.003031784    2.000    0.500
       407  -9.7239     95.0914     96.4088   9.6046450437e+01   4.4123062311e+01    0.5491881    0.2727918 -53.43 0.0008409017    1.967    0.492
       408  -8.4403    129.9933     97.5000   8.6690012480e+01   3.7155431783e+01     0.228124    0.1453691  41.91 0.0008170806    1.590    0.371
       409  -9.1045    120.0091     93.5091   8.8225672030e+01   4.0019431226e+01    0.3898607    0.3027423  64.89   0.00191395    1.503    0.334
       410 -10.3925    124.5498     90.9895   8.6322127124e+01   3.9603421945e+01    0.6310781     0.378502 -43.86  0.002228261    1.641    0.391
       411  -8.9010    151.3486     95.3850   8.0961961409e+01   3.2991455185e+01    0.3301115    0.2028851  17.87   0.00125747    2.595    0.615
       412  -8.2924    176.4812     93.4902   7.5104257799e+01   2.7739989277e+01    0.2611353    0.1265766 -43.92 0.0006249587    2.206    0.547
       413  -8.1692    164.7011     94.1272   7.7684200765e+01   3.0260612466e+01    0.2333938    0.1773814 -49.84 0.0004790139    1.449    0.310
       414  -9.4732    139.1210     92.1237   8.2942851796e+01   3.6276262740e+01    0.4667574    0.3152904 -56.20  0.001413822    1.736    0.424
       415  -9.7879      5.3341     91.7537   1.2476148948e+02   5.5678603680e+01    0.4584841    0.2294581  71.04  0.001854026    1.991    0.498
       416  -8.0348    157.6087     91.7441   7.8553318172e+01   3.2264201900e+01    0.2052048    0.1369229 -45.32 0.0003511855    1.557    0.358
       417  -9.9342     35.0166     90.1996   1.1436263222e+02   5.3818843670e+01    0.5427877    0.2695822 -87.51  0.001826862    2.350    0.575
       418  -9.2171     22.9726     90.2795   1.1856301125e+02   5.4846167758e+01    0.2734252    0.2318109  12.24  0.001347363    1.480    0.324
       419  -7.8492    150.9653     89.2079   7.9325349931e+01   3.4209935190e+01    0.2167126    0.1594583 -55.69  0.000442241    1.578    0.366
       420 -10.1892     86.3827     85.9916   9.6050905679e+01   4.7983583903e+01    0.6307762    0.4005631 -66.41  0.001133544    1.789    0.441
       421  -7.7703    164.1634     87.2211   7.5868212394e+01   3.1575704816e+01     0.202723    0.1723441 -56.63  0.000455384    1.335    0.251
       422  -9.9396     48.5138     83.9512   1.0843035994e+02   5.3914559789e+01    0.5918099    0.3588616  84.73  0.002015451    2.165    0.538
       423  -9.8879    104.7666     83.1714   8.9619941014e+01   4.5241135997e+01    0.4823612    0.3363993 -70.41 0.0009409505    1.867    0.464
       424  -8.8366    106.0698     77.1517   8.7444811734e+01   4.6264547798e+01    0.3959894    0.2197968  34.38  0.001608973    2.114    0.527
       425  -8.4606    157.8855     84.1554   7.6327972905e+01   3.3545058310e+01    0.2212079    0.2051924 -58.13 0.0003689402    1.183    0.155
       426  -9.1089    140.8959     82.7967   7.9821307647e+01   3.7660313907e+01    0.2864887    0.2174739 -46.41 0.0005310284    1.342    0.255
       427  -9.6832     24.6136     80.6636   1.1656054645e+02   5.7058781357e+01     0.438013    0.2355916  79.89   0.00133106    2.198    0.545
       428  -9.5645      9.7841     81.0584   1.2209017898e+02   5.7996196167e+01    0.3378861    0.1627313  59.23  0.001220076    2.309    0.567
       429  -8.4920    150.0326     80.3444   7.6947709519e+01   3.6029006480e+01    0.3442384    0.1950482 -44.25 0.0008826394    1.800    0.445
       430  -9.1856    119.2964     80.1313   8.4579711234e+01   4.2915292546e+01    0.4118497    0.2506317 -55.93  0.001224287    1.904    0.475
       431  -8.9033     74.5437     80.4508   9.8470716426e+01   5.1196310726e+01    0.3330385    0.2186692 -74.36  0.001210235    1.848    0.459
       432  -8.1963    166.7164     79.9242   7.3225947927e+01   3.2223900682e+01    0.2116997    0.1843282 -29.00 0.0004444571    1.108    0.097
       433  -8.5627     91.1762     79.3229   9.2674376310e+01   4.8640246266e+01    0.2925735    0.1370897  33.09  0.001091921    2.630    0.620
       434  -7.9669    184.3469     78.2710   6.9352957066e+01   2.8375266289e+01    0.2127713    0.1271918 -38.06 0.0005425201    1.616    0.381
       435  -9.1104    140.6195     75.9306   7.7799970987e+01   3.9001005899e+01    0.4307708    0.1608988 -44.52  0.001420274    2.789    0.641
       436 -10.0158     63.4926     74.2568   1.0070041116e+02   5.4300181912e+01    0.6459982    0.3120641 -70.14  0.002419601    2.807    0.644
       437  -8.3323    157.2689     76.4309   7.4162446114e+01   3.5031608223e+01    0.2661548    0.1719066 -51.23 0.0006969905    1.772    0.436
       438  -9.5153    128.2254     75.0886   8.0635822787e+01   4.1970685719e+01     0.541139    0.2554384 -46.63 0.0009175324    2.195    0.544
       439  -8.1776    163.4202     73.6312   7.2014742455e+01   3.4049194993e+01    0.2846814    0.1363093 -38.25 0.0007741429    2.005    0.501
       440  -9.8143     82.2648     72.5485   9.3602865047e+01   5.1728740764e+01    0.4474419    0.2987011 -71.45  0.001173042    1.918    0.479
       441  -9.3022     27.9826     71.2604   1.1361537244e+02   5.9077255960e+01    0.5425486     0.228321 -32.21  0.001920098    4.294    0.767
       442  -7.8412    151.4507     73.5276   7.4544323571e+01   3.6905979866e+01    0.1522074    0.1462283 -38.38 0.0001287865    1.065    0.061
       443  -8.7759    115.6923     72.8201   8.3306903788e+01   4.5159928274e+01     0.298427    0.1972314 -48.56 0.0006572539    1.523    0.343
       444  -9.5799     95.1097     71.0482   8.8911900789e+01   4.9715930347e+01     0.451777     0.246295 -57.18  0.001008404    2.097    0.523
       445  -8.4566     42.6348     72.6695   1.0815399691e+02   5.7308729760e+01    0.2686173    0.1731439  73.70 0.0009512745    2.015    0.504
       446  -7.7888    175.5010     72.5326   6.9304287706e+01   3.1348760967e+01    0.1510969    0.1419067  -6.69 0.0001044582    1.015    0.015
       447  -9.2449    105.8779     71.8169   8.5832899369e+01   4.7419601712e+01    0.2726163    0.2150383 -60.47 0.0006433199    1.381    0.276
       448  -7.5241    170.5267     71.4745   6.9937254300e+01   3.2703844547e+01    0.1513944    0.1435155 -12.83 0.0001919728    1.005    0.005
       449  -8.9291     16.7654     70.2372   1.1791473375e+02   6.0187047808e+01    0.2877508    0.1813219  72.00 0.0009766145    1.740    0.425
       450  -7.7705    157.1203     70.1246   7.2245800083e+01   3.6140068410e+01    0.2105463    0.1784199 -58.35 0.0004461808    1.324    0.244
       451  -8.7872    147.0732     68.2381   7.3852727246e+01   3.8866763891e+01    0.3204637    0.2073859 -40.32 0.0004558292    1.515    0.340
       452  -9.0513    138.3299     66.4090   7.5299592985e+01   4.1264769603e+01    0.3861163     0.237543 -37.02  0.001667143    1.572    0.364
       453  -9.8301    120.5655     64.7392   7.9289426487e+01   4.5674235696e+01    0.4735875    0.3241667 -66.63  0.000945049    2.057    0.514
       454  -9.5795     51.5352     69.8609   1.0402340076e+02   5.6942626983e+01    0.5194745    0.2678126 -77.03  0.001493613    2.714    0.632
       455  -8.8987     64.1481     63.7609   9.7443353404e+01   5.6644890361e+01    0.4715792    0.2776545 -25.79  0.001939272    2.562    0.610
       456  -8.7466     37.4620     64.4796   1.0829579166e+02   5.9834512132e+01    0.2864337    0.1761508  72.34 0.0009156028    2.276    0.561
       457  -8.6788    130.8363     58.2402   7.4357082219e+01   4.4492184530e+01    0.2736731    0.1967732 -44.77 0.0005121523    1.406    0.289
       458  -9.1023    110.1624     63.6317   8.1846146380e+01   4.8179431063e+01     0.329776    0.2481484 -56.68 0.0008196922    1.463    0.316
       459  -7.4719    187.5377     63.4979   6.4453279753e+01   2.9823634360e+01    0.1492201    0.1391302 -20.98 0.0008093882    1.020    0.020
       460  -8.1464    158.0105     61.7067   6.9364762995e+01   3.7309859338e+01    0.2038515    0.1965625  44.09 0.0002997383    1.076    0.071
       461  -9.6437     97.7112     60.2595   8.4472068556e+01   5.1462218412e+01    0.4141731    0.3122685 -38.36  0.001318093    1.266    0.210
       462  -9.8155     73.3192     58.4379   9.2256924344e+01   5.6387261362e+01    0.8043838    0.2415852 -49.20  0.002266574    3.049    0.672
       463  -8.9284     89.0711     59.6287   8.7083215007e+01   5.3297248817e+01    0.2599073    0.1921391 -54.13  0.000541923    1.375    0.273
       464  -8.0872    146.9542     59.3017   7.0926527899e+01   4.0416618190e+01    0.2090435    0.1993158  27.41 0.0003868602    1.059    0.055
       465  -9.9321     23.4847     56.7064   1.1247279183e+02   6.2983613375e+01    0.5028172    0.2707705  84.18  0.002224451    2.601    0.616
       466  -9.5946      7.4407     57.2016   1.1972368301e+02   6.3918036237e+01    0.3053836    0.1860132  80.71  0.001293035    1.720    0.419
       467  -9.3015    119.0179     55.2598   7.6374763245e+01   4.7794055370e+01      0.48925    0.2230406 -44.99   0.00124761    2.263    0.558
       468  -9.5511     54.3453     55.7212   9.8811693212e+01   5.9889090718e+01    0.3755355    0.2298715 -68.12  0.001283058    1.847    0.459
       469  -8.4802    139.9238     56.1628   7.1441362306e+01   4.2660065829e+01    0.2343523    0.2052825 -56.06 0.0004543385    1.234    0.189
       470  -9.0234     44.1991     55.3820   1.0299607235e+02   6.1257987935e+01     0.304089    0.1969877 -71.10 0.0007991513    1.623    0.384
       471  -8.5179    105.6901     53.3194   7.9473729416e+01   5.1147432964e+01    0.2999317    0.2350564 -72.07 0.0008544176    1.662    0.398
       472  -9.5215     92.3897     50.6004   8.2652153448e+01   5.4477496131e+01    0.4509861      0.23836 -50.38  0.001200561    2.028    0.507
       473  -8.7011     92.7731     43.0825   7.9535952055e+01   5.5837268437e+01    0.3704681    0.2105529 -24.84   0.00150287    2.081    0.519
       474  -7.6396     77.3261     50.6520   8.7969023652e+01   5.7357934032e+01    0.1468073      0.11529 -82.21 0.0007049527    1.752    0.429
       475  -8.3567    144.5495     49.0224   6.7879268951e+01   4.2673969762e+01    0.2381168    0.1462288 -32.21 0.0004974328    1.567    0.362
       476  -8.2205    129.8427     49.1315   7.1315685188e+01   4.6294978323e+01    0.2369861    0.2044285 -58.81 0.0005103875    1.283    0.220
       477  -7.7871    149.7375     48.6816   6.6657127798e+01   4.1421107147e+01    0.1541684    0.1168173  13.92 0.0002368654    1.548    0.354
       478  -8.7163    120.8775     47.3833   7.2936126387e+01   4.8747660680e+01    0.2498329    0.2008963 -40.11 0.0005684124    1.225    0.184
       479  -7.6940    163.5007     47.5258   6.3565549508e+01   3.8099104147e+01    0.1518226    0.1458898 -14.40 0.0001623073    1.001    0.001
       480  -8.5444    112.1280     46.7841   7.5092600940e+01   5.0899949234e+01    0.2653417    0.1967998 -47.02  0.000670969    1.393    0.282
       481  -8.9842     82.0755     46.6828   8.4694986240e+01   5.7287204932e+01    0.2821904    0.2197504 -58.15 0.0006262038    1.421    0.296
       482  -8.7696    133.2485     43.8456   6.8519381002e+01   4.6312560276e+01    0.3609658    0.2274592 -57.00  0.001196015    2.039    0.510
       483  -8.8423     16.6335     44.6349   1.1283854995e+02   6.6385719964e+01    0.2526423    0.1685911 -84.59 0.0006704952    1.553    0.356
       484  -9.0278     58.1698     42.7808   9.2590225969e+01   6.2210128572e+01    0.3690145    0.2118677 -62.69  0.001152565    2.168    0.539
       485  -9.4634      5.2795     42.2342   1.1801873450e+02   6.7623796213e+01    0.3632013    0.1841558  88.05  0.001330186    2.248    0.555
       486  -9.2348     69.6257     41.7413   8.7418620587e+01   6.0556375135e+01    0.3599068    0.2490681 -64.37  0.001025137    1.862    0.463
       487  -8.8273    105.9625     41.5080   7.4763742173e+01   5.3232710006e+01     0.290767    0.1970779 -48.34 0.0006558771    1.578    0.366
       488  -7.6708    140.2827     41.6531   6.6111068515e+01   4.4880782576e+01    0.1592765    0.1149287 -58.01 0.0003599061    1.645    0.392
       489  -8.6218     36.8100     40.9536   1.0173107518e+02   6.5430861329e+01    0.2366621    0.1744026 -75.50 0.0006703199    1.541    0.351
       490  -8.7630     95.3749     38.0041   7.6554496892e+01   5.6200351015e+01     0.306597    0.2075065 -51.52 0.0009291508    1.665    0.399
       491  -7.9155     80.6068     36.7882   8.1100004824e+01   5.9482809280e+01    0.2076688    0.1282553 -47.97 0.0006376486    1.666    0.400
       492  -9.4289     26.1348     35.4420   1.0524546511e+02   6.7768021179e+01    0.3362326    0.2137058 -72.77 0.0009321822    1.687    0.407
       493  -8.6278     44.9408     44.7239   9.9208952410e+01   6.3618574402e+01    0.2501651    0.1810837 -63.40 0.0004914302    1.368    0.269
       494  -8.1583    125.8830     35.8360   6.7137966694e+01   4.9381059400e+01    0.2271716    0.1972197  20.13 0.0003757571    1.191    0.161
       495  -8.5519    111.9234     34.6800   7.0228657148e+01   5.2971423046e+01    0.2667644    0.1974575 -54.37 0.0006146161    1.568    0.362
       496  -8.3169    119.1764     33.2655   6.7734036558e+01   5.1429665856e+01    0.2855029    0.1762038 -52.59 0.0006103454    1.971    0.493
       497  -7.8347     88.5210     34.5083   7.7294491722e+01   5.8281532632e+01    0.1469442    0.1370803 -23.55  0.000810026    1.034    0.033
       498  -9.1106     48.5433     33.3221   9.3072679552e+01   6.5620587033e+01    0.3126605    0.2196552 -57.37  0.000937561    1.462    0.316
       499  -7.4024    163.3142     33.7391   5.8816844746e+01   4.0023667826e+01    0.1504494    0.1130052 -63.21 0.0001726914    1.537    0.350
       500  -8.7077     60.7883     32.6553   8.7184299240e+01   6.3876578342e+01    0.2639845    0.1823679 -47.41 0.0005032848    1.376    0.273
       501  -7.9573    139.3876     32.1428   6.2668582735e+01   4.6474353580e+01     0.230192    0.1281483 -38.91 0.0009426124    1.774    0.436
       502  -9.1854     12.9523     30.2701   1.1082746573e+02   6.9996778956e+01    0.3479748    0.1853681 -77.94  0.001311621    2.061    0.515
       503  -8.3892    101.4947     29.5107   7.0929543310e+01   5.6236005393e+01    0.2552274    0.1266599 -41.68  0.000635552    2.049    0.512
       504  -8.9682     81.5580     27.7891   7.6630118227e+01   6.0891278857e+01    0.3165548    0.2293485 -63.29 0.0009226486    1.929    0.482
       505  -8.9987      3.7267     27.5976   1.1545186362e+02   7.1138256504e+01    0.2866921    0.1496264 -80.74  0.001180223    1.939    0.484
       506  -9.0900     72.1497     31.4311   8.1900484034e+01   6.2101058830e+01    0.2634099    0.2128668 -61.75 0.0006810183    1.517    0.341
       507  -8.8664     91.6813     26.2863   7.2466437906e+01   5.8967664630e+01    0.3211488    0.2161763 -51.47 0.0008570493    1.762    0.432
       508  -7.7904    104.2798     22.9726   6.7141776089e+01   5.6552691564e+01    0.1834404    0.1266162 -27.56 0.0004554434    1.397    0.284
       509  -8.2064     34.3657     23.1931   9.5833416029e+01   6.9574448588e+01    0.2308138    0.1666401  62.09  0.001214398    2.164    0.538
       510  -8.9174     63.5861     21.1858   8.0384306475e+01   6.5516821894e+01    0.3215534    0.2184078 -52.43   0.00084816    1.743    0.426
       511  -8.8351     48.2523     21.8428   8.7838329742e+01   6.7960030339e+01    0.2283711     0.194392 -36.80 0.0005809069    1.085    0.078
       512  -8.1145    120.6176     20.7928   6.2045920526e+01   5.2801493447e+01    0.2240484    0.1269376 -36.75 0.0009467895    1.746    0.427
       513  -8.4997    249.2313    248.8491   9.2097373032e+01  -3.2114268563e+00    0.1706107   0.09908804 -12.37  0.001339799    1.684    0.406
       514  -8.1970     19.7646     21.6156   1.0366673291e+02   7.1418718786e+01    0.1530136    0.1167492  35.44 0.0005014779    1.599    0.375
       515  -8.2205     87.8985     17.8571   6.9546813569e+01   6.1078498112e+01    0.2201913    0.1684644 -57.72 0.0005937887    1.653    0.395
       516  -8.4490     38.4580     17.8974   9.0942070650e+01   7.0117294184e+01    0.2589202    0.1172583 -50.32  0.001138433    2.105    0.525
       517  -7.8741    112.9873     17.0279   6.2138654121e+01   5.5204298406e+01    0.1834885    0.1598438 -16.00  0.000379929    1.118    0.105
       518  -8.2487     30.0774     16.0838   9.4822201732e+01   7.1526933371e+01    0.1873155    0.1565638 -83.71 0.0006724243    1.707    0.414
       519  -7.9867      7.4981     15.5287   1.0913434674e+02   7.3664368420e+01    0.1223789    0.1002932 -54.71 2.318553e-05    1.070    0.066
       520  -8.1343     17.1490     14.2173   1.0206540396e+02   7.3229564366e+01    0.1564481    0.1434274 -82.33 0.0006086822    1.362    0.266
       521  -7.6406    119.6877     11.3343   5.8021253344e+01   5.4160204117e+01    0.1542071    0.1089427 -56.17 0.0007045005    1.682    0.406
       522  -9.0907    175.6518    247.9141   1.0325555148e+02   5.8875752652e+00    0.2245263    0.1651483  55.01   0.00129363    1.863    0.463
       523  -8.6595    156.4402    248.5453   1.0647506468e+02   8.2841831094e+00    0.2420938    0.1290357  51.92  0.001109562    2.202    0.546
       524  -8.8550    132.3837    247.9283   1.1043910206e+02   1.1419475044e+01    0.2072039    0.1286524  54.99 0.0006857688    1.711    0.415
       525  -8.3667    113.0213    248.5690   1.1377254335e+02   1.3750198107e+01    0.1686062    0.1212109  69.33 0.0009742018    1.661    0.398
       526  -8.1968     30.0063    249.5202   1.2771458680e+02   2.2718136252e+01    0.1426964   0.03439623  49.25 0.0008086296    2.428    0.588
       527  -8.7539    232.7308    246.9232   9.4245667285e+01  -1.1372416410e+00    0.1990654    0.1042417 -25.63  0.001281303    2.176    0.540
       528  -8.4675    218.5121    248.1043   9.6529840676e+01   4.8074145367e-01    0.1239126   0.08836231 -14.64 0.0008496138    1.555    0.357
       529  -9.2265    103.7718    246.6568   1.1519467097e+02   1.5121572836e+01    0.2659872    0.1627754 -84.29   0.00185542    2.450    0.592
       530 -10.0701    223.8904    244.2163   9.5219678172e+01   1.5603026183e-01    0.3302402    0.1803357 -35.59  0.002318358    2.522    0.604
       531  -9.1342    147.2924    246.2038   1.0776234753e+02   9.7228331079e+00     0.208005    0.1435135  65.73  0.001200946    2.166    0.538
       532  -8.9466    120.2968    245.5765   1.1228111110e+02   1.3227870474e+01    0.2798581    0.1483994  59.73  0.001710363    2.409    0.585
