#   1 NUMBER                 Running object number                                     
#   2 MAG_AUTO               Kron-like elliptical aperture magnitude                    [mag]
#   3 X_IMAGE                Object position along x                                    [pixel]
#   4 Y_IMAGE                Object position along y                                    [pixel]
#   5 X_WORLD                Barycenter position along world x axis                     [deg]
#   6 Y_WORLD                Barycenter position along world y axis                     [deg]
#   7 A_WORLD                Profile RMS along major axis (world units)                 [deg]
#   8 B_WORLD                Profile RMS along minor axis (world units)                 [deg]
#   9 THETA_WORLD            Position angle (CCW/world-x)                               [deg]
#  10 FWHM_WORLD             FWHM assuming a gaussian core                              [deg]
#  11 ELONGATION             A_IMAGE/B_IMAGE                                           
#  12 ELLIPTICITY            1 - B_IMAGE/A_IMAGE                                       
         1 -12.7485      1.8010     23.6762   7.5008692938e+01   6.9880069543e+01    0.5890785    0.1767666 -57.99  0.002610357    3.207    0.688
         2 -13.7135      6.5370      8.5617   6.6657836989e+01   7.2093969597e+01     1.048032    0.4492919 -35.07  0.006082676    1.808    0.447
         3 -12.2183     13.9839     11.4831   6.4020413212e+01   7.1063927696e+01    0.3294416    0.1579986 -38.06  0.001466319    1.651    0.394
         4 -12.3941     16.2503      5.3526   5.9996259284e+01   7.1769535972e+01    0.4131523    0.2371463 -23.05  0.002663174    1.432    0.302
         5 -13.9092     12.4197     22.0000   6.9159175910e+01   6.9488350084e+01    0.7312121    0.2741563 -34.56  0.003669641    2.305    0.566
         6 -14.3141    245.5902      7.9331   8.2060628372e+00   2.2762652549e+01     1.220776    0.7288938 -55.53  0.006945619    1.456    0.313
         7 -11.8390     26.8797     14.4670   5.8920914258e+01   6.9401086437e+01    0.2526053    0.1178941 -27.43  0.001335911    1.997    0.499
         8 -12.6849     20.4088     12.2898   6.1112415882e+01   7.0369525854e+01    0.4190891    0.1750995 -29.57  0.002153644    2.218    0.549
         9 -12.6656     24.8157      3.2092   5.4543319919e+01   7.1193059474e+01    0.4533322    0.2423549  14.80   0.00266663    1.930    0.482
        10 -10.9356     40.6944      2.1621   4.6538584591e+01   6.9343878409e+01    0.2590896    0.1048234  23.19  0.001092158    3.378    0.704
        11 -10.8059     38.7297    239.2854   9.5851779212e+01   2.0765454626e+01    0.2514507    0.1247485  66.21  0.001519304    1.688    0.408
        12 -12.0080    233.6308    249.7438   6.1389225648e+01  -1.0322902192e+01    0.4390949    0.1782526  35.90   0.00228901    1.995    0.499
        13 -12.9699    234.8421    242.7229   6.0062767668e+01  -9.6941572589e+00    0.4873629    0.2810656  -1.23    0.0026621    2.066    0.516
        14 -12.8612    242.2883    235.9174   5.7647975898e+01  -9.9819967405e+00    0.8264621    0.3893918  -5.73  0.003258586    4.266    0.766
        15 -12.4546    248.6068    223.4854   5.4426086870e+01  -9.4126071930e+00     0.540413    0.2698683 -17.46  0.002751539    2.295    0.564
        16 -11.6629    250.0692    231.7784   5.5607723335e+01  -1.0616540902e+01    0.3504091     0.190446 -27.54  0.001997267    1.855    0.461
        17 -11.5936    241.1603    249.9980   6.0128830016e+01  -1.1419738249e+01    0.4195677    0.1716936  34.93   0.00180238    1.986    0.496
        18 -12.3200    243.4050    244.4429   5.8855519648e+01  -1.1120158863e+01    0.4205205    0.2564903  -3.77  0.001912372    1.693    0.409
        19 -12.1599    247.5719    237.9363   5.7072595220e+01  -1.0973238277e+01    0.4361303    0.2595817  -9.78  0.002029725    1.730    0.422
        20 -11.6213    248.9907    249.1195   5.8654627855e+01  -1.2407716406e+01    0.3640383     0.235781  19.88  0.001979248    1.199    0.166
        21 -11.0822    249.3034    243.9716   5.7770704389e+01  -1.1891987405e+01    0.2515297    0.1893829   0.82  0.001154352    1.138    0.122
        22 -12.2062    226.0432    247.2383   6.2326471688e+01  -8.9274155083e+00    0.3457906    0.2191032  -8.47  0.002030078    1.745    0.427
        23 -11.9113    104.5099    250.2029   8.5080003396e+01   9.8948725298e+00    0.2954908    0.1348532  39.96  0.001543926    1.871    0.466
        24 -12.1232     87.4474    250.1074   8.8147749343e+01   1.2429810774e+01    0.4052219     0.132034  41.11  0.001872263    2.501    0.600
        25 -12.2484     76.1955    249.5454   9.0095151609e+01   1.4115534919e+01    0.4523696    0.1694032  49.65  0.002004644    2.048    0.512
        26 -11.8172     51.5466    249.2413   9.4328894868e+01   1.7424949891e+01    0.4416789    0.1661332  48.21  0.002428696    1.980    0.495
        27 -11.4258     45.8717    243.6192   9.4915695343e+01   1.9123485604e+01    0.3579114    0.1704623  57.45  0.001729577    1.640    0.390
        28 -12.1149     37.8873    247.8972   9.6526611798e+01   1.9322589350e+01    0.5341511     0.200094  61.04  0.002860073    2.286    0.563
        29 -10.8947     27.3247    248.4398   9.8281462499e+01   2.0440148167e+01    0.2927951    0.1500613  63.21  0.001950125    1.464    0.317
        30 -11.9384     20.8367    247.9928   9.9296974131e+01   2.1232258758e+01    0.3722619    0.1760949  66.05  0.001881184    1.631    0.387
        31 -10.3796      1.3982    233.6455   1.0172010701e+02   2.5777077566e+01    0.1845558   0.09530682  83.50  0.001094877    1.495    0.331
        32 -11.7871     12.8058    247.9701   1.0056100944e+02   2.2086972465e+01    0.3606297    0.1675751  64.68  0.001782162    1.601    0.375
        33 -11.7956      6.8539    234.5934   1.0088802116e+02   2.5075746663e+01    0.3775679    0.1755065  81.93  0.002397134    1.763    0.433
        34 -11.8955      5.1304    226.7897   1.0080175685e+02   2.6683397863e+01    0.4343984    0.1983969  75.63  0.002174803    1.784    0.439
        35 -12.0291      2.6351    219.1173   1.0084819228e+02   2.8368495545e+01    0.3599778    0.2032759 -89.11  0.001918918    1.391    0.281
        36 -11.4702     14.6176    230.6544   9.9420879420e+01   2.5019793995e+01    0.3750579    0.1799097  65.55  0.002250163    1.636    0.389
        37 -11.3853     11.6097    224.3833   9.9597367924e+01   2.6501044374e+01    0.3515769    0.1447006  58.34  0.001803017    1.913    0.477
        38 -12.0038      4.2682    249.5695   1.0194473507e+02   2.2675579068e+01    0.3209513    0.2140547  53.17  0.002104259    1.330    0.248
        39 -12.4401      3.6216    241.6683   1.0171484966e+02   2.4121319188e+01    0.4974515    0.2088448  70.06  0.002583213    1.876    0.467
        40 -10.6809     65.2106    238.3876   9.1139366709e+01   1.7591514095e+01    0.1734775   0.07970776  50.49 0.0009536118    1.713    0.416
        41 -12.2656     57.7492    240.9020   9.2664431716e+01   1.8117430638e+01      0.49014    0.1968153  60.81  0.002468281    2.345    0.574
        42 -11.0802     45.5329    235.9653   9.4453461389e+01   2.0557255520e+01    0.2330301    0.1129392  56.20  0.001379282    1.631    0.387
        43 -11.4249     95.5611    234.7090   8.5178663696e+01   1.3929402094e+01    0.2333725    0.1168509  56.35  0.001210228    1.802    0.445
        44 -12.3009    231.8595    232.7068   5.8944901137e+01  -8.0461521484e+00    0.3311879    0.1893544  10.82  0.001760501    2.005    0.501
        45 -11.6026     60.6492    230.1533   9.1296099954e+01   1.9724971324e+01    0.2736672    0.1337785  60.87  0.001496845    1.815    0.449
        46 -11.4663     39.9166    229.8817   9.5021946989e+01   2.2369796404e+01    0.3078805    0.1575871  73.95  0.001804407    1.782    0.439
        47 -12.4194     26.2773    226.8655   9.7220483550e+01   2.4495797023e+01     0.478223     0.210985  89.65  0.002669004    2.140    0.533
        48 -10.7012     49.0074    228.9567   9.3327197798e+01   2.1441741118e+01    0.2010433    0.1026055  66.63  0.001142102    1.756    0.430
        49 -10.7548     32.9728    227.9661   9.6119248825e+01   2.3539224404e+01    0.1907462   0.09545369  67.14  0.000953728    1.694    0.410
        50 -12.2697    236.6301    226.0321   5.6964825129e+01  -7.9368293977e+00    0.2960991    0.1862018  -7.55   0.00170989    1.690    0.408
        51 -12.0844     13.0596    215.5992   9.8866757848e+01   2.8045643174e+01    0.4177783    0.1999765  66.76  0.001986289    1.721    0.419
        52 -11.6581     19.0494    220.5047   9.8099837315e+01   2.6485282947e+01    0.3541117    0.1489382  70.44  0.001917192    2.187    0.543
        53 -11.4882     35.0197    216.0202   9.4932753853e+01   2.5623291763e+01    0.3267155    0.1544138  85.54  0.001752762    2.096    0.523
        54 -11.3682     21.4032    210.0726   9.7032212982e+01   2.8291766654e+01    0.2237779    0.1320738  72.39  0.001447476    1.366    0.268
        55 -12.2945    248.4059    213.7012   5.2717172012e+01  -8.1558962407e+00    0.4100921    0.2114946 -25.09  0.002176921    1.940    0.485
        56 -12.9898     12.8955    203.4655   9.8177270049e+01   3.0473392167e+01    0.4731323    0.2390134  69.51  0.002746294    1.675    0.403
        57 -11.7972      2.7136    211.0272   1.0042934988e+02   2.9924587510e+01    0.3779615    0.1805015  83.64  0.001975958    1.700    0.412
        58 -11.5857      1.7713    204.3046   1.0024278862e+02   3.1336587753e+01    0.2968887    0.2082365 -78.14  0.002208403    1.339    0.253
        59 -12.4873      3.9982    195.5473   9.9347655144e+01   3.2906569115e+01    0.4436162    0.2083266  82.61   0.00253162    1.806    0.446
        60 -11.4000      5.9656    181.7130   9.8105713271e+01   3.5617188535e+01    0.1611567    0.1206641  77.62   0.00102777    1.067    0.063
        61 -12.5332      2.2274    176.8572   9.8528331082e+01   3.6961227926e+01    0.4812302    0.1850903 -89.72  0.002384355    2.357    0.576
        62 -12.5948      3.7959    186.6645   9.8849054010e+01   3.4760655720e+01    0.5551607    0.2142115  72.34  0.002710433    2.635    0.621
        63 -11.9370     17.1128    194.8163   9.6816333414e+01   3.1840285160e+01    0.2886111    0.1066754  45.61  0.001517423    2.330    0.571
        64 -11.3875     11.7906    189.8140   9.7505653133e+01   3.3390636601e+01    0.1680415    0.1007287  74.67  0.001071782    1.366    0.268
        65 -11.3399     17.7830    188.8691   9.6263212716e+01   3.3024074700e+01    0.2314969    0.1236866  80.30   0.00134418    1.645    0.392
        66 -12.3109     12.0095    182.0132   9.6920200879e+01   3.5021821895e+01    0.2877634    0.1347392 -88.59  0.001574864    1.844    0.458
        67 -13.5630      6.7457    170.5003   9.7162314294e+01   3.7958444919e+01    0.8497055    0.2353889 -86.97  0.002967976    4.612    0.783
        68 -12.6711      1.5910    163.2928   9.7719688280e+01   3.9937338713e+01    0.5158624    0.2153829 -77.50  0.002783501    1.864    0.464
        69 -12.0087     11.1375    165.8669   9.5874298628e+01   3.8605081756e+01    0.1920909    0.1262199  76.36 0.0009295603    1.300    0.231
        70 -12.6686      9.7474    154.3560   9.5216329982e+01   4.1278466023e+01    0.3141134    0.1735917 -89.52  0.001821782    1.542    0.351
        71 -12.7874      3.5888    151.6353   9.6378173357e+01   4.2358124718e+01    0.4285505    0.1988188  85.87   0.00224265    2.029    0.507
        72 -11.7466      2.8595    141.5465   9.5680843995e+01   4.4667583266e+01    0.2494864    0.1213712  86.57  0.001030322    1.933    0.483
        73 -11.5278      4.5227    135.0014   9.4671118603e+01   4.6029793800e+01    0.1898692   0.09187713 -76.03  0.001033314    1.610    0.379
        74 -11.4849      2.8945    125.5399   9.4133276735e+01   4.8281731154e+01    0.2496396    0.1254656  87.50  0.001321503    1.954    0.488
        75 -12.7538      3.8451     48.6578   8.1380892493e+01   6.5052431163e+01    0.4910192     0.211944 -54.27  0.002736005    1.665    0.399
        76 -11.9222      8.7760     42.2983   7.7592504700e+01   6.6033017500e+01    0.2530527    0.1132417 -48.26  0.001229032    1.630    0.386
        77 -12.4785      2.6652     38.9031   7.9316464005e+01   6.7024020592e+01    0.3970684    0.1478583 -55.34  0.002090575    1.961    0.490
        78 -12.6654    212.2755    246.0248   6.4595858005e+01  -6.6985901349e+00    0.4716846    0.2636523  10.35  0.002387211    2.424    0.587
        79 -12.2042     66.2255    247.8502   9.1707443074e+01   1.5766739928e+01    0.4066728    0.1801091  56.42  0.002253982    1.851    0.460
        80 -12.4494     98.7387    243.6307   8.5486408189e+01   1.1876261748e+01    0.4029614    0.1816773  58.04  0.001980791    2.199    0.545
        81 -12.6196     85.1490    242.9653   8.7919355563e+01   1.3995343623e+01    0.3264619    0.1766961  61.54   0.00185896    1.676    0.403
        82 -12.3831     13.7878     35.8237   7.3397318596e+01   6.6938108929e+01     0.319784    0.1469126 -55.39    0.0017219    1.931    0.482
        83 -12.1226     19.4587     28.7992   6.8350493996e+01   6.7773157299e+01    0.3986505    0.1539043 -33.36  0.001898785    2.442    0.591
        84 -12.0206     30.2252    239.5160   9.7303992496e+01   2.1706278842e+01    0.4171002    0.1991461  67.21  0.002266198    1.737    0.424
        85 -12.3479     16.6343    239.2042   9.9529071232e+01   2.3243704227e+01    0.6111236    0.2043916  54.67  0.003404153    2.217    0.549
        86 -12.3053    226.3445    239.6717   6.1071244677e+01  -8.0671930422e+00    0.3135055    0.1790933  -6.47  0.001662796    2.260    0.558
        87 -12.0623    108.3274    239.7921   8.3296183633e+01   1.1071785559e+01    0.3206854    0.1199816  51.39  0.001429281    2.383    0.580
        88 -12.0902     73.1680    239.1244   8.9761184319e+01   1.6374236161e+01    0.3292585    0.1614522  59.04  0.001812212    1.784    0.439
