#   1 NUMBER                 Running object number                                     
#   2 MAG_AUTO               Kron-like elliptical aperture magnitude                    [mag]
#   3 X_IMAGE                Object position along x                                    [pixel]
#   4 Y_IMAGE                Object position along y                                    [pixel]
#   5 X_WORLD                Barycenter position along world x axis                     [deg]
#   6 Y_WORLD                Barycenter position along world y axis                     [deg]
#   7 A_WORLD                Profile RMS along major axis (world units)                 [deg]
#   8 B_WORLD                Profile RMS along minor axis (world units)                 [deg]
#   9 THETA_WORLD            Position angle (CCW/world-x)                               [deg]
#  10 FWHM_WORLD             FWHM assuming a gaussian core                              [deg]
#  11 ELONGATION             A_IMAGE/B_IMAGE                                           
#  12 ELLIPTICITY            1 - B_IMAGE/A_IMAGE                                       
         1 -15.9728    247.1474    200.7009   2.6470138293e+01   3.2072590227e+00     2.870098     1.030171 -40.17   0.01628287    2.041    0.510
         2 -16.3840    243.3692    110.5947   1.3089602716e+01   1.6727410076e+01     3.282968    0.8292618 -44.50    0.0152587    2.945    0.660
         3 -16.1753    243.4327     66.1966   5.9315146173e+00   2.2651836439e+01     2.520445    0.9203478 -44.12   0.01490289    2.046    0.511
         4 -15.4340    222.2771     53.6146   5.5291436667e+00   2.7354249812e+01     1.737829    0.9816934 -36.74   0.01148408    1.824    0.452
         5 -14.9573    193.9176     37.5266   5.0322204320e+00   3.4050800728e+01     1.133082    0.8837106 -89.43  0.006899722    1.167    0.143
         6 -14.3678    178.9481     24.2694   3.7438726601e+00   3.8305440429e+01    0.7572351    0.3640358 -51.68  0.003895594    1.807    0.447
         7 -13.5784    234.6516     13.6242   3.5801877147e+02   2.9927697035e+01    0.7365485     0.509787 -69.06  0.006374487    1.064    0.060
         8 -12.5557     59.4930     16.2964   2.2412090069e+01   6.4355647980e+01    0.3220904    0.1830181  18.87  0.001441678    3.165    0.684
         9 -13.3453    178.2766      5.1697   3.5990917691e+02   4.0386472796e+01    0.4931186    0.3168249 -63.92  0.003570964    1.267    0.211
        10 -14.9478    153.8964      6.5038   2.1933747284e+00   4.5025349265e+01     1.558554    0.7642565  86.91  0.008940459    1.861    0.463
        11 -13.6480    170.2908      3.8547   2.3190236417e-01   4.2032810890e+01    0.5687093    0.3520078 -68.30  0.003718072    1.344    0.256
        12 -12.7991     78.2132     13.1163   1.5771310624e+01   6.0701328107e+01    0.2965997    0.2296595  12.81  0.001862255    1.744    0.426
        13 -11.0907     21.7683     10.9855   3.6971193765e+01   7.2034427934e+01    0.1392712   0.09995584 -30.94  0.000653378    1.626    0.385
        14 -11.4984     39.5061      8.9887   2.6913315010e+01   6.9142363108e+01     0.161848   0.09859922   6.85 0.0008106118    2.589    0.614
        15 -12.7239     69.9901      5.9903   1.5219619895e+01   6.3169027279e+01    0.2665227    0.1589661  68.36  0.001026055    1.478    0.323
        16 -13.2933     60.7740      3.1233   1.6629869444e+01   6.5404545024e+01    0.3996894    0.2741593  37.83  0.002498552    1.470    0.320
        17 -11.2939      2.1485      2.4079   4.6013154642e+01   7.5965934030e+01     0.169565    0.1404064 -30.88  0.001216498    1.444    0.307
        18 -12.3092    105.6159    225.3888   5.7455672382e+01   1.3657806125e+01    0.3040563    0.2559863  47.68  0.001785194    1.413    0.292
        19 -11.5309    215.1076    191.2378   2.9682377952e+01   7.6559440552e+00    0.2081434    0.1771968  16.03  0.001051981    1.356    0.263
        20 -10.8083     57.3243    188.6686   6.6061203762e+01   2.7731282452e+01    0.1559536    0.1042781  54.47 0.0007050493    1.704    0.413
        21 -12.0847    177.5041    170.3369   3.2661214252e+01   1.5677877942e+01    0.4500247    0.2539954 -53.82  0.002313499    1.867    0.464
        22 -11.5883    149.1103    167.1458   3.7834821937e+01   2.0241548151e+01    0.3329256    0.2594325 -14.58  0.001786746    1.365    0.267
        23 -12.6960    149.6678    162.0800   3.6791910228e+01   2.1183142971e+01    0.3711629    0.2448956  43.76  0.001733659    1.688    0.408
        24 -12.5960    185.5290    165.5585   3.0378364467e+01   1.5484565526e+01    0.3031518    0.2587931 -66.80  0.001980545    1.441    0.306
        25 -13.0938    171.8579    161.2274   3.2121405987e+01   1.8138875794e+01    0.8470753     0.580467  -1.73  0.004510021    1.967    0.492
        26 -14.0863    178.1476    150.2563   2.8978093019e+01   1.9269009712e+01    0.8688455    0.4627496 -41.12  0.004464592    1.688    0.408
        27 -14.1448    176.8913    138.0579   2.6948302182e+01   2.1667432090e+01    0.9965841    0.7406183  39.17  0.006052083    1.516    0.340
        28 -12.8451    113.3218    160.8898   4.5334115258e+01   2.6950900009e+01    0.3519472    0.3136986  20.93  0.001966449    1.102    0.093
        29 -11.3760     81.9148    238.7983   6.5066614261e+01   1.3411438286e+01     0.361581    0.1687974   9.60   0.00150654    2.342    0.573
        30 -14.7388    152.7033    221.6316   4.5952080333e+01   9.1063937095e+00     1.472077     1.283882  51.67  0.009397491    1.624    0.384
        31 -14.0559    142.7354    206.0423   4.5786741769e+01   1.3248707768e+01      1.56598    0.7403891  26.24  0.007227307    2.074    0.518
        32 -12.7740    144.3410    147.8104   3.5270867552e+01   2.4894687302e+01     0.390393    0.3514856  -4.11  0.002250674    1.152    0.132
        33 -13.4474    163.5784    149.4049   3.1558166565e+01   2.1585754918e+01    0.5896363    0.3689268 -25.36  0.002927217    1.965    0.491
        34 -11.8724    130.2242    150.5683   3.9077374880e+01   2.6576011178e+01    0.2755541    0.1311174  40.41  0.001151211    2.155    0.536
        35 -10.8186    130.4955    142.4964   3.7420386016e+01   2.8246472004e+01    0.1382793    0.1333657 -27.16 5.177403e-05    1.007    0.007
        36 -12.5313    138.2632    159.9082   3.8949677817e+01   2.3344620254e+01    0.4088759    0.2396401 -62.14  0.001830546    2.132    0.531
        37 -12.7017    186.5690    128.7554   2.3579185517e+01   2.1831269673e+01    0.2400462     0.201455 -60.31  0.001075145    1.179    0.152
        38 -12.1458    102.0966    164.1201   4.8985309641e+01   2.7896519975e+01    0.2386176    0.1970496 -17.50  0.001243416    1.264    0.209
        39 -12.4680    187.9147    121.8620   2.2076621241e+01   2.2800043860e+01    0.2641219     0.215727 -25.48  0.001078737    1.359    0.264
        40 -12.7219    200.8253    116.4901   1.9180555749e+01   2.1714071098e+01    0.5538554    0.3287126 -49.89  0.003297711    1.452    0.311
        41 -12.5160    189.0726    116.0618   2.0806791963e+01   2.3590939914e+01    0.3119729    0.2556962 -29.78  0.001785922    1.315    0.239
        42 -11.4388    182.8548    114.6350   2.1493051030e+01   2.4822154629e+01    0.3045739    0.2108851 -50.66   0.00183633    1.287    0.223
        43 -12.5439    211.9712    111.7856   1.6856204800e+01   2.0808546182e+01    0.4793133    0.2389694 -47.89  0.002740095    1.660    0.397
        44 -12.2092    220.4602    107.9447   1.5151625705e+01   2.0174067371e+01    0.3589491    0.2099617 -51.85  0.002290202    1.434    0.303
        45 -11.1859    148.4237    111.6535   2.7017748634e+01   3.1261838926e+01    0.3682996    0.1982051 -56.37  0.001611498    2.031    0.508
        46 -13.7596    144.5308    100.5187   2.5372512154e+01   3.4010260895e+01     1.028676    0.5219235 -49.17  0.004794798    1.929    0.482
        47 -13.8191    147.9908     85.9794   2.1443288362e+01   3.5867920664e+01     1.228985    0.6107058 -40.90  0.005828473    2.047    0.511
        48 -13.7166     43.3654     89.5338   5.3587106746e+01   5.4525198506e+01    0.7158664    0.5755185  -4.25  0.003801516    1.288    0.224
        49 -12.9440      4.1586     87.9954   7.1807350279e+01   5.8852317843e+01    0.6294988    0.3611066   6.13  0.003009806    1.708    0.415
        50 -12.4761    157.4104     86.1711   1.9815906822e+01   3.4036858348e+01    0.4216356    0.1626918 -51.08  0.001751683    2.684    0.627
        51 -13.8061     14.2263     89.0098   6.7011908572e+01   5.7882385107e+01    0.6479151    0.5439428 -23.28  0.003290419    1.108    0.097
        52 -12.0760     81.1970     77.4748   3.5805398687e+01   5.0683244929e+01    0.3007645    0.2213407  83.90  0.001445529    1.968    0.492
        53 -12.1965      2.7125     83.0074   7.1671595870e+01   6.0151417252e+01    0.3465792    0.1968392 -59.95  0.001389087    1.669    0.401
        54 -11.1628    105.3080    157.6633   4.6910546947e+01   2.8916969811e+01    0.1473659     0.115367  69.70  0.000477108    1.678    0.404
        55 -12.8454    198.8372     63.2768   9.4832957368e+00   2.9940540687e+01    0.2792594    0.2120112 -78.14  0.002006398    1.205    0.170
        56 -11.1456    193.9450     62.3197   9.8279486218e+00   3.0911160948e+01    0.2004931    0.1730205 -76.41  0.001219156    1.096    0.087
        57 -12.2640     83.9536     68.7529   3.2411963892e+01   5.1744492226e+01    0.3373365    0.2402697  59.62  0.001744417    1.462    0.316
        58 -12.7191    195.4880     56.6679   8.5717527631e+00   3.1392457253e+01    0.2250266    0.1930307 -39.82 0.0009688628    1.380    0.276
        59 -14.2041    207.6643    216.3846   3.4703918180e+01   4.3783751174e+00    0.9159298    0.4345623 -20.56  0.004623616    2.552    0.608
        60 -11.3488    249.8011    248.3899   3.2688435602e+01  -3.5430964988e+00    0.1927329    0.1445842 -57.30  0.001420048    2.547    0.607
        61 -13.4770    142.1926    153.0050   3.6749400087e+01   2.4171092791e+01    0.5271172    0.3206902  38.89  0.002598197    1.715    0.417
        62 -12.8061     44.0996     26.3561   3.2522378032e+01   6.6140716040e+01    0.4976596    0.2109066  42.72  0.002289118    1.972    0.493
        63 -11.9878    102.9508     25.6650   1.4386499869e+01   5.3937978716e+01    0.2304763    0.2042604  53.43  0.001559435    1.199    0.166
        64 -11.6078    211.6487     24.8878   1.2894591939e+00   3.2422990798e+01    0.1658919    0.1427881 -68.18  0.001197444    1.256    0.204
        65 -12.6015     86.2488     31.3089   2.0002655409e+01   5.6915483373e+01    0.2058979    0.1929462 -60.49  0.001220521    1.219    0.179
        66 -11.0123    224.6293     21.8905   3.5993448928e+02   3.0630734494e+01    0.2077075    0.1331059 -63.80  0.001637879    1.157    0.136
        67 -11.2460    117.3193     23.3253   1.1070711242e+01   5.1052937354e+01    0.1193776   0.08539741  42.48 0.0005686546    1.677    0.404
        68 -11.6520     76.6142    219.1686   6.4240721782e+01   1.8264089523e+01     0.201881    0.1185666 -47.56 0.0009571541    1.768    0.434
        69 -13.5508    205.9925    162.5519   2.6476169717e+01   1.3395185627e+01     1.526837    0.5965939 -46.95  0.007417507    2.196    0.545
        70 -14.1991    218.7138    170.5567   2.5868180842e+01   1.0586235352e+01     1.450768    0.5861484 -48.07  0.007429257    2.181    0.541
        71 -14.1422    212.6971    203.6204   3.1965417469e+01   5.9210203897e+00    0.8015007    0.5402878  47.57  0.005019818    2.411    0.585
        72 -15.8664    198.4704    192.3873   3.2577863807e+01   9.2440580769e+00     2.366456     1.219231 -26.69   0.01172044    2.080    0.519
        73 -14.9812    191.9067    182.4697   3.2109147884e+01   1.1697234914e+01     1.294867    0.7515512 -40.06  0.007457607    1.459    0.315
        74 -13.2497     94.0334    197.0025   5.6563930793e+01   2.1302813624e+01     0.735091    0.2552063 -46.10  0.002620988    2.911    0.656
        75 -15.2858    246.2174    225.8817   3.0157195203e+01  -2.6981748823e-01     1.577558     0.732592  30.34    0.0103384    2.660    0.624
        76 -15.0084    246.4040    175.5464   2.2863265141e+01   6.9298440051e+00     1.346385    0.5463925 -40.89  0.007598103    1.829    0.453
        77 -10.7869    168.7379    197.5897   3.8914965305e+01   1.1738527162e+01    0.1622066      0.11463  34.55 0.0007320998    1.582    0.368
        78 -11.0761    246.8017     17.8405   3.5807548130e+02   2.7688354887e+01    0.1724288    0.1113828 -37.54  0.001351121    1.694    0.410
