#   1 NUMBER                 Running object number                                     
#   2 MAG_AUTO               Kron-like elliptical aperture magnitude                    [mag]
#   3 X_IMAGE                Object position along x                                    [pixel]
#   4 Y_IMAGE                Object position along y                                    [pixel]
#   5 X_WORLD                Barycenter position along world x axis                     [deg]
#   6 Y_WORLD                Barycenter position along world y axis                     [deg]
#   7 A_WORLD                Profile RMS along major axis (world units)                 [deg]
#   8 B_WORLD                Profile RMS along minor axis (world units)                 [deg]
#   9 THETA_WORLD            Position angle (CCW/world-x)                               [deg]
#  10 FWHM_WORLD             FWHM assuming a gaussian core                              [deg]
#  11 ELONGATION             A_IMAGE/B_IMAGE                                           
#  12 ELLIPTICITY            1 - B_IMAGE/A_IMAGE                                       
         1  -8.9149     12.9281     30.0989   6.8784447093e+01   6.5669263994e+01    0.2608296    0.1309377 -44.52  0.001134648    2.253    0.556
         2  -8.3323     97.2130     14.7253   3.9002836890e+01   5.5135433579e+01    0.1842011     0.129316 -23.86 0.0007573132    1.525    0.344
         3  -8.5763     55.6567      9.8352   4.7224925669e+01   6.2501313918e+01    0.1663183    0.1502614 -39.27 0.0005645027    1.597    0.374
         4  -7.8263    190.4058      8.7623   2.3853728464e+01   3.7147189693e+01    0.1265905    0.1095495 -20.22 0.0003113121    1.504    0.335
         5  -8.0228     90.9776      8.9454   3.8453561538e+01   5.6732790685e+01     0.153712    0.1304011 -69.12 0.0006053911    1.649    0.394
         6  -7.7190     47.4968      9.5375   4.9420675026e+01   6.3724254376e+01    0.1046002   0.08384065  12.03 0.0001989196    1.064    0.060
         7  -8.5956     33.5258      5.0041   5.1908169250e+01   6.6021419402e+01    0.2322939    0.1407073 -41.71  0.001293168    2.629    0.620
         8  -8.6366     79.3667      3.7904   3.9243142393e+01   5.9148536720e+01    0.1761855    0.1463186 -38.99 0.0008583101    1.541    0.351
         9  -7.7749     44.6067      2.7761   4.7675053914e+01   6.4689092155e+01    0.1294503   0.08564561 -25.19 0.0004753105    1.618    0.382
        10  -7.6576    115.6192      2.2999   3.1885129967e+01   5.2661601938e+01    0.1077497   0.07988247 -76.78 0.0001825199    1.769    0.435
        11  -7.9884     62.5127      1.4302   4.2366085884e+01   6.2093659275e+01    0.1034673   0.08410881  24.81 0.0001335085    1.055    0.052
        12  -7.9168     15.6731      3.3141   5.7247389142e+01   6.8337606186e+01   0.08308657   0.07463586 -13.11 0.0004245584    1.669    0.401
        13  -9.9985    223.9311    243.9454   6.9117104078e+01  -1.0188199144e+01    0.4857251    0.2306772 -49.12  0.002003894    2.439    0.590
        14  -8.8197    249.2116    248.7987   6.5573948442e+01  -1.4312760256e+01     0.422617    0.1872958 -26.66  0.002004799    2.435    0.589
        15  -9.5562    248.6719    241.9961   6.4456509797e+01  -1.3211235366e+01    0.4389002    0.2010728 -38.54  0.001725022    1.910    0.476
        16  -7.7288    184.6395    250.2872   7.7419398344e+01  -5.4615241092e+00    0.1216815   0.09935183  71.54 0.0007023329    1.686    0.407
        17  -8.3761    149.6775    250.0351   8.4009261835e+01   6.0008565390e-02    0.1943763    0.1714646 -14.24  0.000731784    1.296    0.228
        18  -9.2913    147.0697    245.8661   8.3868693195e+01   1.2710465147e+00     0.356722    0.2296538  70.09  0.001571984    2.303    0.566
        19  -7.9476    125.4692    250.4762   8.8698037844e+01   3.8038175796e+00    0.1260375    0.1173819  74.25 0.0008093982    1.001    0.001
        20  -8.5406     94.0758    249.6539   9.4519149361e+01   8.7851511587e+00    0.2867364    0.1519798  70.81  0.001248231    2.706    0.631
        21  -8.7709     67.8312    245.1306   9.8841566796e+01   1.3502965090e+01    0.3268444     0.174628  86.40  0.001526006    2.365    0.577
        22  -9.1937      9.9168    243.9222   1.0880889231e+02   2.0834891771e+01    0.3786783    0.1239329 -86.82  0.001376161    4.312    0.768
        23  -8.4678    201.8746    243.0320   7.2971985610e+01  -6.8223290639e+00    0.2483543    0.1555047 -47.07 0.0006500048    1.642    0.391
        24  -9.4327     78.1120    243.1029   9.6701992991e+01   1.2490287445e+01    0.3390899     0.174444  75.15  0.001430323    2.880    0.653
        25  -8.4352    168.9288    243.1037   7.9212526751e+01  -1.7073663556e+00    0.1907327    0.1723772  82.38 0.0005869498    1.299    0.230
        26  -9.2346    183.1963    240.1129   7.5977752743e+01  -3.4209326197e+00    0.4298942     0.285183  71.88  0.001941245    2.881    0.653
        27  -9.3163    160.1982    240.2409   8.0427744332e+01   2.3961397373e-01    0.3664383    0.2438391 -74.39  0.001362854    2.207    0.547
        28  -8.1404    153.4847    241.9655   8.2011833419e+01   9.9280059449e-01    0.1956747    0.1269029 -55.22  0.001018254    1.600    0.375
        29  -8.1792     88.0282    242.2256   9.4724314276e+01   1.1235088406e+01    0.1795045    0.1512269  86.45 0.0006176554    1.044    0.042
        30  -8.0963    214.0037    241.0303   7.0391084579e+01  -8.2810033582e+00    0.1571431    0.1303662 -26.54 0.0005122088    1.097    0.088
        31  -8.5018    146.5630    239.7749   8.3011578255e+01   2.5449110499e+00    0.3064499    0.1962093 -85.53 0.0009318751    2.678    0.627
        32  -8.9579    240.9120    239.1805   6.5279520377e+01  -1.1751769510e+01    0.3955783    0.1603845 -26.84  0.001561944    3.302    0.697
        33  -8.7332    194.0740    239.4711   7.3807134464e+01  -5.0059551474e+00    0.1882834    0.1761078 -70.64 0.0005119097    1.301    0.231
        34  -9.3344    135.9436    238.7923   8.4939770754e+01   4.4677534561e+00    0.2797415    0.1840923  76.86   0.00121273    2.224    0.550
        35  -8.1438     41.0000    239.0571   1.0305582215e+02   1.8320197959e+01    0.1985037   0.05897211 -67.80 0.0006732117    2.901    0.655
        36  -8.8827    230.9940    236.7857   6.6579616248e+01  -1.0005764764e+01    0.2656538    0.1844959 -62.47  0.001365784    2.334    0.571
        37  -7.8388    209.0012    238.0366   7.0774655657e+01  -7.0280691628e+00    0.1823485    0.1584845 -80.71 0.0005550454    1.658    0.397
        38  -9.1261    117.3191    237.1851   8.8361436012e+01   7.7979160186e+00    0.2360444    0.2105535 -63.11 0.0005427504    1.120    0.107
        39  -9.2515    120.2050    245.1631   8.8953020934e+01   5.6927054094e+00    0.3316983    0.2058299 -86.47  0.001469329    2.331    0.571
        40  -9.9446    214.9880    233.1846   6.8802263830e+01  -7.0793473683e+00     0.573898    0.3908657 -79.95  0.002401726    3.830    0.739
        41  -8.9698    203.0183    234.4105   7.1234452337e+01  -5.4816429319e+00    0.3324188    0.1759713 -54.41  0.001182916    2.348    0.574
        42  -9.7972    175.7635    233.3412   7.6235747527e+01  -9.6176374540e-01    0.5235419     0.235786 -56.48  0.002088599    2.815    0.645
        43  -9.6195    109.4468    234.2343   8.9484229625e+01   9.6726159955e+00     0.558015    0.2945023  62.78  0.001880207    2.538    0.606
        44  -7.9372     25.2408    236.2426   1.0557027789e+02   2.0798761887e+01    0.1952905   0.08092444 -82.85 0.0008813854    2.437    0.590
        45  -8.6767    247.9059    234.2314   6.3182045119e+01  -1.1891292160e+01    0.2801276    0.1487617 -32.86 0.0008344828    1.635    0.388
        46  -9.5157    246.6336    228.4585   6.2337524688e+01  -1.0785503965e+01    0.4838937    0.1886082 -37.44   0.00177097    2.221    0.550
        47  -8.2871    152.8464    235.0588   8.1013287540e+01   2.4565018907e+00     0.213491    0.1530507 -84.18 0.0007175308    1.965    0.491
        48  -8.7348     78.7854    234.3015   9.5490063717e+01   1.4301156185e+01    0.2999296    0.1575588 -80.65  0.001230271    2.274    0.560
        49  -8.2132    122.9651    234.0211   8.6771725104e+01   7.5594419846e+00    0.2229616    0.1551713  79.71  0.000947007    1.814    0.449
        50  -8.2570     99.7382    234.1469   9.1386836505e+01   1.1204764314e+01    0.2312557    0.1296172  76.78 0.0009488688    2.795    0.642
        51  -9.8372     68.9007    232.4770   9.7162702435e+01   1.6106830314e+01    0.4915238    0.2469301  75.37   0.00200626    3.008    0.668
        52  -8.2323    132.8485    232.7416   8.4605398790e+01   6.2196247277e+00    0.2533926    0.1717866 -87.54   0.00121294    2.040    0.510
        53  -8.5216     92.4231    231.7083   9.2490109109e+01   1.2855297134e+01    0.4003175    0.2173426  72.58  0.001268648    2.743    0.635
        54  -8.2667    194.3977    232.2738   7.2471823465e+01  -3.7503085397e+00    0.1750827    0.1205385 -52.10 0.0004095192    1.554    0.357
        55  -9.3304    186.4703    230.4288   7.3654037160e+01  -2.1409669993e+00    0.3860938    0.2440057 -68.37  0.001403492    2.569    0.611
        56  -9.0641    236.0685    230.4634   6.4531716880e+01  -9.6653579879e+00     0.279608    0.1829605 -40.52 0.0009983894    1.402    0.287
        57  -8.6023      1.5644    230.6848   1.0915686128e+02   2.4516451565e+01    0.2240914    0.1118882 -85.63  0.001270913    1.610    0.379
        58  -9.0629    151.4701    228.9812   8.0271028772e+01   3.9154488711e+00    0.3296449    0.2224988 -85.56  0.001167268    2.326    0.570
        59  -9.4233    148.6159    224.3269   8.0051510907e+01   5.3603014723e+00    0.3919246    0.2708881 -87.17  0.001828269    2.146    0.534
        60  -8.4111    229.8075    228.6646   6.5302132599e+01  -8.4720605041e+00    0.2344549    0.1389677 -48.37  0.001217091    1.780    0.438
        61  -9.0700    162.2482    227.6786   7.7901812972e+01   2.3808050670e+00    0.3170233    0.2271772  74.26  0.001554899    2.020    0.505
        62  -8.7559    127.8766    227.1212   8.4709741050e+01   8.2293812897e+00     0.340208    0.2213366  72.42  0.001561569    2.096    0.523
        63  -8.2163    120.1852    227.7533   8.6363846045e+01   9.3524332867e+00    0.2283075    0.1374533  78.15 0.0007726207    2.694    0.629
        64  -8.7152    206.2622    226.1235   6.9118706582e+01  -4.4835300364e+00    0.2645981    0.1911534 -64.15 0.0008803757    1.899    0.473
        65  -8.2060     49.6576    226.6757   1.0014987156e+02   1.9980163564e+01    0.2681451    0.1323764  89.87     0.001168    2.519    0.603
        66  -7.8820    223.2732    226.6684   6.6099823099e+01  -7.1716034139e+00    0.1191619    0.1007681 -65.13  0.000264635    1.593    0.372
        67  -8.3840    199.9119    226.1024   7.0306885871e+01  -3.4798107992e+00    0.1933971    0.1768687 -62.62 0.0005189492    1.286    0.222
        68  -9.0664    216.6348    222.9117   6.6603247952e+01  -5.5024609841e+00    0.4707271    0.2149708 -45.25  0.001459383    2.058    0.514
        69  -9.0908    140.9841    224.0993   8.1557173320e+01   6.6935034232e+00    0.3439089    0.1969516 -58.10  0.001243351    1.784    0.439
        70  -8.8248     94.0243    223.9094   9.1076415626e+01   1.4351130874e+01    0.3774995    0.2244845  74.98  0.001522348    2.258    0.557
        71  -8.6803    180.5519    223.9339   7.3629007866e+01   7.9194807974e-02    0.2692916    0.2111403  66.47  0.000944535    1.663    0.399
        72  -8.7455    104.7508    223.4053   8.8826970741e+01   1.2792327617e+01    0.3493233    0.2165763  88.04  0.001565727    2.220    0.550
        73  -7.6853     38.2777    224.6229   1.0206765348e+02   2.1856305297e+01    0.1344765   0.07908823  80.98 0.0007006365    1.703    0.413
        74  -9.0126    225.5364    221.7457   6.4771562254e+01  -6.6387605431e+00    0.2787598    0.1799891 -44.39 0.0009478221    1.464    0.317
        75  -8.6891    173.0506    222.6397   7.4867680952e+01   1.5871803866e+00    0.2582656    0.1861429 -64.35 0.0007190219    1.639    0.390
        76  -8.5386    163.0258    222.5222   7.6839532212e+01   3.3000472740e+00    0.2935391     0.215112  64.18  0.001450856    1.715    0.417
        77  -8.6386    159.0202    220.3191   7.7251148549e+01   4.4357641806e+00    0.2654195    0.2154296  89.06 0.0008899161    1.533    0.348
        78  -9.0813    140.1815    230.0801   8.2711743164e+01   5.5665615580e+00    0.3621804    0.1873477  59.81  0.001024947    2.840    0.648
        79  -9.0886    239.1615    221.1253   6.2252005838e+01  -8.5161440437e+00    0.3563488    0.1968596 -44.19  0.001362942    1.674    0.403
        80  -9.3488    192.4014    221.1158   7.0814571318e+01  -1.3229700807e+00    0.3217868     0.248775 -66.40  0.001100943    1.628    0.386
        81  -9.4126      7.4586    221.7229   1.0739497049e+02   2.5901455006e+01    0.3000932    0.1199917  65.99  0.001320243    3.090    0.676
        82  -8.5507     83.0164    220.4182   9.2807378964e+01   1.6806173203e+01    0.3201338    0.1866536  65.94  0.001368694    2.032    0.508
        83  -8.1998     73.4719    220.9688   9.4803663670e+01   1.8066029378e+01    0.2002291    0.1046287 -87.26 0.0008099778    2.647    0.622
        84  -8.3292     27.6220    220.9591   1.0367103045e+02   2.3929787601e+01    0.2499253   0.08268659 -62.30  0.001094309    2.424    0.587
        85  -8.0233    202.5471    220.0249   6.8678529596e+01  -2.7586691879e+00    0.2026563     0.122984 -44.60 0.0004835681    1.540    0.351
        86  -9.1965    120.2088    218.8156   8.4935649832e+01   1.1317946041e+01     0.453714     0.258536  71.04  0.001771773    2.924    0.658
        87  -7.5497    221.3021    219.6480   6.5138281835e+01  -5.6242087369e+00    0.1256724    0.1037377 -70.64 0.0006518824    1.701    0.412
        88  -8.3701    210.1410    219.1448   6.7090713472e+01  -3.8015019085e+00    0.1996129    0.1652588 -22.74 0.0004456934    1.121    0.108
        89  -9.4063    248.2420    216.9271   5.9904909009e+01  -9.0723523268e+00    0.4410864     0.292707 -63.04  0.002203004    2.534    0.605
        90  -9.3193    132.8593    215.8391   8.1818824968e+01   9.8617802819e+00    0.5114191    0.3166172  87.62  0.002023028    2.877    0.652
        91  -8.9764     51.6590    216.9253   9.8622030464e+01   2.1959430590e+01    0.3063351    0.1436168 -74.66 0.0009601723    2.037    0.509
        92  -7.8826    179.4027    217.2600   7.2626718057e+01   1.6014685713e+00     0.198412    0.1266597 -56.62 0.0006696021    1.700    0.412
        93  -8.6423    169.4617    216.1140   7.4389462954e+01   3.5269283757e+00     0.311943    0.2157492 -72.38 0.0009524204    1.978    0.495
        94  -8.4232    143.1293    216.4572   7.9804628478e+01   7.9753492069e+00    0.2950752    0.2075428  87.57  0.001313116    2.021    0.505
        95  -8.3530    111.6131    216.8090   8.6391731633e+01   1.3179925416e+01    0.2056585    0.1247082 -69.57 0.0007893896    1.759    0.432
        96  -8.4006     62.1038    217.0770   9.6568444808e+01   2.0546369337e+01    0.2566095    0.1459655  68.13  0.001055397    2.042    0.510
        97  -8.2067     18.4289    215.7494   1.0485422267e+02   2.6121175295e+01    0.2450129   0.09808209 -75.35  0.001137499    2.097    0.523
        98  -8.0786    243.0000    211.9324   5.9842489339e+01  -7.4641956505e+00    0.2132525    0.0635706 -42.09 0.0003971719    2.851    0.649
        99  -8.9178    232.3739    214.4633   6.2171475363e+01  -6.3574018741e+00    0.2913933    0.2046273 -52.89  0.001010422    1.603    0.376
       100  -7.9516    154.4050    215.1826   7.7265446309e+01   6.3125222059e+00    0.2023907    0.1296581 -62.00 0.0009406908    1.717    0.417
       101  -7.7164     41.4981    215.0185   1.0038699026e+02   2.3671642921e+01    0.1905951   0.09367615  88.81 0.0008099895    2.527    0.604
       102  -9.3624    214.2076    212.1053   6.4991786422e+01  -3.1236723881e+00     0.410634    0.3108751  68.24  0.001561876    2.039    0.510
       103  -8.2961    185.6524    214.1048   7.0806930751e+01   1.1818066333e+00    0.2178368    0.1676117 -61.74 0.0008837807    1.473    0.321
       104  -8.9319     93.3955    213.9322   8.9731382483e+01   1.6735284588e+01    0.3545143    0.1917306  63.52  0.001452291    2.430    0.588
       105  -9.3524     73.4717    211.8535   9.3557530180e+01   2.0188530227e+01    0.6861072    0.3117589  66.72  0.002295377    4.179    0.761
       106  -8.2162    106.5591    212.7637   8.6797954001e+01   1.4925664731e+01    0.1974964    0.1262323 -71.82 0.0009334884    1.637    0.389
       107  -7.9067    224.9827    212.2574   6.3061036913e+01  -4.8382112584e+00    0.1841351    0.1369756 -57.25 0.0004476883    1.605    0.377
       108  -8.6027    161.6366    212.1538   7.5236797226e+01   5.7083220796e+00    0.2265019    0.1963041  67.79 0.0007221488    1.306    0.234
       109  -9.0176    204.2172    210.4398   6.6533338779e+01  -1.1882224775e+00    0.3034725    0.1983075 -53.42  0.000871109    1.622    0.384
       110  -8.4351    192.2030    210.2769   6.8799833802e+01   8.4498877856e-01    0.2494829    0.1732158 -67.27 0.0007789225    1.953    0.488
       111  -9.3180    175.4843    209.8497   7.2009575874e+01   3.7922955497e+00    0.4144435    0.2898121  84.88  0.001622835    2.469    0.595
       112  -8.7436    148.0107    210.3485   7.7703881545e+01   8.4693445766e+00    0.3343137    0.2227618 -77.41  0.001488036    2.084    0.520
       113  -8.9574    116.4155    210.1085   8.4286324576e+01   1.3923177715e+01    0.3707311    0.2357857  87.42  0.001058625    2.317    0.568
       114  -9.2478    236.6454    208.2547   6.0226999839e+01  -5.8754089188e+00    0.3369092    0.2371523 -65.05  0.001332869    2.136    0.532
       115  -8.3948     85.4340    209.1235   9.0668949338e+01   1.9078023508e+01    0.3260137    0.1964744  84.84   0.00122631    2.223    0.550
       116  -8.1385     32.3184    209.9981   1.0160495091e+02   2.5923274083e+01    0.2149767   0.08658046 -88.13 0.0007042442    4.221    0.763
       117  -8.0430     46.3939    209.2432   9.8729323573e+01   2.4423578940e+01    0.1935397    0.1056522 -78.86 0.0009437338    1.707    0.414
       118  -9.2851    246.3921    206.9834   5.8313560344e+01  -7.0784170140e+00    0.3027087    0.1871688 -38.72 0.0005444664    1.347    0.258
       119  -9.4360    250.1071    201.8941   5.6705641285e+01  -6.7090631226e+00    0.4086115     0.173161 -38.13  0.001369557    1.979    0.495
       120  -8.4653    139.3759    208.0017   7.9078515049e+01   1.0492205696e+01     0.263405    0.1961919  75.95  0.001111308    1.687    0.407
       121  -8.0247    126.6083    208.3344   8.1827509992e+01   1.2614341749e+01     0.221755      0.16357  84.87 0.0008560814    1.670    0.401
       122  -8.7116      5.5393    207.5218   1.0645076634e+02   2.9297518581e+01     0.225866   0.09196349 -83.24  0.001023958    2.317    0.568
       123  -9.1396     99.3207    205.7630   8.7199225094e+01   1.7722309542e+01    0.4230569    0.2454344 -83.34  0.001222155    2.418    0.586
       124  -8.7848     11.8650    206.8210   1.0519812984e+02   2.8843969874e+01    0.1732314    0.1162606  81.60 0.0005586474    1.318    0.241
       125  -8.3992     56.5463    205.3929   9.6166164489e+01   2.4042413132e+01     0.270077    0.1559153  72.87  0.001070791    2.104    0.525
       126  -9.2347    194.8834    203.5312   6.6965758350e+01   1.7517419487e+00    0.3512906    0.3030451 -89.97  0.001296419    1.498    0.332
       127  -9.1622    192.6675    197.1457   6.6124817085e+01   3.4464608683e+00    0.4442916    0.2954053 -64.65  0.001669302    1.933    0.483
       128  -8.0237    108.9653    204.9756   8.5005879586e+01   1.6348736045e+01     0.228367    0.1633352  86.51 0.0008521543    1.664    0.399
       129  -7.4422     92.6143    205.3019   8.8556921013e+01   1.8885834830e+01    0.1503023    0.1009269  76.46 0.0007018183    1.788    0.441
       130  -8.9587    183.7925    203.5821   6.9145058481e+01   3.6562658531e+00    0.2938209    0.2393633  80.67  0.001190559    1.641    0.391
       131  -9.6152    163.8608    202.9495   7.3042315406e+01   7.3012481075e+00     0.456131    0.2962829  65.64   0.00119301    2.228    0.551
       132  -8.3591    131.3295    203.8038   8.0019688206e+01   1.2841200216e+01    0.2809194     0.209446  89.86  0.001162181    1.651    0.394
       133  -8.5071    211.3089    202.1827   6.3585887022e+01  -7.4185864442e-01    0.3163838    0.2118398 -66.84  0.001111664    2.205    0.546
       134  -9.0782     17.3354    203.3566   1.0379483338e+02   2.9097362740e+01    0.2330626    0.1269583  64.23  0.001232039    1.984    0.496
       135  -8.8576    140.6189    200.9820   7.7524911692e+01   1.1862728120e+01    0.3701126    0.2582406  88.29  0.001229991    2.051    0.513
       136  -8.5597     80.2086    201.0996   9.0555080510e+01   2.1772820067e+01    0.3463793    0.1963931  77.13  0.001400507    2.662    0.624
       137  -7.7121     41.3269    202.6568   9.8937530715e+01   2.6603612569e+01    0.1399242   0.08609705  79.26 0.0007050969    1.741    0.426
       138  -9.0791    243.1113    200.5449   5.7614139080e+01  -5.4396194563e+00     0.322004    0.1674448 -44.33  0.001065867    1.668    0.401
       139  -8.0637    221.9659    200.9939   6.1399579285e+01  -2.2471956802e+00    0.2029717     0.158815 -63.91 0.0005409493    1.596    0.374
       140  -9.3900    149.7180    198.4833   7.5125170759e+01   1.0813276167e+01    0.4907534    0.3236189 -86.95  0.001446338    2.504    0.601
       141  -8.7973    124.2240    199.0612   8.0683217834e+01   1.5168606532e+01    0.3662043    0.2265407 -82.70 0.0009939264    2.446    0.591
       142  -9.4064    112.9107    198.1645   8.2976483438e+01   1.7303594044e+01    0.4908942    0.3027394  83.26  0.001775881    2.619    0.618
       143  -9.1307     89.0262    198.6057   8.8254454076e+01   2.1044216543e+01    0.4055433    0.2463559  87.98  0.001727565    2.280    0.561
       144  -9.0984    237.1554    198.3592   5.8200253553e+01  -4.1361896818e+00    0.3042888    0.1612552 -46.16  0.001115791    1.695    0.410
       145  -8.5173    176.9918    198.5578   6.9511571357e+01   5.9152923504e+00    0.2822071    0.1902875 -61.67 0.0006845256    1.678    0.404
       146  -8.2027    202.4536    197.4955   6.4313347133e+01   1.6820385277e+00    0.2466252    0.1246629 -53.79 0.0007776166    2.161    0.537
       147  -9.2471     61.2867    196.6720   9.3953748008e+01   2.5513909499e+01    0.4716252    0.2550688  86.30  0.001716496    2.673    0.626
       148  -7.6979     29.3176    197.6676   1.0077384702e+02   2.9170514623e+01    0.1354161   0.08321676  79.70  0.000704777    1.690    0.408
       149  -8.1627     12.8094    197.0545   1.0400805623e+02   3.1024506481e+01    0.2171503    0.1128914  84.57  0.001073259    2.045    0.511
       150  -9.4924    245.9718    193.7847   5.5802529923e+01  -4.6299376919e+00    0.4237749    0.2708868 -66.80  0.001732678    2.713    0.631
       151  -8.6815    216.0544    195.5437   6.1384178865e+01  -2.2180970670e-01    0.2781906    0.2005547 -64.71 0.0008055727    1.787    0.441
       152  -8.2473    132.9768    195.6897   7.8167101848e+01   1.4430746218e+01    0.2649582    0.1790313 -68.68 0.0007668608    1.620    0.383
       153  -7.9640     53.7843    196.5820   9.5541865153e+01   2.6520169203e+01    0.1863415    0.1145433  54.86 0.0009494051    1.773    0.436
       154  -8.5826    224.6188    194.0723   5.9541159090e+01  -1.3411616675e+00    0.3066294    0.1468741 -50.85  0.001155954    2.133    0.531
       155  -8.9765    185.2234    194.6615   6.7086620267e+01   5.2809141962e+00     0.281785    0.2311609 -61.58 0.0006627892    1.294    0.227
       156  -8.8467    160.7505    193.9547   7.1925104215e+01   9.8434921966e+00    0.3102331    0.2188744 -76.29 0.0008889953    1.889    0.471
       157  -8.3198    231.1613    194.1663   5.8405380778e+01  -2.4103283672e+00    0.1810743    0.1543816 -58.02 0.0005138607    1.328    0.247
       158  -8.9935     77.0565    193.7719   9.0091536456e+01   2.4012340624e+01    0.2738553    0.2080323  86.15 0.0005876574    1.352    0.260
       159  -8.8960     43.9711    193.1940   9.7161031446e+01   2.8561227155e+01    0.4448408    0.2370998  81.04  0.001909847    2.571    0.611
       160  -8.1430    199.0114    191.4557   6.3746813826e+01   3.5161192260e+00     0.274867    0.1825314 -57.55 0.0006723778    1.639    0.390
       161  -8.4449    172.6044    191.6784   6.9021879944e+01   8.1951564927e+00     0.281974    0.2061015 -85.62 0.0007712631    2.000    0.500
       162  -9.0610    139.5715    190.3491   7.5714429766e+01   1.4500882625e+01    0.4159312    0.2635263 -81.21  0.001219673    2.485    0.598
       163  -8.0048    179.1482    191.2209   6.7602455897e+01   7.1086402953e+00    0.1989215    0.1662508 -68.58 0.0005000767    1.322    0.244
       164 -10.3965     92.4158    188.6325   8.5828431602e+01   2.2940880004e+01    0.9522485    0.3445824  51.22  0.003151392    3.698    0.730
       165  -8.3487     21.3257    190.7685   1.0158681199e+02   3.1662922480e+01     0.316548     0.139392  72.97   0.00115447    3.996    0.750
       166  -9.3130      5.7142    190.6607   1.0472995102e+02   3.3191339117e+01    0.2353905    0.1530736 -79.17 0.0007842329    1.157    0.135
       167  -8.5425    237.1302    188.6130   5.6260520180e+01  -2.2984128876e+00    0.2401855    0.1572948 -47.42 0.0006544401    1.383    0.277
       168  -8.5637    148.5851    188.9849   7.3504622494e+01   1.3184199401e+01    0.2874679    0.1779399 -63.42  0.001236628    1.791    0.442
       169  -8.8187    129.3511    188.3977   7.7563594597e+01   1.6785717339e+01    0.3071626    0.2294734  88.22  0.000836682    1.671    0.401
       170  -9.4556    120.7382    186.1690   7.9039007527e+01   1.8831859611e+01    0.5616715    0.2869389 -70.03  0.001983662    2.833    0.647
       171  -8.7471     34.3246    188.0299   9.8524148544e+01   3.0931771986e+01    0.3555773    0.1827857  86.96  0.001461588    2.540    0.606
       172  -8.7942    216.5147    187.6150   5.9689959879e+01   1.2771695615e+00    0.2682955    0.2100739 -57.41 0.0006191772    1.362    0.266
       173  -8.9189    191.4174    187.0862   6.4318758506e+01   5.7813918214e+00    0.3640142    0.2323317 -67.91  0.001466645    2.237    0.553
       174  -9.3026    156.0377    187.2418   7.1567128158e+01   1.2219074467e+01    0.4018959    0.2410002 -60.00  0.001062562    1.777    0.437
       175  -9.2368     54.7948    186.6917   9.3897756912e+01   2.8802608797e+01    0.4454747    0.2500966  81.96  0.001680189    2.504    0.601
       176  -8.3300    230.2012    186.8920   5.7106183759e+01  -8.5607527344e-01    0.2116422    0.1717055 -53.40 0.0007586878    1.268    0.211
       177  -8.7204    164.9138    186.7352   6.9600110164e+01   1.0699377781e+01     0.312508    0.2281716 -71.95  0.001325234    1.665    0.399
       178  -9.1973    109.5087    185.8555   8.1490830908e+01   2.0832776853e+01    0.4193492    0.2691224  89.51  0.001153733    2.291    0.564
       179  -9.4070    249.1306    185.3460   5.3606144237e+01  -3.5466610263e+00    0.3060716    0.2501864 -40.53  0.001093202    1.077    0.071
       180  -8.7056    202.7960    184.4982   6.1592972935e+01   4.2933983284e+00    0.2778704    0.1736304 -57.87  0.000659028    1.780    0.438
       181  -8.9464    183.0326    184.7604   6.5493628973e+01   7.8025867536e+00    0.2998353    0.2249182 -63.00 0.0009041499    1.457    0.314
       182  -8.9029     66.9800    184.5859   9.0860396971e+01   2.7698391739e+01    0.3857024    0.2244792  60.19  0.001298378    2.098    0.523
       183  -8.5782    224.1386    183.6178   5.7501720593e+01   7.8773335595e-01    0.2450237     0.168708 -50.70  0.000606413    1.378    0.274
       184  -8.7123    210.1090    183.9282   6.0105824429e+01   3.1255451643e+00    0.2552795    0.1824402 -46.10 0.0006545425    1.242    0.195
       185  -8.8039    174.3459    183.4362   6.6972806669e+01   9.6922213194e+00     0.298898    0.2326609 -71.66 0.0005508859    1.504    0.335
       186  -7.9310    197.1481    183.1846   6.2396969587e+01   5.5767501284e+00    0.2016738    0.1624341 -63.19 0.0004487172    1.355    0.262
       187  -8.8232     44.2701    182.0301   9.5535849332e+01   3.1246991963e+01    0.3677232    0.2039895 -84.11  0.001134398    1.999    0.500
       188  -8.2289      1.7158    183.5578   1.0477227445e+02   3.5210468045e+01    0.1500599    0.1038595  58.64 0.0009431982    1.598    0.374
       189  -8.2486    235.3753    181.2004   5.5058112761e+01  -5.9414441179e-01    0.2052595    0.1119204 -49.69 0.0007876961    1.711    0.416
       190  -9.0961    147.5338    180.5186   7.2012740770e+01   1.5338739724e+01    0.3302743    0.2582208  85.14 0.0008347505    1.604    0.377
       191  -7.7250     90.3487    181.3130   8.5000017222e+01   2.5062624878e+01    0.1463508    0.1100038 -29.94 0.0007046413    1.719    0.418
       192  -7.8273     83.2945    181.6701   8.6674744112e+01   2.6059276462e+01    0.1479742    0.1049999  87.34 0.0006399387    1.632    0.387
       193  -8.9866     26.8466    180.6813   9.9162243944e+01   3.3518911572e+01    0.5238194     0.247275  81.44  0.001949708    3.663    0.727
       194  -8.7638     24.3086    175.9760   9.9090703268e+01   3.4918374826e+01    0.3519222    0.1506901 -84.81  0.001290652    3.378    0.704
       195  -7.9267    240.5741    179.7645   5.3891732591e+01  -1.1561248195e+00    0.1996912    0.1123608 -49.40 0.0008630068    1.634    0.388
       196  -8.7066    137.6003    178.9888   7.3870332516e+01   1.7528384424e+01     0.333744    0.2405466 -85.37  0.001320586    1.833    0.454
       197  -9.6952    248.6109    176.6209   5.1940611319e+01  -1.8306931546e+00    0.4822782    0.2488839 -52.68  0.001706871    1.995    0.499
       198  -9.4451    191.5429    178.2406   6.2443655901e+01   7.6494504605e+00    0.3422588    0.2691487 -81.09 0.0006391248    1.662    0.398
       199  -8.0841    169.7331    178.7442   6.6936809711e+01   1.1597807830e+01    0.2065573    0.1719424 -79.05  0.001043179    1.390    0.280
       200  -8.6394    217.6233    177.3182   5.7359053914e+01   3.1643339470e+00    0.2776216    0.1877973 -59.35  0.000983641    1.654    0.396
       201  -8.3616    205.1287    177.4435   5.9677542326e+01   5.3478727142e+00    0.2922881    0.1702536 -57.05  0.000642708    1.900    0.474
       202  -8.5608    129.3558    177.3525   7.5369377662e+01   1.9417708469e+01    0.3333806     0.220976  89.41 0.0009672301    2.346    0.574
       203  -9.0371     35.8155    176.2560   9.6582090787e+01   3.3631791837e+01     0.515948    0.2369186 -87.39  0.001832944    3.617    0.724
       204  -8.4098    231.1297    176.7428   5.4868618187e+01   9.7578869325e-01    0.2569821    0.1604148 -48.80  0.000739968    1.439    0.305
       205  -9.2589    183.0223    175.7418   6.3595352471e+01   9.7732296621e+00    0.3558885    0.2166524 -53.52 0.0009718142    1.589    0.371
       206  -7.9490     97.3441    177.2998   8.2654065749e+01   2.4937888563e+01    0.1466378    0.1126145 -27.40 0.0007036746    1.676    0.403
       207  -8.7163     89.2316    176.7184   8.4420486259e+01   2.6371495358e+01    0.3026778    0.2158589  81.11 0.0008310413    1.715    0.417
       208  -9.8890     57.6798    173.4133   9.1164482582e+01   3.1706042536e+01    0.8748569    0.4284559 -89.30  0.002677189    4.732    0.789
       209  -9.0048     13.1393    176.5830   1.0158864127e+02   3.5850610462e+01    0.2542779    0.1635493  85.10   0.00119188    1.546    0.353
       210  -9.3026    158.7946    174.7809   6.8391044632e+01   1.4558668965e+01    0.4269078    0.2952629 -84.11  0.001247221    2.176    0.540
       211  -9.3101    104.1586    174.3810   8.0519587474e+01   2.4534165736e+01    0.5403268    0.3291238  79.93  0.002034352    2.862    0.651
       212  -8.7532    224.7630    174.3906   5.5482711943e+01   2.5210971037e+00    0.2900815    0.1644117 -55.59 0.0009167653    1.914    0.477
       213 -10.8576     75.9759    169.4096   8.6181324597e+01   3.0183250383e+01     1.525135    0.5025362 -63.65  0.004809854    3.368    0.703
       214  -9.5063     81.7852    154.6887   8.1935352658e+01   3.2961176710e+01    0.5173185    0.3712119  89.47  0.001629277    1.764    0.433
       215  -8.8680    250.5056    172.8346   5.0874329670e+01  -1.4124851144e+00    0.2670625    0.1601218 -44.42 0.0007868006    1.362    0.266
       216  -9.5373    175.8368    172.1419   6.4273319769e+01   1.1924038783e+01    0.3703158    0.2527095 -50.21 0.0008359891    1.334    0.250
       217  -9.7738    151.7253    171.5643   6.9221228940e+01   1.6639783191e+01    0.5142332    0.3419323 -78.23  0.001356976    2.196    0.545
       218  -8.3262    143.2502    172.6082   7.1294805168e+01   1.7990086474e+01    0.2868827    0.1765625 -60.71 0.0006763373    1.683    0.406
       219  -8.3111    134.9385    171.5157   7.2909817039e+01   1.9793414244e+01    0.2965452    0.2030616 -67.84 0.0009862108    1.608    0.378
       220  -9.2763     45.1096    170.5856   9.3617710741e+01   3.3960449213e+01    0.4312751    0.2339931 -82.65  0.001753299    2.186    0.543
       221  -9.5213    121.3089    170.0642   7.5695211551e+01   2.2619430950e+01    0.4569489    0.2662157 -66.59 0.0008595384    1.976    0.494
       222  -8.8926    230.4398    168.9387   5.3367432862e+01   2.6368860010e+00    0.4240195    0.1969903 -52.83  0.001713336    2.241    0.554
       223  -8.4938    205.7566    169.9222   5.7962680243e+01   6.8096876785e+00    0.2781948    0.1801005 -58.50  0.000740611    1.668    0.401
       224  -8.5370    198.6557    170.0512   5.9324491359e+01   8.0896328658e+00    0.2429338    0.1703925 -59.43 0.0007618638    1.508    0.337
       225  -8.5892    244.4725    169.0196   5.1063216030e+01   2.7957355545e-01    0.2165533    0.1139579 -43.01 0.0004560869    1.546    0.353
       226  -8.4213    237.1700    169.1930   5.2291512257e+01   1.4493493697e+00    0.2134282    0.1691197 -34.16   0.00120746    1.124    0.110
       227  -9.1172    167.0803    168.3210   6.5251374487e+01   1.4455683395e+01    0.3670478    0.2604485  75.48  0.001242914    2.023    0.506
       228  -8.2269     88.9994    168.9637   8.3016489582e+01   2.8326588656e+01    0.2367405    0.1701974  84.87 0.0008567684    1.720    0.419
       229  -8.4942    218.8625    168.1113   5.5200512462e+01   4.8221465260e+00    0.2208869    0.1764486 -56.44 0.0004664065    1.242    0.195
       230  -8.6548    111.6037    167.0237   7.7311125579e+01   2.5068308158e+01    0.3439518    0.2158183 -77.76  0.001208415    2.184    0.542
       231  -7.8217    211.3033    167.6643   5.6460826429e+01   6.2712644466e+00    0.1465479    0.1092374 -70.22 0.0007037802    1.665    0.399
       232  -9.0154    191.8928    166.5753   5.9870506775e+01   1.0102915733e+01    0.2908751     0.197181 -50.91 0.0005884256    1.348    0.258
       233  -8.9975    185.0783    166.3649   6.1160026538e+01   1.1443260650e+01    0.3008553    0.1993667 -53.05 0.0007007596    1.420    0.296
       234  -9.6960    137.2944    164.5028   7.0880518318e+01   2.1023981261e+01    0.7026741    0.3598443  62.42  0.002248643    3.459    0.711
       235 -10.0045     94.9751    162.7211   8.0362983461e+01   2.8916919508e+01    0.8376974    0.4773546  86.23  0.002617771    4.278    0.766
       236  -8.9780     20.4117    166.0246   9.8599760962e+01   3.7707930733e+01    0.3077218    0.1661297  63.88  0.001469467    2.482    0.597
       237  -8.2563    233.9510    164.9327   5.1941319086e+01   2.8312975962e+00    0.2166547    0.1546943 -63.95 0.0006170394    1.638    0.390
       238  -9.8000     33.5722    163.2316   9.5154710697e+01   3.7059031493e+01    0.5288503    0.2665741  63.56  0.002202309    3.107    0.678
       239  -8.1556    239.8721    163.8436   5.0742039850e+01   2.0430421866e+00    0.1867484     0.151225 -62.63 0.0004576061    1.339    0.253
       240  -8.6696    159.5573    164.0393   6.5899487544e+01   1.6882690836e+01    0.2706712    0.2170873  75.10 0.0008952749    1.525    0.344
       241  -8.8333    246.2209    162.6177   4.9473545312e+01   1.2265278671e+00      0.26069    0.1592296 -43.29 0.0005886767    1.324    0.245
       242  -8.4270    212.8408    163.2230   5.5230581384e+01   6.9133119422e+00    0.2164111    0.1787261 -57.84 0.0004241191    1.198    0.166
       243  -8.2987    204.9511    162.4645   5.6503773101e+01   8.5284204714e+00    0.2777967    0.1808152 -55.88  0.000606649    1.534    0.348
       244  -9.3164      3.6228    162.3102   1.0187571614e+02   4.0071966722e+01    0.3744905    0.1935428  61.59  0.001867884    2.565    0.610
       245  -9.0284    151.6070    160.8054   6.6896653439e+01   1.9166167991e+01    0.3510775    0.2473572 -71.10 0.0009364767    1.704    0.413
       246  -9.1544    177.4443    160.3900   6.1370066927e+01   1.4235694601e+01    0.3421014    0.2356986 -62.57  0.001115936    1.583    0.368
       247  -8.5918     60.9763    160.1495   8.8085916549e+01   3.4558105725e+01    0.3619069    0.2242283  81.12  0.001293747    2.386    0.581
       248  -9.4373    241.5091    153.8045   4.8396261450e+01   3.7260976079e+00    0.4095758     0.277714  86.77  0.001890559    2.568    0.611
       249  -8.5931    245.1849    158.4012   4.8769916483e+01   2.2119607810e+00    0.2240053    0.1716367 -60.91 0.0006224423    1.373    0.272
       250  -9.6300    250.1845    157.4665   4.7802314819e+01   1.5645219927e+00     0.361391    0.1612133 -43.91 0.0007935903    1.795    0.443
       251  -8.7879    246.5684    155.4683   4.7949979300e+01   2.5474108775e+00    0.2231202     0.181405 -28.81 0.0005771335    1.239    0.193
       252  -8.6224    227.5809    158.9683   5.1753945825e+01   5.1290593434e+00    0.3127484    0.1828179 -56.50 0.0009587403    1.800    0.444
       253  -8.4884    236.8377    158.7976   5.0185367677e+01   3.5480531028e+00    0.1932682    0.1489442 -58.67 0.0004988642    1.311    0.237
       254  -8.3161    128.1351    158.7104   7.1696522794e+01   2.4112785248e+01    0.2770583    0.1949157 -63.17 0.0007131127    1.433    0.302
       255  -9.6137    105.9047    157.8678   7.6737307123e+01   2.8285843558e+01    0.4716392    0.3187498  84.65  0.001272414    2.219    0.549
       256  -8.6546    196.5371    157.8123   5.7057729399e+01   1.1108435831e+01    0.2716347    0.2161259 -74.45 0.0007971934    1.477    0.323
       257  -8.2521    188.1429    157.6687   5.8638449293e+01   1.2756891634e+01    0.2645286    0.1866656 -55.37 0.0005817145    1.358    0.264
       258  -9.1493    167.6475    156.9838   6.2618342718e+01   1.6915334385e+01    0.3910964    0.2726054 -75.58  0.001093488    1.930    0.482
       259  -8.6488    217.9986    156.4677   5.2862152336e+01   7.3635660376e+00    0.2892552    0.1759961 -55.15 0.0007701251    1.629    0.386
       260  -8.9448    157.7355    155.9219   6.4474367683e+01   1.9101930201e+01    0.2951472    0.2000221 -63.88  0.000824915    1.625    0.384
       261  -9.1780    119.6273    155.1115   7.2881717167e+01   2.6534474551e+01    0.3964158    0.2618652 -79.96  0.001355302    2.162    0.537
       262  -9.4313     49.7739    155.1436   8.9918417923e+01   3.7202729695e+01    0.4006338    0.2473708  68.74   0.00165115    2.293    0.564
       263  -8.1474    204.7898    155.0036   5.4902290181e+01   1.0132442489e+01    0.2404521    0.1490795 -61.63 0.0006670476    1.876    0.467
       264  -9.4746     68.2249    153.6893   8.5089028717e+01   3.5171161879e+01    0.4359325    0.2742786  82.73  0.001366587    2.478    0.596
       265  -8.4199    144.4045    154.3050   6.7022089223e+01   2.2072695753e+01    0.2449975    0.1874522  75.18  0.000546062    1.659    0.397
       266  -9.6384    132.6474    152.5227   6.9275293628e+01   2.4740294816e+01    0.4579245    0.3261723  88.17  0.001166112    2.022    0.505
       267  -8.9682    133.6001    148.2153   6.8071024884e+01   2.5573634632e+01     0.351252    0.2250044 -41.33   0.00142567    1.496    0.332
       268  -8.5885      9.4744    153.2824   9.9324810107e+01   4.1735670383e+01    0.1798815    0.1162936  27.62 0.0008597212    2.058    0.514
       269 -10.9989     55.5937    143.7250   8.6314847493e+01   3.9268033081e+01     1.305863    0.6534424 -70.76  0.004443186    2.348    0.574
       270  -9.5544     29.2550    150.3705   9.4133863987e+01   4.0626596912e+01    0.4779303    0.2618448  83.22  0.001901076    3.011    0.668
       271  -8.5762     20.3976    152.2991   9.6589269290e+01   4.1014465164e+01    0.1886604    0.1027287 -73.59 0.0009436764    1.626    0.385
       272  -9.2631      3.2293    150.8752   1.0044812958e+02   4.2803512906e+01    0.4164528    0.1855507 -72.62  0.002028818    1.850    0.459
       273  -8.9381    189.6192    150.0804   5.6650901318e+01   1.4116711829e+01    0.3397772    0.2194454 -63.25  0.001000239    1.790    0.441
       274  -8.1263    182.6651    151.1192   5.8241492394e+01   1.5260821828e+01    0.2486194    0.1733036 -61.40 0.0008479634    1.517    0.341
       275  -8.5568     98.4414    150.4632   7.6948546296e+01   3.1347159418e+01    0.3197356    0.2129212 -89.99 0.0009918683    2.303    0.566
       276  -9.5272    248.9164    149.1188   4.6284058875e+01   3.3752745215e+00    0.3402409    0.1660891 -44.14 0.0007820408    1.641    0.391
       277  -8.9522    243.2894    149.5429   4.7231768061e+01   4.2504692244e+00    0.2867778    0.1551289 -44.18  0.001361137    1.498    0.332
       278  -9.4651    233.6865    147.6545   4.8348736997e+01   6.3024016194e+00    0.2742822    0.2072945 -52.34 0.0007520817    1.165    0.142
       279  -8.3863    213.0872    149.6041   5.2228830319e+01   9.6904058831e+00    0.2515848    0.1759114 -53.55  0.000511406    1.315    0.240
       280  -8.0657    162.6262    150.3862   6.2169544365e+01   1.9399318857e+01    0.2288935    0.1758025 -79.50 0.0005384983    1.602    0.376
       281  -8.5621    198.9155    148.5797   5.4558085195e+01   1.2620213482e+01    0.2832576    0.1832992 -56.82 0.0005940226    1.542    0.352
       282 -10.1369     89.3552    146.1759   7.8262577759e+01   3.3863576157e+01    0.7045208    0.3947841 -78.88  0.002430318    3.353    0.702
       283  -9.5391     40.0885    147.8857   9.1023997197e+01   4.0088025205e+01    0.4732267    0.2857051  74.55  0.001856846    2.551    0.608
       284  -8.4493    223.2129    146.5311   4.9824216426e+01   8.4289719760e+00     0.265544    0.1737802 -44.95 0.0006189225    1.283    0.221
       285  -8.5175    175.8862    146.2920   5.8489692153e+01   1.7669697057e+01     0.282909    0.1999005 -67.83 0.0008276302    1.651    0.394
       286 -10.4180    149.0878    144.9294   6.3821780253e+01   2.3325254484e+01    0.6143878    0.4072872 -83.53  0.001805617    2.464    0.594
       287 -10.0152    139.1520    144.8631   6.6025208430e+01   2.5287046183e+01    0.4845365     0.298835 -69.73  0.001410176    2.222    0.550
       288 -10.2245    106.6698    144.0033   7.3492747553e+01   3.1500670608e+01    0.7855971    0.4879351 -79.63  0.002383708    2.635    0.620
       289  -9.0996     78.0983    146.9832   8.1260354982e+01   3.5396096228e+01    0.2790567    0.2169707 -82.08  0.001071999    1.439    0.305
       290  -8.2412    206.9277    146.3006   5.2591070561e+01   1.1549538728e+01    0.2000781    0.1828694 -55.00 0.0005788398    1.072    0.067
       291  -9.5093     13.2403    145.7422   9.7308892263e+01   4.3208293825e+01    0.3110724    0.2088141  84.43  0.001263918    1.722    0.419
       292 -10.0804    241.7729    143.2625   4.6155748864e+01   5.7337416529e+00     0.599539    0.3538266 -18.80  0.002364139    3.161    0.684
       293  -8.7182    165.5855    143.8431   6.0031895601e+01   2.0278946334e+01    0.2831979    0.2262995 -80.19 0.0007059512    1.477    0.323
       294  -9.7485    125.0041    142.4950   6.8738840911e+01   2.8539208437e+01    0.5343575    0.3500935 -76.36  0.001505975    2.203    0.546
       295  -8.8163    247.1223    143.6316   4.5422286964e+01   4.7342275425e+00     0.261789    0.1664477 -40.84 0.0005799509    1.309    0.236
       296  -7.5696    194.3387    143.6771   5.4305174181e+01   1.4559929903e+01     0.154865    0.1131114 -75.27 0.0006127011    1.719    0.418
       297 -10.5846     69.8751    140.8794   8.2064827242e+01   3.8057154167e+01    0.9389708    0.5594283  81.92  0.003416473    3.591    0.722
       298  -9.5664     69.3649    134.2165   8.0756983996e+01   3.9717487108e+01    0.4172848    0.2557591   2.74  0.001686276    3.118    0.679
       299  -8.3933    182.0431    141.3565   5.6126910327e+01   1.7512331074e+01    0.2768164    0.1922185 -64.01 0.0006762228    1.589    0.370
       300  -9.6372      2.5176    141.0442   9.9211159487e+01   4.5158169416e+01    0.4293957    0.2071803 -82.25  0.001996356    2.371    0.578
       301  -8.0307    250.4936    140.4913   4.4276207179e+01   4.7575720630e+00    0.1403321    0.1114159 -49.03 0.0008104304    1.028    0.028
       302  -9.8276     23.5093    137.9574   9.3466100752e+01   4.4141115513e+01    0.4628829    0.2647865  77.65  0.001996638    2.989    0.665
       303  -8.2977    230.0000    138.9253   4.7076464801e+01   8.6997338308e+00    0.2446678     0.069717 -43.27 0.0005721713    2.920    0.658
       304  -8.8017    172.2223    137.8777   5.7269076520e+01   2.0254596012e+01    0.3444867    0.2136347 -63.11 0.0006981839    1.900    0.474
       305  -7.8107    235.2912    138.6208   4.6178249073e+01   7.7941848012e+00    0.1482573   0.09716053 -64.75  0.000701915    1.742    0.426
       306  -7.8793    218.5471    138.4784   4.8850564631e+01   1.0932405369e+01    0.1487025    0.1238208 -52.98 0.0008078102    1.054    0.051
       307  -8.3515    207.8021    137.7690   5.0532907452e+01   1.3148996352e+01    0.2771899    0.1695388 -63.56 0.0006787523    1.954    0.488
       308  -8.5823    197.5875    137.3834   5.2272498713e+01   1.5244122242e+01    0.2863161    0.1942427 -64.24 0.0005987215    1.646    0.392
       309 -10.4651     83.5065    133.1323   7.6827598821e+01   3.7891489186e+01      0.59082    0.3422962 -60.19  0.001447716    1.691    0.409
       310  -8.3800    246.9857    130.0024   4.2620628964e+01   7.3619655572e+00    0.2512194    0.1607366 -45.69 0.0005436261    1.258    0.205
       311  -8.9584    248.6559    134.7635   4.3364198726e+01   6.1646942870e+00    0.2884004    0.1931849 -48.04 0.0008535321    1.201    0.167
       312  -8.9220    250.7938    129.8716   4.2051887914e+01   6.7174538861e+00    0.5035707    0.1046017 -42.04  0.001502461    4.008    0.751
       313  -9.1632    151.4944    135.4946   6.1054074425e+01   2.4978713129e+01    0.4313905    0.2990487  31.07  0.001948087    1.822    0.451
       314  -8.4136    162.4922    136.1882   5.8871642591e+01   2.2601770551e+01    0.2406207    0.2024911 -79.63 0.0006678698    1.324    0.245
       315  -9.2340     39.1578    135.8528   8.9029762930e+01   4.3071347935e+01    0.2599917    0.2019892 -86.87 0.0007801254    1.454    0.312
       316  -7.7927    187.5929    135.5040   5.3700795027e+01   1.7646812641e+01     0.153717    0.1325529 -51.68  0.000113509    1.024    0.023
       317  -7.9822    231.4622    133.9516   4.5778825578e+01   9.4104733435e+00    0.2185798     0.118811 -45.67 0.0004978462    1.522    0.343
       318  -8.6342    179.5591    133.7927   5.4847993687e+01   1.9643637124e+01    0.2938636    0.2027786 -64.93 0.0007880855    1.626    0.385
       319  -8.8940    112.7840    133.0466   6.9423207608e+01   3.2987375233e+01    0.3217787    0.2434337  82.56 0.0008961547    1.803    0.446
       320  -7.6924    237.4955    133.5200   4.4758265633e+01   8.3889244324e+00    0.1440707    0.1160077 -53.42 0.0008094872    1.065    0.061
       321 -10.1821    132.2938    131.2337   6.4332706209e+01   2.9736367044e+01    0.5766186    0.3578621 -68.44  0.001037753    2.190    0.543
       322 -10.9942    131.7180    119.6690   6.1580796844e+01   3.2402132470e+01    0.8697601    0.4982402 -67.85  0.003058149    2.821    0.646
       323  -9.2443    143.0699    131.6305   6.1976405217e+01   2.7527119644e+01    0.3175891    0.2554178 -80.39 0.0007841882    1.470    0.320
       324 -10.1050     97.8408    129.5501   7.2304681035e+01   3.6407882440e+01    0.6881562    0.2208437 -48.70  0.002303514    2.712    0.631
       325 -10.5516     60.4260    125.1657   8.1116168845e+01   4.3040259067e+01    0.8132053    0.4881349 -84.45  0.003170685    3.236    0.691
       326  -8.8012     58.8023    115.3063   7.9270069944e+01   4.5484446830e+01    0.3345516    0.1973909 -14.31  0.001217613    2.926    0.658
       327  -9.9269     12.7566    128.5207   9.4600920566e+01   4.7268334341e+01    0.5680938     0.273048 -78.33  0.002246365    2.652    0.623
       328  -8.0798    204.5332    130.0554   4.9364895114e+01   1.5375717048e+01    0.2114554    0.1125359 -61.27 0.0008066373    2.371    0.578
       329  -8.1196    192.7625    129.9910   5.1456801890e+01   1.7756850546e+01    0.2188306    0.1722275 -49.32  0.000404251    1.115    0.103
       330  -9.0178    168.4246    129.4112   5.6024321016e+01   2.2864334997e+01    0.3127797    0.2431979 -71.75 0.0007520093    1.443    0.307
       331  -9.4811    153.0030    128.7777   5.9097831463e+01   2.6157437602e+01    0.4703859    0.2464384 -54.69  0.001379587    1.968    0.492
       332  -9.8815     72.9949    128.5916   7.8533980016e+01   4.0521428011e+01    0.4850204    0.2594523 -64.75  0.001346145    2.140    0.533
       333  -8.0040     24.3096    130.3399   9.1888697293e+01   4.5850538965e+01    0.1375998   0.07871731 -41.10 0.0006616745    1.689    0.408
       334  -8.2327      1.4917    130.0019   9.7766018905e+01   4.7778443478e+01    0.1718688    0.0916588 -87.25 0.0008096846    2.475    0.596
       335  -8.1124    211.4679    128.9515   4.7926863570e+01   1.4226067059e+01    0.2132029     0.109581 -60.45 0.0008082162    2.438    0.590
       336  -9.4396    163.0608    127.3642   5.6629064726e+01   2.4406742151e+01    0.4610654    0.3198138 -36.65  0.002149277    1.430    0.300
       337 -10.7734     44.9457    123.2304   8.4901308439e+01   4.5374773821e+01     1.033977    0.5912969 -87.55  0.003805501    3.964    0.748
       338  -9.9188    118.1758    124.9742   6.6127681064e+01   3.3830195392e+01    0.5764887    0.3955501 -84.37  0.001679117    2.339    0.572
       339  -7.8453    228.5225    125.4780   4.4410327432e+01   1.1616074490e+01    0.1454988    0.1188442 -55.06 0.0008092427    1.055    0.052
       340  -8.8462    179.0948    124.3964   5.2710421113e+01   2.1724444091e+01    0.2835592    0.1982062 -53.95  0.000575782    1.337    0.252
       341  -9.1271     83.7855    122.8170   7.4312164310e+01   4.0230183683e+01    0.3922859    0.2283741 -41.01  0.001796035    1.598    0.374
       342 -10.4145     28.5634    122.2206   8.9176513789e+01   4.7319717758e+01    0.7561286    0.4342608  88.63  0.003096813    3.472    0.712
       343  -8.1788    188.3950    123.2788   5.0692485999e+01   2.0036114063e+01    0.2239613    0.1261071 -51.65 0.0009534071    1.658    0.397
       344  -9.8202     71.5294    119.9109   7.6883552729e+01   4.2719715373e+01    0.5129057     0.326128 -76.62   0.00211886    2.415    0.586
       345  -8.7352    171.9905    121.4231   5.3380065936e+01   2.3817238684e+01     0.284662    0.1893955 -57.20 0.0004443297    1.507    0.337
       346  -9.0846    158.6375    121.2209   5.6043078873e+01   2.6627700280e+01    0.3302005    0.2274324 -66.78 0.0008574764    1.718    0.418
       347  -7.7727    203.2534    121.6618   4.7672745754e+01   1.7329365580e+01     0.149369    0.1026984 -64.82 0.0002681339    1.571    0.364
       348  -7.8334    194.7333    121.3975   4.9102268418e+01   1.9117525258e+01    0.1571806     0.104555 -66.04 0.0006977585    1.727    0.421
       349 -10.0660    141.6000    117.9774   5.8906854383e+01   3.0797231204e+01    0.5787443    0.2897357 -54.50  0.001292348    2.144    0.534
       350  -9.4357      2.9364    117.0688   9.5192416315e+01   5.0591538301e+01    0.4265356    0.2449558  87.36  0.002067079    2.784    0.641
       351  -8.7000    231.4489    117.6551   4.2281655410e+01   1.2563640960e+01     0.273951    0.1129097 -47.18 0.0006343921    2.031    0.508
       352  -8.5329    192.9746    115.4150   4.8015014518e+01   2.0679831007e+01    0.2308906     0.177965 -48.31 0.0004308824    1.146    0.128
       353  -8.2148    185.7651    115.7755   4.9398571848e+01   2.2104490450e+01    0.2074233    0.1592434 -66.04 0.0004519815    1.347    0.258
       354  -9.9862    109.3869    114.0437   6.5503995489e+01   3.7842483006e+01     0.540912    0.3437801 -68.00  0.001586716    2.198    0.545
       355 -10.1087     92.7558    112.2234   6.9286764996e+01   4.1129148283e+01    0.5371734    0.3164558 -60.83  0.001401595    1.996    0.499
       356 -10.5204    248.7062    107.6412   3.7776939654e+01   1.1198636446e+01    0.4647143    0.2686234 -37.83  0.002338517    1.646    0.393
       357  -8.2096    167.3169    114.0243   5.2494223542e+01   2.6316168942e+01    0.2199486    0.1783809 -48.38 0.0005041645    1.118    0.106
       358  -9.9268     78.9651    112.3445   7.2994821004e+01   4.3299296752e+01    0.4679678     0.342081 -85.42  0.001632252    2.098    0.523
       359  -9.8599    133.3980    108.7704   5.8385687688e+01   3.4364881317e+01    0.5437239    0.2640606 -48.87  0.001771789    1.977    0.494
       360 -10.0092    121.9894    111.9965   6.1892674138e+01   3.5925840124e+01    0.4830346     0.310752 -53.37 0.0007613485    1.537    0.349
       361  -8.5335    174.8714    111.7270   5.0458439071e+01   2.5195492086e+01    0.2835594    0.1739259 -64.13 0.0006466408    1.999    0.500
       362  -8.6079    159.1541    111.6311   5.3545132029e+01   2.8508708285e+01    0.2619731    0.1849536 -52.84 0.0005395162    1.348    0.258
       363 -10.4583     66.8345    109.4347   7.5590347479e+01   4.5694912344e+01    0.6849318    0.3223816 -53.55  0.002320685    1.944    0.486
       364  -9.8626     14.3350    111.1284   9.0896746853e+01   5.1051257920e+01    0.3480764    0.2498854  79.31  0.001739521    2.031    0.508
       365  -7.9766    150.1392    110.1035   5.5041192040e+01   3.0690801567e+01    0.2104272    0.1704386 -69.13 0.0005357577    1.344    0.256
       366  -7.8959    182.9873    109.4795   4.8397725588e+01   2.3936314244e+01    0.1858093    0.1253244  89.94 0.0003700684    2.141    0.533
       367  -9.1815     43.8318    108.9866   8.1993294696e+01   4.8685250703e+01    0.3389974    0.1741943  11.43  0.001430088    3.309    0.698
       368  -8.0545    189.3443    107.3000   4.6736682132e+01   2.3028019991e+01    0.2143479    0.1197024 -50.15  0.000701103    1.649    0.394
       369  -9.9241    119.4474    105.5080   6.0790298499e+01   3.7755523457e+01    0.3876915    0.2519869 -51.37  0.001825837    1.504    0.335
       370 -10.7424    108.7072     98.3091   6.1473669108e+01   4.1209451372e+01     0.866258    0.5434929  74.48 0.0009768229    3.304    0.697
       371  -8.9892    107.7228     92.3877   6.0080941783e+01   4.2535796657e+01    0.6200105    0.2855376  30.23  0.002218482    3.416    0.707
       372  -8.8025    110.4782    106.8969   6.3352925060e+01   3.9149733929e+01    0.3190503    0.1705769  27.17  0.001221496    2.834    0.647
       373  -9.8821    139.8921    103.7709   5.5620620259e+01   3.4065381566e+01    0.5525112    0.2908407 -47.13  0.001305636    1.793    0.442
       374 -10.7832     22.8024    102.0981   8.6513263251e+01   5.2284714429e+01    0.7179501    0.4519088 -87.18  0.002618388    2.925    0.658
       375  -9.4252    150.7149    102.8951   5.3067723950e+01   3.2010694420e+01    0.4206135    0.2540915 -61.34    0.0012506    2.037    0.509
       376  -8.3732     78.6268    104.6771   7.1098378026e+01   4.4987529771e+01    0.2193978    0.1521112 -21.15 0.0007285236    1.685    0.407
       377 -10.5376     45.6393    102.0180   7.9778629271e+01   4.9971484245e+01    0.6597326    0.4397947  82.65  0.002913659    3.289    0.696
       378  -8.6861    166.8318    103.9606   5.0085720712e+01   2.8421612862e+01    0.2605577    0.1849027 -51.31 0.0006131939    1.320    0.243
       379  -9.7820    128.5615    102.0272   5.7714170532e+01   3.6684871483e+01    0.3557173    0.2653777 -79.30 0.0009591704    1.844    0.458
       380  -8.9489      6.7859    102.8661   9.1376056978e+01   5.3409495768e+01    0.2175184    0.1466633 -72.82 0.0007947052    1.584    0.369
       381  -8.0282    175.6071    101.8113   4.7886566322e+01   2.6979677827e+01    0.2107434    0.1231135 -52.28 0.0004557818    1.662    0.398
       382  -8.4678    159.8856    100.7900   5.0652831144e+01   3.0499701394e+01    0.2693716    0.1696491 -62.55 0.0005813566    1.905    0.475
       383  -9.3239     82.0560     99.8345   6.8863270781e+01   4.5455437642e+01     0.360019    0.2353968 -62.50 0.0009600402    1.908    0.476
       384  -9.2567     94.9688     96.9200   6.4606414796e+01   4.3919896200e+01    0.3042374    0.2225092 -57.89 0.0006826889    1.512    0.339
       385 -10.1128     64.0192     95.6864   7.2792092173e+01   4.8954135172e+01    0.5209491    0.3519057 -77.47  0.001556304    2.696    0.629
       386  -8.3328    151.4257     94.7667   5.0809483252e+01   3.3418711814e+01    0.2012916    0.1337267 -31.01 0.0006138827    1.615    0.381
       387  -9.7416    247.7444     92.7461   3.4866867434e+01   1.4007575764e+01    0.2934713    0.1826025 -24.72  0.001375954    2.519    0.603
       388  -8.4105    164.8650     94.0612   4.7969220925e+01   3.0715198210e+01    0.2263592    0.1809042 -66.98 0.0005723917    1.313    0.238
       389  -7.7557    188.5285     93.5041   4.3583073146e+01   2.5788128275e+01    0.1445112    0.1261984 -62.74 0.0003228896    1.044    0.042
       390  -8.0737    176.4849     92.9486   4.5540736346e+01   2.8447641789e+01    0.2146998    0.1299618 -45.04 0.0004783344    1.519    0.342
       391  -9.4669    139.1998     91.8176   5.2600153465e+01   3.6499826772e+01    0.4761631    0.2733279 -51.07  0.001386479    1.796    0.443
       392  -9.2066     46.1692     92.2857   7.7118863343e+01   5.1909302753e+01     0.359732    0.2134335   3.22  0.001733691    2.506    0.601
       393  -9.9651    124.7323     90.8265   5.5562308305e+01   3.9590623649e+01    0.4021765    0.3004979 -70.21  0.001030177    1.731    0.422
       394  -9.5775     34.7655     89.6258   7.9871413036e+01   5.3699247312e+01    0.3768174     0.239342 -67.97   0.00133024    2.143    0.533
       395  -8.1767    157.5489     91.4969   4.8730735363e+01   3.2735400872e+01    0.1427619    0.1327236 -54.26 5.434153e-05    1.005    0.005
       396  -8.9156     22.8709     89.8253   8.3578678006e+01   5.4811813297e+01    0.2682081    0.1835664 -20.84  0.001265353    1.521    0.342
       397  -8.3221    151.1370     88.7180   4.9283863769e+01   3.4589179459e+01    0.2864197    0.1426643 -50.35 0.0008700562    2.090    0.522
       398 -10.1036     86.5516     85.7541   6.3696609855e+01   4.7466766998e+01    0.5886689     0.350005 -49.67  0.001662467    1.719    0.418
       399  -8.9919     66.1805     87.0498   6.9773439837e+01   5.0343769144e+01    0.5658596    0.2225706  24.72  0.001888151    4.738    0.789
       400  -7.9541    164.2176     87.0217   4.6300290651e+01   3.2125965808e+01    0.1884585    0.1094504 -40.39 0.0003475217    1.634    0.388
       401  -9.6864     48.5105     84.1116   7.4181911544e+01   5.3225304485e+01    0.4181916    0.3131735  83.42  0.002033599    2.641    0.621
       402  -8.1379    157.9906     83.7470   4.6636983363e+01   3.4022858599e+01    0.1864123    0.1774978 -80.30  0.000414374    1.047    0.045
       403  -9.7829    104.8564     82.8810   5.8102180965e+01   4.4808725086e+01    0.3813712    0.2826916 -66.60 0.0008685835    1.822    0.451
       404  -8.4570    105.0055     77.1907   5.6416723215e+01   4.5771488655e+01    0.2584947    0.1712916  -9.97 0.0008351703    2.058    0.514
       405  -7.7087    250.6547     83.6873   3.2703361629e+01   1.5000833535e+01    0.1143364    0.1018825  -7.74 0.0007046622    1.710    0.415
       406  -9.3617    140.9624     82.0088   4.9581694858e+01   3.7891852793e+01    0.4214815    0.2332824 -41.73  0.001140834    1.724    0.420
       407  -8.2629     63.9834     82.3659   6.9068434601e+01   5.1531096667e+01    0.1739933    0.1579138 -13.95 0.0004925534    1.096    0.088
       408  -9.6219      5.0074     91.3996   8.9443149400e+01   5.5920612884e+01     0.306956    0.2307231 -87.19  0.001458867    1.883    0.469
       409  -9.6068     24.6284     80.1388   8.0524943951e+01   5.6541752576e+01     0.414392    0.2451006 -65.98  0.001465325    2.385    0.581
       410  -9.2225     10.2185     81.0312   8.5357071229e+01   5.7594278605e+01    0.3253526     0.217793  58.70  0.001789025    2.828    0.646
       411  -8.3232    150.4715     80.4055   4.7222183296e+01   3.6184729566e+01    0.2493247    0.1174338 -49.15 0.0009795137    2.230    0.552
       412  -8.7176    119.4226     80.1272   5.3803725795e+01   4.2543527232e+01    0.3076697    0.2071536 -61.25 0.0009938644    1.927    0.481
       413  -8.8235     74.6479     80.2378   6.5378956045e+01   5.0358537372e+01    0.2926706     0.179737 -57.68  0.001132157    2.155    0.536
       414  -8.1235    166.9291     79.3393   4.3846602981e+01   3.2874217046e+01    0.1824688    0.1754428 -86.43 0.0005016691    1.055    0.052
       415  -8.3243    184.3499     78.1920   4.0590200163e+01   2.9343369427e+01    0.1977728    0.1141641 -48.49 0.0006177215    1.624    0.384
       416  -8.0905    157.4425     76.0384   4.4734593545e+01   3.5443447298e+01    0.2068048    0.1289635 -40.18 0.0005459452    1.545    0.353
       417  -9.3340    128.1800     75.1984   5.0437161833e+01   4.1644879661e+01    0.3178314    0.2099788 -54.91 0.0005973559    1.734    0.423
       418  -8.4379    140.6156     75.1451   4.7788581816e+01   3.9119666500e+01    0.2132731    0.1574442 -53.45 0.0006039594    1.416    0.294
       419  -9.9535     63.1813     73.4409   6.6661425257e+01   5.3239663800e+01    0.3946337    0.2549601 -52.23  0.001080257    1.769    0.435
       420  -9.7835     82.4561     72.3021   6.0833761920e+01   5.0503722388e+01    0.3911083    0.2533316 -56.40  0.001010254    2.054    0.513
       421  -8.1397    151.4491     73.2346   4.5130303502e+01   3.7167817011e+01    0.1935909    0.1204473 -49.91 0.0007514311    1.641    0.390
       422  -8.7083    115.7606     72.7503   5.2542997627e+01   4.4487553591e+01    0.2580814    0.1717024 -46.43 0.0006059484    1.543    0.352
       423  -8.1549     42.6945     72.6129   7.2661689363e+01   5.6026270779e+01     0.198195    0.1383085 -56.52 0.0009923533    1.731    0.422
       424  -7.8505    175.4812     72.4329   4.0636668586e+01   3.2180264837e+01    0.1330508    0.1253686 -71.12 0.0002084652    1.035    0.034
       425  -9.1025    105.8769     71.5967   5.4561223709e+01   4.6540634134e+01    0.2515778    0.1806845 -44.92 0.0006644088    1.418    0.295
       426  -9.3641     95.2229     70.9110   5.7027115111e+01   4.8573015665e+01    0.3414853    0.2080486 -49.85 0.0009014372    1.862    0.463
       427  -9.5640     51.4230     69.5642   6.9027284869e+01   5.5487185109e+01    0.3729999    0.2059001 -54.37  0.001377312    2.318    0.569
       428  -8.9701     16.9898     70.0070   8.0223648911e+01   5.9099854912e+01    0.2362015     0.170833 -63.12 0.0008067439    1.772    0.436
       429  -9.1273    138.2304     67.1126   4.6070909414e+01   4.0889114286e+01    0.4289322    0.2449817 -23.65  0.001951074    2.182    0.542
       430  -8.6663    147.1481     67.7633   4.4493258040e+01   3.8935850845e+01    0.2365939    0.1667718 -49.04 0.0006192267    1.436    0.303
       431  -8.8955    121.7518     65.8140   4.9182678075e+01   4.4413894337e+01    0.2859783    0.1888052 -54.05 0.0008074627    1.791    0.442
       432  -7.7402    211.0315     66.2618   3.3934701914e+01   2.5638406631e+01    0.1543657    0.1084121  67.34 0.0003314808    1.464    0.317
       433  -8.2277    163.5094     73.0719   4.2859157415e+01   3.4636000433e+01    0.2054894    0.1267796 -42.54  0.001010466    1.551    0.355
       434  -8.9588     37.3819     64.1741   7.1801330774e+01   5.8086153125e+01    0.2814108    0.1895568 -58.26  0.001287499    2.055    0.513
       435  -7.4084    198.5124     64.5244   3.5238485927e+01   2.8518733113e+01      0.13296    0.1145287 -70.43  0.000809846    1.032    0.031
       436  -8.9190    110.2348     63.5620   5.1141132628e+01   4.6981654840e+01    0.2528774    0.2003898 -65.63 0.0006441568    1.644    0.392
       437  -8.2748     95.3329     64.3203   5.5004062748e+01   4.9595963102e+01    0.1342344   0.09563702   5.60 0.0007049239    1.698    0.411
       438  -8.6242     64.9955     62.8616   6.2853848637e+01   5.4728464104e+01    0.3934446    0.2119093  11.01   0.00165048    3.296    0.697
       439  -7.7049    157.2852     69.6752   4.3103015963e+01   3.6500245989e+01    0.1372726    0.1003023 -69.14 0.0002141685    1.602    0.376
       440  -7.9180    158.1442     61.7803   4.0891849111e+01   3.7519942807e+01    0.1658134    0.1526567  13.19 0.0004808973    1.257    0.204
       441  -9.2743     97.7168     60.4858   5.3233078075e+01   4.9748808834e+01     0.275696    0.2285285  69.02 0.0009212528    1.571    0.364
       442  -9.6462     73.3471     59.1216   5.9264466527e+01   5.4044866287e+01    0.3952407    0.1965958 -41.62  0.001129666    1.991    0.498
       443  -8.0765    146.8768     58.8342   4.2141819265e+01   4.0322883435e+01    0.1778433    0.1496989 -70.08 0.0004555155    1.294    0.227
       444  -8.2416     89.1786     59.2381   5.5017321973e+01   5.1432182838e+01    0.1630246    0.1454356 -50.91  0.000516896    1.337    0.252
       445  -8.3873    130.8476     57.3946   4.4851945209e+01   4.3831342303e+01    0.2338862    0.1597233 -56.97  0.000658758    1.766    0.434
       446  -9.7397     23.4801     56.1485   7.3905638260e+01   6.0864944892e+01    0.3609414    0.2522166 -67.09  0.001868016    2.740    0.635
       447  -9.6527      7.5263     56.8737   7.9640482936e+01   6.2153946777e+01    0.2747632    0.1963614 -59.56   0.00133178    1.821    0.451
       448  -8.0646    140.1658     56.1470   4.2671622496e+01   4.2098791806e+01    0.1791707    0.1462239 -63.13 0.0005179468    1.361    0.265
       449  -8.8482    119.3604     55.7382   4.6781401959e+01   4.6354627676e+01    0.2449547     0.196622 -70.80 0.0006880361    1.609    0.379
       450  -8.8426     44.3278     55.6114   6.6848372794e+01   5.8638293234e+01    0.2144303    0.1863745 -58.45  0.001012614    1.681    0.405
       451  -8.5039    248.6667     55.3194   2.7383379462e+01   1.9819764640e+01    0.1309338   0.07463443 -68.13 0.0007048901    1.697    0.411
       452  -9.3408     62.7574     53.3498   6.0446501674e+01   5.6491408483e+01    0.5146442    0.1492932 -40.81  0.002032769    3.348    0.701
       453  -9.0886     53.9813     53.3661   6.3090233860e+01   5.7723774186e+01    0.3559477    0.1522678 -46.36  0.001316798    2.742    0.635
       454  -8.6681    105.9790     53.3501   4.9068397130e+01   4.9248482270e+01    0.2283493    0.1694899 -48.44 0.0007072205    1.538    0.350
       455  -9.4956     92.6185     50.6399   5.1445897455e+01   5.2043245871e+01    0.3324432    0.2233118 -52.52  0.001061511    1.974    0.493
       456  -8.0035    144.8092     48.9708   3.9858753501e+01   4.2106458689e+01    0.1649046   0.09718885 -33.10 0.0004414771    1.754    0.430
       457  -8.4916    129.8741     49.0417   4.2681302292e+01   4.5161220485e+01    0.1891805    0.1690093 -69.38 0.0006786356    1.254    0.202
       458  -8.3864    120.8149     47.3044   4.4009261572e+01   4.7193520514e+01    0.2015149    0.1599599 -40.55 0.0005995987    1.320    0.242
       459  -8.1423    112.3060     46.9385   4.5708400323e+01   4.8895598274e+01    0.1690719    0.1504019 -25.45 0.0005276296    1.140    0.123
       460  -8.9966     82.1248     45.9891   5.2638935934e+01   5.4459725212e+01    0.2974633    0.1748425 -41.41 0.0009013077    1.859    0.462
       461  -8.4417     45.0771     44.6291   6.2934127712e+01   6.0140057193e+01    0.1883321    0.1398366 -34.90 0.0006344519    1.362    0.266
       462  -8.9035     16.8271     44.4682   7.2413949043e+01   6.3305397078e+01    0.1845682    0.1559364 -39.56 0.0006434332    1.461    0.315
       463  -8.7246     32.3949     44.3686   6.6997386904e+01   6.1706585587e+01    0.2048976   0.09016515  18.91 0.0008702789    3.168    0.684
       464  -8.2518    132.8672     43.0668   4.0420897402e+01   4.5309762406e+01     0.184699    0.1611533 -65.26 0.0004020023    1.278    0.217
       465  -8.6053     92.7085     42.6508   4.8894536307e+01   5.3054459354e+01    0.1998138    0.1308631  16.10  0.001102666    1.792    0.442
       466  -9.3770     69.5667     41.2338   5.4455708979e+01   5.7096264549e+01    0.3003753    0.2091962 -47.02  0.001097347    1.862    0.463
       467  -8.8849     58.1951     42.3600   5.8113447713e+01   5.8658595571e+01    0.2620347    0.1668869 -51.92  0.001247418    2.459    0.593
       468  -9.6236      5.1810     41.7952   7.5726361233e+01   6.4720736126e+01    0.2920039    0.1660287 -52.41  0.001430762    2.179    0.541
       469  -8.0895    140.4571     41.4373   3.8588289136e+01   4.3956149302e+01    0.1205515    0.1145936  76.05 8.624278e-05    1.045    0.043
       470  -8.2726    106.0116     41.0257   4.5299996649e+01   5.0820207625e+01    0.1795485    0.1454067 -65.02 0.0005108977    1.649    0.394
       471  -8.7770     36.9737     40.5870   6.4160935324e+01   6.1694722266e+01    0.1958805    0.1422249 -39.72 0.0007947273    1.538    0.350
       472  -8.5925     95.7575     37.9127   4.6663510331e+01   5.3074635497e+01    0.2013689    0.1547014 -44.90  0.000568687    1.535    0.348
       473  -8.2851     80.7579     36.4452   4.9861264649e+01   5.5858378196e+01    0.2005322    0.1320677 -37.97 0.0006906202    1.659    0.397
       474  -9.3344     26.1918     35.1370   6.5876701860e+01   6.3654272605e+01    0.2548756    0.1630099 -42.65 0.0009463483    1.798    0.444
       475  -7.3856    133.3504     35.7104   3.8276120363e+01   4.6079318926e+01     0.121196   0.09194532 -77.24 0.0007026215    1.668    0.400
       476  -7.9157    125.9758     35.2862   3.9512657523e+01   4.7610021206e+01     0.164221    0.1443246  45.96 0.0003089141    1.065    0.061
       477  -8.7108    111.9352     34.5123   4.2055089650e+01   5.0444816058e+01    0.2161955    0.1576281 -46.80 0.0006369535    1.596    0.373
       478  -8.0881     88.8406     34.0013   4.7051039071e+01   5.4748629262e+01    0.1770312    0.1255308 -49.65 0.0006016116    1.870    0.465
       479  -8.3516    119.1413     32.7281   4.0081001617e+01   4.9243257908e+01    0.2024797    0.1537673 -39.79 0.0007145029    1.429    0.300
       480  -8.7299     60.6933     32.3114   5.3899849397e+01   5.9519244403e+01    0.1943733    0.1777069 -50.45 0.0007641321    1.592    0.372
       481  -8.8126     48.6415     32.9350   5.7713635174e+01   6.1168323107e+01    0.1950295    0.1540694 -24.38 0.0006796218    1.266    0.210
       482  -8.2977     72.1749     30.9222   5.0244076129e+01   5.7892142610e+01    0.1601029    0.1468134 -17.61 0.0005339481    1.254    0.202
       483  -9.1888    211.2770    246.8690   7.1912276133e+01  -8.8605724231e+00    0.3782414    0.2174103 -59.70  0.001598424    2.924    0.658
       484  -7.7297     42.3118     29.6885   5.8527905979e+01   6.2394723432e+01   0.09388642   0.08745013 -39.79 0.0002605135    1.629    0.386
       485  -8.7780     81.6071     27.1811   4.6567919070e+01   5.6726730441e+01    0.2236395    0.1798462 -51.77 0.0008610453    1.710    0.415
       486  -8.9764      3.9704     27.5041   7.1184766751e+01   6.6818775924e+01    0.2203943    0.1532698 -51.63  0.001196425    2.291    0.564
       487  -9.0212     91.8808     26.1061   4.3784950462e+01   5.5044901994e+01    0.2429815    0.1485222 -38.43 0.0008856322    1.854    0.461
       488  -7.7328    110.2831     26.6808   4.0033456678e+01   5.1587341324e+01    0.1093922   0.08970314 -66.97 0.0002242649    1.587    0.370
       489  -8.1561     34.8005     22.9954   5.8480129574e+01   6.4109842979e+01    0.1517639    0.1186344 -45.87  0.001066229    1.999    0.500
       490  -8.2712    104.4716     22.5587   3.9953125525e+01   5.3088104591e+01    0.1138189    0.1008237  34.14 0.0001939733    1.009    0.009
       491  -8.9160     63.6095     20.8703   4.9045398673e+01   6.0285705257e+01    0.2128897    0.1587215 -43.85 0.0008717267    1.839    0.456
       492  -8.7596     48.4021     21.3978   5.3591582345e+01   6.2479277511e+01    0.2105183    0.1606795 -31.88 0.0009406806    1.523    0.343
       493  -8.0317    120.6020     20.7963   3.6340509278e+01   5.0163980830e+01    0.1530481    0.1027678 -39.61 0.0009404066    1.656    0.396
       494  -7.6604     19.5142     21.4734   6.3153265037e+01   6.6055085435e+01     0.105689   0.07913803  -6.61 3.030566e-05    1.032    0.031
       495  -8.8428     74.2413     19.3849   4.5755793278e+01   5.8723879784e+01    0.1943808    0.1626701 -28.13  0.000613458    1.367    0.269
       496  -8.2594    101.5164     29.0438   4.2580700986e+01   5.2994243131e+01     0.163463     0.111003 -28.01 0.0006322868    1.533    0.348
       497  -8.2078     39.0191     18.2840   5.5330117027e+01   6.4068235779e+01    0.1493893    0.1155722   9.27 0.0005384361    1.054    0.051
       498  -8.2876     87.9948     17.3537   4.1821478252e+01   5.6560402219e+01     0.150902      0.12884  37.05 0.0004597936    1.087    0.080
       499  -7.9045    112.8027     16.5969   3.6535397119e+01   5.2056104066e+01    0.1494905    0.1025046  68.24 0.0004376853    1.548    0.354
       500  -7.8360     29.8258     15.7984   5.7375029556e+01   6.5484082679e+01    0.1287734    0.1111986  -7.00 0.0006678233    1.350    0.259
       501  -7.8326    191.4930    249.4965   7.6007297252e+01  -6.3682932619e+00    0.1225554    0.1159486  -1.44 0.0008098794    1.062    0.058
       502  -7.8600     17.3202     13.7016   6.0896465939e+01   6.7143414645e+01    0.0851922    0.0771106 -13.52 0.0003226653    1.619    0.383
       503  -7.7206     83.6652     11.2694   4.0786038769e+01   5.7834580988e+01   0.09666155    0.0857306 -85.30 0.0004223626    1.593    0.372
       504  -9.0790    175.8219    247.5645   7.8632319992e+01  -3.6145574852e+00    0.3301163    0.2425606  86.28  0.001369927    2.268    0.559
       505  -8.8822    156.3184    247.9495   8.2414791477e+01  -6.0326178958e-01    0.2685718    0.2021836  87.40   0.00071466    1.851    0.460
       506  -9.3896    104.0810    246.7564   9.2260641260e+01   7.8717263332e+00    0.5075193    0.2624818 -79.04  0.002127358    2.901    0.655
       507  -9.0984    243.0718    246.2667   6.6174259851e+01  -1.3144510856e+01    0.4108147    0.1633136 -32.85  0.001892915    2.413    0.586
       508  -8.2941      7.4104     15.2098   6.5169291673e+01   6.7996318889e+01    0.1320519   0.08058036 -34.63 0.0009455139    1.661    0.398
       509  -9.1003    232.9029    246.4103   6.7965004124e+01  -1.1818939845e+01    0.3997339    0.1878344 -34.28  0.001705592    1.972    0.493
       510  -8.6897    218.4797    247.1285   7.0653894737e+01  -9.9361395508e+00    0.3196682    0.1124554 -42.82  0.001356873    2.717    0.632
       511  -8.9722    132.1445    247.5634   8.7001037985e+01   3.3231172778e+00    0.2601833    0.1888342  89.17 0.0007595433    1.735    0.424
       512  -8.1511    113.3183    248.1459   9.0689394941e+01   6.1654716593e+00    0.1866866    0.1122796 -69.74 0.0009169841    1.828    0.453
       513  -7.8389     40.6621    248.3038   1.0400828903e+02   1.6383585780e+01    0.1279184   0.07356501  73.15 0.0007039084    1.671    0.401
