#   1 NUMBER                 Running object number                                     
#   2 MAG_AUTO               Kron-like elliptical aperture magnitude                    [mag]
#   3 X_IMAGE                Object position along x                                    [pixel]
#   4 Y_IMAGE                Object position along y                                    [pixel]
#   5 X_WORLD                Barycenter position along world x axis                     [deg]
#   6 Y_WORLD                Barycenter position along world y axis                     [deg]
#   7 A_WORLD                Profile RMS along major axis (world units)                 [deg]
#   8 B_WORLD                Profile RMS along minor axis (world units)                 [deg]
#   9 THETA_WORLD            Position angle (CCW/world-x)                               [deg]
#  10 FWHM_WORLD             FWHM assuming a gaussian core                              [deg]
#  11 ELONGATION             A_IMAGE/B_IMAGE                                           
#  12 ELLIPTICITY            1 - B_IMAGE/A_IMAGE                                       
         1 -13.1242     67.2660    144.0807   1.2486811295e+02   3.8293184773e+01     2.531609     1.250371 -88.07  0.003132245    5.272    0.810
         2 -12.4632    190.7427     35.8344   6.7277623819e+01   3.3463304366e+01     0.837892    0.5179572 -66.94  0.003568281    1.792    0.442
         3 -14.2020    205.7083     18.0370   6.1190059209e+01   3.2065983481e+01     2.081367     1.386924  31.54   0.01074869    2.455    0.593
         4 -11.5445      8.8623      4.2586   1.0606126831e+02   7.1643888215e+01    0.4062649    0.1977582   3.92  0.002376901    2.333    0.571
         5 -11.8425      2.3482     14.2438   1.1353077178e+02   7.0849310779e+01    0.6057348    0.1520215 -47.03  0.002743252    3.670    0.728
         6 -11.8831      1.8543      5.1744   1.0995598023e+02   7.2107657366e+01     1.064061    0.1429293 -43.52  0.003695425    6.592    0.848
         7 -11.0502    190.0141     15.5910   6.2393329323e+01   3.6030845314e+01    0.2497158     0.191082 -71.80  0.001063354    1.245    0.197
         8 -11.2822    245.6963    249.3502   1.0444269717e+02  -1.3914555120e+01    0.2543803    0.2235178  41.07  0.001807287    1.575    0.365
         9 -12.4045    140.0536    248.0960   1.2437858614e+02   3.1254454672e+00    0.5878428    0.4511539  70.51  0.003507314    1.428    0.300
        10 -12.1709     92.9205    249.5285   1.3372175347e+02   1.0548865734e+01    0.5537748    0.4716885 -30.19 0.0008850081    1.849    0.459
        11 -12.0197     89.3233    244.9573   1.3392266262e+02   1.1982305506e+01    0.5237612    0.2922184  78.75  0.002163414    2.212    0.548
        12 -14.6921     29.5009    244.7904   1.4484447108e+02   2.0177201871e+01     11.48108     3.080841  32.10   0.03747175    7.105    0.859
        13 -10.1808    249.7558    231.2349   1.0058773246e+02  -1.2047166686e+01    0.1940609   0.08619451 -26.17 0.0008965709    2.470    0.595
        14 -12.7546     38.0034    225.6652   1.4186561850e+02   2.3056527318e+01    0.3427706    0.2965924 -76.04 0.0007612642    1.362    0.266
        15 -11.5851     99.1616    236.9681   1.3109762929e+02   1.2013796335e+01    0.3473122     0.229115  78.48 0.0007889056    1.641    0.391
        16 -14.2199      9.8871    206.6149   1.4567157348e+02   3.0217903651e+01     2.474884    0.8951664 -56.21  0.005462961    3.187    0.686
        17 -14.0483     45.4365    216.5443   1.3962320999e+02   2.4090415599e+01     1.158371      0.72155  66.21  0.006139419    1.419    0.295
        18 -14.9484     53.7345    208.7544   1.3716670550e+02   2.4739507850e+01     5.630813     1.506584  54.28   0.01775423    4.879    0.795
        19 -10.9433     26.8074    215.8330   1.4317485983e+02   2.6459663252e+01    0.3288449    0.1472012  76.50  0.001040986    2.409    0.585
        20 -11.4573     22.2365    236.3010   1.4552181717e+02   2.2705877601e+01    0.2823722    0.2042188 -65.03  0.001163996    1.627    0.385
        21 -10.8635    227.8238    204.1281   9.9558162939e+01  -4.4932595240e+00    0.3282949    0.2387989 -56.09  0.001115339    1.838    0.456
        22 -10.6751     26.3500    203.9882   1.4227022300e+02   2.9097453843e+01     0.195485    0.1507564  61.73  0.001309368    1.227    0.185
        23 -10.1421    193.0207    194.8937   1.0460635463e+02   3.4281027405e+00    0.7330424    0.3625464 -64.60  0.001929558    6.526    0.847
        24 -11.6334     64.2162    193.0180   1.3308746464e+02   2.6914871076e+01    0.3907171    0.2551325 -44.54  0.001410611    1.991    0.498
        25  -8.5558    181.5064    192.4657   1.0653717104e+02   6.1208851618e+00    0.1447564    0.1371902  17.24 6.119193e-05    1.033    0.032
        26 -11.7564     69.5853    185.8401   1.3091893804e+02   2.7842133991e+01    0.3136426     0.253454 -50.02 0.0008492594    1.427    0.299
        27 -11.0492     79.1107    174.1201   1.2692929388e+02   2.9235598303e+01    0.2640629    0.2369989 -69.21 0.0003669077    1.119    0.107
        28 -13.2933     66.2921    171.5066   1.2964613248e+02   3.1743251941e+01    0.5267204    0.2848298 -45.20  0.001668854    2.223    0.550
        29  -9.9635    116.9702    175.0000   1.1786762497e+02   2.2584688553e+01    0.2499088   0.08376929  40.36 0.0008078707    2.980    0.664
        30 -10.4003    104.7806    173.0862   1.2048178472e+02   2.5249797766e+01    0.5084138    0.1638433  51.20  0.001480171    4.055    0.753
        31 -12.0934     86.5336    165.7736   1.2371306110e+02   3.0097402746e+01    0.7691793    0.5574851  57.43   0.00391004    1.417    0.294
        32 -10.4494    191.8779    248.9542   1.1435153773e+02  -5.7211924845e+00    0.2864622    0.1538068  17.44  0.001234803    2.827    0.646
        33 -15.4205      4.2153    178.6868   1.4460908710e+02   3.6907856269e+01     7.106498     1.157423 -69.47   0.02564255    3.901    0.744
        34  -9.7751     99.0301    149.9250   1.1752267820e+02   3.1862864289e+01    0.2868215    0.2532613 -39.77 0.0006959472    1.231    0.188
        35  -9.2297    102.1810    145.4753   1.1577376053e+02   3.2383646458e+01    0.3055752    0.1839812 -34.05  0.001228054    2.215    0.549
        36 -12.1119     87.7062    148.8422   1.2029421957e+02   3.4040640694e+01    0.2998569    0.2510548 -42.71 0.0006141025    1.276    0.216
        37 -10.9599     38.9905    146.6476   1.3281175462e+02   4.1140046547e+01     0.285658    0.1938758  44.51  0.001082209    1.629    0.386
        38 -10.9786      1.6694    240.4665   1.4923497023e+02   2.4061689792e+01    0.5049629    0.1595532 -74.20  0.002441421    2.587    0.613
        39  -9.4977    110.4055    135.5446   1.1140549120e+02   3.3250334803e+01    0.3225925    0.2258788 -14.07  0.001320153    2.304    0.566
        40 -10.5888     97.5645    132.5930   1.1421858101e+02   3.6303164277e+01    0.2849054    0.2372035 -25.18  0.001043494    1.404    0.288
        41  -9.1954    107.1581    122.8335   1.0928916443e+02   3.6852810279e+01    0.2072737     0.195506 -79.39 0.0002639567    1.074    0.069
        42 -11.0967     54.4186    229.8780   1.3912077575e+02   2.0076579222e+01    0.4013158    0.1998287  74.84  0.001947625    2.213    0.548
        43 -11.1069    168.0106    112.9849   9.1533333032e+01   2.5873955849e+01    0.3676567     0.308337 -80.20 0.0007208464    1.327    0.246
        44  -9.2887     42.5185    231.9700   1.4154795457e+02   2.1181644834e+01       0.1728    0.1008985 -76.93 0.0005044948    1.541    0.351
        45  -9.5301    204.4525    110.9078   8.3680897759e+01   1.7812803534e+01    0.3236165    0.1963839  37.04  0.001346185    2.112    0.526
        46 -11.6546     21.6613    229.8573   1.4517849344e+02   2.4082002551e+01    0.4038273    0.1706285  46.49   0.00128686    2.059    0.514
        47 -11.8972     51.9569    236.3418   1.4016655752e+02   1.9067010857e+01     0.506758    0.2763034  89.61  0.001749774    1.799    0.444
        48 -10.2749      1.6693     89.4569   1.3433077289e+02   5.7214776006e+01    0.2457138    0.1083101 -61.38  0.001105626    1.681    0.405
        49 -11.1188      2.3194     80.0525   1.3236025711e+02   5.9156541062e+01     0.513832   0.09061998 -65.17  0.001627938    5.205    0.808
        50  -9.5647    157.5083     77.5074   8.4313667640e+01   3.5227295916e+01    0.1490899    0.1437041  73.45 0.0002619203    1.010    0.010
        51  -8.8028    108.7314     42.5222   8.5143668898e+01   5.1784224784e+01    0.1743495    0.1264282  62.59 0.0009199544    1.555    0.357
        52 -11.2164    162.8254    248.4735   1.1994025478e+02  -8.0147496922e-01     0.340166    0.2604643 -13.48  0.001970469    1.745    0.427
        53 -12.0049    108.3194    246.2670   1.3038853938e+02   8.7325858997e+00    0.4051207     0.311454 -88.41  0.001553125    1.363    0.266
        54 -12.0535    101.1067    249.1886   1.3212027829e+02   9.3340035476e+00    0.5982678    0.3922337 -84.69   0.00340719    1.721    0.419
        55 -10.7931    198.9865    247.4809   1.1275354564e+02  -6.6498574664e+00    0.2193821    0.1896682 -62.52    0.0014077    1.606    0.377
        56 -11.7337      2.8255    248.3227   1.4946395646e+02   2.2428928502e+01     0.591792    0.3004413 -67.84  0.003811397    1.994    0.499
