#   1 NUMBER                 Running object number                                     
#   2 MAG_AUTO               Kron-like elliptical aperture magnitude                    [mag]
#   3 X_IMAGE                Object position along x                                    [pixel]
#   4 Y_IMAGE                Object position along y                                    [pixel]
#   5 X_WORLD                Barycenter position along world x axis                     [deg]
#   6 Y_WORLD                Barycenter position along world y axis                     [deg]
#   7 A_WORLD                Profile RMS along major axis (world units)                 [deg]
#   8 B_WORLD                Profile RMS along minor axis (world units)                 [deg]
#   9 THETA_WORLD            Position angle (CCW/world-x)                               [deg]
#  10 FWHM_WORLD             FWHM assuming a gaussian core                              [deg]
#  11 ELONGATION             A_IMAGE/B_IMAGE                                           
#  12 ELLIPTICITY            1 - B_IMAGE/A_IMAGE                                       
         1 -12.0552     17.6123     23.4182   1.0635749781e+02   6.9617313585e+01    0.3413015    0.2844252  82.59  0.002361314    1.685    0.406
         2 -11.7934    190.4342     20.2370   5.4701636807e+01   3.4962556488e+01    0.3674096    0.2702232  17.05 0.0003701255    1.634    0.388
         3 -11.3641     34.3681     18.2037   9.6132805757e+01   6.9023926392e+01    0.3399282    0.2844588 -53.76  0.001049701    1.340    0.254
         4 -11.8658    218.7262     16.3873   5.0261938800e+01   2.7981922159e+01    0.4337364    0.2461961   6.13  0.001744755    2.660    0.624
         5 -11.0189    115.6592     15.7035   6.6310329834e+01   5.4847051814e+01    0.4730855    0.2438389  40.30  0.002010366    2.019    0.505
         6 -11.8104     80.2621     15.1305   7.6085227290e+01   6.2523910370e+01    0.3408454    0.2524712 -35.95 0.0009319274    1.335    0.251
         7 -10.6432     43.3309     16.2464   9.1084439945e+01   6.8292050808e+01    0.3114281    0.2356079  74.70  0.001694162    2.663    0.624
         8 -10.7004    132.5986     15.7307   6.2563606424e+01   5.0713083136e+01    0.3423968    0.2137884  -7.45  0.001429204    1.818    0.450
         9 -11.8735     25.6443     12.9745   9.8003457838e+01   7.0876452647e+01    0.3155189     0.227489  28.70   0.00131023    1.668    0.401
        10  -9.9099     66.5556     11.9729   7.9352503740e+01   6.5460723538e+01    0.2023765     0.113986 -30.08  0.001025891    1.592    0.372
        11 -11.7834     45.5272      8.1291   8.5983666023e+01   6.9310862947e+01    0.4557808     0.314055  64.76  0.002355363    2.964    0.663
        12 -10.4759      6.7310      9.8809   1.0674960884e+02   7.2999946607e+01    0.3339866    0.2237912  61.87  0.001648019    2.835    0.647
        13 -10.8114     18.8365      7.2866   9.8863900194e+01   7.2526923800e+01    0.3405748     0.177985   1.89  0.001640285    2.977    0.664
        14 -12.4538    209.6259      5.6158   4.8018645231e+01   3.1434528503e+01    0.5621579    0.2948137 -56.46 0.0006488033    2.041    0.510
        15 -10.7758    106.1996      8.6235   6.5465357826e+01   5.7873363558e+01    0.3449379    0.2199346  45.56   0.00172013    1.506    0.336
        16 -10.8958     74.5826      8.6722   7.4785564083e+01   6.4471060149e+01    0.2529457    0.2229035  25.33  0.001092487    1.155    0.134
        17 -10.6708    185.4927      8.3656   5.1475047643e+01   3.7545621248e+01     0.265731    0.1330902  70.24  0.001101248    1.941    0.485
        18 -10.9899    176.9945      7.1229   5.2113749903e+01   3.9947103629e+01    0.2323602    0.2066979 -27.06  0.000261244    1.148    0.129
        19  -9.9816    128.0652      8.4619   6.0486255549e+01   5.2650038026e+01    0.2077779    0.1364758  61.00 0.0003363738    1.496    0.332
        20 -10.6661     87.4128      7.2181   6.9932730635e+01   6.2127056894e+01    0.2511815    0.1241916 -20.33  0.001115865    2.021    0.505
        21 -11.5904     24.7661      6.9761   9.5530201132e+01   7.2009388429e+01     0.235386    0.1575078 -46.37  0.000456657    1.360    0.264
        22 -11.8591    190.7927      5.4396   4.9914938979e+01   3.6415439489e+01    0.2783939    0.2605191 -81.27 0.0003193536    1.031    0.030
        23 -11.4439    194.4834      3.5481   4.8915150998e+01   3.5613608439e+01    0.2641113    0.2149032  66.51 0.0006310671    1.201    0.168
        24  -9.9100     62.4711      7.1717   7.8402369117e+01   6.6830041024e+01    0.2119771    0.1636264  77.66  0.001159242    2.290    0.563
        25 -10.9520     38.9424      3.9251   8.6744107694e+01   7.0842028084e+01    0.3945309    0.2095834 -50.53  0.001954105    2.507    0.601
        26 -10.6265     35.3637      3.6811   8.8346428961e+01   7.1338426787e+01    0.1944269     0.171017  86.09  0.001014688    2.010    0.502
        27 -10.3306     14.0878      4.8244   1.0029078261e+02   7.3371570574e+01    0.1566179    0.1316938 -45.28  0.000496382    1.246    0.197
        28 -11.6484    161.3038      3.0597   5.2779507144e+01   4.4536996169e+01    0.4023261    0.2906168 -83.96   0.00143051    1.540    0.351
        29 -10.8605    111.8857      4.8993   6.2401737179e+01   5.6951693929e+01     0.214807    0.1697542  24.34 0.0003124553    1.231    0.188
        30 -10.7046    217.8955      2.2603   4.6288194363e+01   2.9627946082e+01    0.2581794    0.1716745 -39.67  0.001317425    1.399    0.285
        31 -11.4888    180.6329      2.3390   5.0062350206e+01   3.9423898032e+01    0.4323153    0.2271786  56.68  0.001890852    1.797    0.444
        32 -11.0449     73.8988      2.1369   7.1584671339e+01   6.5409188925e+01    0.2778009    0.2238382  24.99  0.001425434    1.178    0.151
        33  -9.2811    115.6558      2.2407   6.0365044301e+01   5.6317478448e+01    0.1323412    0.1063624 -70.00 0.0002999829    1.563    0.360
        34 -10.8380     50.3349      1.9950   8.0479196425e+01   6.9494091319e+01    0.2078656    0.1592028  16.68 0.0003293376    1.290    0.225
        35  -9.3554     90.6448      1.2690   6.6015838091e+01   6.2113190907e+01     0.126245    0.1038279 -63.19 0.0004158021    1.635    0.388
        36 -10.1066      9.5297      1.3404   1.0119339051e+02   7.4346852286e+01    0.1754969   0.09582905  31.44  0.000661167    2.304    0.566
        37  -9.6468      2.4466      1.4315   1.0551764506e+02   7.4829681896e+01     0.111476   0.08109084 -40.17 7.119316e-05    1.008    0.008
        38 -10.3954    234.4241    229.5943   9.6465859846e+01  -2.8621313125e+00    0.2557276    0.1029451  37.41  0.001421822    1.911    0.477
        39 -11.8409    209.2023    246.7057   1.0267442303e+02  -8.0719292750e-01    0.3863196    0.1721679  44.75  0.001208557    1.793    0.442
        40 -11.4669    128.7430    249.3474   1.1565243634e+02   1.0671890368e+01     0.249268    0.1952884  -2.55   0.00178524    2.351    0.575
        41 -12.1086    119.9736    240.8986   1.1629011366e+02   1.3039994125e+01     0.613793    0.1967585  36.14  0.002592148    3.808    0.737
        42 -11.8056    111.7188    244.2208   1.1792184374e+02   1.3746122652e+01    0.3601552    0.1661033 -60.35   0.00224537    2.755    0.637
        43 -11.1139    115.0195    249.4932   1.1784336155e+02   1.2576513460e+01    0.3067567    0.1484855  44.32  0.001446813    1.530    0.346
        44 -11.2972    121.1911    247.8969   1.1672441724e+02   1.1927290612e+01    0.2377678    0.1631007  53.91 0.0003374702    1.090    0.082
        45 -10.7511    117.7381    246.3276   1.1713805825e+02   1.2620410328e+01    0.1999112    0.1355207  89.73 0.0004759058    1.830    0.454
        46 -11.5051     45.4437    247.5274   1.2851128402e+02   2.1613187874e+01    0.3348782    0.2384398  79.11  0.001823639    1.244    0.196
        47 -11.9452     46.3352    230.3481   1.2747679302e+02   2.4149764174e+01    0.3686748    0.1833358  79.74 0.0009844626    1.869    0.465
        48 -12.4419     20.0955    216.8165   1.3102329868e+02   2.9155534216e+01     0.223584    0.1441609  79.96 0.0004802936    1.191    0.161
        49 -12.4125     30.6658    232.2324   1.3004397838e+02   2.5558872238e+01    0.7388485    0.2989507  57.47  0.003669034    1.744    0.427
        50 -12.2445     39.0719    217.9676   1.2797042131e+02   2.6982942591e+01    0.3134606    0.1805617  47.06  0.001103453    1.461    0.316
        51 -12.7199     28.0032    219.2453   1.2985431204e+02   2.7948323454e+01    0.4105413    0.2532043  36.39 0.0009236329    1.877    0.467
        52 -12.5267     31.4428    212.2415   1.2893035492e+02   2.8774067156e+01    0.3797032    0.2462249 -62.89  0.001479373    1.984    0.496
        53 -11.9229     38.8872    223.6633   1.2831250025e+02   2.6058673403e+01    0.4003617    0.2729687  33.19  0.002984963    1.934    0.483
        54 -11.9018     44.7944    236.8123   1.2806835452e+02   2.3308028870e+01    0.2893012    0.1515789  61.80 0.0002813024    1.380    0.276
        55 -12.5712     39.6316    231.6651   1.2861223981e+02   2.4686856125e+01    0.5531911    0.1701826 -77.93  0.003011985    3.347    0.701
        56 -13.4824      9.1828    214.6324   1.3268901602e+02   3.0569768566e+01    0.6386898    0.2926283  60.25  0.003341235    1.533    0.348
        57 -12.9748     21.1559    237.6193   1.3172556731e+02   2.5690645520e+01    0.4798599     0.221328  57.85  0.001606249    1.462    0.316
        58 -13.8561     14.1231    247.3935   1.3311048892e+02   2.4899603769e+01    0.5618713    0.3826376  83.82   0.00513009    1.319    0.242
        59 -13.3309      4.4315    246.2847   1.3445737274e+02   2.5984791941e+01    0.6264238    0.3467948 -84.04  0.005275955    1.709    0.415
        60 -13.1652      2.4737    229.8414   1.3425214464e+02   2.8697132331e+01      0.66035    0.2374909 -84.09  0.002721749    2.420    0.587
        61 -13.3432     25.0797    246.8062   1.3150170060e+02   2.3895621589e+01     0.524226    0.3771032  59.66  0.003743755    1.214    0.176
        62 -13.9150     35.9112    244.3104   1.2979189162e+02   2.3135977147e+01    0.5402992    0.2925707  85.75   0.00187765    1.645    0.392
        63 -13.6468     10.8810    231.6581   1.3305039638e+02   2.7628274269e+01    0.4947712    0.3221457  37.74    0.0013428    1.819    0.450
        64 -13.1877     13.5793    224.5220   1.3237552805e+02   2.8516137532e+01    0.4405275    0.2592279  38.68  0.001820238    1.825    0.452
        65 -10.2803    197.0618    233.3762   1.0286023342e+02   2.3747599104e+00    0.1527961     0.125741  30.24 0.0004312021    1.106    0.096
        66  -9.6948    183.4520    233.0620   1.0502003454e+02   4.5037680378e+00    0.1278122    0.1102056 -29.20 0.0003012103    1.490    0.329
        67 -10.2420    172.9733    233.3288   1.0676694756e+02   6.0905367495e+00     0.161817    0.1101279  40.24 0.0004426264    1.121    0.108
        68  -9.7110    156.0124    232.7684   1.0950335296e+02   8.7727829438e+00    0.1562338    0.1092518  44.21            0    1.088    0.081
        69 -10.5978    152.4936    231.2905   1.0992048028e+02   9.5043993011e+00    0.2290895    0.1579909 -71.93  0.001102416    2.123    0.529
        70 -11.5172    143.9418    232.3619   1.1147024361e+02   1.0667933868e+01    0.3288416     0.150312  43.90  0.000981024    1.666    0.400
        71 -11.2392     58.4539    230.2481   1.2551688632e+02   2.2757530704e+01    0.2996419    0.1464838  75.47  0.001556417    2.013    0.503
        72 -10.5257     55.6921    228.6836   1.2586881563e+02   2.3333843973e+01    0.1381275    0.1079735 -81.89 0.0004976948    1.442    0.306
        73 -10.6162     81.1200    231.7216   1.2190479538e+02   1.9699129534e+01    0.1626578    0.1105975  69.99 0.0003471541    1.232    0.188
        74 -10.8393     74.4295    231.7653   1.2300927732e+02   2.0552252945e+01    0.1705288    0.1381097  79.26  0.000698729    1.232    0.189
        75 -11.3664     73.7897    227.0036   1.2277088521e+02   2.1379759047e+01    0.3387319    0.1376029  62.01  0.001587179    2.396    0.583
        76 -11.7871    242.8392    229.2038   9.5129040789e+01  -4.0488561607e+00    0.2131911    0.2107544 -43.16 0.0005013346    1.743    0.426
        77 -10.0470     87.0208    231.0318   1.2087431671e+02   1.9028928673e+01    0.1620724   0.09104028  62.78  0.001068171    1.512    0.339
        78 -11.6442    107.2065    228.2768   1.1724971813e+02   1.6668393948e+01     0.248664    0.1817839  77.41 0.0008788021    1.365    0.268
        79 -10.8441    111.3323    227.5616   1.1648264019e+02   1.6184953504e+01    0.1829069    0.1389974  56.55 0.0005787958    1.012    0.012
        80 -10.4854     96.4098    230.0106   1.1922324034e+02   1.7915905595e+01    0.2760125    0.1543715  60.15  0.001222613    1.509    0.337
        81 -10.8890     94.3190    226.6595   1.1928946929e+02   1.8715522391e+01    0.1864563    0.1024815  57.89 0.0009000907    1.481    0.325
        82 -11.3100    173.8414    228.1162   1.0597598398e+02   6.5902876204e+00    0.2139157    0.1437212  41.10 0.0002892034    1.145    0.127
        83 -10.3183     63.9935    229.2296   1.2454705144e+02   2.2249872974e+01    0.1371087   0.09478656  57.24            0    1.093    0.085
        84  -9.5264    125.8804    228.1807   1.1407116544e+02   1.3963897677e+01    0.1399189    0.1119906  36.21  0.000434895    1.338    0.253
        85 -10.4215    249.1805    227.1473   9.3869808972e+01  -4.7727653530e+00    0.1344315    0.1086226  30.95 0.0005820629    1.308    0.235
        86  -9.4940    186.4405    225.5056   1.0354731892e+02   4.9231546799e+00    0.1140547   0.08791236  35.29 4.621078e-05    1.034    0.033
        87 -11.2384     78.9220    223.1324   1.2161309332e+02   2.1334476084e+01    0.2515737    0.1432537 -71.02  0.001687737    1.925    0.481
        88 -11.0807    177.3041    223.0435   1.0474349428e+02   6.6717790744e+00    0.2708762    0.1939484  65.16  0.001754684    1.778    0.437
        89 -10.1749     54.4672    221.8357   1.2564076298e+02   2.4587630694e+01    0.1772497    0.1652002 -68.72  0.001513127    1.662    0.398
        90  -9.2784    203.7147    222.2770   1.0026617252e+02   2.5703551143e+00    0.1006144   0.08007339  55.81 0.0002113721    1.512    0.338
        91 -10.6379    158.9196    222.0775   1.0773626971e+02   9.7217972475e+00    0.2621024    0.1230517  50.11 0.0007416577    1.834    0.455
        92 -10.3012    121.3272    221.9797   1.1421007216e+02   1.5552130821e+01    0.1807006    0.1186699  54.05 0.0002640144    1.212    0.175
        93 -11.0401    134.8645    219.3739   1.1157126790e+02   1.3877652677e+01    0.3689735     0.188496  41.07  0.002120249    1.634    0.388
        94  -9.5233     84.8150    221.3429   1.2046194993e+02   2.0841818307e+01    0.1412205    0.0854233  40.53  0.000437595    1.571    0.363
        95 -10.3955    249.7979    220.3236   9.2735430504e+01  -4.2443007170e+00    0.1858703    0.1150582  47.01 0.0008833258    1.801    0.445
        96  -9.7501     62.9284    219.9605   1.2409247541e+02   2.3878129455e+01    0.1641214   0.08790564  64.22 0.0004732041    1.535    0.349
        97 -11.1598     47.1666    219.3839   1.2670607511e+02   2.5840626927e+01    0.2088674    0.1508363 -85.81  0.001063892    1.362    0.266
        98 -10.4785     45.7619    215.5686   1.2670994497e+02   2.6640984183e+01    0.1570372    0.1121595  80.57 0.0004022467    1.169    0.144
        99 -10.8692    106.8364    217.4389   1.1627768964e+02   1.8387461708e+01    0.2346576    0.1536985 -47.47  0.001507848    2.168    0.539
       100 -10.3196    217.7713    217.4801   9.7289778343e+01   8.8780974162e-01    0.1921777    0.1350566  40.26 0.0009984757    1.231    0.188
       101 -11.3468    173.1205    216.3192   1.0455756784e+02   8.2042831718e+00    0.2991743    0.2290699 -86.29  0.001809684    2.044    0.511
       102 -11.0892     88.0568    217.0507   1.1953421146e+02   2.1097362281e+01    0.3693264    0.1885794  80.86  0.001758555    2.597    0.615
       103 -11.2235     83.7554    215.4510   1.2014835172e+02   2.1942618763e+01    0.2668029     0.198608  46.44  0.001392173    1.291    0.226
       104 -10.4377     86.2122    211.9509   1.1940758290e+02   2.2190335263e+01    0.1711209    0.1174225  67.28 0.0005169128    1.219    0.180
       105 -10.2132    142.1214    217.0093   1.1002686796e+02   1.3088212164e+01    0.2463916    0.1176612  44.08  0.001355885    1.662    0.398
       106 -11.1336    145.9666    214.9064   1.0909674115e+02   1.2782958949e+01    0.3701222    0.2342045  74.82  0.002067594    2.320    0.569
       107 -12.1038     72.8897    216.3922   1.2212010505e+02   2.3217035379e+01    0.2883262    0.1696328  46.57 0.0001194259    1.414    0.293
       108 -10.2944     74.4827    212.6648   1.2154415892e+02   2.3634857487e+01    0.2220808    0.1134836  47.34  0.001374706    1.561    0.359
       109  -9.4885    194.2931    216.3035   1.0096839323e+02   4.7687004190e+00    0.1137675   0.07702558  19.77 0.0002380651    1.574    0.365
       110 -10.2634    125.4244    216.1570   1.1286665172e+02   1.5811546937e+01    0.1937458    0.1267698  41.78 0.0005286146    1.328    0.247
       111 -10.2243    197.4811    215.4503   1.0031314894e+02   4.3552095667e+00    0.1176045   0.09104615  31.99 2.794857e-05    1.040    0.038
       112 -11.4995    111.9473    213.4251   1.1496380154e+02   1.8271834068e+01    0.2201622    0.2148566 -75.74  0.001020789    1.380    0.275
       113 -11.1330    118.2173    212.8716   1.1378546841e+02   1.7417991399e+01    0.3760794     0.183634  35.67  0.001979827    2.161    0.537
       114  -9.4635     60.2864    214.6983   1.2417281145e+02   2.5079537500e+01    0.1106387   0.05964731  66.05 0.0006977097    1.558    0.358
       115  -9.4941    164.2731    213.2842   1.0568022828e+02   1.0053153243e+01    0.1085289   0.08172988  21.74 0.0001834258    1.503    0.335
       116  -9.9069    231.3612    212.2026   9.4311466542e+01  -6.7626669063e-01    0.1332328    0.1024119 -30.87 0.0004062069    1.607    0.378
       117  -9.9050    218.5961    212.1933   9.6352735157e+01   1.3346460114e+00    0.1478822    0.1004698  -9.33  0.000945684    1.684    0.406
       118 -12.1308    129.1120    208.8706   1.1137259895e+02   1.6363452554e+01    0.3399264    0.2933495  87.90  0.002477223    1.262    0.208
       119 -10.8893     25.2848    211.9700   1.2994476775e+02   2.9457551220e+01    0.1723294     0.104508  58.44 0.0004353167    1.214    0.176
       120 -10.1039     70.6415    210.1691   1.2202039655e+02   2.4554807317e+01    0.1976514    0.1209696 -72.05   0.00133075    1.712    0.416
       121 -12.3452     66.9616    207.4975   1.2246101077e+02   2.5483436407e+01    0.2069522    0.1486747  66.69 -2.411533e-05    1.059    0.056
       122 -10.3839     58.8786    211.2879   1.2417329337e+02   2.5831042009e+01     0.147307    0.1091447  60.78 0.0005191042    1.093    0.085
       123  -9.9664     13.7571    211.0358   1.3180360106e+02   3.0751062660e+01    0.1344643    0.1010521  81.51 0.0004718772    1.217    0.178
       124 -11.8643     13.5189    197.3903   1.3123688260e+02   3.3166968981e+01    0.2559005    0.1422383  69.83  0.000173509    1.321    0.243
       125  -9.8088     13.3969    193.5005   1.3107388067e+02   3.3881629220e+01    0.1030596   0.07170167  75.18 7.985795e-05    1.027    0.027
       126 -11.9360     14.8024    205.6818   1.3139762220e+02   3.1577362426e+01    0.4814153    0.1459327  64.96  0.001571535    2.895    0.655
       127 -12.6265     19.3226    201.3132   1.3042604921e+02   3.1912305381e+01    0.2396546    0.1855124  86.14  0.001998648    1.249    0.199
       128 -10.5202    214.2121    210.2291   9.6763598058e+01   2.2575228124e+00    0.1454277    0.1226886  44.21 0.0004099886    1.301    0.232
       129 -11.4862     95.6465    208.6599   1.1740742968e+02   2.1424502181e+01      0.29654    0.1851404 -81.55  0.001144009    1.784    0.439
       130 -10.0104     80.5506    210.1285   1.2025520911e+02   2.3262733261e+01    0.1460446   0.09833576 -81.11 0.0009993459    1.516    0.340
       131 -10.0808    237.9392    208.2857   9.2651713288e+01  -1.2922067561e+00    0.1670835    0.1190948  28.96 0.0006738089    1.108    0.098
       132 -10.6216    101.1399    216.9771   1.1723396213e+02   1.9281391719e+01    0.1775149    0.1470571 -76.15  0.000883922    1.384    0.278
       133  -9.9114    180.5145    207.4342   1.0203596154e+02   8.1578619346e+00    0.1679657    0.1194794 -39.63     0.000599    1.718    0.418
       134 -11.4478    183.5379    203.8029   1.0097410174e+02   8.1334034872e+00    0.2212079    0.2055742  16.38 0.0003586939    1.170    0.145
       135 -10.6422    152.3447    206.8674   1.0693509799e+02   1.2923672934e+01    0.2163946    0.1340975  51.49  0.000738518    1.397    0.284
       136 -10.8734     53.2639    199.9341   1.2434324857e+02   2.8499108814e+01    0.3077793    0.1443663  71.65  0.001724022    2.124    0.529
       137 -11.2500     52.8924    206.8696   1.2490926631e+02   2.7312858683e+01    0.2020794    0.1444053  57.75 0.0004181477    1.143    0.125
       138 -10.5267     50.9894    202.9714   1.2497233454e+02   2.8224011460e+01    0.1514343    0.1244571  74.84 0.0004645618    1.186    0.157
       139 -10.6422    100.5237    206.3739   1.1629236291e+02   2.1105441245e+01    0.2866985   0.08032639  45.17 0.0009479723    2.787    0.641
       140 -11.1597     38.0062    205.8717   1.2744896566e+02   2.9177685288e+01    0.3145008    0.1250101  46.52 0.0009568003    1.951    0.488
       141 -11.4390     39.2234    201.9851   1.2699635671e+02   2.9733377917e+01    0.2017252    0.1727337  54.63 0.0008299212    1.398    0.285
       142 -10.7727      3.8030    205.7231   1.3322175353e+02   3.2581325017e+01    0.2788838    0.1196712  50.49  0.001919284    1.722    0.419
       143  -9.7771    200.4946    205.4853   9.8315214355e+01   5.0698033230e+00    0.1195603   0.09668855  33.21 -1.628088e-05    1.023    0.023
       144 -11.5886    111.8445    202.9258   1.1384121442e+02   1.9997528495e+01    0.2464837     0.215781 -80.47 0.0002606726    1.273    0.215
       145 -11.7933    109.4910    197.8718   1.1370453505e+02   2.1210313179e+01    0.3629114    0.2155339 -75.71   0.00170728    2.031    0.508
       146 -11.1848    195.4482    203.5665   9.8878641696e+01   6.1550782567e+00    0.2129966    0.1803626  52.71  0.001468814    1.302    0.232
       147 -11.6824    122.5621    203.3159   1.1190777848e+02   1.8277369719e+01    0.2650605     0.199879  55.09 0.0007139567    1.082    0.076
       148 -10.8117    121.5063    199.0894   1.1159462548e+02   1.9138500454e+01    0.2038634    0.1452372  44.91 0.0003298041    1.230    0.187
       149 -10.1364     74.2732    203.7511   1.2083242858e+02   2.5194115327e+01    0.1652358   0.06507561  57.62 0.0002315937    2.368    0.578
       150 -10.6456     31.0006    202.4217   1.2846497481e+02   3.0536231331e+01    0.2234211    0.1227004  70.17 0.0008232452    1.423    0.297
       151 -11.5158     24.5451    195.1141   1.2918950459e+02   3.2513128569e+01    0.6187708    0.2439983  78.97  0.003351656    2.484    0.597
       152 -10.2438    160.0000    202.2648   1.0492877321e+02   1.2326459329e+01    0.2360065    0.1476793  32.84  0.001094639    1.589    0.371
       153 -12.3954    240.8108    200.2473   9.0876210327e+01  -9.0317399902e-01    0.3967548    0.3047618  45.39  0.001924221    1.477    0.323
       154 -11.6758    208.6048    198.6811   9.5866335723e+01   4.5488923818e+00    0.2486551    0.2020644 -19.59  0.001697358    1.368    0.269
       155  -9.2739    166.6888    201.7374   1.0365093641e+02   1.1273646769e+01    0.1163117   0.08434657  23.70 0.0002632122    1.535    0.348
       156 -11.1718     95.9572    200.3353   1.1650981172e+02   2.2797379555e+01    0.1956317    0.1559448 -83.47 0.0004945343    1.289    0.224
       157 -11.0899     90.1734    200.0117   1.1755405249e+02   2.3680933705e+01    0.3566127    0.1402959  42.49  0.001090659    2.165    0.538
       158  -9.8521     45.0325    199.9909   1.2583165390e+02   2.9443245294e+01    0.1350552    0.1294696 -64.07 0.0008947975    1.638    0.389
       159 -11.8966      4.7108    199.9300   1.3284705944e+02   3.3515032991e+01    0.2259346    0.1226607  43.65 0.0008598733    1.687    0.407
       160 -10.1966    169.6265    198.0084   1.0257632239e+02   1.1310277968e+01     0.239275    0.1190452 -43.59  0.001237011    2.416    0.586
       161 -10.8251    224.0202    198.2485   9.3232909083e+01   2.0278131176e+00    0.2917636    0.1590462  46.61 0.0006660608    1.741    0.425
       162 -12.3766    217.5515    194.5610   9.3683805070e+01   3.5407828015e+00    0.3651358    0.2358981  35.66  0.002220965    1.291    0.226
       163 -10.9566    227.4925    189.9642   9.1253302074e+01   2.4133433270e+00    0.2250704    0.1730551 -29.65 0.0008755396    1.479    0.324
       164 -10.7555    190.9197    200.9556   9.9256069098e+01   7.2587165428e+00    0.1785404    0.1477758  34.92 -0.001320134    1.017    0.016
       165  -9.7324    161.9932    198.0464   1.0396464858e+02   1.2611624616e+01    0.1425511    0.1240707  44.80 0.0003641876    1.047    0.045
       166  -9.7142    132.5289    198.4543   1.0945640923e+02   1.7475375025e+01    0.1206551    0.1005193  50.86  1.59994e-05    1.050    0.048
       167 -11.4347    188.9754    196.3241   9.8870747401e+01   8.2090499645e+00    0.2396609    0.1788532  39.42 0.0003758779    1.117    0.105
       168 -11.2977     62.7108    196.1631   1.2231339802e+02   2.8031394693e+01    0.2050855    0.1521924  61.79 0.0002716317    1.084    0.077
       169 -11.2009     57.1352    195.4092   1.2328645245e+02   2.8855252508e+01    0.2252865     0.133526  76.69 0.0002685129    1.506    0.336
       170 -11.8518     52.5676    192.7577   1.2392692664e+02   2.9890036524e+01    0.2758721    0.1626301  51.14 0.0009080372    1.408    0.290
       171 -10.5126     82.4552    195.9320   1.1859560794e+02   2.5480966485e+01    0.1623027    0.1287938  68.28 0.0004451889    1.021    0.020
       172 -10.2651    139.9701    194.8773   1.0758913837e+02   1.6828313540e+01    0.1808814    0.1543641  55.43 0.0007834765    1.034    0.032
       173  -9.9811     95.1973    195.0686   1.1609522015e+02   2.3831174972e+01    0.1595797    0.1430663  56.65 0.0004597924    1.235    0.190
       174 -10.5528     71.0924    194.3350   1.2058652215e+02   2.7293867042e+01    0.1889994    0.1427828  86.99 0.0006336969    1.193    0.162
       175 -12.2990     66.6863    191.0526   1.2112475857e+02   2.8466831445e+01    0.2472499    0.2143021  60.19 0.0006018892    1.254    0.203
       176 -10.4578     44.0245    194.2113   1.2561445039e+02   3.0608550342e+01    0.2004515   0.09430507  49.84  0.001218159    1.709    0.415
       177 -10.8735    204.7181    200.9799   9.6893491558e+01   4.9199418263e+00    0.2338045    0.1430532  36.50 0.0006279575    1.355    0.262
       178 -10.9283    163.2892    192.9331   1.0297091438e+02   1.3155277627e+01     0.232292    0.1689409  30.48            0    1.383    0.277
       179 -10.1021    147.6840    192.7548   1.0584547558e+02   1.5868381202e+01    0.2340997     0.134591  34.81  0.001234801    1.771    0.435
       180 -10.9432     34.7434    191.4692   1.2713053874e+02   3.2131347564e+01    0.2597765    0.1295524  55.25  0.001159835    1.589    0.371
       181 -11.0571    120.7347    189.9776   1.1059692856e+02   2.0807291167e+01    0.3312534    0.2750421  -9.80  0.002069161    1.911    0.477
       182  -9.8259     60.5366    187.4917   1.2198517349e+02   2.9906754403e+01    0.1161425   0.08708009  71.13 0.0008092188    1.036    0.035
       183 -12.7413    229.5825    194.9198   9.1766051474e+01   1.4922502089e+00    0.3070896    0.2090722  17.04  0.001548799    1.383    0.277
       184 -11.1362    248.1156    190.1711   8.7997267764e+01  -9.9228833658e-01    0.1896196    0.1308917  16.31 0.0005127381    1.260    0.206
       185 -12.1821     91.8192    188.9951   1.1608284227e+02   2.5415154026e+01    0.2445256     0.188308  81.70 0.0006602944    1.196    0.164
       186 -11.2880     80.5382    189.5773   1.1832885514e+02   2.6901075790e+01    0.4095865    0.1912311  38.40  0.001697083    2.125    0.529
       187 -11.6997    104.0676    185.2958   1.1325683193e+02   2.4263003339e+01    0.4521243    0.2492178 -70.66  0.002436124    2.072    0.517
       188 -10.4604      3.4837    188.0671   1.3256882896e+02   3.5760750571e+01    0.1411657    0.1111327  68.24  0.001193693    1.229    0.186
       189 -10.1235    205.3169    187.0088   9.4478985609e+01   6.5999582660e+00     0.160918    0.1423113   7.42  0.000151949    1.129    0.114
       190 -11.5391      9.3534    186.0780   1.3143551760e+02   3.5614975351e+01     0.265592    0.1720928 -75.81 0.0008762854    1.506    0.336
       191 -11.5252     15.7131    183.1045   1.3012840969e+02   3.5593530549e+01    0.2556002    0.2048535 -55.55   0.00154314    1.827    0.453
       192  -9.8010    220.9598    186.2824   9.1690140899e+01   3.9675752039e+00    0.1730013    0.1334883  32.46 0.0004317717    1.106    0.095
       193 -10.3632    225.9432    183.8853   9.0435809898e+01   3.4031446487e+00    0.1944723    0.1535577  26.29 0.0006937641    1.057    0.054
       194 -11.4992    176.4608    183.5242   9.9053925292e+01   1.2243695992e+01    0.4553578    0.2133777  50.85  0.001436986    2.068    0.516
       195  -9.6678    190.5073    182.9742   9.6401263569e+01   9.7910686551e+00    0.1676223     0.106371  -6.59  0.000583221    2.460    0.594
       196 -12.2754     59.4024    181.5640   1.2167890855e+02   3.1175077109e+01    0.3877025     0.280146  55.27  0.001378049    1.212    0.175
       197 -11.1138     47.3568    182.0044   1.2406831663e+02   3.2525318630e+01    0.2730739    0.2034252  18.85  0.001276326    2.206    0.547
       198 -12.7898     47.8136    177.0690   1.2357385853e+02   3.3429617994e+01    0.2778068    0.2031246  48.91 0.0005779255    1.342    0.255
       199 -11.9341     29.4327    180.4442   1.2739949889e+02   3.4765994287e+01    0.3445751    0.2212642 -85.51  0.001553295    1.313    0.238
       200 -11.3158     32.3047    176.5816   1.2658167668e+02   3.5218494573e+01    0.2817743     0.174681  66.32  0.001103418    1.288    0.224
       201 -10.2420      4.1276    182.3706   1.3220374250e+02   3.6761783145e+01    0.2175409   0.09939929  89.50  0.001234758    1.735    0.424
       202 -11.7157    229.8235    180.6443   8.9210698455e+01   3.1283989484e+00    0.2519513    0.2426298 -78.52  0.001754922    1.530    0.346
       203 -10.4444     57.7354    189.9728   1.2273120786e+02   2.9786349904e+01    0.1932828    0.1505125 -84.61  0.001019787    1.244    0.196
       204 -10.0208     87.8782    182.3182   1.1611382234e+02   2.7222640058e+01    0.1693574    0.1323447  57.85 0.0005264495    1.106    0.096
       205 -10.8821     86.6837    174.6412   1.1546718179e+02   2.8862471792e+01    0.2093772    0.1600315 -39.89 0.0009313354    1.934    0.483
       206 -11.8989     80.4108    175.5462   1.1685546950e+02   2.9577606478e+01    0.6444697    0.3324307  84.63  0.003064275    2.610    0.617
       207 -11.6592     73.2488    177.3645   1.1850787543e+02   3.0204315846e+01    0.4061063    0.2084248  38.30  0.002211069    1.982    0.495
       208 -10.3012    147.1654    178.1333   1.0375464682e+02   1.8363797097e+01    0.2654868   0.09054919 -44.04  0.001028969    3.573    0.720
       209 -10.6476    104.0588    178.0952   1.1235472006e+02   2.5594519695e+01    0.1917858    0.1551785  68.30 0.0005955543    1.071    0.066
       210 -10.8006    109.0683    176.9422   1.1118884462e+02   2.5021813218e+01    0.1795587    0.1604993  70.11 0.0003748804    1.082    0.076
       211 -10.1875      6.4319    176.0352   1.3148137491e+02   3.7763627396e+01    0.2230448   0.06991308 -73.11  0.001184596    2.633    0.620
       212 -11.0566    136.5958    175.5930   1.0544843409e+02   2.0664017903e+01    0.2543014    0.2033308  -4.60 0.0009563963    1.898    0.473
       213 -11.1021    135.0155    171.7034   1.0516238686e+02   2.1633488487e+01    0.1981908    0.1584855  65.32 0.0002850378    1.210    0.174
       214 -10.3196    191.8068    174.3890   9.4659868614e+01   1.0793302161e+01    0.1878269    0.1064711  36.14 0.0005856176    1.646    0.393
       215 -10.5627    156.1955    173.8303   1.0129340713e+02   1.7464729155e+01    0.2221827    0.1677567  35.84 0.0002258492    1.281    0.219
       216 -10.0370    159.6903    173.6664   1.0058514404e+02   1.6852930086e+01    0.2618515    0.1526903  33.30 0.0007256549    1.835    0.455
       217 -11.3102     99.0845    171.7265   1.1254422069e+02   2.7576340503e+01    0.3976716    0.2514268 -40.95  0.002092266    2.337    0.572
       218 -10.0909     36.0388    172.9843   1.2558268364e+02   3.5533202750e+01    0.1514272    0.1290027 -53.58  0.001110205    1.670    0.401
       219  -9.6620      2.2832    173.6654   1.3214107769e+02   3.8564728634e+01    0.1122507   0.09048574  41.72 0.0004379158    1.554    0.356
       220 -10.5695    199.8729    171.5544   9.2684898397e+01   9.7063120413e+00    0.1910626    0.1631587   2.82 0.0003331383    1.190    0.160
       221 -10.9163     66.4474    169.1769   1.1903646813e+02   3.2716865653e+01    0.4294511    0.2227563  81.25  0.001842965    2.262    0.558
       222 -11.1949     62.3001    170.0100   1.1998424859e+02   3.3080514796e+01    0.3395568    0.1475483  56.98  0.001253239    2.203    0.546
       223 -10.1698     31.9959    169.9271   1.2615821907e+02   3.6560562432e+01    0.2581212    0.1140634 -68.35  0.001464547    2.057    0.514
       224 -11.2573     48.4350    167.3554   1.2259674715e+02   3.5287935039e+01    0.3540923    0.1553836 -61.72  0.001868131    2.257    0.557
       225 -11.0343    114.4605    168.6357   1.0891795218e+02   2.5712906730e+01    0.2907774    0.1841541  49.40  0.001125258    1.412    0.292
       226  -9.8792     14.8768    169.4846   1.2951410544e+02   3.8294115870e+01    0.1387703   0.09131584  47.06 0.0003514763    1.483    0.326
       227 -10.6378      2.1223    169.0283   1.3194946149e+02   3.9472331504e+01    0.1557765    0.1166178  68.18   0.00124677    1.152    0.132
       228  -9.7072     22.4077    175.7236   1.2843840509e+02   3.6373764296e+01    0.1354628   0.08311924 -77.32 0.0008822674    1.452    0.311
       229  -9.6926     70.7506    163.3466   1.1748113480e+02   3.3329196354e+01     0.179078    0.1085553  47.56 0.0002918979    1.522    0.343
       230 -10.8621     73.8739    166.0724   1.1713177884e+02   3.2355752496e+01    0.3052463    0.1728202 -65.10 0.0008633367    1.729    0.422
       231 -10.9395     75.9240    161.9730   1.1620690831e+02   3.2907091199e+01    0.2069302    0.1540294 -76.66  0.000398346    1.262    0.208
       232  -9.9370    197.3469    165.7639   9.2056024253e+01   1.1023253016e+01    0.1739351    0.1206622 -23.28 0.0005890082    1.624    0.384
       233  -9.5075    104.9353    165.9074   1.1052312198e+02   2.7788888791e+01    0.1440885    0.1254414  70.26 0.0009222095    1.019    0.019
       234 -11.2653     81.9054    166.0930   1.1543163428e+02   3.1234713802e+01    0.2785674    0.1727316  35.16   0.00155166    1.826    0.452
       235  -9.7565     37.3857    165.7425   1.2473566576e+02   3.6837011246e+01    0.1399149   0.08980432 -74.78 0.0002771341    1.408    0.290
       236 -11.9194     23.8708    164.1078   1.2737324046e+02   3.8530311104e+01    0.2671276    0.1589915  39.88 0.0006076735    1.750    0.429
       237 -10.0898    202.8626    164.2175   9.0762920997e+01   1.0202064856e+01    0.1813239    0.1433949  10.86  0.001053254    1.310    0.237
       238 -12.1615    141.0956    160.8784   1.0213435199e+02   2.2508945181e+01    0.3078822    0.2500621 -63.60  0.000324776    1.343    0.256
       239 -11.4608     52.2090    157.9539   1.2088466820e+02   3.6773386619e+01    0.2211673    0.1848032 -73.69 0.0003241253    1.273    0.214
       240 -11.7428     34.8537    158.4398   1.2465170834e+02   3.8593075173e+01    0.3910552    0.1803845  58.93 0.0008170215    1.989    0.497
       241 -10.0533     27.2492    157.7792   1.2620351848e+02   3.9491672945e+01    0.1817674    0.1354045 -54.09   0.00057177    1.739    0.425
       242  -9.9493     18.8125    160.5571   1.2815771613e+02   3.9719069745e+01    0.1405475   0.09682359  45.08 0.0009958042    1.502    0.334
       243  -9.6551    223.7766    159.0319   8.6089122676e+01   6.9791674926e+00    0.1598901    0.1029127 -29.35  0.000395432    1.593    0.372
       244 -10.1337    148.9557    159.1441   1.0020812739e+02   2.1363172343e+01    0.1943409    0.1645404  69.84 0.0002783121    1.222    0.181
       245 -10.6356    114.4663    158.4415   1.0736619433e+02   2.7686463221e+01     0.218154     0.187118  63.97 0.0003320414    1.042    0.041
       246 -11.4423    107.4941    158.2125   1.0883981348e+02   2.8893828658e+01     0.268628    0.2016454  50.91 0.0009164615    1.231    0.187
       247 -11.0534     46.3179    158.9257   1.2225110141e+02   3.7252288652e+01    0.1998138    0.1493384  57.77 0.0003719119    1.229    0.186
       248 -10.7304    248.4185    157.7609   8.1821993745e+01   2.6594829561e+00    0.1771442    0.1088042 -12.58 0.0009494052    1.660    0.398
       249  -9.2891     11.3887    158.2705   1.2952607155e+02   4.0835177210e+01   0.09538218   0.07573542 -54.37 0.0006989836    1.714    0.417
       250 -10.5566    163.2083    156.4596   9.6818206233e+01   1.9112924915e+01    0.3439523    0.2150151  23.45  0.001559707    2.233    0.552
       251 -10.1727     70.9903    154.8129   1.1640482942e+02   3.5059086693e+01    0.1651021    0.1537033 -85.13 0.0002933935    1.244    0.196
       252 -10.1920    113.4885    154.0285   1.0687116463e+02   2.8727831772e+01    0.1943184    0.1270323 -62.12   0.00102581    1.587    0.370
       253 -10.0000     65.6822    151.9788   1.1723994703e+02   3.6356380645e+01    0.1691206    0.1318882 -87.13 0.0001960134    1.113    0.102
       254 -10.9626    249.0569    151.0124   8.0344927914e+01   3.3721005152e+00    0.1919905    0.1638026   5.53 0.0003178147    1.029    0.029
       255 -10.8708    224.8702    149.4756   8.3947085572e+01   8.0761309681e+00    0.3731161    0.1772992  27.53 0.0008288912    2.859    0.650
       256 -10.7612     79.3286    149.6507   1.1385289067e+02   3.4989233193e+01    0.3363246    0.1725194  60.37  0.001037869    2.107    0.525
       257  -9.9206     51.6026    149.2878   1.2009391313e+02   3.8666472845e+01    0.1558138   0.09797323 -66.86 0.0002711167    1.480    0.324
       258 -11.0947     96.4470    154.3332   1.1067995774e+02   3.1451178937e+01    0.2943486    0.2478245 -28.14  0.001550767    1.714    0.417
       259 -10.0487      4.4272    144.3088   1.3010838713e+02   4.4255795094e+01     0.211612   0.07638261 -73.86  0.001129539    2.157    0.536
       260  -9.8423     84.8288    143.8318   1.1174646551e+02   3.5424112039e+01    0.1734758    0.1311427  78.77  0.001010972    1.270    0.212
       261 -10.1683    242.2381    142.4261   7.9607915816e+01   5.7156146710e+00    0.1641665    0.1254774  54.94 0.0003295919    1.568    0.362
       262 -11.3564    132.2477    140.5743   1.0031858217e+02   2.8046452837e+01     0.238184    0.2242727  88.66 0.0003480874    1.046    0.044
       263 -10.0215    109.0245    140.2857   1.0554057168e+02   3.2299668801e+01    0.1869769    0.1654776  65.09 0.0004404605    1.061    0.058
       264  -9.8105     72.5174    140.4665   1.1414074702e+02   3.7907983418e+01    0.1272583    0.1094256  87.36 4.347527e-05    1.029    0.028
       265 -10.5490     66.0014    138.9833   1.1547931818e+02   3.9103736223e+01     0.182948    0.1538321  86.26  0.001185687    1.007    0.006
       266 -10.5788     34.1430    137.8549   1.2288642880e+02   4.3021565114e+01    0.2461797    0.1784413  42.09  0.001641138    1.518    0.341
       267 -10.7270     95.9310    135.8015   1.0783071830e+02   3.5426952782e+01    0.2973135    0.2486601  55.18  0.001212372    1.172    0.147
       268 -10.5058     48.6235    138.1767   1.1950816283e+02   4.1404824501e+01    0.1658659   0.09533238 -63.44 0.0003960424    1.598    0.374
       269 -10.1762     40.7206    133.6777   1.2087137641e+02   4.3256661874e+01    0.2105086    0.1188465  85.80 0.0007837929    1.727    0.421
       270 -11.1759     28.5513    132.4194   1.2365694564e+02   4.4745818397e+01    0.2002583    0.1573297 -83.09  6.48307e-05    1.090    0.082
       271 -11.0566     26.0628    129.9816   1.2400950645e+02   4.5508466590e+01    0.1758008    0.1421292  75.41 0.0004275441    1.125    0.111
       272 -10.5873     61.9304    131.0423   1.1535044082e+02   4.1374244531e+01    0.1862463    0.1575283 -85.17  0.001205502    1.040    0.038
       273 -10.1535     34.0000    130.0202   1.2208849691e+02   4.4747244831e+01    0.2488991    0.1047335 -53.72 0.0009686183    2.557    0.609
       274 -10.0727     37.0986    126.5987   1.2093463120e+02   4.5193770896e+01    0.2139907     0.141325 -64.16  0.001317029    1.389    0.280
       275  -9.2380      9.6805    131.2693   1.2801172345e+02   4.6602843241e+01     0.113828   0.06473825  68.12 0.0001932026    1.562    0.360
       276  -9.5977    121.8879    130.1649   1.0062138545e+02   3.2108102098e+01    0.1765138    0.1659496  -6.92 0.0003428083    1.293    0.226
       277 -10.9325     91.5849    127.2646   1.0737641086e+02   3.7973769237e+01      0.25546    0.2304606  30.47   0.00063088    1.343    0.255
       278  -9.6101     48.5217    130.9654   1.1864494324e+02   4.3001202415e+01     0.179591    0.1037839 -71.30  0.000426432    1.491    0.329
       279  -9.7372     30.2105    125.8038   1.2255593451e+02   4.6042921908e+01    0.1476772     0.121733 -64.25 0.0003344098    1.302    0.232
       280  -9.6412     20.4769    126.4875   1.2502074453e+02   4.6765218200e+01    0.1172412    0.0897791 -89.31 0.0008100985    1.006    0.006
       281 -11.4422     57.1157    124.6473   1.1563057482e+02   4.3398770840e+01    0.2478264    0.2205014  27.15 0.0008312061    1.457    0.313
       282 -10.2283      3.7588    124.9167   1.2891738726e+02   4.8401192605e+01     0.160679    0.1137864 -75.73 0.0002539532    1.208    0.172
       283 -10.2715     63.9538    122.4734   1.1354919535e+02   4.3026895000e+01    0.1832833    0.0900631  59.63 0.0008085384    2.448    0.591
       284  -9.6162     39.3118    122.3025   1.1985166707e+02   4.5925070846e+01    0.1155398   0.08455876 -48.74 0.0007018268    1.610    0.379
       285  -9.9713     83.8306    121.6034   1.0829680828e+02   4.0427612417e+01    0.1910948     0.114644  53.83 0.0009432767    1.731    0.422
       286 -10.8313     18.9023    114.8062   1.2423289015e+02   4.9473552265e+01    0.1958824    0.1251168 -69.28 0.0004572811    1.302    0.232
       287  -9.8839     21.7297    121.3251   1.2419533589e+02   4.7793814905e+01    0.1937584   0.09679099 -80.78 0.0002849962    1.653    0.395
       288 -10.7403     19.5582    118.4691   1.2444896354e+02   4.8607426383e+01    0.2858313    0.1394162  37.59  0.001629527    2.200    0.546
       289  -9.5227    116.3772    120.2005   9.9861354330e+01   3.5227867604e+01    0.1326991     0.107742  21.19 0.0002411358    1.578    0.366
       290 -10.4768     93.1824    118.8218   1.0537731195e+02   3.9575148615e+01     0.353208    0.2662069 -84.48  0.001757813    1.391    0.281
       291  -9.6582    100.9790    119.5367   1.0354182184e+02   3.8118425639e+01    0.1904114    0.1324702  48.13 -4.314476e-05    1.452    0.311
       292  -9.1960    147.3379    118.2979   9.2153782531e+01   2.9454870728e+01    0.1465707    0.1168508   9.63  0.000703294    1.658    0.397
       293 -10.4033     54.9352    117.7385   1.1515777529e+02   4.5217191279e+01     0.202989    0.1558853 -76.63 0.0003992519    1.109    0.098
       294  -9.6946    138.5548    115.5640   9.3521217666e+01   3.1832897889e+01    0.1431957    0.1396252  80.02 5.475671e-05    1.014    0.014
       295 -10.6766      1.4964    115.0059   1.2869491333e+02   5.0696634001e+01    0.2307618   0.07501786 -71.48  0.001145249    2.244    0.554
       296 -10.3733    107.0611    114.0754   1.0085306848e+02   3.8244891693e+01    0.3287945    0.1789066  39.38  0.001457119    1.987    0.497
       297  -9.3614     60.6607    114.3179   1.1308795006e+02   4.5289103162e+01    0.1361052    0.0886764  75.33 0.0007049079    1.708    0.414
       298 -10.9789     29.3877    112.6378   1.2122403047e+02   4.9057485782e+01    0.3098524    0.2033887  38.52  0.001935538    1.723    0.420
       299 -11.3191    149.8608    111.2907   8.9899289737e+01   3.0293301521e+01    0.2461179    0.2342174 -50.48 0.0002156738    1.057    0.054
       300 -10.2332    120.5345    112.1235   9.7038543006e+01   3.6154015011e+01    0.2063062    0.1887994  58.79 0.0003382396    1.094    0.086
       301 -11.0963     74.5844    111.9706   1.0893074850e+02   4.3950485062e+01    0.2279568    0.1895733  51.96 0.0001942152    1.266    0.210
       302 -11.2244     38.0295    110.8377   1.1866124539e+02   4.8638076726e+01    0.3916684    0.1712264 -70.35 0.0006800955    1.918    0.478
       303 -10.6435     86.1698    110.0330   1.0544055347e+02   4.2651781618e+01    0.2917532    0.2001966  72.10  0.001466928    1.727    0.421
       304 -10.7377     20.6135    109.2453   1.2316286378e+02   5.0575957740e+01    0.2949499     0.148603 -46.73  0.001554333    2.392    0.582
       305 -10.3010     64.5800    107.5825   1.1083927210e+02   4.6316516592e+01    0.4526515    0.2137161  89.91   0.00131206    5.837    0.829
       306 -11.5229      2.9947    106.6109   1.2758888717e+02   5.2436311382e+01    0.4865019    0.1293464 -79.29   0.00202858    3.098    0.677
       307  -9.3678    112.7205    105.2783   9.7396222234e+01   3.9107870229e+01    0.1402369    0.1094224  88.43 0.0002011872    1.504    0.335
       308 -10.5858    161.0486    102.8727   8.5279773098e+01   2.9432504681e+01    0.2155814    0.2107065  27.66 0.0003021201    1.033    0.032
       309 -10.6457     75.8123    102.7876   1.0677309169e+02   4.5852245315e+01    0.2709177    0.2340807 -29.69  0.001600214    1.428    0.300
       310 -11.1988     71.2608    101.2993   1.0774624144e+02   4.6840575826e+01    0.4013306    0.3070045  -8.75  0.001499005    2.045    0.511
       311 -11.3944     43.4047    102.0281   1.1582868808e+02   5.0091779647e+01    0.3684881    0.2077654 -67.27 0.0009816501    1.477    0.323
       312 -12.4478     53.1523    100.2015   1.1271438027e+02   4.9423314475e+01    0.5297619     0.397782 -27.75  0.001849829    1.843    0.457
       313 -10.1876     58.0592    100.4841   1.1135385874e+02   4.8767404918e+01    0.2465643    0.1285526  35.69 0.0005759477    2.171    0.539
       314 -10.0053     29.2672    103.0637   1.1999691788e+02   5.1232419568e+01    0.1704304    0.1249527 -78.36  0.000355123    1.093    0.085
       315  -9.8989     18.7758    103.5674   1.2299312748e+02   5.1997128792e+01     0.158622   0.09516329  49.31 0.0009581321    1.780    0.438
       316 -11.0827      9.2073    101.7175   1.2542815368e+02   5.3110761296e+01    0.3786447    0.1467697 -69.49 0.0005575664    1.919    0.479
       317 -10.5236    135.2838    101.1664   9.0740471864e+01   3.5442222900e+01    0.2995817    0.2201031 -25.66 0.0007927836    1.647    0.393
       318  -9.2739    177.6855    100.7388   8.1231039226e+01   2.5994116000e+01    0.1496803    0.1155823  19.57 0.0002132798    1.538    0.350
       319 -11.0918     86.0885     97.9214   1.0282485861e+02   4.5379393988e+01    0.4532343    0.2633951 -43.95  0.001501976    1.800    0.445
       320 -10.7050     81.1016     95.8087   1.0375133216e+02   4.6635874688e+01    0.2859636    0.1922922  53.83  0.001000332    1.633    0.388
       321 -10.6991     36.5788     98.3522   1.1720421701e+02   5.1623635147e+01    0.3436994    0.1113421 -73.95  0.001273563    3.329    0.700
       322 -12.9323    106.4235     97.6034   9.7170542752e+01   4.1941880670e+01    0.3105756    0.2783268  47.26  0.001741935    1.180    0.153
       323  -9.7288     16.4631     99.5110   1.2314842950e+02   5.3086388414e+01    0.1192894   0.09145704 -82.63 0.0008093409    1.021    0.020
       324  -9.7634      4.6711     98.9822   1.2639781238e+02   5.4016011425e+01     0.230866   0.09614731  56.32  0.001172583    2.673    0.626
       325 -10.9211     62.7792     96.0680   1.0911566031e+02   4.9178198663e+01     0.209965    0.1797553  68.64 0.0003305647    1.223    0.182
       326 -11.4493     23.9540     91.6989   1.1991174250e+02   5.4267652417e+01    0.3160584    0.2005782 -34.69  0.001823746    2.098    0.523
       327  -9.9365      1.4911     92.9704   1.2667517067e+02   5.5542117838e+01    0.1768019   0.08663667 -78.92  0.000956305    1.550    0.355
       328 -10.8318    105.9756     91.2572   9.5663662333e+01   4.3396554634e+01    0.2410335    0.1965744 -52.91 0.0002998016    1.158    0.136
       329  -9.5750     54.3138     92.6897   1.1094227440e+02   5.1004851604e+01    0.1312383   0.09183508  79.93 0.0006372314    1.631    0.387
       330 -10.5691    113.8444     90.8715   9.3444950900e+01   4.1971048255e+01    0.2574154    0.2172493  67.35 0.0003637387    1.278    0.218
       331 -11.8355      9.3140     85.9319   1.2354073534e+02   5.6635684170e+01     0.219355    0.1683696 -74.91 0.0002888618    1.035    0.034
       332 -11.1151      6.4009     89.7869   1.2489201478e+02   5.5956212974e+01    0.4629697    0.1991678  56.24  0.002351922    2.736    0.635
       333 -10.8234     87.9753     89.1055   1.0016081803e+02   4.7036883933e+01    0.3132281     0.187449 -48.37  0.001360513    1.562    0.360
       334 -11.1659     77.9340     88.1954   1.0287543846e+02   4.8829359863e+01    0.2347563    0.1781596 -53.99 0.0002914149    1.193    0.162
       335 -11.2009     28.1214     85.8431   1.1771373697e+02   5.5250762943e+01    0.3811377    0.2916678 -76.22  0.002507924    1.070    0.066
       336 -10.1702    154.4634     86.1921   8.2162709465e+01   3.4093955124e+01    0.3031288    0.2159125 -12.52  0.001319451    1.852    0.460
       337 -10.8546     63.4928     86.9109   1.0692823916e+02   5.1168782833e+01     0.223069     0.213807 -45.24 0.0004958107    1.177    0.150
       338 -11.3890     48.9160     84.8543   1.1100272076e+02   5.3419673872e+01    0.4758519    0.2375219 -41.10  0.001225088    2.407    0.585
       339 -10.2517     53.5151     82.5203   1.0905006496e+02   5.3418418616e+01    0.2064323      0.18439  56.05 0.0006818629    1.260    0.206
       340 -10.3730     98.3433     84.0678   9.5857988752e+01   4.6348478254e+01    0.2099776    0.1976711  11.72 0.0003873288    1.214    0.176
       341 -10.4562     89.5451     81.8558   9.7803259529e+01   4.8367849957e+01    0.2086867    0.1947972   7.68 0.0003577475    1.245    0.197
       342 -10.1080     20.0412     81.9774   1.1962868926e+02   5.6779597022e+01     0.182405    0.1438539 -71.79 0.0004501777    1.023    0.023
       343 -10.0136     77.0416     80.9552   1.0132188024e+02   5.0579348990e+01    0.2122505     0.159689 -27.63 0.0009620687    1.630    0.387
       344 -10.7735     42.9511     80.1730   1.1192743670e+02   5.5133171875e+01    0.2922589    0.1833087 -68.34  0.001572264    1.375    0.273
       345 -10.5787    132.6165     82.6994   8.6306458375e+01   3.9738099681e+01    0.3044102    0.2283044  51.72  0.001134014    1.375    0.273
       346 -10.1258     74.1448     79.0474   1.0171711419e+02   5.1438763824e+01    0.2354466    0.1400525 -34.86  0.001073962    2.063    0.515
       347 -10.2426     68.0548     78.9332   1.0359400842e+02   5.2344250285e+01    0.2017572    0.1753719 -50.86  0.000479121    1.087    0.080
       348  -9.9275     96.9997     77.5209   9.4401778812e+01   4.7994078148e+01    0.1989742    0.1286615  15.86 0.0008099236    2.650    0.623
       349 -12.0004     52.2415     74.7974   1.0767924304e+02   5.5314531653e+01    0.3612728    0.3425618 -47.15  0.002417308    1.159    0.137
       350  -9.7143    131.2110     75.3868   8.4465246606e+01   4.1484887434e+01    0.1948641    0.1455609  62.73  0.000218214    1.493    0.330
       351  -9.3167    141.2165     73.9843   8.1585301856e+01   3.9478255786e+01    0.1973965    0.1217556 -38.76 0.0008407662    1.580    0.367
       352  -9.8447     80.9045     74.3058   9.8323586566e+01   5.1435507391e+01    0.1798656    0.1747878 -78.66  0.000540327    1.094    0.086
       353  -9.7618     69.3491     74.0918   1.0191570237e+02   5.3235668999e+01    0.1939432    0.1155265 -64.35 0.0006450058    1.712    0.416
       354 -11.1767     59.1389     73.8334   1.0516621767e+02   5.4680090723e+01    0.2518378    0.2115468  88.50  0.000713673    1.305    0.234
       355 -10.4830    152.2934     73.0095   7.8724494311e+01   3.7040929282e+01    0.2497144    0.2188212  56.37 0.0008479644    1.170    0.145
       356  -9.8358     35.8568     71.8559   1.1251562464e+02   5.7725320928e+01    0.1666824     0.135102  81.12 0.0005408746    1.345    0.257
       357 -11.1287     53.1079     69.6365   1.0610673572e+02   5.6364984937e+01    0.2363487      0.18182 -63.62 0.0002722012    1.148    0.129
       358 -10.5731     87.7449     69.0744   9.4667784959e+01   5.1419621725e+01    0.2243196    0.2053667  34.14 0.0006554216    1.208    0.172
       359  -9.4426     79.7418     69.6755   9.7350259706e+01   5.2620944235e+01    0.1370424     0.101425 -28.15 0.0001924116    1.552    0.356
       360 -11.0159     45.2260     68.8300   1.0860176036e+02   5.7448293581e+01    0.3235654     0.183115 -38.64 0.0009392079    1.960    0.490
       361 -10.8085     47.9124     63.1196   1.0620004279e+02   5.8414735639e+01    0.2614041     0.151575 -58.27 0.0003318609    1.456    0.313
       362 -11.5890     22.3170     67.7354   1.1634786075e+02   5.9817578405e+01    0.3523536    0.2138528 -82.05  0.001103123    1.625    0.384
       363  -9.9190     17.6136     67.0022   1.1785746020e+02   6.0329321754e+01    0.1569806     0.143967 -68.11  0.001158765    1.179    0.152
       364  -9.6692     75.4620     66.5132   9.7783030953e+01   5.3972405144e+01    0.1384412    0.1227083 -49.25 8.572759e-05    1.009    0.009
       365 -10.8504      1.3719     66.0168   1.2336519697e+02   6.1534496352e+01    0.1743714   0.08492846 -74.55 0.0004309336    1.570    0.363
       366  -9.8042    112.3610     65.3306   8.6252074822e+01   4.7506077179e+01    0.2267112    0.1736732  -1.65 0.0006237992    1.733    0.423
       367  -9.6910    136.9863     63.6799   7.9314992722e+01   4.2367619499e+01    0.2011297    0.1939782  46.90 0.0004271896    1.065    0.061
       368 -10.4325     16.0260     62.4827   1.1755946636e+02   6.1447648421e+01    0.3984661    0.1056504 -56.77  0.001727962    2.557    0.609
       369 -10.7687      9.6286     62.7982   1.1992774138e+02   6.1789301859e+01    0.2078566    0.1672271   4.74 0.0009487099    1.658    0.397
       370 -11.4734      5.9855     59.2331   1.2062041837e+02   6.2788565289e+01    0.2465812    0.2113483   3.36  0.000941745    1.544    0.352
       371 -12.3094     23.6373     57.0454   1.1358117896e+02   6.2091249589e+01    0.5567142    0.4348784  14.76  0.003747169    1.638    0.390
       372 -10.2909     28.6889     53.7083   1.1083767272e+02   6.2404400572e+01    0.1952987     0.173464 -61.47 0.0006683556    1.111    0.100
       373 -10.9976     68.5698     60.8094   9.8335728318e+01   5.6225892528e+01    0.3714345    0.2223642  40.56  0.001598616    1.894    0.472
       374  -9.3600     53.3353     61.6578   1.0387639561e+02   5.8093237235e+01    0.1311181   0.09764052  86.97 0.0007050504    1.761    0.432
       375 -10.2075     39.2050     60.7185   1.0870038287e+02   5.9880188952e+01    0.1918671    0.1572798  34.83  0.001238911    1.469    0.319
       376  -9.4548    169.4464     60.6083   7.1224616304e+01   3.4917715821e+01    0.1515893    0.1471436  21.13 -3.080641e-06    1.046    0.044
       377 -10.3695     48.0119     58.6969   1.0494624382e+02   5.9369630567e+01    0.1691576    0.1582481 -47.37 0.0004336783    1.120    0.107
       378  -9.8906     31.2745     59.0128   1.1118988885e+02   6.1013604339e+01    0.1745534    0.1288949 -63.59 0.0003569144    1.120    0.107
       379  -9.5795    110.7180     57.3179   8.4012366489e+01   4.9388793751e+01    0.1454972    0.1142672 -69.95 0.0004822467    1.582    0.368
       380 -10.3286    225.8748     55.8228   6.0612130232e+01   2.1354756647e+01     0.205519    0.1898611   9.54 0.0003008686    1.142    0.125
       381 -11.1519    132.6877     55.7789   7.7700422610e+01   4.4783435448e+01    0.2496093    0.2401626 -65.45 0.0003078681    1.091    0.083
       382  -9.9942     78.9972     56.2604   9.3362608529e+01   5.5549070338e+01    0.1933197    0.1737583 -38.55 0.0005786208    1.021    0.021
       383 -10.2375     58.8916     56.5670   1.0039131208e+02   5.8477903417e+01    0.1789435     0.132407  31.28  0.001017982    1.580    0.367
       384 -10.5152     52.1275     55.6789   1.0256309717e+02   5.9530695066e+01    0.2457309    0.1621324 -66.40 0.0007370032    1.578    0.366
       385  -9.5536     53.6994     52.2737   1.0093021732e+02   6.0057049531e+01    0.1832192    0.1032939 -45.44 0.0001962681    1.528    0.346
       386 -10.5409    118.5122     54.9762   8.1056195903e+01   4.8149447940e+01    0.2095325    0.1305518 -11.96 0.0007931899    2.447    0.591
       387 -12.0471     40.4426     53.1240   1.0617051518e+02   6.1406517612e+01    0.3209833    0.2460268 -32.60  0.001029752    1.347    0.258
       388 -10.5886     61.0028     51.4209   9.7977841260e+01   5.9268994456e+01    0.2547134    0.1573299 -38.57 0.0006150006    1.526    0.345
       389  -9.5661    174.4277     50.5372   6.7054235993e+01   3.5209016417e+01    0.1514881     0.147911 -10.50   1.9026e-05    1.024    0.024
       390  -9.8929    128.9996     49.7488   7.6490259011e+01   4.6687095958e+01    0.2047243    0.1928923  27.35  0.000396028    1.081    0.075
       391 -11.8432     97.7378     49.1413   8.4880585575e+01   5.3551176549e+01    0.4412955    0.3101685 -63.85  0.001367055    1.866    0.464
       392 -10.6130     65.5259     49.8576   9.5819077654e+01   5.8945420850e+01    0.2450102    0.1805063 -49.92 0.0008294201    1.216    0.178
       393 -10.6001     17.0957     46.7146   1.1366086263e+02   6.4830485201e+01    0.2601177    0.1487554 -41.65  0.001336234    1.634    0.388
       394 -11.5729     12.4522     46.4896   1.1550141073e+02   6.5190181362e+01    0.2956829    0.2122411 -89.68 0.0003789724    1.550    0.355
       395 -10.2677     74.6178     48.1934   9.2033844461e+01   5.7877512350e+01     0.206939    0.1142045 -36.71 0.0009508923    1.746    0.427
       396  -9.4359    150.6819     53.6921   7.2829793793e+01   4.0777347068e+01    0.1584395    0.1182981  19.65 0.0007031418    1.635    0.389
       397 -10.3909    122.9123     46.1685   7.6726213474e+01   4.8702126672e+01    0.2627901    0.2072237 -31.29 0.0007100365    1.224    0.183
       398 -10.2180    114.3298     46.9682   7.9294748392e+01   5.0491041143e+01    0.2089613    0.1755546 -30.68 0.0002919195    1.136    0.120
       399 -11.4557     61.8093     44.8521   9.5408998423e+01   6.0488771374e+01     0.330661    0.2081019 -36.95 0.0003566252    1.474    0.322
       400 -13.3139     56.7249     41.0874   9.5954388701e+01   6.1943718718e+01    0.3181068    0.2649472 -36.33 0.0006823938    1.043    0.041
       401  -9.2646    205.2586     46.7038   6.0850783900e+01   2.7753745388e+01    0.1502293    0.1077423 -56.12 0.0001749823    1.501    0.334
       402 -10.1722     21.5371     44.9660   1.1138439698e+02   6.4877925304e+01    0.1853168   0.09698803 -62.48 0.0007669065    1.550    0.355
       403 -10.5035     80.9362     43.1699   8.8009680134e+01   5.7779115899e+01    0.2286713    0.1769818 -38.67 0.0002831013    1.165    0.142
       404  -9.6704     34.1658     44.3982   1.0604169994e+02   6.3896767581e+01    0.1595992    0.1105179  46.00 0.0009443789    1.845    0.458
       405 -10.7541    141.5016     42.3880   7.0891147730e+01   4.4862059130e+01    0.2481046    0.2442525  -3.74 0.0001577735    1.015    0.015
       406 -10.5083     70.1058     41.6671   9.1200953935e+01   5.9863222423e+01    0.2231012    0.1644368 -48.94 0.0003451756    1.291    0.225
       407  -9.6860     39.1038     40.1849   1.0265558889e+02   6.4266702219e+01    0.1632667    0.1125213   6.27 0.0008384028    1.894    0.472
       408 -10.4607     18.8094     40.9255   1.1141735745e+02   6.5943420926e+01    0.2439442    0.1385093  37.42  0.001420178    2.217    0.549
       409  -9.9917     86.6131     50.1922   8.8749684570e+01   5.5441983109e+01    0.2059243     0.122017 -33.72 0.0008360571    1.682    0.406
       410 -10.5395     13.3433     38.8918   1.1320901128e+02   6.6755472206e+01    0.3028034    0.1738421 -62.66  0.001658831    1.374    0.272
       411 -10.7405      9.8596     39.1245   1.1478065685e+02   6.6926576878e+01    0.2579159    0.1421148 -42.77 0.0008621609    1.610    0.379
       412 -11.2235    103.6361     39.0353   7.9265437342e+01   5.4141477382e+01     0.255478    0.2361673 -59.90  0.000397007    1.214    0.176
       413  -9.9109     41.4776     37.2850   1.0066161689e+02   6.4593900758e+01     0.269929     0.176025 -79.11 0.0009785007    2.557    0.609
       414 -10.3335      4.4460     36.8710   1.1658054228e+02   6.7710650217e+01    0.2446705    0.1587973 -89.84   0.00123772    1.806    0.446
       415 -10.7676    193.9006     35.2920   5.9003261310e+01   3.2221486847e+01    0.2510854    0.2126866 -20.46 0.0003171661    1.195    0.163
       416  -9.6342    209.6509     35.2872   5.6849565822e+01   2.8113100248e+01    0.1561968    0.1056307 -62.38 0.0004444286    1.659    0.397
       417 -11.2015    119.0510     33.8190   7.2989818827e+01   5.1569516143e+01     0.343487    0.2891893 -68.48   0.00179534    1.441    0.306
       418 -10.5512     60.7197     34.1423   9.1731455101e+01   6.2711093692e+01    0.2634611    0.1520584 -45.60 0.0008176137    1.542    0.352
       419 -10.6332     55.8580     34.1693   9.3638291099e+01   6.3399249395e+01    0.3016109    0.2149258  60.08  0.001263608    2.111    0.526
       420 -10.4984     29.3795     34.2487   1.0476119611e+02   6.6448311020e+01    0.1906185    0.1752524 -67.38 0.0004691937    1.248    0.199
       421 -11.4986    140.0256     33.2551   6.7845979427e+01   4.6582398764e+01    0.4851203    0.3526492  51.99  0.001750322    1.364    0.267
       422  -9.9226     91.9369     33.6825   8.0626742697e+01   5.7414323222e+01    0.1857811    0.1749125  16.11 0.0002009354    1.098    0.089
       423 -11.7484     77.4740     33.2720   8.5233764230e+01   6.0172193551e+01    0.3008802    0.2623362  63.25 0.0009698546    1.453    0.312
       424  -9.2694     35.6977     34.7206   1.0218333777e+02   6.5731722942e+01     0.123121    0.0807417 -29.82 0.0003681814    1.547    0.353
       425 -10.1535     87.2948     33.6498   8.2093888914e+01   5.8316603087e+01    0.1376454    0.1070764 -63.29 0.0007032382    1.679    0.404
       426 -10.8902    206.5415     31.4940   5.6114630156e+01   2.9387914240e+01    0.2494846    0.2354268  72.08 0.0007312153    1.083    0.077
       427  -9.4984      5.2830     32.2981   1.1502760966e+02   6.8625092787e+01    0.1172424   0.06356223 -44.20 0.0002021697    1.545    0.353
       428 -10.6956    246.7991     30.8270   5.1448488608e+01   1.9474008171e+01    0.2257545     0.204841 -27.05 0.0005307621    1.084    0.078
       429 -10.7278     33.9229     30.1919   1.0129293918e+02   6.6812891532e+01    0.2364849     0.189415 -19.87  0.001566135    1.275    0.215
       430 -11.8145    107.1172     30.6567   7.4882884779e+01   5.4738682391e+01    0.5171652    0.3170958 -22.51  0.002377362    1.686    0.407
       431 -10.1792     24.1072     30.6823   1.0588694986e+02   6.7640167565e+01    0.1918723    0.1014131  34.62  0.001064075    2.336    0.572
       432  -9.7121     50.9099     28.8453   9.3461276032e+01   6.5065329799e+01    0.1561018    0.1445771 -69.18   0.00039757    1.360    0.265
       433  -9.7530     19.2570     29.6363   1.0775850641e+02   6.8248169702e+01    0.1879704    0.1385733  83.09 0.0003241422    2.011    0.503
       434 -11.6722    102.0590    245.9424   1.1961110552e+02   1.4832510700e+01    0.4132028    0.1694407  52.69  0.001954452    1.879    0.468
       435 -10.7837     72.6824     27.9054   8.4629768835e+01   6.1919912696e+01    0.5010353    0.1505172  41.95  0.001791426    3.682    0.728
       436 -10.9004     99.2855     26.8992   7.5526485332e+01   5.6990753646e+01    0.3634985    0.2010603  50.72  0.001654692    1.884    0.469
       437 -11.0992    242.9963     25.3949   5.0378305044e+01   2.0991990102e+01    0.2486252    0.1849831 -30.64 0.0004169783    1.232    0.188
       438 -11.9763      1.9041     25.4524   1.1471587082e+02   7.0215953826e+01    0.2622866    0.1300147 -66.07  0.001520419    1.647    0.393
       439 -10.3560      5.9575     23.3393   1.1207660318e+02   7.0424012924e+01    0.2540194    0.1341816 -55.64  0.001017473    1.385    0.278
       440 -11.7646      7.2502     18.0797   1.0963916924e+02   7.1392418644e+01    0.2097392    0.1767721 -33.02 0.0003818389    1.181    0.153
       441 -10.9708    131.7286     23.3953   6.5830681613e+01   4.9989996275e+01    0.4512116    0.2148453 -28.71   0.00181996    2.038    0.509
       442 -10.0153     90.1191     24.8339   7.7397903417e+01   5.9183045516e+01    0.2061562    0.1856199 -50.15  0.001103872    1.272    0.214
       443 -10.8553     10.0017     23.0451   1.0997150482e+02   7.0234361450e+01    0.2110427    0.1265909 -56.87 0.0008995105    1.296    0.228
       444 -10.1079    153.7349     23.3565   6.1439530869e+01   4.4367953491e+01    0.2156283    0.1285179  53.26 0.0004795955    1.615    0.381
       445 -12.0388    117.8421     22.5923   6.8714097507e+01   5.3453558906e+01    0.4098339     0.259243  43.81 0.0004036152    1.575    0.365
       446 -10.1942     66.1757     22.7807   8.4728062573e+01   6.3859360579e+01    0.1807995    0.1392663 -10.78 0.0005575918    1.296    0.228
       447  -9.8123     26.1855     22.8744   1.0201031001e+02   6.8990081291e+01    0.1687672    0.1124557 -34.51 0.0007030948    1.305    0.234
       448 -10.7998     85.7233    245.4698   1.2216788959e+02   1.7060184895e+01    0.1941765    0.1474227  54.70 0.0007136802    1.154    0.133
       449  -9.6588     78.8166     22.1867   7.9903256013e+01   6.1756086321e+01    0.1797306    0.1421282  -0.57            0    1.291    0.225
       450 -11.1762     38.5728     21.0990   9.5477214779e+01   6.8022584008e+01    0.3251752    0.2396329  40.15  0.001773295    1.708    0.414
       451 -10.7599    102.0014    240.4830   1.1917795733e+02   1.5609189514e+01     0.228301    0.1001258  42.36 0.0006714019    1.808    0.447
       452 -10.9042    182.2774     18.9221   5.5368342226e+01   3.7290169743e+01    0.3068002    0.2475686   6.89  0.000922107    1.396    0.284
       453  -9.5603     52.5476     20.5747   8.9129801038e+01   6.6308939601e+01    0.1269268    0.1068548 -25.72 4.084135e-05    1.018    0.018
       454 -10.6021    198.4837     18.4083   5.3111536937e+01   3.3029485144e+01    0.2518495    0.2014923 -59.55 0.0007827684    1.265    0.210
       455 -10.7774     92.7697     18.6134   7.3774289861e+01   5.9549816895e+01    0.2815227    0.1784459 -33.68   0.00140819    1.503    0.335
       456  -9.7852     76.8857    246.9816   1.2365885849e+02   1.7967654461e+01    0.3167332    0.1596475  59.26  0.002177385    1.532    0.347
       457  -9.8830     61.0657     17.7010   8.4305308521e+01   6.5502442147e+01    0.1779199    0.1534321  15.21  0.001129652    1.194    0.163
       458  -9.8486    157.9714     17.5169   5.8561747320e+01   4.3940839751e+01    0.2136862    0.1433147  65.39 0.0003571071    1.472    0.321
       459 -12.4137     75.7315    241.0087   1.2344166922e+02   1.8985942699e+01    0.3711325    0.1948627  62.80 0.0008949668    1.562    0.360
       460 -10.3992    112.4631     15.5269   6.7010421877e+01   5.5617160442e+01    0.2630877    0.1998966   6.17 0.0005015963    1.386    0.279
       461 -12.3934     83.6615    237.7576   1.2193885728e+02   1.8454705626e+01    0.3185432    0.1600798  50.98 0.0004952276    1.450    0.310
       462 -11.7203     91.6541    242.3461   1.2099442372e+02   1.6733697412e+01    0.3035708    0.2206472  40.61   0.00144484    1.435    0.303
       463 -12.5036     94.5426    238.5077   1.2022996924e+02   1.6905413438e+01    0.8203227    0.4759312  66.77  0.005609036    1.594    0.373
       464 -11.1728    140.9663    247.1751   1.1349587804e+02   9.1919197163e+00    0.1793851    0.1441692  73.71  0.001248025    1.397    0.284
       465  -9.7443     13.8446     15.3637   1.0515322598e+02   7.1463249557e+01    0.1468142   0.09894929  -5.86 0.0009483995    1.737    0.424
       466  -9.7598    185.6153     13.7823   5.3232535513e+01   3.6956872795e+01    0.2023009     0.126141 -36.71  0.000275099    1.561    0.359
       467  -9.5998    139.3251     14.3053   6.0661850448e+01   4.9168644168e+01    0.1559567    0.1033774  30.82 0.0002850501    1.645    0.392
       468 -10.5886    179.9885     13.5307   5.3882590573e+01   3.8491549001e+01    0.2221629    0.1405413  68.46 0.0004016483    1.546    0.353
       469 -10.9260    148.2498     13.0062   5.8530467410e+01   4.6999862604e+01    0.2850771    0.1650064  49.23  0.001234674    1.662    0.398
       470 -11.5735    136.9761    246.7050   1.1408909865e+02   9.8295320401e+00     0.210542    0.1828774  17.24  0.001713738    1.545    0.353
       471 -10.4170    176.3238     11.3159   5.3625085009e+01   3.9706297697e+01    0.1556487     0.104284  34.93 0.0003517403    1.666    0.400
       472 -12.1318    146.4805    243.3177   1.1221873671e+02   8.8681411061e+00    0.3526945    0.2971639 -38.31  0.001775376    1.665    0.399
       473 -10.8721    143.3267    238.4564   1.1222563881e+02   9.9569801841e+00    0.2701454    0.1562945  40.88 0.0009638735    1.373    0.272
       474  -9.7534      3.0445     11.0000   1.0926294565e+02   7.3016677921e+01    0.1980694    0.0822175  26.74 0.0009258228    2.948    0.661
       475  -9.8717    246.5406     10.5225   4.6175204843e+01   2.1757799610e+01    0.1357288    0.1172895 -50.97 1.203508e-05    1.026    0.026
       476 -11.0483    139.1691    237.8652   1.1284760362e+02   1.0652929846e+01    0.1981371    0.1943894  12.93  0.001316964    1.382    0.276
       477 -11.8873    200.3541    244.8434   1.0380981045e+02   6.7284309116e-01    0.2312089    0.1782047  13.78 0.0004539439    1.340    0.254
       478 -11.0451    202.1084    240.4307   1.0297633746e+02   8.6366617067e-01    0.3242942    0.1188295  44.94  0.001707968    2.163    0.538
       479 -10.2208    197.5668    240.5455   1.0370600483e+02   1.5306822563e+00    0.2230578    0.1367226  35.48 0.0005646618    1.236    0.191
       480 -10.6438    187.4844    245.7055   1.0593100912e+02   2.4883330091e+00    0.1998048    0.1081734  41.64 0.0006460277    1.358    0.264
       481 -12.9539     62.9092    244.5278   1.2568018102e+02   2.0038868468e+01    0.2339607    0.1620827  54.49 0.0006663472    1.146    0.127
       482 -10.0728    162.7772    245.4231   1.0982123879e+02   6.1962288574e+00    0.1528848   0.07872678  37.59 0.0006091964    1.574    0.364
       483 -10.7255    181.4984    242.8735   1.0654032802e+02   3.6896000413e+00    0.1725413    0.1197489  31.75  0.001249962    1.229    0.186
       484 -10.5003    184.5267    240.9968   1.0583171092e+02   3.4421046647e+00    0.1952882     0.165232  83.31  0.001498181    1.756    0.431
       485 -10.4326    191.2885    240.4299   1.0468542697e+02   2.4856265578e+00    0.1924887    0.1652183  15.05  0.001559319    1.258    0.205
       486 -10.7908    129.8353    241.4233   1.1473218732e+02   1.1551006044e+01     0.139144    0.1305512 -79.63 0.0009504586    1.390    0.281
       487  -9.2008     55.4540    242.5034   1.2671935991e+02   2.1221332042e+01    0.1011966   0.06817372  62.62  0.000144568    1.015    0.014
       488 -11.5739    168.0234    238.8697   1.0823566833e+02   6.1842327073e+00    0.1945514    0.1633977  53.53 0.0002948383    1.219    0.180
       489  -9.9671    225.9870    238.6956   9.9042836216e+01  -2.4849143765e+00    0.1510891    0.1065423  28.70 0.0007753326    1.034    0.032
       490 -11.1615    110.0039    238.4144   1.1769663068e+02   1.4795759314e+01    0.2136855    0.1487289 -65.29  0.001593561    1.783    0.439
       491 -11.8882     39.0069    211.8925   1.2763434751e+02   2.8021514165e+01     0.214652    0.1527751  69.79 0.0003587129    1.020    0.019
       492 -10.7523    221.3322    235.2110   9.9279599610e+01  -1.4715323240e+00    0.1691346    0.1363836   2.60 0.0003815028    1.293    0.226
       493 -10.6945    219.3910    231.2336   9.9028065509e+01  -7.9050074482e-01    0.2071578    0.1883676 -34.92 0.0009740146    1.580    0.367
       494  -9.7372    216.9656    236.0470   1.0007218464e+02  -9.0668824022e-01    0.1319094   0.09567337  31.25 0.0004123788    1.018    0.017
       495 -10.5017    187.5076    236.0189   1.0473708425e+02   3.5440871361e+00    0.2008413    0.1233649  49.11 0.0005689912    1.451    0.311
       496 -10.4448    102.3333    234.7247   1.1863935811e+02   1.6396479323e+01    0.2215767    0.1446955 -77.41  0.001520628    1.793    0.442
       497 -10.3944    105.9968    235.2908   1.1808241755e+02   1.5804565325e+01    0.1759711    0.1102915  47.13 0.0002106063    1.237    0.191
       498  -9.8601    132.8210    234.8317   1.1358614736e+02   1.2001862403e+01    0.1461972    0.1017724  58.75 0.0004248014    1.258    0.205
       499 -11.0623    231.3530    233.7502   9.7532777542e+01  -2.8031211786e+00    0.1930912    0.1336281  26.22 0.0004947504    1.085    0.079
