#   1 NUMBER                 Running object number                                     
#   2 MAG_AUTO               Kron-like elliptical aperture magnitude                    [mag]
#   3 X_IMAGE                Object position along x                                    [pixel]
#   4 Y_IMAGE                Object position along y                                    [pixel]
#   5 X_WORLD                Barycenter position along world x axis                     [deg]
#   6 Y_WORLD                Barycenter position along world y axis                     [deg]
#   7 A_WORLD                Profile RMS along major axis (world units)                 [deg]
#   8 B_WORLD                Profile RMS along minor axis (world units)                 [deg]
#   9 THETA_WORLD            Position angle (CCW/world-x)                               [deg]
#  10 FWHM_WORLD             FWHM assuming a gaussian core                              [deg]
#  11 ELONGATION             A_IMAGE/B_IMAGE                                           
#  12 ELLIPTICITY            1 - B_IMAGE/A_IMAGE                                       
         1 -14.5363     68.6292    144.3018   9.9952976822e+01   3.7555520290e+01     5.274529      2.59834  66.19   0.01073409    4.376    0.771
         2 -13.5396    200.2534     41.4379   4.1623389814e+01   3.0144846581e+01     1.187649     1.150132  25.09  0.004089948    1.273    0.215
         3 -11.0133     14.2611     31.8055   9.1562531036e+01   6.8724394342e+01    0.2975176    0.1525301  29.73  0.001654816    2.198    0.545
         4 -13.6335    210.6337     31.4690   3.8034873834e+01   2.9033626941e+01     1.024992    0.8714846  -6.77  0.001830341    1.596    0.373
         5 -12.4435    238.2025      5.4252   3.0068037549e+01   2.6048325387e+01    0.6239671    0.4649163 -44.40  0.004313669    1.318    0.241
         6 -12.0615    232.5513      5.5747   3.0479462157e+01   2.7198654022e+01    0.6337358    0.3223095 -39.32  0.003281628    1.799    0.444
         7 -10.0862     17.3954      4.8266   7.7460702788e+01   7.2534441665e+01    0.1632015   0.08557346 -23.05 0.0009523841    1.716    0.417
         8 -10.3959    121.0061    195.9473   9.5138057147e+01   1.6839676205e+01    0.2772503    0.2101067 -73.31 0.0005060793    1.546    0.353
         9 -10.6662    139.8168    249.8057   9.8870060127e+01   3.4288716310e+00    0.3443692    0.1858487  42.52  0.001814186    1.597    0.374
        10 -13.1563     54.2792    186.6946   1.1002604222e+02   2.8991612616e+01      1.70598     1.029841  72.76  0.008377181    1.837    0.456
        11 -13.2232     21.2329    221.9578   1.2046397604e+02   2.4808452277e+01    0.6359097    0.5570214 -82.35  0.001368562    1.274    0.215
        12 -16.9829     16.0833    243.2403   1.2269216227e+02   2.1046866161e+01     6.440482     2.123752  26.46   0.02518733    4.509    0.778
        13 -14.1021     41.6324    196.5242   1.1406584261e+02   2.8201889191e+01     4.151947     1.592369  67.11   0.01269603    4.500    0.778
        14  -8.5226     38.4327    211.2580   1.1611319120e+02   2.5253037177e+01    0.1699688    0.1008177  85.42 0.0009226284    1.633    0.387
        15  -9.1767    147.4927    187.0066   8.7318366433e+01   1.4086330747e+01    0.2188619    0.1449041 -48.63   0.00102883    1.579    0.367
        16  -9.1801     79.7993    183.1236   1.0323608562e+02   2.6377897543e+01    0.2216248    0.1773606  74.26 0.0006148926    1.267    0.211
        17 -10.0694     99.4459    181.0497   9.7963565587e+01   2.3820520162e+01     0.267936    0.2362735  35.34 0.0006497845    1.154    0.134
        18  -9.7211    187.6906    175.9089   7.6176682851e+01   8.9187804768e+00    0.3534343    0.2905813 -53.34  0.001884502    1.403    0.287
        19 -13.0295     69.8368    154.3887   1.0137509229e+02   3.4854521159e+01    0.6692083    0.5933621 -26.29   0.00129205    1.304    0.233
        20 -16.0118      7.2747    202.0474   1.2201828957e+02   3.0426322900e+01     14.17084      1.12027 -76.02  0.006509331   10.255    0.902
        21  -9.0036    148.1202    174.8354   8.4816636761e+01   1.6570480349e+01     0.229441    0.2048728  79.45 0.0008922777    1.324    0.245
        22  -8.7110    110.7211    168.0091   9.2781502787e+01   2.4992807094e+01    0.2133137    0.1909645 -61.02 0.0004892155    1.123    0.109
        23  -9.9851     32.7027    156.2960   1.1189082121e+02   3.8823790461e+01    0.2823154    0.2482648 -74.32  0.001770933    1.068    0.063
        24 -11.7511     88.6597    152.4795   9.5770362784e+01   3.2491299154e+01    0.7291734    0.4955626 -24.78  0.002089067    2.058    0.514
        25 -10.6829    133.7983    144.8373   8.1951478104e+01   2.6095285581e+01     1.132225    0.3301204 -54.49  0.002854747    4.795    0.791
        26 -11.2896     55.6876    146.9083   1.0414596945e+02   3.8609310449e+01    0.7643628    0.5532749 -59.24  0.004034254    1.262    0.207
        27  -9.1409     48.4738    145.6463   1.0602050852e+02   3.9793205687e+01     0.376166    0.2396608  -4.96  0.001690738    2.499    0.600
        28  -9.1521     38.5603    146.0710   1.0892088841e+02   4.0776409801e+01    0.2658866    0.1708147  50.10  0.001368175    1.676    0.403
        29 -10.3602     28.4835    143.7685   1.1146788604e+02   4.2341287576e+01    0.3164047    0.2508561 -32.21  0.001861132    1.492    0.330
        30  -9.7011     32.9440    143.1492   1.1011463003e+02   4.2073227078e+01    0.2801692    0.2267348  81.43   0.00119113    1.223    0.182
        31  -9.9128    111.6264    129.4736   8.4327740107e+01   3.4054001465e+01    0.3586827    0.2786964   6.94 0.0007833189    1.627    0.385
        32 -10.2384    102.3544    138.5963   8.9055459430e+01   3.3577871968e+01    0.5755069    0.3603389 -21.91  0.002189788    2.538    0.606
        33  -9.9655    105.9435    130.9209   8.6284808500e+01   3.4779619272e+01    0.4017465    0.3426951 -63.41  0.001507314    1.206    0.170
        34 -11.6097     89.7183    138.1579   9.2592083076e+01   3.5865486594e+01    0.2962774    0.2648899 -39.42 0.0003576821    1.135    0.119
        35 -10.7705     28.5073    129.7102   1.0949747005e+02   4.5843589803e+01    0.3813558    0.2046194 -55.31  0.001878382    1.602    0.376
        36 -10.2546    135.5777    128.3138   7.7555842194e+01   2.9504024319e+01    0.4770308    0.1524683 -47.71   0.00142854    3.135    0.681
        37  -9.0800    174.4518    149.2080   7.3239648766e+01   1.6841119779e+01    0.2125979    0.1430599 -53.16  0.000540975    1.626    0.385
        38 -10.4155     39.4989    126.4078   1.0558230100e+02   4.5609835151e+01     0.394571    0.1888757 -77.90  0.001577845    2.491    0.599
        39 -10.1217     98.8041    125.2805   8.7023386616e+01   3.7440462972e+01    0.3329209    0.2640308  -7.92   0.00157486    1.567    0.362
        40 -10.1948    117.0036    124.0040   8.1479661900e+01   3.4290701579e+01     0.253258    0.1940767  -8.57 0.0007095402    1.696    0.410
        41  -8.8911     86.6638    120.3125   8.9498756755e+01   4.0749418392e+01    0.2911853    0.1996349  83.64  0.001040433    2.325    0.570
        42 -11.4375     68.7077    172.4364   1.0451643042e+02   3.0539768118e+01    0.4466191    0.2941932 -32.55  0.002079285    2.101    0.524
        43  -9.3088    107.8142    118.5223   8.2715492234e+01   3.7366049785e+01     0.255188     0.206536 -45.32  0.000313159    1.200    0.167
        44 -10.8338     33.7244    118.4046   1.0603783971e+02   4.8173001246e+01    0.3352433    0.2319134 -26.62  0.001769955    1.697    0.411
        45 -11.4304     72.9445    167.7854   1.0270045131e+02   3.1086798560e+01    0.4184792    0.3154345 -59.32  0.000799608    1.280    0.219
        46  -9.9900    231.2409    113.8249   5.4424514326e+01   1.2083940286e+01     0.290197    0.2431296 -42.52 0.0007820702    1.055    0.052
        47  -9.2809    205.2032    110.2097   5.7850241574e+01   1.8026286909e+01    0.2778804    0.2001338  38.65  0.001279421    1.578    0.366
        48  -9.1354     34.5597    171.3817   1.1316161796e+02   3.4932512841e+01    0.2176334    0.1769799  60.58  0.000569259    1.198    0.165
        49 -10.4099    116.3705    108.6233   7.7650918508e+01   3.7928492366e+01     0.459765    0.2995334  45.35  0.002009099    1.577    0.366
        50  -8.0677    138.4947    105.5026   7.0838931671e+01   3.3865830629e+01    0.1552813    0.1527548 -60.99 -0.000237592    1.042    0.040
        51 -11.0370     41.8934    103.9016   1.0048005429e+02   5.0904791206e+01    0.3878307    0.2855488  51.56  0.001357833    1.644    0.392
        52  -9.8015    241.4954    101.5001   5.0210613516e+01   1.2178433799e+01    0.1350954    0.1156695 -44.28 0.0008106813    1.001    0.001
        53 -12.5099     81.1195    159.3701   9.9108641803e+01   3.1963322894e+01     1.348912    0.6845013  58.58  0.005031523    2.751    0.636
        54  -9.2202    125.9379     93.3645   7.0696838785e+01   3.9162810606e+01    0.2676888    0.2098503 -55.12 0.0007684405    1.380    0.275
        55  -8.9478     53.0000     91.0018   9.3457324684e+01   5.2663577014e+01    0.2325601    0.0731194 -55.19  0.000676457    2.889    0.654
        56  -9.0608    156.1158     88.1220   6.1783174912e+01   3.3281631485e+01    0.3918385    0.2522165 -76.25  0.001364038    2.651    0.623
        57  -9.4224     14.9979     89.4711   1.0719921936e+02   5.6664518591e+01    0.2452015    0.1126437  27.08  0.001044004    2.474    0.596
        58  -9.7164    240.5753    169.2338   6.4777687813e+01   9.6968773041e-01    0.1876805    0.1100369 -27.64 0.0005422705    1.562    0.360
        59  -9.1233    113.7926     83.3372   7.1070271768e+01   4.3812500186e+01    0.3586189    0.2431319  79.88  0.001389836    2.670    0.626
        60  -9.3163    158.9627     82.7453   5.9647455672e+01   3.3596666999e+01    0.2131112       0.1983  57.58 0.0007182772    1.075    0.069
        61  -8.5806     55.4488     66.2112   8.5262993613e+01   5.7700301464e+01    0.1745727    0.1267987 -53.44 0.0003567273    1.494    0.331
        62 -13.0047    189.8174     49.0504   4.4940866467e+01   3.1565337041e+01       1.0431    0.7769652  36.34  0.001431609    1.686    0.407
        63 -11.0257    111.6398    204.3442   9.8662076907e+01   1.6578065554e+01    0.3801442    0.2818007  84.37 0.0009266192    1.677    0.404
        64 -10.6794    107.5810    203.7368   9.9520195786e+01   1.7365828265e+01    0.2922821    0.2150813 -78.86  0.001016318    1.581    0.367
        65  -9.4018    198.0372     23.4581   3.7466847023e+01   3.2864319055e+01    0.2171364    0.1838517  -9.45 0.0006303804    1.553    0.356
        66  -9.3562     89.7579    211.8253   1.0475073559e+02   1.8372825667e+01    0.2405694    0.1950347 -88.97 0.0008180674    1.276    0.217
        67  -8.7999    189.5119     14.9270   3.6278349413e+01   3.5783125611e+01    0.1769299    0.1236704 -32.91 0.0008763644    1.553    0.356
        68  -8.0180    169.0000    234.9487   9.0775650102e+01   1.4078866771e+00    0.1802806   0.07379852 -45.72 0.0003305034    2.764    0.638
        69  -9.0339     58.5458    220.4808   1.1262833474e+02   2.0829122318e+01    0.3246982    0.2506877  -0.75  0.001681573    2.049    0.512
        70 -10.7903    192.8102    194.3137   7.8779832421e+01   4.5741840900e+00    0.8675112    0.4780303 -64.49  0.002679411    5.531    0.819
