#   1 NUMBER                 Running object number                                     
#   2 MAG_AUTO               Kron-like elliptical aperture magnitude                    [mag]
#   3 X_IMAGE                Object position along x                                    [pixel]
#   4 Y_IMAGE                Object position along y                                    [pixel]
#   5 X_WORLD                Barycenter position along world x axis                     [deg]
#   6 Y_WORLD                Barycenter position along world y axis                     [deg]
#   7 A_WORLD                Profile RMS along major axis (world units)                 [deg]
#   8 B_WORLD                Profile RMS along minor axis (world units)                 [deg]
#   9 THETA_WORLD            Position angle (CCW/world-x)                               [deg]
#  10 FWHM_WORLD             FWHM assuming a gaussian core                              [deg]
#  11 ELONGATION             A_IMAGE/B_IMAGE                                           
#  12 ELLIPTICITY            1 - B_IMAGE/A_IMAGE                                       
         1 -13.8318    187.5892    112.1691   5.5655233818e+01   2.1928380907e+01     7.059217     4.097916 -67.31    0.0254986    2.946    0.661
         2 -14.0249    181.1721     75.1137   4.7472672345e+01   3.0182388255e+01     4.904706     2.501217 -70.90  0.002105441    5.447    0.816
         3 -10.8489    212.6239     18.9014   2.9372950079e+01   3.0828261142e+01     1.022706    0.7169527  62.45  0.006256063    1.459    0.314
         4 -13.7782    226.7969     88.6866   4.3404312484e+01   1.7804144037e+01     5.216529     1.901365 -57.06  0.008603471    5.906    0.831
         5 -12.0856    220.7097     36.6582   3.2486263804e+01   2.6893158842e+01     1.592514    0.3987783 -43.71  0.005981449    3.296    0.697
         6 -14.0201    225.4350     71.2320   3.9660254985e+01   2.0915509317e+01     4.051321     2.011978 -69.58   0.01494796    3.515    0.716
         7 -11.9689    249.9120     25.1717   2.7409779575e+01   2.2291713864e+01    0.8670533     0.377352 -32.67 0.0009904698    2.484    0.597
         8  -9.8450    229.8249     31.3369   3.0410791474e+01   2.5622165659e+01    0.4549507    0.3613522  -3.72  0.002746972    2.002    0.500
         9 -14.3122    240.6084     51.3759   3.3554056865e+01   2.0716501201e+01     5.666054     1.720659  67.76   0.01573232    3.740    0.733
        10  -9.1118    164.0369     12.7704   3.3426994903e+01   4.2660989163e+01    0.3705798     0.194795  40.96  0.001504666    2.334    0.572
        11 -10.0887    134.3333     12.1740   3.7837224114e+01   4.9716199150e+01    0.3329242    0.1938567 -33.08  0.001334891    1.912    0.477
        12 -10.9612    232.1721      8.0111   2.5397529137e+01   2.7856500443e+01    0.4709961    0.3379443 -69.50  0.003174269    1.136    0.120
        13 -10.0875    120.2374      8.8202   3.9361256766e+01   5.3269839640e+01    0.4336264     0.238999 -31.39  0.001894662    2.038    0.509
        14  -9.9681    224.6653      7.0415   2.5779666415e+01   2.9530889102e+01    0.3027872    0.2340934 -17.42  0.001585621    1.840    0.457
        15 -10.9572    208.3157     10.5660   2.7929432013e+01   3.2695449880e+01     0.267246    0.1952306 -34.38  0.000906419    1.530    0.347
        16 -10.6579    249.6003      3.2586   2.3272219578e+01   2.4864416471e+01    0.2819196    0.2197216  -6.50  0.001875329    2.246    0.555
        17  -8.7760    188.1074      3.3642   2.8213771387e+01   3.7966671984e+01    0.2921139    0.1912142  15.79  0.001396333    2.675    0.626
        18  -8.5432    182.6629      3.3092   2.8758582999e+01   3.9219695383e+01    0.1309681   0.07970546 -70.39 0.0007043557    1.682    0.405
        19  -9.5150    109.2908      2.9803   3.9544960358e+01   5.6217530232e+01    0.1707687    0.1555907  35.68 0.0005550008    1.112    0.101
        20  -7.9127    172.1202      2.3959   2.9678703458e+01   4.1742113412e+01    0.1847693    0.1017555  86.59 0.0009422762    1.785    0.440
        21  -8.3264    148.0366      1.4102   3.2436281330e+01   4.7454740444e+01    0.1882622    0.1046274  69.06  4.21577e-05    1.520    0.342
        22  -8.4406    143.0577      1.4522   3.3157970892e+01   4.8614475986e+01     0.184886    0.1057843  67.83 0.0003349895    1.472    0.321
        23  -9.7318    238.2251    175.8060   6.0234515081e+01   3.8445852823e-01    0.3278525    0.2454754  74.04  0.001086218    2.598    0.615
        24  -9.1159    136.0638    249.5331   9.3598171221e+01   3.6502223824e+00    0.3601452    0.2042139  61.00  0.001674571    2.591    0.614
        25  -9.2061    227.8904    170.8025   6.1070805248e+01   2.9240454762e+00    0.3505392    0.1693408 -52.46  0.001389357    2.817    0.645
        26  -9.9080    230.8216    168.3456   6.0042463445e+01   2.8736334050e+00    0.5087329    0.2087502 -49.87  0.001894528    3.079    0.675
        27 -12.9939     28.0456    157.5534   1.0737116159e+02   3.8731507087e+01     1.401475    0.9584017   1.23  0.001355528    2.087    0.521
        28 -12.3724     40.0302    152.3908   1.0349913872e+02   3.8846378939e+01     1.013129    0.7920668 -65.69  0.002809885    1.133    0.117
        29 -10.7068    243.6845    164.5953   5.7053237857e+01   1.4383623782e+00     0.401759    0.3136921  43.86  0.002382526    1.533    0.348
        30  -9.4344    183.4548    242.9782   8.2967676430e+01  -2.4143871125e+00    0.2518562    0.2225843 -82.81 0.0008962181    1.755    0.430
        31 -11.8607    198.6382     72.2839   4.3785733122e+01   2.6628843115e+01     1.983934    0.6613895 -33.88  0.005688899    3.279    0.695
        32  -9.4021    112.3123    241.4807   9.7543383185e+01   8.6904937552e+00    0.2685405    0.1840682  52.51  0.001530275    1.364    0.267
        33  -9.0642    218.6740    158.9678   6.0312958812e+01   6.6637739322e+00    0.2611795    0.2050093  54.99 0.0006124867    1.576    0.366
        34  -9.9525    192.9345    155.8956   6.4715930162e+01   1.2048515432e+01    0.4771926    0.3163699 -56.95  0.001214587    1.802    0.445
        35  -9.7548    171.7471    153.9989   6.8890099066e+01   1.6609500798e+01    0.3396389    0.2496161 -32.04 0.0003841443    1.393    0.282
        36  -8.9665    134.7643    240.6716   9.2705383735e+01   5.4259856191e+00    0.2916493    0.1822913  70.90   0.00134469    2.672    0.626
        37  -8.7658    176.8598    150.8891   6.7054501800e+01   1.6247296580e+01    0.2051001    0.1847825 -87.29 0.0004099316    1.331    0.249
        38  -9.1907    186.8640    168.4125   6.8678501050e+01   1.0678754724e+01    0.3389873     0.236102 -50.04  0.001391532    1.515    0.340
        39  -9.0415    134.4002    148.0492   7.6606453277e+01   2.5391959750e+01     0.524132    0.1534327 -55.63  0.001300164    4.884    0.795
        40 -10.7039     54.0373    148.5159   9.9014322676e+01   3.8265763136e+01    0.5413424    0.3107423 -71.78  0.002513624    1.685    0.407
        41  -9.1472    223.7219    145.6087   5.6543695704e+01   8.2292185579e+00    0.3090145    0.2447768 -79.54 0.0009229292    1.824    0.452
        42  -9.7607     69.9781    145.4933   9.3934791613e+01   3.6987245217e+01    0.3989653     0.312325  35.61   0.00146892    1.363    0.266
        43 -10.2742     66.4969    143.5378   9.4595373717e+01   3.7952243034e+01      0.46607    0.3532318 -85.98  0.001911554    1.427    0.299
        44  -9.9758    175.9055    144.6696   6.5859370927e+01   1.7754125936e+01    0.3071609    0.2629364 -17.14  0.001565584    1.231    0.188
        45  -8.1721    216.3146    144.7023   5.7685372698e+01   9.7696162524e+00    0.1373093    0.1119331 -73.10 0.0001996928    1.606    0.377
        46  -9.6051    192.4888    143.6006   6.2075112017e+01   1.4616352482e+01    0.3477712    0.2765318  24.43  0.001213011    1.392    0.281
        47  -8.9284    146.3072    142.2417   7.2269301874e+01   2.4354503527e+01    0.4076021    0.2393996 -73.30  0.001313516    3.450    0.710
        48  -8.1274    115.0192    149.9190   8.2135449808e+01   2.8616109739e+01    0.2102094    0.2099978 -43.72  0.001144564    1.021    0.021
        49  -8.8771    214.7934    140.9742   5.7146994392e+01   1.0762135856e+01    0.2298731    0.2132498  35.43 0.0006109405    1.177    0.150
        50  -9.8505    209.6316    137.0711   5.7236715237e+01   1.2503672740e+01    0.2926166    0.2703296 -70.88 0.0006382226    1.221    0.181
        51  -9.8198    191.1685    137.4194   6.0935706355e+01   1.6132359929e+01     0.412792    0.2482109 -59.69  0.001675341    2.183    0.542
        52 -10.1040    179.4532    136.1316   6.3106198552e+01   1.8814847008e+01    0.3947128    0.3076068 -71.33 0.0008443344    1.624    0.384
        53  -9.0503    175.8512    132.0853   6.2936384348e+01   2.0415544993e+01    0.3210163    0.2147269 -61.59 0.0009126826    1.849    0.459
        54 -10.3897    204.1051    237.0786   7.7931316952e+01  -4.5194200964e+00    0.2133053     0.182717  -4.10  0.001412645    1.106    0.096
        55  -8.4911    172.9300    137.2503   6.4803216427e+01   1.9940386625e+01     0.207703    0.2012404   6.00 0.0003791403    1.046    0.044
        56  -9.2954    141.1172    132.9881   7.1401593499e+01   2.7523227080e+01    0.3342538    0.2247454 -67.66  0.001039451    1.961    0.490
        57 -10.6858    224.3791    128.0001   5.2586695267e+01   1.1349200893e+01    0.5611725     0.369673 -13.18  0.001287473    2.157    0.536
        58  -9.0954    135.9747    127.8898   7.1493615138e+01   2.9744516555e+01    0.4369086    0.2046682 -51.50  0.001573888    2.219    0.549
        59  -8.7903    160.2112    128.5341   6.5634717394e+01   2.4497803802e+01    0.3061459    0.2189605 -44.66  0.001398151    1.365    0.267
        60  -9.5540    201.9327    126.0294   5.6170992098e+01   1.6181694047e+01    0.2569596    0.1982947 -44.38 0.0006180533    1.213    0.176
        61  -8.3649    178.1251    122.2776   6.0081998690e+01   2.1961613336e+01    0.3310329    0.2153006 -71.43  0.001203178    2.430    0.588
        62  -8.8249    173.7520    123.4054   6.1304035497e+01   2.2673628410e+01    0.3664244    0.1906065  51.79   0.00131448    2.091    0.522
        63 -11.5037    203.9688     79.3965   4.4679469895e+01   2.4257238147e+01     1.261253    0.4194668  47.07  0.004238199    3.627    0.724
        64  -9.9103    163.3981    116.2286   6.1838409675e+01   2.6426349129e+01    0.6722898    0.3278672 -57.20  0.002148549    2.845    0.648
        65  -8.9769    168.7999    117.1902   6.0860973745e+01   2.5039832809e+01    0.3352194    0.2476342 -48.89  0.001573151    1.341    0.255
        66  -7.9403     64.9740    116.7786   8.9794464359e+01   4.4836685836e+01    0.1808541    0.1756892 -26.49 0.0002195417    1.077    0.072
        67  -9.3593    200.7962    115.9667   5.4026546054e+01   1.8356980937e+01    0.3179874    0.2266641  66.83  0.001008384    1.708    0.415
        68  -9.5396    134.7757    109.0267   6.6991193079e+01   3.4202900736e+01    0.5725144    0.1874027 -42.23  0.001753215    3.086    0.676
        69 -10.4416    205.4790    110.2668   5.1825026126e+01   1.8443995840e+01    0.4301039    0.3249794  28.74  0.002015325    1.642    0.391
        70  -9.9853    122.3593    102.7354   6.8650226979e+01   3.8182756035e+01    0.5116194    0.3809833 -70.25  0.002299249    1.741    0.426
        71  -9.2288    120.4967     97.4991   6.7719179934e+01   3.9691324587e+01    0.4096263    0.2231575 -55.97  0.001309704    2.231    0.552
        72  -8.1292    144.2264    105.5963   6.3655130382e+01   3.2884328185e+01    0.2221328    0.1462596  35.28 0.0005731786    1.663    0.399
        73  -9.0044    151.4417    102.4756   6.1056987725e+01   3.1928655779e+01    0.3074778     0.262321  16.68 0.0007836849    1.340    0.254
        74  -8.0127     82.6215    103.4701   8.0884075643e+01   4.5414205871e+01    0.2123403    0.1926555  -4.39  0.000438309    1.133    0.117
        75 -10.3546     83.6537     99.1274   7.9404637319e+01   4.6242568715e+01    0.2466154    0.2355759  10.58 0.0002243471    1.078    0.073
        76 -10.8186    165.0845     97.1022   5.6505284479e+01   2.9911583986e+01    0.9310208    0.4087527  44.72   0.00340593    2.390    0.582
        77 -13.3299    244.6336    132.9968   5.0386741953e+01   6.7541208780e+00     2.739262     1.466682 -33.98   0.01311784    1.702    0.413
        78  -9.4751    171.3958    236.7285   8.4459615968e+01   4.3623440154e-01    0.3317554    0.1909598  40.90   0.00103784    1.628    0.386
        79  -9.3098    202.1703     94.5306   4.8644137038e+01   2.2034498768e+01    0.3683035    0.2285727 -61.36  0.001164003    1.917    0.478
        80  -8.0503    123.4499    234.9427   9.4351602312e+01   8.2433119069e+00    0.1744834    0.1304684 -57.36 0.0003392653    1.517    0.341
        81  -9.2743    136.5755     98.3985   6.3639980419e+01   3.6064667937e+01    0.3076262     0.249078  74.62 0.0009666372    1.503    0.335
        82  -9.6537    145.5025     92.8807   5.9871670605e+01   3.5193158212e+01    0.3370357    0.2893342 -60.52    0.0012554    1.246    0.197
        83  -9.2994    172.8674    232.1028   8.3430789893e+01   9.9653109926e-01    0.2351936    0.1819731  21.15 0.0004185763    1.162    0.139
        84 -10.8778    162.0714     88.1231   5.4752833196e+01   3.2315741283e+01    0.3694404    0.3259233   8.78 0.0006463547    1.317    0.241
        85  -9.2940    208.4225     85.2538   4.5380935406e+01   2.2285284328e+01    0.3344094    0.2326428 -64.55 0.0007502096    1.575    0.365
        86  -8.7761     54.0732     84.0352   8.5620451055e+01   5.3902914285e+01    0.2658543    0.1730886 -51.90 0.0005603587    1.420    0.296
        87  -9.4357      6.1507     82.8694   1.0340888747e+02   5.8309234053e+01    0.1860606    0.1120011 -45.60 0.0009473749    1.355    0.262
        88 -10.2676    140.7275     79.2527   5.7154770495e+01   3.8879431355e+01    0.4269118    0.2963251  69.34  0.001351653    1.780    0.438
        89  -9.3060    132.9844     79.9330   5.9283398704e+01   4.0503488404e+01    0.2278503    0.2209965 -54.74  0.000542437    1.071    0.066
        90  -9.0339    126.5002     76.4960   5.9943073266e+01   4.2583427228e+01    0.1480871    0.1435832  19.96 0.0008106839    1.003    0.003
        91  -9.7385    207.2160     72.3487   4.2479046678e+01   2.4690382126e+01    0.3013297    0.2268114  85.76  0.000826451    1.440    0.306
        92 -11.9507    184.9969     88.4638   5.0217986315e+01   2.6970563680e+01     1.240454    0.7520929  40.58  0.005457094    1.920    0.479
        93 -11.1791    152.0786     70.9955   5.2144004261e+01   3.7714141019e+01    0.5245323    0.3762504  30.08  0.001707096    1.672    0.402
        94 -10.2505    145.1907     69.9428   5.3378255554e+01   3.9503088410e+01    0.4527544    0.2074181 -33.22  0.001724423    2.395    0.583
        95 -10.0569    192.5983     68.8361   4.3895209599e+01   2.8566692730e+01    0.3218094    0.1880096 -59.17   0.00142298    1.962    0.490
        96  -9.6551    154.0834     63.4886   4.9553146096e+01   3.8487307812e+01    0.3050954    0.2069279  89.87   0.00116172    2.088    0.521
        97 -13.2076    238.6379     64.0830   3.6461591558e+01   1.9275999070e+01     1.376012    0.8334274 -65.59  0.002271439    1.740    0.425
        98 -10.9995    144.0058     58.8546   5.0352324004e+01   4.1598584024e+01    0.4634087    0.3617008 -64.21  0.002374819    1.496    0.332
        99  -7.7069     72.7350     58.3392   7.0764247311e+01   5.6405559216e+01    0.1245148     0.110622 -74.68 0.0003709257    1.593    0.372
       100  -9.2032    124.9676     57.0373   5.4287424511e+01   4.6269603155e+01    0.2294909    0.1704176  14.74 0.0007725099    1.656    0.396
       101  -9.2784    151.8086     55.7845   4.7783836574e+01   4.0230443402e+01     0.259558    0.1957268  84.73 0.0007276342    1.553    0.356
       102  -9.9762    149.1427     52.1433   4.7256845157e+01   4.1406489049e+01    0.3154286    0.2068436 -64.09 0.0007703766    1.992    0.498
       103  -9.8575    177.7949     51.5083   4.1821955703e+01   3.4676681421e+01    0.4712567    0.3411555  72.89  0.002480361    1.366    0.268
       104  -9.7845    137.9247     50.7696   4.9236979039e+01   4.4249880363e+01    0.2377982    0.2250561 -41.02  0.000341157    1.121    0.108
       105  -8.7929    103.4401     44.9272   5.6026790198e+01   5.2799129787e+01    0.2364802    0.1782091  25.57 0.0009024858    1.337    0.252
       106  -9.5548    117.7096     43.8868   5.1821489592e+01   4.9858709033e+01    0.2481375    0.2035424  34.11 0.0002989071    1.167    0.143
       107  -8.8595    123.0000     37.9569   4.8549009298e+01   4.9469320311e+01    0.2116823   0.07899986 -30.91 0.0007974624    2.908    0.656
       108  -8.9355    173.7915    227.3867   8.2481710664e+01   1.6697793246e+00    0.2000152    0.1766373 -44.82  0.000413065    1.319    0.242
       109  -8.2432    112.5073     29.4986   4.8195654111e+01   5.2879288694e+01    0.1356674    0.1185772  37.74 0.0008104704    1.030    0.029
       110  -9.4377    145.5832     27.7868   4.0642351799e+01   4.5442590357e+01    0.2324567    0.1722266 -42.03  0.001102741    1.467    0.318
       111  -9.0738    117.3906     25.9670   4.5811052875e+01   5.2197306504e+01      0.28997    0.1283969 -28.23  0.001267123    2.487    0.598
       112  -9.4478    179.3406     23.8937   3.4335867917e+01   3.7867866965e+01    0.4286594    0.2741233  73.44  0.002320476    1.427    0.299
       113  -9.9758    140.5619    220.6853   8.8586163319e+01   8.2901089832e+00    0.2413359    0.2367546 -28.27 0.0005466485    1.118    0.106
       114  -8.1019     65.4620     25.0618   6.0788830778e+01   6.2766976573e+01    0.1816063    0.1157779 -23.47  0.001015154    1.569    0.363
       115 -11.2401    232.8748     40.4066   3.2034641062e+01   2.3808770684e+01    0.3493209    0.3303581 -62.88 0.0005247858    1.239    0.193
       116  -7.4590     85.5173     21.5115   5.2599955689e+01   5.9483454577e+01    0.1296303    0.1102996  26.98 9.779197e-05    1.006    0.006
       117  -9.4512    130.4928     18.9003   4.0689861167e+01   4.9952854859e+01    0.2140263    0.1623673  41.03 0.0007946778    1.274    0.215
       118  -8.8100    227.4571     17.5449   2.7726796200e+01   2.7781064555e+01    0.2048838    0.1289333 -38.61 0.0006131499    1.591    0.371
       119  -8.1708    171.6898     14.2546   3.2816544136e+01   4.0708004099e+01    0.1523563    0.1204047 -17.06 0.0005295823    1.583    0.368
       120  -8.8025    224.7482    218.6636   7.0809325064e+01  -4.6354877330e+00    0.2605018    0.2040808  67.79  0.001112001    2.577    0.612
       121  -8.0176     92.2954    214.9361   9.8645593097e+01   1.7092250432e+01    0.1776479    0.1605807 -88.35 0.0003851676    1.112    0.101
       122  -7.8886     51.4862    212.5224   1.0750123713e+02   2.3144644782e+01    0.1283768    0.1075441  73.40 0.0002551972    1.009    0.009
       123  -8.9904    187.5634    208.8612   7.6422030488e+01   2.7523296559e+00    0.3918893    0.2742814  69.23  0.001762571    2.747    0.636
       124  -7.7995    210.5372    208.5193   7.1703272777e+01  -8.6662694814e-01     0.132628    0.1155267  -1.71 1.109291e-05    1.039    0.037
       125  -8.8805    163.6208    206.9196   8.1219640284e+01   7.1368945773e+00    0.2227007    0.1765755  21.32  0.000357507    1.224    0.183
       126  -7.7250    133.5443    202.0453   8.7215371874e+01   1.3284858258e+01    0.1893482    0.1269044 -86.74 0.0008069901    2.398    0.583
       127  -9.4718     24.5364    199.5984   1.1225302873e+02   2.9036301945e+01    0.2205622    0.1928122 -78.09  0.001512907    1.202    0.168
       128  -9.6897    194.0194    197.6452   7.3006530589e+01   3.7321312988e+00    0.5412338    0.3000055 -58.57  0.002193686    2.908    0.656
       129  -8.8427     27.2030    184.0438   1.1031357275e+02   3.2389586823e+01    0.1852552    0.1648449  72.28 0.0004498684    1.124    0.111
       130  -8.6479    242.0761    183.3645   6.1049957119e+01  -1.4778243422e+00    0.1717735    0.1504929   9.25 0.0004645103    1.172    0.147
       131  -8.2043    180.3587    182.0043   7.2867254469e+01   9.1400734540e+00      0.19954    0.1736055 -31.70 0.0002103939    1.126    0.112
