#   1 NUMBER                 Running object number                                     
#   2 MAG_AUTO               Kron-like elliptical aperture magnitude                    [mag]
#   3 X_IMAGE                Object position along x                                    [pixel]
#   4 Y_IMAGE                Object position along y                                    [pixel]
#   5 X_WORLD                Barycenter position along world x axis                     [deg]
#   6 Y_WORLD                Barycenter position along world y axis                     [deg]
#   7 A_WORLD                Profile RMS along major axis (world units)                 [deg]
#   8 B_WORLD                Profile RMS along minor axis (world units)                 [deg]
#   9 THETA_WORLD            Position angle (CCW/world-x)                               [deg]
#  10 FWHM_WORLD             FWHM assuming a gaussian core                              [deg]
#  11 ELONGATION             A_IMAGE/B_IMAGE                                           
#  12 ELLIPTICITY            1 - B_IMAGE/A_IMAGE                                       
         1 -13.3217    196.4790     41.7434   4.4154434710e+01   3.1243861230e+01     1.094844    0.9882918 -73.40   0.00325145    1.023    0.022
         2 -13.8105    205.2273     32.9326   4.0859643184e+01   3.0312876820e+01     1.414382    0.9458151 -16.66  0.001299705    1.999    0.500
         3 -12.7508    231.9389      5.9421   3.2239373048e+01   2.7405989455e+01    0.7935319    0.7015007 -84.04  0.005265043    1.192    0.161
         4 -11.9319    225.9990      6.7392   3.2834541767e+01   2.8609238480e+01    0.7339202    0.1831996 -39.95  0.002888229    2.995    0.666
         5 -10.4962     31.8123     13.7543   7.6138696085e+01   7.0063405890e+01    0.2604082   0.07541965 -31.48  0.001022802    3.589    0.721
         6  -9.7584     63.9675      8.9716   6.0388134356e+01   6.5514541603e+01    0.1708408    0.1547228 -71.50 0.0006691766    1.670    0.401
         7 -11.4736     43.6727      3.8928   6.5570303295e+01   6.9507316222e+01    0.3298131    0.1878848  51.67  0.001838213    2.166    0.538
         8 -11.2149     56.6753      3.4609   6.0254221333e+01   6.7361720720e+01    0.2724314    0.2378637  17.40  0.001928284    1.140    0.123
         9 -10.5822    184.4571    212.6253   8.6325418452e+01   2.8571570376e+00    0.2438529    0.2367088  81.78  0.001144098    1.314    0.239
        10 -11.1876    139.9397    249.4983   1.0084162076e+02   3.8091216734e+00      0.39185     0.273178  41.58  0.002401954    1.195    0.163
        11 -15.2555     70.0477    148.7540   1.0222267954e+02   3.6499056413e+01     7.394548     3.813306  78.65   0.01096267    4.180    0.761
        12  -9.3344     91.1439    183.1358   1.0230987388e+02   2.4931127617e+01    0.2604101    0.1973811 -73.61 0.0007494381    1.315    0.240
        13 -10.4963     99.5240    180.9103   9.9917943318e+01   2.4100290290e+01    0.2857965    0.2554898 -62.59 0.0005720216    1.144    0.126
        14  -9.8095    187.9593    176.3864   7.8748565048e+01   8.8278400269e+00    0.3299314    0.3153402  75.85  0.001348417    1.253    0.202
        15  -8.7933    148.5223    175.4897   8.7202861535e+01   1.6518179001e+01     0.242791    0.1468458 -52.18 0.0006640043    1.732    0.423
        16  -9.7221    146.4983    172.0141   8.6984870913e+01   1.7656987514e+01    0.2782602    0.2314247  82.33 0.0008704176    1.461    0.315
        17 -10.3392     48.4560    171.5113   1.1126049392e+02   3.3684840200e+01      0.54711    0.2839624 -47.80  0.002497783    2.269    0.559
        18 -10.9567     45.5693    166.6472   1.1138732233e+02   3.5211245178e+01      0.50481    0.2660153 -52.96  0.002245025    1.941    0.485
        19 -18.1574     19.5118    211.9259   1.2144865724e+02   2.7593850568e+01     12.45297     4.819074 -80.97   0.06063512    2.343    0.573
        20 -11.0334    239.9601    169.9108   6.7658192184e+01   7.8137472420e-01    0.3384658    0.2028557  17.94  0.001618409    2.190    0.543
        21  -8.7159    194.0984    171.1794   7.6417824074e+01   8.6676406348e+00    0.2237253    0.1871902  -1.20  0.001207621    1.238    0.192
        22  -9.3180    185.5396    169.2437   7.7768105394e+01   1.0667652102e+01    0.2632359    0.1391224 -46.29 0.0009320911    1.928    0.481
        23  -9.5865    134.8758    164.8186   8.8306199411e+01   2.1490400240e+01    0.6237878    0.3713916  77.45  0.002003473    3.862    0.741
        24  -9.1159    230.3240    166.6653   6.8643192767e+01   2.9360052872e+00    0.1297058    0.1070558 -66.67 0.0007050937    1.712    0.416
        25 -12.1595    111.6756    204.5419   1.0068341678e+02   1.6815900707e+01    0.5659394    0.3940583 -52.88  0.000877094    1.548    0.354
        26 -11.6692     91.4015    151.9145   9.6940339903e+01   3.2425336240e+01    0.7485887    0.5628977 -14.89  0.003494607    1.932    0.483
        27 -10.6225    134.3089    147.2688   8.4712776545e+01   2.5621762796e+01    0.8270891    0.2705812 -53.61  0.002440832    3.473    0.712
        28 -10.5976    133.0000    141.0184   8.3624229780e+01   2.7329568004e+01    0.5621977    0.2221069 -51.24  0.001891403    2.574    0.611
        29 -11.8177    107.5838    203.7975   1.0150049374e+02   1.7643832910e+01    0.5629967    0.3148004 -67.77  0.002103569    2.059    0.514
        30  -9.1420    174.8982    149.0958   7.5620726101e+01   1.6860780082e+01    0.2287066    0.2086667 -78.20 0.0005337793    1.250    0.200
        31  -7.9962    224.2543    206.6872   7.7603694264e+01  -2.5864862999e+00    0.1094108    0.1013551 -53.41 0.0002040975    1.524    0.344
        32 -10.2749    104.1899    138.2897   9.0648461565e+01   3.3551492335e+01    0.5385807    0.3335458 -27.63  0.002098823    2.409    0.585
        33 -11.5762     91.7250    137.8780   9.4042255999e+01   3.5838759260e+01    0.2938901    0.2612492 -43.24 0.0004666582    1.158    0.137
        34 -10.4451    135.9355    130.0928   8.0276994349e+01   2.9232775093e+01    0.8395443    0.2051872 -50.42  0.002098106    4.585    0.782
        35 -10.1755    105.9894    130.7688   8.8448601213e+01   3.5042662536e+01     0.398851    0.3168843 -65.00  0.001210558    1.283    0.221
        36 -10.3244    112.9073    129.0003   8.6112279964e+01   3.4152633466e+01    0.4432828    0.3400626 -14.34   0.00121046    1.741    0.426
        37 -11.2040    119.4557    123.1231   8.2881135401e+01   3.4242339054e+01    0.6714624    0.4677692   5.05  0.002681135    2.331    0.571
        38  -9.2619    161.0270    128.2134   7.3746739442e+01   2.4236179056e+01    0.3924983    0.2108802 -58.59    0.0014099    2.449    0.592
        39 -10.3640    100.0132    125.1218   8.8816945974e+01   3.7505593084e+01    0.3158477    0.2653191 -23.52 0.0008879782    1.364    0.267
        40  -9.6516     89.9545    212.5595   1.0660383487e+02   1.8527617769e+01    0.2349139    0.1774774 -87.72 0.0005199309    1.365    0.267
        41 -10.6345    135.1084    115.6936   7.6824293431e+01   3.2652678759e+01     1.041597    0.1336621 -46.41  0.001953267    7.967    0.874
        42  -9.2530    108.6434    118.2152   8.4650167011e+01   3.7531437484e+01     0.230205    0.2089982  60.39 0.0004439837    1.163    0.140
        43 -10.0197    231.3757    113.8802   5.6873188852e+01   1.1928456818e+01    0.2951195    0.2343198 -43.21 0.0007403489    1.114    0.102
        44  -8.7613    167.9564    112.9331   6.8303233053e+01   2.5884031075e+01    0.2633771    0.1935727 -77.02  0.001138205    1.836    0.455
        45 -11.3974    116.9362    109.1829   7.9944747166e+01   3.7958763114e+01     0.600356    0.5427263 -25.24  0.002909346    1.154    0.133
        46  -9.4068    205.6353    110.1281   6.0206528932e+01   1.7970681675e+01    0.2607944    0.2175678  45.87 0.0006515774    1.307    0.235
        47  -9.4382    134.6008    105.8016   7.4285516682e+01   3.4928658368e+01    0.4027283    0.1507777 -46.21  0.001310324    2.642    0.621
        48  -8.7498    187.7890    187.1874   8.0945000628e+01   6.8240926856e+00    0.3440313    0.2346375  71.33  0.001468274    2.738    0.635
        49 -10.5950    193.5209    196.0203   8.1483008964e+01   4.2081656082e+00    0.5217729    0.3268158 -65.46  0.002168811    3.086    0.676
        50  -8.5017    129.5958     96.7703   7.3037273151e+01   3.7957859633e+01    0.2206411    0.1441932 -53.43 0.0009046564    1.630    0.386
        51 -11.3187     55.3292     94.4355   9.5442298717e+01   5.1867039048e+01    0.6197419    0.4220981 -88.52  0.002244036    2.201    0.546
        52  -8.0234    157.3782     89.6902   6.4295489275e+01   3.2965780586e+01    0.1636429    0.1209521 -80.61 0.0003268388    1.789    0.441
        53 -11.8248    196.7438    204.2127   8.2369059534e+01   2.2372582791e+00    0.6525169    0.3772395  25.63  0.003148427    1.830    0.453
        54  -8.6383    157.5054     82.9239   6.2329489687e+01   3.4207558466e+01    0.2296865    0.1497718 -37.49 0.0006966557    1.527    0.345
        55  -8.6617    184.6608     76.8301   5.5322240020e+01   2.8749445960e+01     0.200964    0.1869268  46.31  0.000863016    1.168    0.144
        56  -9.7174     60.6245     68.3554   8.5971745104e+01   5.6883315854e+01    0.2305926    0.2062538  33.20  0.001377445    1.249    0.200
        57 -13.0474    184.9356     50.7514   4.8168098563e+01   3.2784924523e+01    0.9515774    0.8798302   3.56 0.0008191054    1.309    0.236
        58  -9.7580     92.6025    249.1502   1.1008814412e+02   1.0934481518e+01    0.2922097   0.08972162  47.01  0.001218816    2.704    0.630
        59  -9.5934    191.5150    192.0295   8.1125364017e+01   5.2725747620e+00    0.2906247    0.2264702 -74.94  0.001470365    2.027    0.507
        60  -8.0300     73.5621    199.2497   1.0865035816e+02   2.3849636047e+01    0.1462508   0.08420929  60.84 0.0001378869    1.785    0.440
        61  -9.8674    120.8246    195.2945   9.7176634898e+01   1.7263187778e+01    0.2337411     0.187642 -77.26 0.0005913308    1.376    0.273
        62  -9.8524    198.2312     23.4680   3.9256482099e+01   3.3106590100e+01    0.2322768    0.1719313 -36.66 0.0006787947    1.396    0.283
        63  -8.9400     82.0799    194.7681   1.0611842439e+02   2.3630689849e+01    0.2379713    0.1893275 -71.95  0.001041774    1.235    0.190
        64  -8.8369    189.5172     14.9889   3.8022260472e+01   3.6122530131e+01    0.1840863    0.1233554 -35.13  0.000650191    1.550    0.355
        65 -10.2823    149.1230    188.2996   8.9498736263e+01   1.3699153310e+01    0.4806229    0.3313346 -88.56  0.002065935    2.445    0.591
        66 -10.0977    163.1400    225.8755   9.2846421246e+01   4.1086035522e+00    0.2035093    0.1748007  51.82  0.001253971    1.256    0.204
        67 -13.2193     59.1264    185.5022   1.1035758438e+02   2.8995727768e+01     1.051846    0.9723826  37.23  0.006672736    1.282    0.220
        68 -11.5876    110.6541    197.7603   9.9907623978e+01   1.8447293717e+01    0.7099077    0.4289086   8.91  0.002595497    3.699    0.730
        69 -10.6018     59.6501    220.3570   1.1393328384e+02   2.1128208852e+01    0.3648537     0.317586  52.28  0.001888525    1.202    0.168
        70 -11.7742    162.5478    213.7113   9.1013901439e+01   6.3648438360e+00    0.5692558    0.3021244  33.09  0.002647056    1.809    0.447
