#   1 NUMBER                 Running object number                                     
#   2 MAG_AUTO               Kron-like elliptical aperture magnitude                    [mag]
#   3 X_IMAGE                Object position along x                                    [pixel]
#   4 Y_IMAGE                Object position along y                                    [pixel]
#   5 X_WORLD                Barycenter position along world x axis                     [deg]
#   6 Y_WORLD                Barycenter position along world y axis                     [deg]
#   7 A_WORLD                Profile RMS along major axis (world units)                 [deg]
#   8 B_WORLD                Profile RMS along minor axis (world units)                 [deg]
#   9 THETA_WORLD            Position angle (CCW/world-x)                               [deg]
#  10 FWHM_WORLD             FWHM assuming a gaussian core                              [deg]
#  11 ELONGATION             A_IMAGE/B_IMAGE                                           
#  12 ELLIPTICITY            1 - B_IMAGE/A_IMAGE                                       
         1 -15.0398    241.4431     11.5606   3.5694553886e+02   2.5856112902e+01     2.073975    0.9921955 -49.96   0.01309688    1.509    0.337
         2 -11.3096    211.5052      8.1086   3.5765649810e+02   3.1761762324e+01    0.1693651   0.09429036 -36.44 0.0007710967    1.533    0.348
         3  -9.7199    162.6502      8.3534   9.7877460160e-01   4.2384731688e+01     0.146598   0.07501483 -60.70 0.0007034424    1.836    0.455
         4 -10.2177    104.9086      1.4956   5.1772309568e+00   5.7486879105e+01    0.2078266    0.1179726  74.20 0.0009354179    1.530    0.346
         5 -10.9706     45.3372    244.7762   7.8817805172e+01   1.6968391597e+01     0.384627    0.1766867  37.38  0.001998536    1.606    0.377
         6 -12.6157    234.1186    245.8737   4.0651096882e+01  -3.0284920892e+00    0.6730847    0.3447677 -14.72  0.004492703    1.638    0.390
         7 -11.2881    213.0618    250.3521   4.4636142113e+01  -1.6788779550e+00    0.3500949    0.1130145  26.53   0.00186711    2.669    0.625
         8 -12.2250    212.4361    242.9093   4.3726174620e+01  -7.4496221143e-01    0.6387516     0.277348 -15.80  0.003323641    2.770    0.639
         9 -12.0012    248.2060    213.9027   3.3916074382e+01  -6.3118633328e-01    0.4767508    0.2328037 -28.15  0.002581382    1.598    0.374
        10 -11.5905    219.0696    245.5874   4.2999449601e+01  -1.6726487876e+00    0.3459418    0.1519576 -28.52  0.001946973    2.014    0.503
        11 -12.6240    224.0549    241.4669   4.1622857173e+01  -1.6471914768e+00    0.7109891    0.2429511 -37.89  0.003898217    2.819    0.645
        12 -12.1869    241.9949    237.4107   3.8273499935e+01  -2.7652968663e+00    0.5668714    0.2450034 -17.34  0.002894559    2.248    0.555
        13 -12.3516    247.2604    226.4469   3.5919818483e+01  -1.9922110999e+00     0.606329    0.2230537 -29.08  0.003538329    2.227    0.551
        14 -12.2527    243.2871    245.2303   3.9172409276e+01  -3.7260071217e+00     0.567498    0.2146803 -24.20  0.003353875    2.351    0.575
        15 -11.5973    248.7650    249.2701   3.8917471435e+01  -4.5935746305e+00    0.3539669    0.1803645 -17.27  0.002530008    1.507    0.337
        16 -12.2783    249.1350    240.1278   3.7602823932e+01  -3.6582370192e+00    0.5982577    0.1786256 -35.53  0.003309584    2.901    0.655
        17 -11.8534    201.5132    249.0830   4.6425681452e+01  -4.5334570695e-01    0.4211468    0.1940456  10.27   0.00238841    2.145    0.534
        18 -11.7001    184.7266    250.1141   4.9548454274e+01   1.0593818216e+00     0.424908    0.1444576  24.35  0.002126329    2.495    0.599
        19 -12.3680    193.0339    244.8238   4.7345136438e+01   9.0079642805e-01    0.5499186    0.2728137  -0.81  0.003009198    2.291    0.564
        20 -12.6395    178.0034    243.4904   4.9922593421e+01   2.6137179921e+00    0.5533822    0.2814149   3.24  0.002991221    2.177    0.541
        21 -12.8381    126.0061    249.7560   6.1149644124e+01   7.3903216102e+00    0.9796938    0.2861511  24.46  0.003984917    2.984    0.665
        22 -12.4929    115.9806    244.6399   6.2755435392e+01   9.3278045852e+00    0.4901818    0.2919701  50.05  0.002708695    2.145    0.534
        23 -12.8938    108.1349    241.3238   6.4139583965e+01   1.0773762276e+01      0.87089    0.5414623 -86.50  0.004418465    3.205    0.688
        24 -13.0585    135.3236    243.6262   5.8475894733e+01   7.2841688709e+00    0.5596417    0.2482566  31.27  0.002934122    1.819    0.450
        25 -11.8931    151.7967    249.4765   5.5784760185e+01   4.5886711342e+00    0.5603912    0.1910712  25.88  0.002651592    2.375    0.579
        26 -12.6513    142.6483    248.1626   5.7486276917e+01   5.7806950732e+00    0.6896201    0.3105994  16.76  0.003471679    2.113    0.527
        27 -12.7175     98.9552    245.8875   6.6656789165e+01   1.1051287626e+01     0.665469    0.3616514  46.95  0.003613322    1.974    0.493
        28 -11.5064     76.4125    248.0705   7.1937449260e+01   1.3162030435e+01     0.429814    0.2228083  41.18  0.002391181    1.623    0.384
        29 -11.5259     72.1753    240.7520   7.2322696366e+01   1.4924381014e+01    0.4187914     0.243421  58.98  0.002285246    2.037    0.509
        30 -11.5751     64.8231    249.3246   7.4661059781e+01   1.4169565718e+01     0.470803    0.1969717  29.95  0.002316917    1.754    0.430
        31 -11.0081     50.6463    250.0091   7.7915454387e+01   1.5491082367e+01    0.3948702    0.1415945  26.51  0.001872514    2.115    0.527
        32 -11.2371     34.8913    248.3128   8.1379771960e+01   1.7318871586e+01    0.4407408    0.1524793  41.01   0.00217726    2.042    0.510
        33 -10.1487     27.3661    250.1514   8.3145319160e+01   1.7673376950e+01    0.2765203    0.1151736  35.93  0.001121043    1.673    0.402
        34 -11.3929     20.9558    248.6071   8.4508480120e+01   1.8524882651e+01    0.4628154    0.1800476  35.47  0.002463478    1.761    0.432
        35 -10.5183     10.8121    248.7380   8.6747398326e+01   1.9362795668e+01    0.3527957    0.1153956  44.82  0.001791318    2.083    0.520
        36 -12.1300      4.0368    243.2547   8.8090484628e+01   2.0933385686e+01     0.647095    0.2747438  66.27  0.003488839    2.221    0.550
        37 -11.2834     53.7286    240.2284   7.6591704518e+01   1.6972579345e+01    0.4203075     0.218874  57.78  0.002223551    2.062    0.515
        38 -11.0857     29.1654    241.9360   8.2384132569e+01   1.9036944247e+01    0.4109178    0.1685579  37.33  0.002081381    1.735    0.424
        39 -11.2916    202.2593    240.8156   4.5171090179e+01   4.9021850034e-01    0.2833118    0.1465334 -18.55  0.001727847    1.848    0.459
        40 -10.8667     62.3268    241.4471   7.4669544401e+01   1.5851955021e+01    0.3630751    0.1531509  41.39  0.001806644    1.906    0.475
        41 -10.6600     38.1217    241.3977   8.0294378134e+01   1.8300189840e+01    0.3221481    0.1461641  45.27  0.001706929    1.761    0.432
        42 -11.6945     16.7795    239.5196   8.5119700437e+01   2.0595567571e+01    0.6744274    0.1943939  37.78  0.003168933    2.214    0.548
        43 -12.9019    123.8152    239.9269   6.0515973723e+01   9.1900056992e+00    0.6268066    0.2032379  31.17  0.002772372    2.380    0.580
        44 -12.7408    149.8558    238.4269   5.4803464106e+01   6.4211231630e+00    0.5420367     0.189122  24.04  0.002408492    2.560    0.609
        45 -11.8015     83.0152    239.3903   6.9686049974e+01   1.3973222755e+01     0.546928    0.1857748  34.92  0.002455521    2.186    0.542
        46 -10.6949     45.3805    236.9758   7.8346457909e+01   1.8433716715e+01      0.33363    0.1583324  52.21  0.001713256    1.979    0.495
        47 -11.2979    170.7079    239.9529   5.0842035416e+01   3.8762450363e+00    0.3621831    0.1895669  -1.85  0.001900058    2.271    0.560
        48 -11.5853    239.7968    219.3887   3.5977391020e+01  -5.0129752190e-01    0.3728475    0.2054497 -17.47  0.002147037    1.467    0.318
        49 -11.9595    231.7634    234.7165   3.9451051083e+01  -1.5623291813e+00    0.3981065    0.2418906  -1.93  0.002912161    1.294    0.227
        50 -11.8103    236.8819    227.9013   3.7677836809e+01  -1.2343843380e+00    0.4855995    0.1918118 -28.12  0.002744286    2.149    0.535
        51 -10.8677    195.7658    236.8597   4.5762708283e+01   1.6453477361e+00    0.2606598    0.1284653  11.16  0.001469518    1.986    0.497
        52 -12.4813    168.3049    248.5294   5.2422524655e+01   2.9546413223e+00    0.6248006    0.2635182  27.59  0.003428132    1.925    0.481
        53 -10.7000    189.8212    235.7631   4.6680341385e+01   2.4052040528e+00    0.1986792   0.09577163  -6.82 0.0009548411    2.813    0.644
        54 -11.9092    162.3891    234.7066   5.1773343480e+01   5.5493937642e+00    0.3896046     0.193473   7.89  0.001921209    2.348    0.574
        55 -10.6494      6.7797    235.0282   8.7259587851e+01   2.2296439153e+01     0.271441    0.1582516  57.93  0.001271811    1.458    0.314
        56 -12.0809    140.2460    235.1381   5.6395189137e+01   8.0382199103e+00    0.4087135    0.1565934  25.59  0.001896379    2.204    0.546
        57 -11.3689     32.1072    232.2881   8.1232549176e+01   2.0633280023e+01    0.4655951    0.2209164  57.44  0.002395135    2.031    0.508
        58 -11.5618     62.8731    230.4138   7.3703865944e+01   1.7880851384e+01    0.5045137    0.2076969  55.53  0.002115294    3.034    0.670
        59 -10.4028     40.2944    230.4904   7.9170811623e+01   2.0203939538e+01    0.2807232    0.1624231  80.10   0.00153644    2.042    0.510
        60 -11.2948    214.5984    229.7520   4.1498725965e+01   6.5513266608e-01    0.2778679    0.1372817 -27.18  0.001715486    1.775    0.437
        61 -12.6794    158.2708    245.3565   5.3981757850e+01   4.4698640292e+00    0.5087941    0.2140393  23.72  0.002495233    1.964    0.491
        62 -10.6848    229.9749    227.4254   3.8674440819e+01  -5.4073001718e-01    0.2613203      0.14076 -17.18  0.001448487    1.565    0.361
        63  -9.9890    195.4164    229.7072   4.4808799594e+01   2.6228399714e+00    0.2029279    0.1123458   4.95  0.001193838    1.756    0.431
        64 -11.8025     94.5493    235.4375   6.6631546565e+01   1.3365830446e+01    0.4257187    0.1645539  35.37  0.001976004    2.032    0.508
        65 -11.5862     21.2626    228.8143   8.3656763296e+01   2.2314622490e+01    0.4558527    0.1933848  34.88  0.002338669    1.731    0.422
        66 -11.2604      5.7082    227.4350   8.7291916339e+01   2.3893979812e+01    0.3900324    0.2221078  70.19  0.002218108    1.667    0.400
        67 -11.3463      2.3798    220.5974   8.7890057514e+01   2.5556098919e+01    0.3789246     0.200695  77.53  0.001834811    1.862    0.463
        68 -10.1484     47.6981    229.3407   7.7306603559e+01   1.9691070038e+01    0.2139932    0.1094848  49.64  0.001105965    1.766    0.434
        69 -11.3283    113.9681    228.2441   6.1358353440e+01   1.2333210056e+01    0.4434513    0.1084385  34.37  0.001649941    3.105    0.678
        70 -10.9761     87.2500    227.3380   6.7541048517e+01   1.5706813182e+01    0.3542224    0.1515903  49.52  0.001501287    2.782    0.641
        71 -10.6453     12.0205    226.4529   8.5768932140e+01   2.3582929594e+01    0.3248394    0.1254212  46.68  0.001609095    1.960    0.490
        72 -10.4674    223.8365    225.2721   3.9330371952e+01   3.0572619080e-01     0.217167    0.1036729 -15.85  0.001230766    2.146    0.534
        73 -10.0048      1.4649    234.3863   8.8453033387e+01   2.2840526966e+01    0.2079014     0.106574 -89.75  0.001186072    2.090    0.522
        74  -9.5392    206.3227    223.3440   4.1957910938e+01   2.3181363448e+00    0.1200835   0.06777836  -7.40 0.0007050307    1.732    0.423
        75 -10.7911    204.1960    231.6375   4.3539340481e+01   1.4590409712e+00    0.2339529    0.1321111  -3.08  0.001443258    1.685    0.407
        76 -10.3078     44.2104    221.1089   7.7617007539e+01   2.1715358273e+01    0.2459985    0.1511867  62.14  0.001349529    1.674    0.403
        77 -11.7324     15.0961    218.5562   8.4729834651e+01   2.4963092091e+01    0.7535405    0.1616929  46.12  0.002903497    3.143    0.682
        78 -10.5555    217.2238    220.5003   3.9693952873e+01   1.5611802774e+00    0.2680535    0.1210986 -12.57  0.001280274    3.015    0.668
        79  -9.5296     63.6696    221.3050   7.2761573039e+01   1.9599172252e+01     0.137996   0.07953678  49.45 0.0005098662    1.656    0.396
        80 -10.6964    227.2229    218.7859   3.7821003245e+01   7.7598946293e-01     0.284111    0.1418905 -19.74    0.0017232    1.812    0.448
        81 -10.6287     34.6661    215.2458   7.9652382137e+01   2.3895668463e+01    0.3768359     0.142846  42.96  0.001697647    2.085    0.520
        82 -10.5242    232.5084    212.9946   3.6113374713e+01   9.7391840065e-01    0.2721187    0.1323901 -22.71  0.001636699    1.786    0.440
        83 -10.6191     25.6785    210.7716   8.1699898907e+01   2.5706159820e+01    0.4474043    0.2089931  79.52  0.002076054    2.471    0.595
        84 -11.0960      3.0834    212.4210   8.7486867031e+01   2.7232830110e+01    0.3667403    0.1982485  51.78  0.002050649    1.501    0.334
        85  -9.6081     45.6504    212.2988   7.6632284290e+01   2.3425132298e+01    0.1434529   0.07725292  49.57 0.0003448503    1.687    0.407
        86 -10.8794    236.6120    206.5580   3.4490169674e+01   1.3678520045e+00    0.3526022    0.1474848 -34.08  0.002046213    1.992    0.498
        87 -10.8597    227.1020    204.7492   3.5667248015e+01   2.5711730208e+00    0.4764708    0.1290482 -29.48  0.001800116    4.478    0.777
        88 -10.6733    246.8941    205.8677   3.2871548549e+01   4.4786594514e-01    0.2539137    0.1187334 -29.60  0.001252962    1.682    0.405
        89 -11.5336     13.0542    204.4695   8.4668158531e+01   2.8191068212e+01    0.5464796    0.2146214  48.21  0.002523415    2.066    0.516
        90 -10.4898      2.2363    206.1008   8.7510262049e+01   2.8673133958e+01    0.2589489    0.1787516  70.16  0.001580755    1.325    0.245
        91 -10.8522    250.3097    200.3416   3.1523384749e+01   7.8780172228e-01    0.3244836    0.1064782 -33.43  0.001716945    2.422    0.587
        92 -10.1109     30.1144    201.4141   7.9990567543e+01   2.7374676901e+01    0.2717315    0.1483606  69.01  0.001329988    1.940    0.485
        93 -10.5655    243.5384    199.7569   3.2395899326e+01   1.5234060540e+00     0.298862   0.08152224 -35.27  0.001404799    2.988    0.665
        94 -11.7967      5.7707    195.5775   8.6236048176e+01   3.0779201427e+01    0.5267215    0.3161772  54.08  0.002824727    1.417    0.294
        95 -11.7668      3.6454    188.1299   8.6536840992e+01   3.2669478425e+01    0.4118823    0.2396811  69.96   0.00200424    1.594    0.373
        96 -10.4430    237.1902    196.1655   3.2752241241e+01   2.6236778402e+00    0.2986774    0.1063952 -32.33  0.001543009    2.337    0.572
        97 -11.6405     18.9379    193.8958   8.2590673527e+01   3.0110515987e+01    0.8468434    0.2297533  55.86  0.002851626    3.866    0.741
        98 -10.9036    246.1989    192.1685   3.0800179799e+01   2.2021212272e+00    0.3062158    0.1391406 -30.82  0.001850435    1.733    0.423
        99 -10.5163     26.9958    186.8110   7.9909162617e+01   3.1067496743e+01    0.4117488     0.121272  35.83  0.001587663    2.525    0.604
       100 -10.5400    249.9048    184.0081   2.8954404910e+01   2.8474024173e+00    0.2667252    0.1170105 -28.70  0.001556035    1.828    0.453
       101 -10.3034     23.2651    180.2366   8.0551884341e+01   3.2995555049e+01    0.2903624    0.1281622  68.56  0.001174259    2.555    0.609
       102 -12.5783      6.2919    173.9551   8.5199699927e+01   3.5902001442e+01    0.9571264      0.40298  79.06  0.004033803    2.460    0.593
       103 -10.4839     16.1291    181.7203   8.2719310430e+01   3.3242958090e+01    0.3162006    0.1618719  72.34  0.001464747    2.001    0.500
       104 -10.4243     31.4940    174.0166   7.7640270046e+01   3.3771287161e+01    0.3188428    0.1341817 -87.12  0.001223826    2.801    0.643
       105 -10.7107     19.5078    171.8743   8.1122944060e+01   3.5392020656e+01    0.4232428    0.2364395  67.48  0.002003298    1.799    0.444
       106 -10.4957     10.3089    166.2930   8.3601891916e+01   3.7527901616e+01    0.2850825    0.1231129  68.57   0.00116178    2.417    0.586
       107 -12.2939     10.9296    153.2014   8.2626366643e+01   4.0856233578e+01     0.932909    0.3053707  52.34  0.003335035    3.007    0.667
       108 -11.6286      9.7576    137.5839   8.1963005362e+01   4.5086520086e+01    0.7993144    0.2929327 -72.73  0.003078546    2.482    0.597
       109 -10.5964     20.7993    141.8769   7.8377216226e+01   4.3101994166e+01    0.3431287    0.1861397 -89.93  0.001492724    1.918    0.479
       110  -9.3991    219.0370    133.0692   2.4141629232e+01   1.3785551906e+01    0.1439158    0.1155657 -27.56 0.0003374873    1.020    0.019
       111 -11.6782      5.4279    125.5619   8.2684039707e+01   4.8611328717e+01    0.7358475    0.3538343  74.45  0.003052199    2.204    0.546
       112 -10.5433    140.2395    121.2465   3.6278635146e+01   2.9699872154e+01    0.2786611    0.2369643 -88.66            0    1.473    0.321
       113  -9.9276    172.4686    119.4892   2.8984436706e+01   2.3828380885e+01    0.1376797    0.1265713 -33.59 5.691942e-05    1.024    0.023
       114 -10.6686     10.5147    112.4961   7.9520105547e+01   5.1879285184e+01    0.2716114     0.124879  84.53  0.001041613    2.431    0.589
       115  -9.5799    236.4457    112.4473   1.7770375893e+01   1.4210453328e+01    0.1176369   0.09271525 -30.80 0.0003277652    1.040    0.038
       116  -9.6976    208.0107    110.7206   2.1141847600e+01   1.8954946903e+01    0.1679927    0.1522482 -30.99 0.0004390843    1.070    0.066
       117 -10.6434      2.7889     94.2729   8.1096697820e+01   5.7294999892e+01    0.3631628    0.1678821  78.64  0.001431821    2.468    0.595
       118  -9.8171    229.8171     94.1832   1.4867131534e+01   1.7790848720e+01     0.155794    0.1260919 -18.53 0.0005139451    1.299    0.230
       119 -10.8076    193.0268     84.4422   1.7379614959e+01   2.5761531396e+01    0.2336293    0.1930338 -81.95 0.0004938199    1.365    0.267
       120  -9.4257    222.2923     63.6792   9.2006033563e+00   2.3230603078e+01    0.1254183   0.07440473 -56.43 0.0003441666    1.608    0.378
       121 -10.3975    231.7588     58.8004   7.2901898376e+00   2.2191384707e+01    0.1663716    0.1385548 -39.07 0.0006487484    1.137    0.120
       122 -10.6719      2.4314     53.2988   7.5447327329e+01   6.8134277519e+01    0.2678857    0.1109845 -65.45  0.001132841    2.100    0.524
       123 -11.8885    248.7319     43.8515   2.9578707671e+00   2.1141168211e+01    0.2642512    0.1385726 -57.32  0.001632657    1.703    0.413
       124 -10.8656     12.5258     42.1063   6.5484895337e+01   7.0239364772e+01    0.4464386    0.1753532 -18.70  0.001326726    4.871    0.795
       125  -9.7124    161.0904     39.6967   1.0157584940e+01   3.9186909703e+01    0.1862388    0.1591335 -88.58 0.0005011205    1.101    0.092
       126 -11.7539     89.5967    247.6782   6.8924603920e+01   1.1791338066e+01    0.3930709    0.2143337  38.42  0.002233348    1.532    0.347
       127  -9.9488    126.4915     11.5129   5.8765471874e+00   5.1016055021e+01    0.1361041    0.1198551  82.88 0.0001430538    1.050    0.047
       128  -9.9332      3.0503     10.4889   6.0281062330e+01   7.7905395325e+01    0.1873632   0.09171121 -10.88 0.0008091488    2.566    0.610
       129 -11.5817     83.2884    246.9727   7.0287440243e+01   1.2606134095e+01    0.3762787    0.1566599  34.47   0.00189421    1.806    0.446
       130 -10.6101     57.6511    247.4672   7.6165204052e+01   1.5241244062e+01    0.2867225    0.1267494  46.79  0.001468325    1.999    0.500
       131  -9.4732     99.4708     33.4684   1.9446463347e+01   5.5345994487e+01    0.1457963    0.1331342  79.10 1.541091e-05    1.046    0.044
       132  -9.2559     39.7052     21.3284   3.6993283188e+01   7.0772624271e+01    0.1280978    0.1103865  85.45 0.0003987615    1.629    0.386
