#   1 NUMBER                 Running object number                                     
#   2 MAG_AUTO               Kron-like elliptical aperture magnitude                    [mag]
#   3 X_IMAGE                Object position along x                                    [pixel]
#   4 Y_IMAGE                Object position along y                                    [pixel]
#   5 X_WORLD                Barycenter position along world x axis                     [deg]
#   6 Y_WORLD                Barycenter position along world y axis                     [deg]
#   7 A_WORLD                Profile RMS along major axis (world units)                 [deg]
#   8 B_WORLD                Profile RMS along minor axis (world units)                 [deg]
#   9 THETA_WORLD            Position angle (CCW/world-x)                               [deg]
#  10 FWHM_WORLD             FWHM assuming a gaussian core                              [deg]
#  11 ELONGATION             A_IMAGE/B_IMAGE                                           
#  12 ELLIPTICITY            1 - B_IMAGE/A_IMAGE                                       
         1 -14.9928     68.6811    144.2254   1.0113672095e+02   3.7204459100e+01     5.517141     2.414082  62.95   0.00870465    3.929    0.745
         2 -14.3588    199.9203     40.6406   4.3727039971e+01   3.0428723884e+01     1.539556     1.197228 -14.73  0.003700197    1.431    0.301
         3 -14.5718    210.3507     30.1270   3.9784414831e+01   2.9337006141e+01     1.440014    0.9798171  -8.19  0.002098389    1.843    0.457
         4 -12.9088      2.2757     20.0714   1.0308134075e+02   7.4727105912e+01     1.439134    0.2322336 -65.96  0.004297628    5.329    0.812
         5 -13.4734      2.3009      5.1268   9.6172748304e+01   7.7872635662e+01     1.218903    0.8730708  13.74  0.007889871    1.494    0.331
         6 -13.5342    235.3441      5.0353   3.1654902005e+01   2.6615469154e+01    0.8139289    0.5766543 -88.73  0.005193495    1.449    0.310
         7 -10.5945    198.0343     23.7134   3.9178144584e+01   3.2917996908e+01    0.2814853    0.1946324 -13.20  0.001006075    1.679    0.404
         8 -11.8112    139.9777    245.2748   9.7476422427e+01   7.7718642625e+00    0.2489586    0.2144644  89.41  0.001446028    1.704    0.413
         9 -11.1223    140.7953    250.1225   9.7844359149e+01   7.0088581230e+00    0.3708708    0.1335765  30.67  0.001846427    2.287    0.563
        10 -13.1157     70.9089    171.1561   1.0411403207e+02   3.0582062389e+01     1.086048    0.5054036 -37.38  0.003793709    4.389    0.772
        11 -14.3347     54.4782    187.5148   1.0989272987e+02   2.9025782153e+01     4.650223     1.680552  64.83   0.01536811    4.707    0.788
        12 -13.0595     27.8241    215.0361   1.1774184331e+02   2.6251679641e+01    0.8495679    0.3119529  71.47  0.003766046    3.022    0.669
        13 -14.9728     43.7952    198.6235   1.1327394918e+02   2.7888032169e+01     3.751589     1.147815  61.80  0.005112404    4.783    0.791
        14 -14.1815     24.0061    226.5359   1.1903650002e+02   2.4454999837e+01    0.9479865    0.3667069  66.44  0.003595611    2.444    0.591
        15 -13.1732     55.6229    248.9753   1.1395154427e+02   1.7325980195e+01    0.2930457    0.1896585  76.87  0.002071427    1.627    0.385
        16 -17.6976     17.7527    242.7959   1.2083972301e+02   2.2161501113e+01     7.586136     2.604144  25.20    0.0253876    3.151    0.683
        17 -12.1560    194.4531    197.0955   8.0622518366e+01   7.1723010022e+00    0.9553124    0.6546649 -61.34  0.005043292    2.876    0.652
        18 -11.1509    204.7740    199.6015   7.9192893083e+01   5.3736969609e+00     0.214813    0.1295569  23.40  0.001027728    1.510    0.338
        19 -10.0802     66.1113    194.3186   1.0774596867e+02   2.6190962834e+01    0.2685927    0.1756651  38.23 0.0008708244    1.340    0.254
        20 -16.0458      2.7306    198.0496   1.2243769373e+02   3.1880920322e+01     9.229104    0.5486291 -76.65   0.02258633    8.176    0.878
        21  -9.3767     23.9931    193.3639   1.1748939761e+02   3.0997590204e+01    0.1600333    0.1225846  52.85 0.0003963169    1.089    0.082
        22 -10.0407    120.1334    194.2186   9.5294126040e+01   1.8762676157e+01    0.2216609    0.1591382  78.23 0.0009097746    1.960    0.490
        23 -15.1041     10.4409    206.3860   1.2105985773e+02   2.9553442612e+01    0.8427955    0.6326908  21.21  0.002671003    1.599    0.375
        24 -11.5548     61.4413    198.8403   1.0923829634e+02   2.5830208374e+01    0.2924921    0.2353393 -65.51 0.0005784518    1.409    0.290
        25 -10.8362    149.5447    187.5640   8.7895648031e+01   1.5458036236e+01    0.2600019    0.2192509  56.07  0.000903923    1.380    0.275
        26  -9.3135     72.1765    188.1952   1.0570017823e+02   2.6704054408e+01    0.1754022    0.1261959  61.85 0.0004480505    1.313    0.238
        27  -9.5284     80.6295    184.0181   1.0319922587e+02   2.6469014838e+01     0.200952    0.1481994  78.18 0.0008151447    1.453    0.312
        28  -9.6214     69.8544    183.9556   1.0581609751e+02   2.7904781296e+01    0.1918043    0.1609697  64.44  0.000394029    1.075    0.070
        29 -10.3096     92.5923    250.1005   1.0695440071e+02   1.2935157598e+01    0.2732399    0.1557402  19.23  0.001599892    2.054    0.513
        30  -9.2868     90.5663    181.7252   1.0050893756e+02   2.5572241954e+01    0.1631785    0.1243312 -87.37 0.0005163483    1.466    0.318
        31 -10.4816     99.3787    180.7332   9.8250128865e+01   2.4502124381e+01    0.2364322    0.2109825  26.29 0.0005846926    1.157    0.136
        32 -10.8120    189.3852    177.5122   7.8177805823e+01   1.0837821634e+01    0.4052686    0.3032488 -51.68  0.002359517    1.753    0.430
        33  -9.1760     93.3980    179.2640   9.9500859108e+01   2.5683609668e+01    0.1742865    0.1249711 -83.16 0.0004848565    1.621    0.383
        34  -9.4583    148.6504    175.8256   8.6138850707e+01   1.7697210497e+01    0.2708466    0.1971724 -83.23 0.0006396166    2.332    0.571
        35 -10.7219    146.4415    171.8050   8.5923925356e+01   1.8804130301e+01    0.2629023    0.2274574 -87.06  0.001526126    1.511    0.338
        36 -11.8706     55.0109    147.1520   1.0549281593e+02   3.8268305227e+01     2.913491    0.8059011 -49.71  0.008832161    4.727    0.788
        37 -13.1420     81.6847    160.1213   9.9849919943e+01   3.1601395593e+01     1.401457    0.5659578  56.70 0.0003845145    3.696    0.729
        38 -13.8121     70.2282    155.0010   1.0223552351e+02   3.4404367610e+01    0.6100041     0.576981 -13.72  0.001857463    1.276    0.217
        39 -11.0757    111.2429    197.5846   9.7726530984e+01   1.9436495225e+01    0.3955783    0.2262119  11.08  0.001696293    2.977    0.664
        40 -11.1197    112.1899    205.8212   9.8548424299e+01   1.7781413731e+01    0.2545317    0.2087318  47.72 0.0007058723    1.122    0.109
        41  -9.2787    110.8291    167.8047   9.3556874740e+01   2.5450193585e+01    0.1874772    0.1538635  67.39 0.0004111351    1.319    0.242
        42 -12.3192    108.0645    203.6012   9.9182275001e+01   1.8768430946e+01    0.4035862    0.3222778  42.98  0.001078292    1.084    0.078
        43  -9.8601    135.3799    165.6151   8.7328130840e+01   2.1850232433e+01    0.3576589     0.181491  53.84  0.001312204    2.568    0.611
        44  -9.5862    132.6620    162.3430   8.7376252007e+01   2.2964179551e+01    0.2679238    0.2055708  83.33 0.0007318017    1.822    0.451
        45  -8.8158     29.4853    164.4930   1.1429880650e+02   3.6894223357e+01    0.1286564     0.106936  70.39 3.080145e-06    1.001    0.001
        46 -13.6210     83.2110    219.6553   1.0626808647e+02   1.9143254135e+01     1.276469    0.4575588  35.34  0.003553619    2.205    0.547
        47 -10.8536     32.0178    156.4776   1.1297210953e+02   3.8543235082e+01    0.2297158    0.1851975  40.58  0.001054035    1.246    0.197
        48 -12.3454     88.8171    153.2013   9.6893450916e+01   3.2136755439e+01    0.6325699    0.4518857 -24.06  0.003045544    2.010    0.502
        49 -11.4928    133.8811    145.2442   8.3814800113e+01   2.6256543207e+01     1.120036     0.319227 -55.13  0.002975327    5.368    0.814
        50 -10.6788    174.5346    149.1511   7.5587443880e+01   1.8059642784e+01    0.2635626    0.2372941 -26.24 0.0008348117    1.095    0.087
        51  -9.8314    165.3127    150.6611   7.7807688026e+01   1.9450205941e+01    0.1344022    0.1128668 -89.65 0.0007046306    1.694    0.410
        52  -9.5078    111.2788    149.4344   9.0295674276e+01   2.9354000049e+01    0.3555321    0.2116047  70.32  0.001369095    2.841    0.648
        53 -10.9078     38.9707    146.4229   1.1005530973e+02   4.0277099855e+01    0.3262107    0.2364669  68.75 0.0009147945    1.279    0.218
        54 -11.5158     29.1497    144.1446   1.1269061930e+02   4.1821161975e+01     0.505889    0.3158025  31.91  0.002367042    1.634    0.388
        55  -9.9967    198.7331    140.6820   6.9163818387e+01   1.5166634692e+01    0.2496674    0.1985396 -47.32  0.001038587    1.415    0.293
        56 -11.0779    102.5635    138.9445   9.0640328182e+01   3.3217825366e+01     0.541911    0.3749375 -14.61  0.002343015    2.317    0.568
        57 -12.4672     89.9154    138.6292   9.4110694614e+01   3.5387755768e+01    0.2796768    0.2617442 -45.47 0.0004116205    1.153    0.133
        58 -10.7566    105.8733    130.8286   8.8098579865e+01   3.4521397538e+01    0.3508731    0.3147577 -82.75  0.001283691    1.158    0.136
        59 -12.0695     43.3398    129.3933   1.0671900862e+02   4.4074972432e+01    0.5077859    0.2738007  59.48  0.002278282    2.009    0.502
        60 -11.5290    135.6604    127.5119   7.9550768024e+01   2.9654228372e+01     0.643462    0.1976342 -51.12  0.001930884    3.705    0.730
        61 -10.4826    111.7096    129.6253   8.6239792812e+01   3.3744928826e+01    0.3288773    0.2535167   9.23 0.0007671164    1.692    0.409
        62 -11.3628     31.4984    130.5034   1.1059907752e+02   4.5016465675e+01    0.3931129    0.2416793 -32.93  0.001870792    2.281    0.562
        63 -10.9774     29.0000    129.0053   1.1122479494e+02   4.5633228103e+01    0.2967821    0.1635707 -64.20   0.00145613    1.662    0.398
        64 -10.1065    160.6738    128.0110   7.3866100620e+01   2.4603486402e+01    0.2644146    0.2164571  77.33  0.001345021    1.609    0.379
        65 -10.9990     99.0364    125.5851   8.8927500310e+01   3.6960188866e+01    0.3039895    0.2531823   5.08 0.0009390285    1.494    0.331
        66 -11.3391    118.8481    123.0469   8.2845883399e+01   3.3897132988e+01    0.6136801    0.3984285  -3.47  0.002230553    3.133    0.681
        67  -9.7937     91.2888    124.1794   9.0901208875e+01   3.8632147318e+01    0.2655448    0.1724502  62.94 0.0006071592    1.875    0.467
        68 -10.0776    107.9519    118.7731   8.4862014963e+01   3.6941021341e+01    0.2291995    0.2086295 -56.02 0.0003286536    1.087    0.080
        69 -11.8437     34.7359    118.3215   1.0806044494e+02   4.7823462503e+01    0.3902932    0.2354282 -37.42  0.001829364    2.115    0.527
        70 -10.7091    134.7948    112.4807   7.6145101596e+01   3.3020256646e+01    0.4369804    0.1189918 -45.04  0.001265033    3.614    0.723
        71 -11.0293     45.0192    117.9736   1.0453962045e+02   4.6816050489e+01    0.2183069     0.191209  88.39 0.0003412692    1.041    0.040
        72  -9.1106    167.9801    112.9802   6.8696305615e+01   2.5975871164e+01    0.2921728    0.1818181 -78.62 0.0009535521    4.088    0.755
        73 -10.2196    205.4037    110.3325   6.1141824211e+01   1.8857912492e+01    0.2979677    0.2199032  31.60  0.001056998    1.514    0.339
        74 -11.3017    117.0092    109.1519   7.9982197515e+01   3.7383135949e+01    0.5926467    0.4298393  67.49  0.002683222    1.710    0.415
        75  -9.3898    139.9555    106.6632   7.3371231825e+01   3.3155217665e+01    0.2131569    0.1919992  54.40 0.0005328758    1.152    0.132
        76  -9.9654    134.5540    105.7881   7.4476962944e+01   3.4486563770e+01    0.3817916    0.1460131 -46.59  0.001294204    2.596    0.615
        77 -12.2331     43.8398    104.9686   1.0281349544e+02   5.0320318103e+01    0.6989212    0.2352275  43.02  0.002505929    3.063    0.673
        78  -9.3782     64.8505    103.6070   9.5038048484e+01   4.7943385725e+01    0.2047031     0.131363  45.88 0.0004925925    1.620    0.383
        79 -11.4153    241.9687    101.9694   5.3928074319e+01   1.3367982502e+01    0.2059893    0.1683484 -29.05 0.0009280797    1.025    0.024
        80 -10.6450     34.1057    100.1056   1.0558241090e+02   5.2621519262e+01     0.214731    0.1894235 -83.21   0.00062927    1.023    0.023
        81 -10.0030    127.8854     95.1401   7.3279891419e+01   3.8169279651e+01    0.2997924    0.2120922  62.23 0.0008194009    1.636    0.389
        82  -9.2447     34.5178    171.4831   1.1352633787e+02   3.4777856648e+01    0.1308168    0.1035311  65.30 8.029069e-05    1.065    0.061
        83 -10.2377     53.0944     91.2813   9.6595202769e+01   5.2719773392e+01    0.2716194     0.178294 -53.88 0.0007179325    1.413    0.292
        84 -10.0840    156.2578     88.4397   6.4632922142e+01   3.3147060058e+01    0.3628861    0.2408344 -65.31  0.001005504    2.018    0.504
        85  -9.3886     15.1942     89.5349   1.1136709798e+02   5.6958756311e+01    0.2328833    0.1223088  27.84  0.001127539    2.070    0.517
        86  -9.4855    116.1087     85.0598   7.3530081230e+01   4.2877405235e+01    0.2404264    0.1884877  86.33   0.00091896    1.633    0.388
        87 -10.3763    158.5161     82.2307   6.2373855442e+01   3.3770950186e+01    0.2698036     0.215201  54.03  0.000657036    1.312    0.238
        88  -8.8384     70.0174     81.9629   8.7747712982e+01   5.2541577241e+01    0.1690816    0.1631005 -63.36            0    1.024    0.023
        89  -9.3891    184.5371     76.9833   5.6046363798e+01   2.8683579576e+01    0.2236052    0.1353441 -32.35 0.0005736636    1.553    0.356
        90  -9.0322     56.4490     66.4730   8.8513464786e+01   5.8395925003e+01    0.1442563    0.1344724 -59.36 0.0001177053    1.045    0.043
        91 -13.9437    189.6964     48.1226   4.7098188643e+01   3.1826167630e+01     1.324708    0.9843233  27.70  0.001015512    1.753    0.430
        92 -10.1227    169.0279    235.9068   9.0970458202e+01   5.3144586303e+00    0.1651658    0.1423977   3.87 0.0004094752    1.173    0.147
        93  -9.2518     93.7438    205.4040   1.0256000559e+02   2.0405734026e+01    0.1769661    0.1091286  25.13 0.0009523323    1.671    0.402
        94 -10.9480     13.3735     59.8231   1.0716343964e+02   6.4678967987e+01      0.27384    0.2248204 -88.56 0.0004176824    1.227    0.185
        95  -9.6293     66.9316     51.6729   7.8779190748e+01   5.9998843424e+01    0.1994269    0.1802058  38.32 0.0005743459    1.163    0.140
        96 -11.3263    141.8079     47.0271   5.4580305284e+01   4.3817905349e+01      0.45535    0.2910494 -73.42 0.0005741256    2.154    0.536
        97  -9.4708     32.6569    204.7348   1.1616337228e+02   2.7804901928e+01    0.1795102    0.1491314  81.47 0.0002678203    1.182    0.154
        98 -10.1644     90.0137    213.1428   1.0418707519e+02   1.9457962843e+01    0.3208302    0.1799939  59.58  0.001437168    1.973    0.493
        99  -9.4835    189.6848     14.9973   3.7453583986e+01   3.5864416858e+01     0.192706    0.1610678 -41.01 0.0005852411    1.119    0.106
       100 -10.7916    187.9752     31.2034   4.2381424001e+01   3.4436936823e+01    0.2472721    0.1941059 -35.45 0.0007002655    1.192    0.161
       101  -9.9907     30.2433    202.1617   1.1655479563e+02   2.8567715688e+01    0.2315541    0.1387702  48.83   0.00064653    1.327    0.247
       102 -10.6181     16.4660     32.4790   9.7664763413e+01   7.0992848633e+01    0.2187988    0.1058212  34.95  0.001035432    2.347    0.574
