#   1 NUMBER                 Running object number                                     
#   2 MAG_AUTO               Kron-like elliptical aperture magnitude                    [mag]
#   3 X_IMAGE                Object position along x                                    [pixel]
#   4 Y_IMAGE                Object position along y                                    [pixel]
#   5 X_WORLD                Barycenter position along world x axis                     [deg]
#   6 Y_WORLD                Barycenter position along world y axis                     [deg]
#   7 A_WORLD                Profile RMS along major axis (world units)                 [deg]
#   8 B_WORLD                Profile RMS along minor axis (world units)                 [deg]
#   9 THETA_WORLD            Position angle (CCW/world-x)                               [deg]
#  10 FWHM_WORLD             FWHM assuming a gaussian core                              [deg]
#  11 ELONGATION             A_IMAGE/B_IMAGE                                           
#  12 ELLIPTICITY            1 - B_IMAGE/A_IMAGE                                       
         1 -13.0235     37.5890     50.3570   9.7113207252e+01   6.2559373525e+01    0.8424205    0.5876872 -25.68  0.004564493    1.340    0.254
         2  -8.8407     20.6573     17.4398   9.2470897616e+01   7.0171657565e+01     1.157274    0.8737688  89.11   0.00588923    3.987    0.749
         3 -12.5385     14.3258     31.4447   1.0116271155e+02   6.8214610308e+01    0.9369778    0.4639026  19.12  0.001501521    2.276    0.561
         4 -11.1863     22.7934      7.3948   8.6609394572e+01   7.1517940804e+01    0.3240367    0.3127645 -46.22  0.001200125    1.753    0.430
         5 -11.2052     17.4999      6.1674   8.8839278345e+01   7.2219825236e+01    0.2649809    0.1752035 -40.54 0.0009733448    1.505    0.336
         6 -11.1197     62.1105     16.4936   7.3170162839e+01   6.4966750654e+01    0.4610402    0.2501295   3.05  0.001765813    2.700    0.630
         7 -13.0366    130.0116     22.5144   5.5850267587e+01   5.0060660657e+01    0.6582927    0.4610192  52.84 0.0009787926    1.298    0.230
         8 -10.9880     85.3467     21.8179   6.7370374294e+01   6.0072255014e+01    0.5294346    0.3002255 -53.47  0.002205347    3.219    0.689
         9 -10.8049    120.0952     21.5665   5.7717942061e+01   5.2541016642e+01    0.4129889    0.2542405  -3.16  0.001297984    2.031    0.508
        10 -10.7411    164.9460     16.4898   4.7513043944e+01   4.1950411981e+01     0.319381    0.2030941 -32.30  0.001591238    1.659    0.397
        11 -11.6254      3.9686     18.2922   1.0162941181e+02   7.1274236958e+01    0.3742461    0.2499125   2.53    0.0026136    1.562    0.360
        12 -10.7265     10.0159     15.8314   9.7384868634e+01   7.1304016460e+01    0.2351674    0.1259324 -35.00 0.0008951197    1.435    0.303
        13 -12.1851     75.6756     15.2662   6.7661422521e+01   6.2729950395e+01    0.5943165    0.3996798  13.48  0.003126789    1.505    0.336
        14  -9.5806     70.6107     13.7737   6.8736920041e+01   6.3836599730e+01    0.3430961    0.1589564 -28.14   0.00091916    2.108    0.526
        15  -9.8426     74.2757      7.3297   6.4442815445e+01   6.3879882735e+01    0.1964837    0.1474256  14.60 0.0002433475    1.188    0.158
        16  -8.5310     42.4490      7.8878   7.7195432389e+01   6.9067321697e+01    0.2863212    0.1867143 -44.90  0.001509065    2.119    0.528
        17 -10.5145     40.0762     10.9452   7.9829600028e+01   6.8984253240e+01    0.2369012    0.1723015 -33.23 0.0005502269    1.419    0.295
        18 -10.9517     35.6127     15.0101   8.3916008446e+01   6.8970807234e+01    0.2949579    0.1742888  15.59 0.0003285338    1.752    0.429
        19 -11.2011     31.0074     13.0975   8.5231214267e+01   6.9792489612e+01    0.3980757    0.1812374 -25.87 0.0006924562    2.202    0.546
        20 -10.5980     55.2046     13.1534   7.4325018941e+01   6.6508690153e+01    0.4461359    0.1654209 -36.09  0.001517056    2.656    0.624
        21 -10.1338     51.2106     10.7252   7.4792093953e+01   6.7433285045e+01    0.3587505    0.1824736   0.67   0.00150559    3.213    0.689
        22 -10.1908    158.4872     13.5092   4.7557209499e+01   4.3905990224e+01    0.2458524    0.1107376 -38.35  0.001034405    2.305    0.566
        23 -10.6152    118.9039     11.9780   5.4322321057e+01   5.3841481399e+01    0.3496855    0.2222462  36.22  0.001777566    1.528    0.345
        24 -10.1388    117.2878      8.6539   5.3390813091e+01   5.4540529235e+01    0.5610478    0.2608373  72.89  0.002215343    2.818    0.645
        25 -10.0201    100.1004     12.4825   5.9065064405e+01   5.8070966228e+01     0.243756    0.1714591   4.91 0.0008289001    1.509    0.337
        26 -11.5967     11.4856      2.7435   9.0478559071e+01   7.3265601325e+01    0.3147508    0.1800102  -9.50  0.001345231    1.687    0.407
        27  -9.8941      5.4673     12.5128   9.8474707624e+01   7.2176068778e+01    0.2255044    0.1045581 -44.96  0.001325521    1.648    0.393
        28 -11.0269      6.6417      8.4311   9.6013172497e+01   7.2766869556e+01    0.1856098    0.1566674 -34.38    0.0014349    1.331    0.249
        29 -10.9750    132.3457     11.2456   5.1289654167e+01   5.0677941043e+01    0.4023174    0.2527151  48.88 0.0008740988    1.422    0.297
        30 -10.0242    165.0000     10.0214   4.5500417187e+01   4.2595138365e+01    0.3068079     0.184482  -5.29  0.001424974    2.235    0.553
        31 -10.1596    164.5723      5.7073   4.4230467648e+01   4.3113383699e+01    0.2484352    0.1938136  79.73 0.0007541982    1.188    0.158
        32 -11.9773    234.9428      9.6356   3.7891064185e+01   2.5468680898e+01     0.323543    0.1946537  84.63  0.001386279    1.584    0.369
        33 -11.2608    146.6401      7.6582   4.7515831381e+01   4.7466666201e+01    0.4634049       0.3963 -43.95  0.002745888    1.286    0.222
        34  -9.9686    138.5346      9.9843   4.9694795037e+01   4.9272736959e+01    0.2519275    0.1854934  88.93 0.0009835298    1.542    0.351
        35  -9.5376     59.0189      9.9510   7.1233893552e+01   6.6292530057e+01    0.1529492    0.1216552  -4.13  0.000983384    1.083    0.077
        36  -9.1192    127.2880      8.3168   5.1201136302e+01   5.2185357500e+01    0.1416033   0.09115993  33.31 0.0002726146    1.591    0.372
        37 -10.0027    180.6729      7.3035   4.2653210232e+01   3.8878899206e+01    0.1421593    0.1250702  63.95 0.0008464677    1.112    0.101
        38 -10.5666     92.4237      5.8776   5.8297938445e+01   6.0374179473e+01    0.4402581    0.2311913  14.98   0.00196515    2.455    0.593
        39 -10.3358     81.1457      6.4086   6.1810653540e+01   6.2641322124e+01     0.226905    0.1693991  10.19 9.282092e-05    1.250    0.200
        40  -9.8207     84.9984      4.8679   5.9946601806e+01   6.2014753044e+01    0.1863189    0.1715024  64.09  0.001212682    1.350    0.259
        41 -10.2832     73.2388     10.5877   6.6328423166e+01   6.3722798160e+01    0.2440442    0.1768595  16.83   0.00063261    1.259    0.206
        42 -11.0645    228.3225      4.8956   3.7333923155e+01   2.7499035692e+01    0.2727735    0.1528903 -85.01  0.000990847    1.764    0.433
        43 -10.0730    223.8393      4.0195   3.7494600345e+01   2.8633698515e+01    0.2230076    0.1629974  82.26 0.0005825763    1.246    0.197
        44 -11.5092    241.7348      2.6544   3.5807966003e+01   2.4695717218e+01    0.3429612     0.180344 -68.66  0.001062857    1.833    0.454
        45 -10.0553    113.0547      2.8337   5.2021116705e+01   5.6045292822e+01    0.1890009    0.1732817 -85.33 0.0005804035    1.291    0.225
        46 -10.2310     73.3042      2.2643   6.2340940350e+01   6.4569346487e+01    0.2035356    0.1804273  44.17  0.000483442    1.287    0.223
        47 -12.1478     31.7808      2.0613   7.9194927996e+01   7.1216420324e+01    0.2536896    0.1742941  11.35 0.0007471023    1.280    0.219
        48 -10.5755     26.2653      2.9994   8.2504833556e+01   7.1753603006e+01    0.2030552    0.1464287  16.96 0.0007491472    1.320    0.242
        49  -9.7956    167.2085      1.6697   4.2656324621e+01   4.2808837160e+01    0.2754543    0.1584127 -85.04  0.000941617    1.981    0.495
        50  -9.3735    126.7971      2.3704   4.9098415219e+01   5.2823817889e+01    0.2005124    0.1018124  54.16 0.0009170243    1.653    0.395
        51  -8.5682     47.3174      1.7535   7.1839734880e+01   6.9094778763e+01   0.09717298   0.09356073  14.37 0.0003501278    1.521    0.343
        52  -8.8801     20.3029      1.3047   8.4772531373e+01   7.2632474593e+01    0.1168042   0.06865726 -10.08 0.0003751553    1.596    0.374
        53 -11.3376     17.9941    203.5051   1.2603160390e+02   2.9691314223e+01    0.3700339    0.1425489  51.49  0.001991519    2.145    0.534
        54 -10.6358    250.1210    246.3329   8.6749911498e+01  -1.1424353863e+01    0.2360835    0.1355469 -15.30  0.001440479    1.728    0.421
        55 -10.0571     72.6044    250.1118   1.1935474317e+02   1.4411870713e+01    0.1689364    0.1491678  26.14  0.001258842    1.626    0.385
        56 -12.6828     29.0498    248.4074   1.2663695853e+02   2.0007454312e+01     1.342969    0.3819388  67.78  0.005143608    5.005    0.800
        57 -10.3919      5.6832    235.1369   1.2981239079e+02   2.4786068054e+01     0.304385    0.1812611  60.93  0.001677455    1.225    0.184
        58 -12.7437     20.4399    248.6163   1.2803848609e+02   2.0899277197e+01    0.7567495     0.212751  42.83  0.003765276    2.556    0.609
        59 -13.2653      6.1574    244.6928   1.3013051714e+02   2.3034822442e+01    0.8906687    0.7084875  18.77  0.006722241    2.237    0.553
        60  -9.4929    223.6003    201.8068   8.3761332862e+01  -1.8846054015e+00    0.1648373      0.11792 -43.25 0.0005771935    1.701    0.412
        61 -10.3289     19.6657    200.6762   1.2553510408e+02   3.0107347933e+01     0.223696    0.1230104 -63.31 0.0009323359    1.897    0.473
        62  -9.6156     34.3800    201.3777   1.2272300602e+02   2.8429528665e+01    0.1443141    0.1236782 -60.60  0.001022001    1.508    0.337
        63 -10.1146    215.4793    194.8922   8.3983149347e+01   5.2724988413e-01    0.1869758     0.124983 -31.01 0.0003791523    1.518    0.341
        64  -9.5314    211.4750    188.4816   8.3518592960e+01   2.2405192438e+00    0.2365668    0.1215279 -25.71 0.0008761609    2.301    0.565
        65  -9.4147      1.5927    188.2080   1.2825591077e+02   3.4343148716e+01    0.1480869   0.08149691 -74.18  0.000512558    1.551    0.355
        66  -9.4747     61.7829    185.0389   1.1546865015e+02   2.8673702484e+01    0.1711087   0.09444538 -71.84 0.0008759751    1.706    0.414
        67 -10.7977     16.5077    183.5012   1.2499927945e+02   3.4036554775e+01     0.274982    0.1658794 -86.60  0.001724464    1.338    0.252
        68 -10.3399     15.3141    180.6781   1.2504384166e+02   3.4756872449e+01     0.195801    0.1546033  78.60 0.0008438846    1.068    0.064
        69  -9.6759    166.6839    183.6871   9.1728435783e+01   1.1408747540e+01    0.1434692    0.1091556   4.67 0.0004781546    1.642    0.391
        70  -9.6175      1.7978    180.5455   1.2777508390e+02   3.5943973867e+01    0.1474934   0.08313964  52.71 0.0005790237    1.604    0.376
        71 -10.5999    224.0930    178.5234   7.9161570171e+01   1.5863678963e+00    0.2433356    0.2054088 -28.13 0.0003944703    1.206    0.171
        72  -9.8117    244.4307    178.0912   7.5428821572e+01  -1.8461504108e+00    0.1857902    0.1009558 -11.62 0.0006118231    2.433    0.589
        73  -9.0414     36.3157    178.3194   1.2038945215e+02   3.3197151110e+01    0.1148237   0.08736116 -49.88 0.0007039788    1.655    0.396
        74  -9.4471     70.1938    177.6071   1.1269199405e+02   2.9213385225e+01    0.1635977    0.1263478  24.51 0.0005960239    1.652    0.395
        75  -9.9040     46.5457    177.4753   1.1804719681e+02   3.2242282318e+01    0.2387172    0.1168553  35.57   0.00120078    2.135    0.532
        76  -9.7155    200.4753    176.4969   8.3300129870e+01   6.2683359789e+00    0.1424321    0.1268755   9.33 0.0001047016    1.033    0.032
        77  -9.5060    100.9056    176.0862   1.0531924480e+02   2.4921818443e+01    0.1645983    0.1611307 -28.88            0    1.230    0.187
        78 -11.1639     17.9638    172.9875   1.2391143065e+02   3.6203183255e+01    0.3620563    0.1741223  66.10  0.001911866    2.017    0.504
        79  -9.4140      4.7619    168.2568   1.2638286375e+02   3.8368399055e+01    0.1888187   0.06180398 -67.34 0.0008981601    2.428    0.588
        80 -11.8501     35.4623    164.4682   1.1923377435e+02   3.6426907443e+01     0.611323     0.485929 -27.55   0.00378845    1.868    0.465
        81 -11.8601     36.8981    157.8659   1.1819420947e+02   3.7806960947e+01    0.2251832    0.1808733 -78.85 0.0003035158    1.086    0.079
        82  -9.5557     67.1690    165.1918   1.1178968607e+02   3.2478406576e+01    0.1940395    0.1390453  68.98 0.0008784666    1.373    0.271
        83 -11.1206     51.5113    163.9885   1.1540041271e+02   3.4747264812e+01    0.5320868    0.2936727 -47.38  0.002601818    2.205    0.546
        84 -11.3134     45.6860    161.5509   1.1650516532e+02   3.5992589817e+01    0.4777559     0.360388 -28.78  0.002733863    1.973    0.493
        85  -9.3000    200.4773    162.5781   8.0402435656e+01   8.7381301728e+00    0.1424658    0.1341834  10.60 0.0001822398    1.046    0.044
        86 -11.5692     22.4865    156.9485   1.2151539615e+02   3.9418788966e+01     0.472115    0.4014027  74.35  0.003301437    1.145    0.126
        87 -10.2760     12.1769    153.3958   1.2359679805e+02   4.1110840286e+01    0.2429778    0.1834156  15.39  0.001605726    1.864    0.463
        88 -10.2894    178.0341    151.4216   8.2654667085e+01   1.5438285138e+01    0.2741041    0.2555919 -77.48  0.001052473    1.231    0.188
        89 -11.0867     11.7694    146.4366   1.2307839601e+02   4.2738655397e+01    0.4386421    0.1363329  42.70  0.001991963    3.104    0.678
        90 -10.0515    207.1595    146.2134   7.5464608925e+01   1.0362465390e+01    0.2210384    0.1940037   6.35 0.0007776376    1.135    0.119
        91  -9.6255    220.3874    144.1547   7.2485991327e+01   8.0479016212e+00    0.2012226    0.1274336 -44.75 0.0007623753    1.635    0.388
        92 -10.4116      2.7170    143.8354   1.2501258990e+02   4.3994972233e+01    0.2243626    0.1356844 -60.54  0.001308822    1.533    0.348
        93 -11.0034     19.5297    140.5887   1.2059740034e+02   4.3476683493e+01    0.3311167    0.1273317 -76.61  0.001494955    2.229    0.551
        94 -10.7473     15.4843    140.0000   1.2155164050e+02   4.3940777431e+01    0.3065556    0.1257259  15.99  0.001349817    3.868    0.741
        95  -9.5385     49.6267    141.7086   1.1295865635e+02   4.0251521391e+01    0.1310823   0.09555549 -36.86 0.0007023296    1.727    0.421
        96 -10.8301      3.5198    136.0300   1.2415043952e+02   4.5727549572e+01    0.4487794     0.173867 -53.16  0.002181481    2.526    0.604
        97 -11.0862     22.0860    136.1412   1.1945766388e+02   4.4309549117e+01    0.2546721    0.1925976  55.40  0.001630959    1.394    0.282
        98 -10.6137      9.0692    136.8294   1.2284413964e+02   4.5160072673e+01    0.1964594    0.1350304 -79.69 0.0003155854    1.133    0.117
        99  -9.2624    137.6760    135.6594   8.8487766614e+01   2.7275696383e+01    0.1589233    0.1241269  -6.12 0.0002970365    1.727    0.421
       100  -9.1191    122.6944    135.3293   9.2229293866e+01   3.0365337513e+01    0.1565489    0.1198502  84.88 0.0003494223    1.655    0.396
       101  -9.7159    249.9535    134.0306   6.5139125726e+01   4.0324424025e+00    0.1659793    0.1487265 -15.47 0.0009997321    1.042    0.040
       102 -10.2131    107.1642    133.1953   9.5864057127e+01   3.3792041607e+01    0.2530869    0.2465753 -38.59   0.00129634    1.094    0.086
       103 -10.1550     33.0714    133.5238   1.1624136104e+02   4.3950512527e+01     0.311373    0.1596023 -77.61 0.0005092092    1.774    0.436
       104 -11.1109     37.3427    130.5124   1.1467376421e+02   4.4258993260e+01    0.3203353    0.2559358 -74.66  0.001299051    1.045    0.043
       105 -10.1500     55.1626    132.9539   1.1013531243e+02   4.1718063563e+01    0.3291762    0.1677876  44.16  0.001535598    2.085    0.520
       106 -10.5260     73.9838    129.4595   1.0426395068e+02   4.0091394857e+01    0.2752537    0.1992983 -62.91 0.0006316464    1.262    0.208
       107 -11.4099     10.5641    122.6237   1.2098453145e+02   4.8366898905e+01    0.2979053    0.2066966  70.46  0.001865266    1.470    0.320
       108 -10.8256      2.0461    124.9508   1.2349387522e+02   4.8375667866e+01    0.3157989    0.1376802 -72.97 0.0008695001    1.727    0.421
       109  -9.6643     82.0882    125.1753   1.0111926826e+02   3.9926156520e+01    0.2130409     0.184964 -42.52 0.0006702004    1.200    0.166
       110  -9.8497    219.8316    124.2017   6.7949552561e+01   1.1678889083e+01    0.2026629    0.1675958  -3.44 0.0005568241    1.305    0.234
       111  -9.7049    225.9729    124.0000   6.6818569388e+01   1.0426071134e+01    0.2234977    0.0835552  50.20 0.0007937858    2.883    0.653
       112  -9.6458     21.1957    121.5309   1.1792827993e+02   4.7842522229e+01      0.15528    0.1172665 -16.25 0.0009429528    1.814    0.449
       113 -11.6125     17.5347    115.0504   1.1811870215e+02   4.9656022197e+01    0.3520389    0.2361708 -48.56  0.001224524    1.473    0.321
       114 -12.2809     15.3651    108.8621   1.1791923160e+02   5.1269702948e+01    0.4781432    0.3809337 -30.54  0.002045617    1.495    0.331
       115  -9.8904    249.8048    118.6254   6.1696985162e+01   6.5412681127e+00    0.1748613    0.1349283  66.76 0.0009419856    1.664    0.399
       116  -9.7835    220.0962    116.8562   6.6137814240e+01   1.2921346832e+01    0.2227229    0.1976061 -61.48 0.0005609955    1.250    0.200
       117  -9.9013     86.0333    116.6768   9.8150060638e+01   4.1351648573e+01    0.1928691    0.1877275 -65.57 0.0004609435    1.055    0.052
       118  -9.2201     24.3341    117.3238   1.1647412796e+02   4.8591017249e+01    0.1311437   0.07993122 -45.00 0.0007050791    1.710    0.415
       119  -9.3832    214.1617    115.5909   6.6887367404e+01   1.4437401972e+01    0.2024833    0.1374577  36.96 0.0006489936    1.628    0.386
       120  -9.3522     71.6686    115.6996   1.0218504014e+02   4.3754353867e+01    0.1431495    0.1055811 -28.70 0.0005286087    1.648    0.393
       121 -10.5715    249.0485    112.3039   6.0365969785e+01   7.7101158845e+00    0.1887314    0.1772218 -31.84 0.0007152553    1.080    0.074
       122  -9.5440     94.6651    112.3191   9.4607780922e+01   4.0950538195e+01    0.1528773    0.1161723  81.56 0.0004958058    1.700    0.412
       123 -13.0861     55.2660    110.2660   1.0604024219e+02   4.7204010326e+01     0.316063    0.2710972 -51.88 0.0005432055    1.098    0.089
       124  -9.5921      2.5758    112.5099   1.2205855944e+02   5.1223610954e+01    0.1824819    0.1187047  75.84 0.0006123009    1.564    0.361
       125 -12.0867      3.0633    106.4273   1.2121959910e+02   5.2604517955e+01    0.3451145    0.2874027 -77.49  0.001276999    1.089    0.081
       126 -11.9757     35.7307    108.5441   1.1172503272e+02   4.9693856708e+01    0.4575025    0.2738447  79.46  0.001697161    2.211    0.548
       127 -10.8004     35.5803    102.5329   1.1070931780e+02   5.1141128306e+01      0.31406    0.2480034   4.18   0.00190273    1.600    0.375
       128  -9.0352    207.3315    110.7218   6.6928094939e+01   1.6838648248e+01    0.1490934    0.1185687 -75.52 0.0003790514    1.603    0.376
       129 -11.8411     12.4145    103.8355   1.1810833357e+02   5.2646173739e+01    0.3523454    0.2521148  14.22   0.00224077    1.814    0.449
       130 -10.2512     61.9502    107.0542   1.0330976219e+02   4.7146527281e+01    0.2165558    0.1878406 -48.87 0.0005621836    1.091    0.083
       131 -10.9028    243.7117    104.6674   5.9390396373e+01   1.0021428481e+01    0.2372091    0.2052037  -5.51 0.0005759808    1.244    0.196
       132 -10.0779    223.5692    104.1330   6.2436692051e+01   1.4386642442e+01    0.2235373    0.2040911 -88.81 0.0005083688    1.238    0.192
       133 -10.1871    119.4323    102.1432   8.4876799810e+01   3.8589163850e+01    0.3027931     0.220503 -29.59   0.00115238    1.523    0.343
       134 -10.9266    247.6692    102.1450   5.8220275503e+01   9.6251873331e+00    0.2290919    0.1965757  82.60  0.001273677    1.407    0.289
       135 -12.1176      3.0973     99.9787   1.2041339127e+02   5.4092504025e+01    0.3419011    0.2253045  83.00 0.0007857919    1.543    0.352
       136  -9.4052    145.4961    100.4752   7.7535374724e+01   3.3258478209e+01    0.2870821    0.1546589 -41.80 0.0008628985    1.834    0.455
       137 -10.6292    146.0361     97.3911   7.6534071220e+01   3.3774829555e+01    0.5027273    0.1810177  41.61  0.001541987    3.099    0.677
       138 -11.1268     66.9306     97.7384   9.9615778388e+01   4.8695473568e+01    0.4144578    0.1758642 -54.06   0.00112204    2.065    0.516
       139 -11.0832     62.1620     98.6838   1.0137721977e+02   4.9109119129e+01    0.4159699    0.3349837 -24.15  0.002318444    1.394    0.282
       140  -9.6291     10.3218     99.0420   1.1807388703e+02   5.3895202866e+01    0.1776287     0.123316 -70.50 0.0004154596    1.133    0.118
       141  -8.8845     85.4352     98.5123   9.3940806422e+01   4.5731303287e+01    0.1467965    0.1347763 -47.04 6.294941e-05    1.010    0.010
       142  -9.9718     40.6401     97.2049   1.0806092394e+02   5.1918969627e+01    0.2457461     0.139703 -54.86 0.0007963009    1.457    0.314
       143  -9.9082     92.6965     97.6799   9.1480465682e+01   4.4695248991e+01    0.1510031    0.1137863 -18.78  0.000196649    1.630    0.387
       144 -10.2631    250.0587     95.9363   5.6438662262e+01   1.0133523024e+01    0.2135826    0.1869988 -39.29 0.0006500098    1.013    0.013
       145 -11.8032     20.4862     96.9820   1.1455302354e+02   5.3696757408e+01    0.4636976    0.2096252 -72.76   0.00220367    1.984    0.496
       146  -9.1551     27.9903     95.9633   1.1195269205e+02   5.3355680063e+01    0.1469742    0.1205277 -62.06 -0.003769674    1.005    0.005
       147  -9.1798     77.4531     94.5467   9.5431662282e+01   4.7911837415e+01     0.144025    0.1311403 -45.60 5.438401e-05    1.007    0.007
       148 -10.1157     31.4242     93.2349   1.1031350330e+02   5.3706380033e+01    0.2424945    0.1646995 -77.51 0.0006152969    1.462    0.316
       149 -10.8892     25.7614     91.2436   1.1182052570e+02   5.4637961463e+01    0.2912492    0.2484105  -2.44  0.001195176    1.421    0.296
       150 -11.8474    158.3926     89.8121   7.1406616749e+01   3.2383719500e+01    0.5293745    0.3493771 -31.00  0.002271416    1.604    0.376
       151 -11.0786    162.3683     92.3219   7.1216143168e+01   3.0939118155e+01    0.3215008    0.2603574 -23.17 0.0005221515    1.331    0.249
       152 -12.3374    164.5242     85.4809   6.8772027413e+01   3.1729631739e+01    0.7862111    0.7284545 -52.49  0.004080789    1.089    0.081
       153 -10.6218    103.9724     92.0186   8.6498956926e+01   4.3903437381e+01    0.2229764    0.2103325 -27.09  0.001210029    1.037    0.036
       154  -9.8645     92.6349     92.3041   9.0032623248e+01   4.5923225284e+01    0.1500178    0.1176455  81.71 0.0007036391    1.739    0.425
       155 -11.2235     10.5930     90.8947   1.1676913800e+02   5.5764417659e+01    0.2205528    0.2181948 -52.07 0.0002903746    1.257    0.205
       156 -10.4871     22.8591     87.0059   1.1200355519e+02   5.5841983102e+01     0.233815    0.1618013 -62.67 0.0004417159    1.167    0.143
       157  -9.0305    120.7090     87.2837   8.0264985806e+01   4.1526773517e+01    0.1487013    0.1233273 -84.96 0.0003617967    1.533    0.348
       158 -10.2231    112.1374     86.0913   8.2353352833e+01   4.3567515631e+01    0.2896259    0.2074932 -48.97  0.001351964    1.394    0.283
       159 -12.7221     17.2090     66.7276   1.0985427741e+02   6.0806205419e+01    0.7610759    0.4051182 -53.83 0.0009083431    1.431    0.301
       160 -11.6153     12.9223     80.0901   1.1415044272e+02   5.8094761211e+01    0.6898118    0.2383436 -74.53  0.001272228    3.247    0.692
       161 -12.1612      6.3330     74.8744   1.1553992261e+02   5.9639460513e+01    0.6680275    0.3809098 -40.21  0.003955044    1.634    0.388
       162 -10.8869     67.1250     84.8086   9.6255198753e+01   5.1647001608e+01    0.3655899    0.2402034 -25.11  0.001075746    1.836    0.455
       163 -11.1062     87.9207     83.2817   8.8938685768e+01   4.8739451474e+01    0.3418089    0.2682371 -79.67 0.0004116338    1.707    0.414
       164 -10.5312     45.0330     83.5456   1.0356677165e+02   5.4647734524e+01    0.4310852    0.2075759  40.53  0.001984167    2.469    0.595
       165  -9.7629     58.2918     93.3528   1.0139127542e+02   5.0852188119e+01    0.1454092   0.09444352 -33.76 0.0003288946    1.678    0.404
       166  -9.7878    132.9218     83.1968   7.5718225932e+01   3.9668734184e+01    0.2273966    0.2096857 -80.95 0.0005621956    1.210    0.174
       167 -11.3742      4.5584     85.4318   1.1790710137e+02   5.7349995088e+01    0.4481277    0.2061996 -59.54  0.001427322    1.591    0.372
       168 -10.9706     75.6597     82.1576   9.2639010699e+01   5.0985586866e+01    0.3927058    0.2212998 -60.17  0.001700884    1.998    0.500
       169  -9.3873    196.2926     82.3068   6.1524420806e+01   2.4519550197e+01    0.1502815    0.1198903  13.97 0.0002832878    1.580    0.367
       170 -10.9321     30.8972     81.7279   1.0813552852e+02   5.6413470431e+01    0.2895848     0.185893 -35.72  0.001323996    1.561    0.360
       171  -9.3340    146.4841     81.5446   7.1787795408e+01   3.6834874731e+01    0.1557887    0.1513521 -75.36 0.0001110471    1.072    0.068
       172 -11.9239     21.2087     78.0051   1.1080278145e+02   5.8019027517e+01    0.4580003    0.2993852 -54.10 0.0004819785    1.209    0.173
       173 -10.2792     54.1980     74.2507   9.7881149113e+01   5.5689919437e+01    0.2522294    0.2094645 -66.38 0.0006469941    1.305    0.234
       174 -11.2853     60.7131     77.7869   9.6541481457e+01   5.4085226515e+01     0.497211    0.3275689 -42.18  0.001146192    1.360    0.265
       175 -10.7349     57.9904     74.0175   9.6445579599e+01   5.5266679193e+01    0.4596089    0.2470036 -49.60   0.00184443    1.618    0.382
       176 -11.6678     62.4908     71.6607   9.4137698286e+01   5.5181932282e+01    0.3091552    0.2308585 -39.53 0.0007263127    1.190    0.160
       177 -10.9815     91.7133     77.1936   8.5878920028e+01   4.9374456762e+01    0.4034345    0.3780028  54.80  0.002280822    1.204    0.169
       178  -9.5671    187.2583     75.9816   6.1434174883e+01   2.7830799567e+01    0.2035147    0.1884171 -41.16 0.0002007139    1.062    0.058
       179  -9.0521    121.6693     76.2834   7.6612762852e+01   4.3551959277e+01    0.1505224    0.1233572 -86.87 0.0007007363    1.611    0.379
       180 -10.8639    109.2496     75.0203   7.9775618023e+01   4.6438880741e+01    0.3674299    0.2886224  11.44  0.001259428    1.493    0.330
       181 -12.1753     45.0448     75.2387   1.0148057709e+02   5.6520119594e+01    0.3185178    0.2277343  36.86 0.0004290577    1.638    0.390
       182 -10.3154     74.5761     75.2901   9.0985112661e+01   5.2647122995e+01    0.2057902     0.120675 -39.00 0.0009440046    1.619    0.382
       183  -9.5305    145.5027     73.9418   6.9698221407e+01   3.8502178938e+01    0.2426557     0.152565 -36.99  0.001033404    1.591    0.371
       184 -10.2113    137.5771     74.1181   7.1708976835e+01   4.0352403633e+01    0.2487084    0.2167787  69.16 0.0005701532    1.262    0.208
       185 -11.8025    102.6313     72.7972   8.1056595666e+01   4.8215881340e+01    0.3205037    0.2889015   6.52 0.0004440302    1.129    0.114
       186 -11.6324    150.2449     72.0000   6.7973797594e+01   3.7708742226e+01    0.3005391    0.2593636 -42.24 0.0002187081    1.166    0.143
       187 -11.1549     77.6803     71.4297   8.8729240752e+01   5.2974712377e+01    0.3518246    0.2877776  19.47  0.001742044    1.306    0.235
       188 -10.7005     36.5830     68.5151   1.0286636470e+02   5.8857275492e+01    0.3015112    0.2530624 -51.63  0.001543098    1.081    0.075
       189 -10.3835     31.2366     67.0413   1.0452842036e+02   5.9665545565e+01    0.3447202    0.1873903 -59.74  0.001796379    1.610    0.379
       190  -9.5502    128.9659     71.5702   7.3128354760e+01   4.2825476024e+01    0.2229709    0.1491176  48.58 0.0003463481    1.502    0.334
       191  -9.6020    194.8212     69.6889   5.8324143387e+01   2.7013666010e+01    0.2067156    0.1892834 -17.02 0.0005652012    1.176    0.150
       192 -11.1559    167.5940     69.9981   6.3557426523e+01   3.3768951789e+01    0.2664224    0.2189744  56.38 0.0003324164    1.213    0.175
       193 -10.4799     68.7811     67.5155   9.0605602977e+01   5.5163708554e+01    0.4269803    0.1582327 -45.78  0.001249136    2.410    0.585
       194 -11.2901     50.4343     68.2513   9.7555924524e+01   5.7443000712e+01    0.3559884    0.2452923 -20.24  0.001326464    1.615    0.381
       195 -10.9125     51.0990     63.3878   9.5851741556e+01   5.8395340380e+01     0.533501     0.288377 -64.74  0.002341532    2.481    0.597
       196 -10.6081     47.0023     57.0315   9.5450600441e+01   6.0190408225e+01     0.230865     0.209323 -56.45  0.001483573    1.260    0.206
       197 -10.1637     43.7128     57.2889   9.6838462568e+01   6.0508500409e+01    0.2112944    0.1652471 -28.48 0.0002034114    1.143    0.125
       198  -9.4102    144.7462     69.4073   6.8460853763e+01   3.9509302044e+01    0.2150524    0.1413448  41.83 0.0005252332    1.561    0.359
       199  -9.7091    140.4850     68.9545   6.9350138325e+01   4.0614053241e+01     0.223516       0.1519 -33.70 -0.0001128847    1.491    0.329
       200 -11.5049     94.1933     66.7347   8.1710880702e+01   5.1043645942e+01    0.6865621    0.2670669 -41.42  0.002527668    2.464    0.594
       201 -12.4328      3.8568     65.0235   1.1460765836e+02   6.1937985189e+01    0.3730529    0.3038677  81.03 0.0004825357    1.483    0.326
       202 -11.6804      5.3271     58.8757   1.1276595882e+02   6.3195684171e+01    0.2741829    0.1940138 -69.86 0.0002580452    1.306    0.234
       203 -10.4828     77.3243     64.1319   8.6486963190e+01   5.4524383213e+01    0.3685297    0.2465369 -43.64  0.001860561    1.396    0.284
       204  -9.5529    222.7638     62.8326   5.2181598755e+01   2.1332817865e+01    0.1958392    0.1492573 -58.95 0.0002989199    1.293    0.226
       205 -10.7477     83.6349     61.6834   8.3486412084e+01   5.3941650948e+01    0.4142098    0.3009911  31.32  0.002150931    1.434    0.303
       206 -10.9726     87.1137     56.3393   8.0442428102e+01   5.4333217293e+01    0.4666042    0.2252512 -36.82  0.001409462    2.008    0.502
       207 -11.0015     87.4136     52.3083   7.8885143177e+01   5.5009633559e+01     0.424441    0.2233303 -31.76   0.00184901    1.931    0.482
       208 -11.2851    201.3608     61.8134   5.5078125407e+01   2.6654916754e+01    0.2483594     0.239046  66.74 0.0002866223    1.081    0.075
       209  -9.8267    155.4738     61.2155   6.3431505288e+01   3.8286736987e+01    0.2941811    0.1546648 -28.53  0.001143135    2.089    0.521
       210  -9.8121     11.0879     62.3653   1.1125279485e+02   6.2135002122e+01    0.1526162     0.132868 -44.16 0.0004810107    1.134    0.118
       211 -10.5272     26.6024     49.5461   1.0149558987e+02   6.3743459649e+01    0.4808886    0.1746955 -60.67  0.001966992    2.981    0.665
       212 -10.6805     31.4297     45.3046   9.8063409052e+01   6.4160637183e+01    0.2991436    0.1863384 -17.84  0.001675479    1.721    0.419
       213 -11.0701     29.8620     60.8342   1.0341719460e+02   6.1121500181e+01    0.5814642    0.2576525  11.21   0.00256496    3.228    0.690
       214 -12.2100    233.8867    245.5191   8.9381738988e+01  -9.1218812126e+00     0.601577    0.4150217 -19.18   0.00411009    1.480    0.324
       215 -11.1469     57.9580     58.7335   9.1750979813e+01   5.8482082557e+01    0.2828084    0.2530312  43.66   0.00174397    1.370    0.270
       216 -10.0833    147.1525     56.8299   6.3871922644e+01   4.1072587460e+01    0.2205631    0.2031646 -71.94  0.000338584    1.179    0.151
       217 -11.3809     75.3084     56.1091   8.4441774847e+01   5.6417703422e+01    0.2311463    0.2103423 -22.20 0.0002857741    1.058    0.055
       218  -9.6435    190.1506     55.4540   5.5120285063e+01   3.0433664050e+01    0.2487121    0.1631884 -38.83 0.0009563737    1.490    0.329
       219  -9.7673    129.7084     56.0427   6.7796693047e+01   4.5410354183e+01    0.2131607    0.1841929 -30.58  0.000482252    1.168    0.144
       220 -10.6961     61.8974     54.2150   8.8714661184e+01   5.8831547751e+01    0.4181128     0.164762 -43.96  0.001727135    2.267    0.559
       221 -10.4585    100.1446     55.2487   7.5850351112e+01   5.2029055577e+01    0.3027035    0.1892344  32.80  0.001388018    1.702    0.413
       222  -9.8571    119.7779     53.1837   6.9417269909e+01   4.8174879018e+01     0.310562    0.1959166  15.47  0.001156615    2.342    0.573
       223 -10.9721     12.4093     51.1514   1.0800442371e+02   6.4437498373e+01    0.2631431    0.1890704 -68.03 0.0005756014    1.412    0.292
       224 -11.3703     11.7622     43.9760   1.0632167738e+02   6.5945299043e+01    0.4381296    0.1876898 -44.24  0.001850324    1.767    0.434
       225 -10.8761      5.6741     51.8109   1.1101347327e+02   6.4674834050e+01    0.3223211    0.1728817 -42.27  0.001336974    1.497    0.332
       226 -11.7774    128.7917     49.8818   6.5911404290e+01   4.6625551878e+01    0.6701297    0.4078657  -0.63  0.002563675    2.702    0.630
       227 -10.8609     70.5454     50.6888   8.4214532170e+01   5.8198089933e+01    0.4493062    0.3496989  72.15  0.002311283    2.162    0.537
       228  -9.4265     16.9984     51.7252   1.0621254724e+02   6.4023628503e+01    0.1556172    0.1310695 -35.51  0.001084235    1.104    0.094
       229 -11.0171    104.1398     49.1971   7.2438398043e+01   5.2245195477e+01    0.4256241     0.302018 -33.05  0.002139483    1.392    0.282
       230  -9.2320    183.7893     60.3657   5.7615636145e+01   3.1279175699e+01    0.2186815    0.1323269  50.24  0.000945045    1.668    0.400
       231 -10.0524     45.1010     48.1302   9.3242828977e+01   6.2177427648e+01     0.196567    0.1455697 -25.88  0.001170201    1.204    0.169
       232 -10.8063     78.2700     47.8706   8.0379837411e+01   5.7427397577e+01    0.4111949    0.2390918 -19.67  0.001691106    2.111    0.526
       233 -10.5828     53.2089     49.9837   9.0607326045e+01   6.0825915212e+01    0.2157336     0.184169  16.37 0.0009528702    1.242    0.195
       234 -11.4076     90.8654     41.9423   7.3834251763e+01   5.6108484829e+01    0.7542835    0.3353681 -51.64  0.002528882    4.005    0.750
       235  -9.2843    166.6774     48.7097   5.7257305403e+01   3.7416155393e+01    0.1525833    0.1122387  29.62 0.0007011747    1.608    0.378
       236 -10.9047    152.0809     47.3096   5.9704567505e+01   4.1323675661e+01    0.4028381    0.3029754  -5.58  0.001288972    1.611    0.379
       237 -10.0619    156.3449     46.7676   5.8656107865e+01   4.0328300209e+01    0.2983132    0.2469777  -1.55 0.0008121049    1.392    0.282
       238 -11.5261    120.0804     46.8099   6.7074994898e+01   4.9131288667e+01    0.3131463    0.2444718  18.36 0.0004212834    1.392    0.282
       239 -10.3788    124.3676     42.2970   6.4346528841e+01   4.8822827407e+01    0.3046592    0.1856968 -10.67 0.0008505958    2.165    0.538
       240  -9.1476    194.3261     47.2790   5.2151834116e+01   3.0585008203e+01    0.1448899    0.1099761  33.35 0.0005046363    1.593    0.372
       241  -9.6098    112.5910     46.7199   6.9083092658e+01   5.0828457428e+01    0.2021619    0.1334238 -42.14 0.0009477951    1.608    0.378
       242 -10.1555      3.8931     47.2153   1.1064925373e+02   6.5717170032e+01    0.2058364    0.1233567 -30.78 0.0008782544    1.548    0.354
       243 -10.1443    142.7094     45.6845   6.1183270143e+01   4.3900962163e+01    0.2946346    0.2361555 -73.17 0.0008522435    1.526    0.345
       244  -9.7209     85.8950     45.1637   7.6719329923e+01   5.6526483494e+01    0.1918363    0.1854816 -16.49 0.0004942705    1.176    0.150
       245 -10.1966     51.2545     44.9643   8.9582290921e+01   6.2025552686e+01    0.2296179    0.1612887 -30.61 0.0003733448    1.244    0.196
       246 -11.2515     51.5950     39.6736   8.7440071339e+01   6.2943009525e+01    0.3701981    0.2375765 -21.99  0.001045817    1.538    0.350
       247  -9.8487    175.1215     43.8811   5.4266657954e+01   3.5953902387e+01     0.222494    0.1906855 -64.73 0.0006694515    1.205    0.170
       248 -10.9233      6.9766     41.2444   1.0769716140e+02   6.6770989324e+01    0.2450289    0.1189306 -51.78  0.000541584    1.510    0.338
       249  -9.5723    244.4608     42.5633   4.4626527797e+01   1.9275516860e+01     0.133286    0.1145464 -60.65 5.159624e-05    1.006    0.006
       250  -8.9348    163.3134     42.2889   5.5884671915e+01   3.9198405244e+01    0.1502645    0.1097439  31.04 0.0002665445    1.586    0.370
       251 -10.3198    111.1362     41.9405   6.7726469095e+01   5.1888977527e+01    0.3375837    0.1955541  54.11  0.001323315    1.779    0.438
       252  -9.6735     62.0534     40.9361   8.3734114355e+01   6.1249705188e+01    0.2126647    0.1407253 -29.20  0.000370217    1.380    0.275
       253 -10.8455     66.0191     41.1468   8.2287687270e+01   6.0607825729e+01    0.4073276    0.3396201  29.24  0.002472415    1.269    0.212
       254 -10.7279     69.3728     37.8305   7.9699124826e+01   6.0629068254e+01    0.3312592    0.2143509 -27.77   0.00175412    1.451    0.311
       255 -10.2602    179.3172    243.6794   9.8937328131e+01  -6.7986685370e-01    0.1154501   0.08747404  59.27 0.0006895727    1.662    0.398
       256 -10.3387     88.8702    241.2291   1.1567101267e+02   1.3715118043e+01    0.1925274    0.1472525 -37.27  0.001221189    2.110    0.526
       257 -11.2780     23.6646     41.3895   1.0018884948e+02   6.5606668448e+01    0.5093134    0.3270101  62.54  0.002456478    3.519    0.716
       258 -10.3753    156.5168    241.5110   1.0292968411e+02   3.2718204272e+00    0.1239678    0.1000294  38.43 0.0003822134    1.008    0.008
       259  -9.1954     50.3198    240.3011   1.2255335445e+02   1.8982280524e+01   0.08983115   0.08811601 -54.15 0.0003746306    1.624    0.384
       260 -11.9416     27.7221     38.0289   9.7204562904e+01   6.5900730970e+01    0.3404853    0.2801223 -34.73  0.001312945    1.091    0.083
       261 -11.8691     24.4998     35.0583   9.7620961835e+01   6.6742720302e+01    0.3537341    0.2041742  -0.77 0.0003244962    2.044    0.511
       262  -9.4472     71.5041     40.9915   8.0169368428e+01   5.9753314428e+01    0.1924751    0.1219066 -33.30  0.000375583    1.469    0.319
       263 -11.0275    105.8535     34.8815   6.6529377047e+01   5.4077297533e+01     0.392554     0.298761  76.44  0.001306853    1.825    0.452
       264 -10.1421     96.4786     40.5347   7.1507395227e+01   5.5213496701e+01    0.5360406    0.1484413 -39.59  0.001734587    3.661    0.727
       265 -10.7095    100.6679     38.0302   6.9260406751e+01   5.4728581846e+01    0.5302841    0.3453125  32.49  0.001273147    1.557    0.358
       266 -11.0511     98.0631     31.5370   6.7477487912e+01   5.6205440439e+01    0.5667584    0.3050814  20.71  0.002240693    2.754    0.637
       267 -11.1680    101.5487     28.8049   6.5363311699e+01   5.5836477805e+01    0.3242463    0.2947626 -43.35  0.001037194    1.289    0.224
       268 -11.3044     63.9341     60.0438   8.9939861763e+01   5.7393128843e+01     0.341672    0.1999514  32.78  0.001050168    1.849    0.459
       269 -10.1676     42.8213     37.3915   9.0263574972e+01   6.4445993469e+01    0.3346232    0.2569789  76.90   0.00175342    2.801    0.643
       270 -11.8562     81.7152     35.6431   7.4383609183e+01   5.8828448961e+01    0.6120954    0.3433429 -25.64  0.002383996    1.821    0.451
       271 -11.1495     78.3120     32.7129   7.4359239821e+01   5.9894263728e+01    0.6030176    0.3350557  -2.21  0.002389714    3.033    0.670
       272  -9.1085    148.7104     40.3332   5.8109069781e+01   4.3173306572e+01    0.1494567    0.1118795 -66.07 0.0007019272    1.629    0.386
       273  -9.3968    155.6570     35.6381   5.5194252132e+01   4.2052921456e+01    0.1590625    0.1056776  28.76 0.0007031317    1.841    0.457
       274 -11.0895     57.4655     34.4888   8.2965818363e+01   6.3019845953e+01    0.3361609    0.2786027  37.69  0.001557694    1.432    0.302
       275 -10.8393    247.9560     33.4637   4.2188039753e+01   1.9703189153e+01    0.3138759    0.1892263  88.36  0.001630618    1.794    0.443
       276 -11.3583    193.3570     32.6061   4.8182468197e+01   3.2813180623e+01    0.4472161    0.2458914  44.64  0.001241097    2.099    0.524
       277  -9.7031     65.9768     33.0331   7.9013320973e+01   6.1952361268e+01    0.1784986    0.1593258 -60.16 0.0003882671    1.589    0.370
       278 -11.1575    177.2904     31.1898   5.0110661405e+01   3.7086404844e+01     0.318611    0.2208375 -37.22 0.0009634456    1.471    0.320
       279  -9.9526    125.7894     31.7620   6.0178509953e+01   4.9947521278e+01    0.2167999    0.1852129  17.43 0.0005178438    1.189    0.159
       280 -10.9422     49.3816     30.6665   8.4727694241e+01   6.4779153807e+01    0.3766937    0.2180217 -29.06  0.001197621    1.572    0.364
       281 -11.6176    139.4002     30.4111   5.6668843583e+01   4.6810022506e+01    0.2609631    0.2429054  23.67 0.0002783988    1.081    0.075
       282  -8.9766     44.2823     31.3413   8.7209761174e+01   6.5323954412e+01    0.1311169   0.08221708 -16.58 0.0003749305    1.632    0.387
       283  -9.6455    166.6826     30.2992   5.1537420856e+01   3.9917847272e+01    0.1477943    0.1060949 -69.43 0.0007019899    1.615    0.381
       284 -10.4890    152.0500     27.9270   5.3340794996e+01   4.3942727401e+01    0.2704763    0.2056652 -40.35  0.000725641    1.392    0.281
       285 -10.1620    195.5644    238.6088   9.5179519877e+01  -2.5452269268e+00    0.2601795    0.1714305  19.88  0.001510738    1.462    0.316
       286 -11.2399     61.3143     24.8478   7.7298530892e+01   6.3941172561e+01    0.5375063    0.2145533 -32.67  0.002353805    2.392    0.582
       287 -10.0204     59.5050     21.4517   7.6488809420e+01   6.4714966373e+01    0.1589095    0.1204332  43.66 -1.280227e-05    1.564    0.361
       288 -10.3957    215.0328     27.2920   4.4072441661e+01   2.8101089895e+01    0.1927873    0.1641708  87.37  0.000458196    1.099    0.090
       289 -11.1839    112.0412     25.0395   6.1026179026e+01   5.3995064754e+01    0.2921434    0.1934621 -29.39 0.0004073115    1.569    0.362
       290 -11.3886    237.3903     25.3713   4.1315342645e+01   2.3079551757e+01    0.2454844    0.2097901 -67.42 0.0003046794    1.005    0.005
       291  -9.9507    135.0104    238.5138   1.0665374587e+02   7.1844954973e+00    0.2605304    0.1199116 -40.15  0.001180894    3.337    0.700
       292 -10.4538     70.3742     25.9583   7.4333118738e+01   6.2283234273e+01      0.27187    0.1793923  38.77 0.0006185178    1.506    0.336
       293 -10.0076    197.1960     24.8551   4.5536037495e+01   3.2801717092e+01    0.2049864    0.1691338 -69.53 0.0002973526    1.164    0.141
       294 -12.1674    226.5460    245.8470   9.0708701080e+01  -8.1194071520e+00    0.5974612    0.3364843   4.97  0.003270957    2.175    0.540
       295 -10.5068     10.1891     25.0110   1.0090672547e+02   6.9682189303e+01    0.2290984    0.1436378  -6.92 0.0006527451    1.637    0.389
       296 -10.5268    192.1689     24.1453   4.5978363570e+01   3.4151870129e+01    0.1965395    0.1502638 -62.74 0.0005091387    1.307    0.235
       297 -12.1929     29.9206    233.6582   1.2568394451e+02   2.2565037989e+01     0.423384    0.2233471  85.88  0.002629461    1.674    0.403
       298  -9.7044    101.7296     23.9482   6.3353810740e+01   5.6417641137e+01    0.1907441    0.1734976   5.38  0.001148332    1.067    0.063
       299 -10.7896     94.7366     23.5283   6.5196802191e+01   5.7955167095e+01    0.4844469    0.1995401  50.68   0.00202089    2.295    0.564
       300 -10.4076    171.4230     22.4587   4.8375331748e+01   3.9636094192e+01    0.2212419     0.214593 -24.25 9.177074e-05    1.135    0.119
       301 -10.7163    170.6277     18.8680   4.7401948508e+01   4.0241494806e+01    0.2534967     0.219967 -81.64 0.0001356162    1.145    0.126
       302 -10.1741     34.0806     23.0991   8.8342172790e+01   6.7892161957e+01    0.1789806    0.1273902 -14.52            0    1.222    0.182
       303 -10.5994    156.1558     21.8017   5.0606514164e+01   4.3613855196e+01    0.2853169    0.1977179  43.97 0.0008559294    1.443    0.307
       304  -9.9590    185.5100     20.8155   4.5907759647e+01   3.6225466981e+01    0.2424286     0.143116 -19.27 0.0007443684    2.026    0.506
       305 -10.9243     42.5502     19.9217   8.2998877755e+01   6.7371876618e+01    0.3566508    0.1962726  39.06 0.0007189785    2.091    0.522
       306 -10.5219    161.9967     20.0348   4.9080646407e+01   4.2320630824e+01    0.2062071    0.1908367  76.56  0.000299028    1.025    0.024
       307 -10.2454    160.0133    235.9828   1.0151809648e+02   3.5522175513e+00    0.1935555    0.1404345  11.90 0.0006756476    1.699    0.411
       308  -9.4142    113.4233     20.2026   5.8790275400e+01   5.4248231077e+01    0.1863529    0.1227852 -38.77 0.0005365301    1.693    0.409
       309 -11.8222     36.7499    243.1525   1.2506898794e+02   2.0071907942e+01    0.5933602    0.2692012  83.48   0.00339077    2.209    0.547
       310  -9.9606    177.6581    234.8301   9.7978808099e+01   8.5202557675e-01    0.1826572     0.145277  -1.82  0.001159114    1.425    0.298
       311  -9.9138    150.9902     18.7270   5.0482573839e+01   4.5263902760e+01    0.1980374    0.1652107  62.27 0.0003777636    1.097    0.089
       312  -9.8452    108.3540     17.9181   5.9152188221e+01   5.5657833951e+01    0.1866258    0.1629745  16.46 0.0005287245    1.085    0.079
       313 -11.1948    153.6486    233.8149   1.0244983972e+02   4.9310596741e+00    0.2358146    0.1897571 -26.03  0.000887998    1.567    0.362
       314  -9.8315    167.3262    233.5247   9.9766895872e+01   2.7342738411e+00    0.1831794    0.1181787 -44.98 0.0008939261    1.872    0.466
       315  -9.2539     62.3154    233.6487   1.1991489118e+02   1.8693919128e+01    0.1260968   0.06706178  66.23 0.0007046752    1.732    0.423
       316  -9.7560    213.5077     17.4613   4.1738506308e+01   2.9635601405e+01    0.2048555    0.1100098  61.00 0.0009800886    1.805    0.446
       317 -12.4706     74.5297    238.8506   1.1810112619e+02   1.6128120601e+01    0.6841173    0.4472191 -68.01  0.004467058    1.689    0.408
       318  -9.2922    115.5255    244.5359   1.1103746303e+02   9.2253503862e+00    0.1201507   0.09627218  49.68 0.0002971205    1.040    0.038
       319  -9.6474     39.2697     15.3533   8.2358546276e+01   6.8468188968e+01    0.2291677    0.1277922  -2.28 0.0008618984    2.275    0.560
       320 -10.3776    175.4954    202.7505   9.3302936809e+01   6.3319952304e+00    0.2476155    0.1950452  48.40 0.0005345642    1.271    0.213
       321 -11.4232      5.0812    226.7720   1.2954858458e+02   2.6384105524e+01    0.3960769    0.1407506  67.14   0.00212437    2.411    0.585
       322  -9.9947    190.5869    227.3267   9.4375680457e+01  -1.6030970024e-01    0.3284438    0.1223983 -41.25   0.00143379    3.112    0.679
       323  -9.3340     50.6356     15.1862   7.7214285917e+01   6.6933519853e+01    0.2504568    0.1395583  50.83  0.001233541    2.704    0.630
       324 -10.8053     86.4596    233.0110   1.1535155243e+02   1.5528123125e+01     0.250352    0.1277568  52.87  0.001037678    1.641    0.391
       325  -9.2086    233.6480     14.7350   3.9175458876e+01   2.5192995933e+01    0.1218807   0.09351631  47.39 0.0006984296    1.620    0.383
       326 -10.0397    248.7907    227.5988   8.3883987022e+01  -9.1315222791e+00     0.210637    0.1236214 -13.69  0.000926813    1.694    0.410
       327 -10.5287     26.5775     14.0688   8.7908818749e+01   7.0129117628e+01    0.1858395    0.1352616  -3.59  0.001252933    1.204    0.170
       328  -9.1906     22.5936     26.5491   9.5311030646e+01   6.8450971398e+01    0.3642682    0.2642592 -18.08  0.002442229    1.190    0.160
       329  -9.7624    130.2403    226.8414   1.0612348988e+02   9.9227157428e+00     0.216626    0.1207231  68.65 0.0009518327    2.832    0.647
       330  -9.8962     88.0112    227.0070   1.1446551596e+02   1.6414875980e+01    0.1501098    0.1229561  67.26  0.001007856    1.048    0.046
       331 -10.3489     66.3753    226.2851   1.1855211656e+02   1.9547436669e+01    0.2590295    0.1538116  50.10 0.0008420253    1.383    0.277
       332 -11.0403    120.1368    226.2086   1.0805206378e+02   1.1662096618e+01     0.183447    0.1550048  39.09 0.0004776442    1.172    0.147
       333 -10.0567     24.2245    232.2904   1.2658565252e+02   2.3434618793e+01    0.1694167    0.1386598  81.19 0.0006418181    1.242    0.195
       334  -8.8949    201.6589    215.6936   9.0357594529e+01  -2.7940999300e-01    0.1341758   0.08936521  10.56 0.0007042154    1.684    0.406
       335 -10.1383    123.4412    222.2747   1.0689918765e+02   1.1838694507e+01    0.2021883    0.1235139 -52.46 0.0007228889    1.911    0.477
       336  -9.8667    176.4996     11.5090   4.4392832081e+01   3.9519304990e+01    0.1372506    0.1234374  79.23 0.0008106129    1.009    0.009
       337 -10.4904     13.5085    222.0821   1.2789091079e+02   2.6458647730e+01    0.1845327    0.1136491 -75.81  0.001114885    1.544    0.352
       338 -10.1648    141.4698    221.0971   1.0310610417e+02   9.0715580592e+00     0.252483    0.1648059  27.90  0.001346695    1.645    0.392
       339 -10.0713    109.9717    243.4340   1.1196025026e+02   1.0247603449e+01    0.2207591     0.151599  79.96  0.001277301    1.677    0.404
       340  -9.2913     41.6823    220.6936   1.2274658985e+02   2.3701516342e+01   0.09723415   0.08721022 -54.08 0.0007029418    1.631    0.387
       341  -9.2621    250.4940    219.4433   8.2181064910e+01  -8.3898049044e+00    0.1217125   0.09242147   7.20 9.667929e-05    1.029    0.029
       342  -9.6363    173.8302    219.6379   9.6416054938e+01   3.8197735341e+00    0.1949897    0.1043819  46.95 0.0009493143    1.769    0.435
       343 -11.1386      9.5331    217.0178   1.2832579260e+02   2.7819306293e+01    0.2890579     0.157893  62.86  0.001200819    1.412    0.292
       344  -9.8838     37.7315    217.5509   1.2325904502e+02   2.4773188336e+01     0.188985    0.1055104  33.96   0.00111262    2.006    0.501
       345 -10.9707     24.8677    216.9604   1.2558724102e+02   2.6295867594e+01    0.3588939   0.06941654  42.12  0.001567989    3.397    0.706
       346 -10.5408     30.8879    215.8434   1.2441315126e+02   2.5872215974e+01    0.2616061    0.1590718  37.34  0.001672499    1.751    0.429
       347 -11.2987    235.9248    214.9129   8.3910354288e+01  -5.6622281316e+00    0.3987653    0.2204534 -13.81  0.001467395    2.111    0.526
       348 -11.1628    241.2083    211.8485   8.2432497471e+01  -6.0620433609e+00    0.3602719    0.2732611  10.32  0.002336402    1.091    0.083
       349  -9.6852    194.5231    215.4841   9.1692330475e+01   9.5054267417e-01    0.1309163     0.109949  22.16 -5.711799e-05    1.012    0.012
       350  -9.2420    136.6676    215.7186   1.0332817778e+02   1.0836517872e+01    0.1255597   0.09896334  12.75 0.0005078818    1.611    0.379
       351  -9.3109    115.2135    215.0316   1.0764832788e+02   1.4513425114e+01    0.1536941    0.1039887 -60.99 0.0003978346    1.652    0.395
       352 -10.8201     21.3742    212.3086   1.2594210133e+02   2.7577559343e+01    0.3272407    0.1415014  54.92  0.001862421    1.887    0.470
       353 -10.1632    208.9689    212.0555   8.8341777870e+01  -9.5941214349e-01    0.1976394    0.1626582  14.81 0.0004800808    1.042    0.040
       354  -9.3779     76.3283    212.2989   1.1529196200e+02   2.0933413358e+01    0.1082434    0.0990606 -17.98 0.0007028845    1.638    0.390
       355 -10.0755      2.0235    212.0561   1.2939830247e+02   2.9478855870e+01    0.1713916    0.1043023  69.97 0.0009961817    1.218    0.179
       356 -12.0103      4.7162    207.4646   1.2869711424e+02   3.0142321501e+01    0.5310879    0.2265166  85.44  0.002999786    2.002    0.500
       357  -8.8487    188.3162    209.6632   9.1917212050e+01   2.9222271830e+00    0.1251218    0.1037261  70.90 0.0003594008    1.698    0.411
       358 -10.5782     10.7644    208.5983   1.2766506961e+02   2.9358822332e+01    0.2014539    0.1552377 -81.56 0.0005473502    1.303    0.233
