#   1 NUMBER                 Running object number                                     
#   2 MAG_AUTO               Kron-like elliptical aperture magnitude                    [mag]
#   3 X_IMAGE                Object position along x                                    [pixel]
#   4 Y_IMAGE                Object position along y                                    [pixel]
#   5 X_WORLD                Barycenter position along world x axis                     [deg]
#   6 Y_WORLD                Barycenter position along world y axis                     [deg]
#   7 A_WORLD                Profile RMS along major axis (world units)                 [deg]
#   8 B_WORLD                Profile RMS along minor axis (world units)                 [deg]
#   9 THETA_WORLD            Position angle (CCW/world-x)                               [deg]
#  10 FWHM_WORLD             FWHM assuming a gaussian core                              [deg]
#  11 ELONGATION             A_IMAGE/B_IMAGE                                           
#  12 ELLIPTICITY            1 - B_IMAGE/A_IMAGE                                       
         1 -10.0641     70.6249     25.6339   3.9738678510e+01   6.1246640494e+01    0.6077994    0.4601113  21.11  0.003823567    1.126    0.112
         2  -8.6738     28.2090     18.0021   5.3470035499e+01   6.8463400026e+01    0.2808734    0.1628408 -29.50  0.001107785    1.613    0.380
         3  -9.1760     46.3594     20.2907   4.6550658611e+01   6.5792408266e+01    0.4050609    0.1896356 -27.80  0.001933315    2.152    0.535
         4  -9.0936     64.1014     13.6685   3.7173652993e+01   6.3649973540e+01    0.3930184    0.1686717  35.74  0.001240417    2.037    0.509
         5  -8.4007     74.3314     13.3108   3.3731885352e+01   6.1837458177e+01     0.215714    0.1477201  19.54 0.0007674784    1.375    0.273
         6  -9.5635     79.1269     12.3918   3.1944549023e+01   6.1013337574e+01    0.4665359    0.2073368  52.70  0.001650733    1.966    0.491
         7  -8.3748    106.8288     11.7305   2.4679986946e+01   5.5399376259e+01    0.3479148     0.185249  24.46  0.001690739    2.423    0.587
         8  -7.9552     97.1054     11.9125   2.6989889435e+01   5.7447549508e+01    0.2023914    0.1194059  32.17  0.001111999    1.659    0.397
         9  -9.8166     31.7907     10.7166   4.8599600785e+01   6.8881151027e+01    0.2921012    0.1679826  11.41 0.0002919587    1.623    0.384
        10 -10.2540     13.5138      4.1052   5.4364766395e+01   7.1746690278e+01    0.2967566    0.1837396   9.30            0    1.289    0.224
        11  -8.6036    142.9479      9.2791   1.7261250246e+01   4.7503211472e+01    0.1924339     0.167684  41.74 0.0003069036    1.246    0.197
        12  -8.7702      3.3943      6.9570   6.1109961227e+01   7.2341286826e+01     0.421089    0.1789236 -13.90  0.002108255    2.925    0.658
        13  -8.0167      2.8402      1.6359   5.8932686138e+01   7.3045464040e+01    0.1584702    0.1255132  -0.68  0.000992509    1.325    0.245
        14  -7.2625     65.2931      9.3118   3.4992468427e+01   6.3845197939e+01    0.1231884   0.07287789  23.18 0.0002738566    1.591    0.372
        15  -9.6304     76.5933      6.3152   3.0325953615e+01   6.2016314181e+01    0.2566209    0.1844666  38.96 0.0002611514    1.096    0.088
        16  -8.9575    132.5047      5.1997   1.7759845686e+01   5.0231051355e+01    0.2877628    0.2286541   9.85  0.001869616    1.580    0.367
        17 -10.2673     85.0066      5.0190   2.7532717645e+01   6.0477288467e+01    0.2291029    0.1930013  24.94 0.0003868332    1.131    0.116
        18  -8.5177     41.5530      5.0930   4.1851726999e+01   6.8103513742e+01     0.233652    0.1515543   9.78 0.0009832546    1.341    0.254
        19 -10.0403     19.8319      8.4818   5.3222614019e+01   7.0567723502e+01     0.475236     0.214903  19.30  0.002640978    2.150    0.535
        20  -7.7004    179.5610      5.0010   1.1441467045e+01   3.9470956499e+01    0.1565252    0.1164328 -39.54 5.755224e-05    1.544    0.352
        21 -10.1217     49.0827      4.0121   3.8420075551e+01   6.7045021626e+01    0.2720179    0.1579188  29.87 0.0002837849    1.384    0.278
        22  -8.4947     57.5692      3.7445   3.5251822318e+01   6.5668878270e+01    0.4290104    0.1289945  35.67  0.001783807    3.176    0.685
        23  -8.8286    110.7958      3.4194   2.1112917477e+01   5.5203375588e+01    0.2653583    0.1853087 -42.78 0.0005091543    1.799    0.444
        24  -7.8253    153.2313      3.1759   1.4152761328e+01   4.5657454785e+01    0.1838647    0.1357415  59.77 0.0007646401    1.188    0.158
        25  -7.9868    125.4286      3.1287   1.8331198531e+01   5.1989160586e+01    0.2052589    0.1326329  54.64 0.0003842887    1.252    0.202
        26  -7.5764    105.4948      1.5161   2.1554388490e+01   5.6488293554e+01    0.1226306   0.09707285  51.17 0.0008104513    1.004    0.004
        27  -8.5410    216.4857      4.3188   7.8298533307e+00   3.1391801376e+01    0.1954127    0.1512519 -83.47 0.0004213974    1.026    0.025
        28  -8.4561      5.4503    107.7102   8.8415073705e+01   5.3276300570e+01    0.2888611    0.1139922   3.94  0.001226633    3.643    0.726
        29  -9.2360    219.1826    249.4933   5.8165606753e+01  -1.0297927355e+01    0.2577362    0.1962464  38.79  0.001325218    1.549    0.354
        30  -9.7292    198.9565    249.7715   6.2227362254e+01  -7.4510996372e+00    0.3286481    0.2098461  41.20  0.001636928    1.644    0.392
        31  -9.5291    189.9158    248.9254   6.3933468736e+01  -5.9592562704e+00     0.363232    0.1641014 -43.00  0.001680296    2.407    0.584
        32  -8.2826    160.1937    250.4172   7.0393626749e+01  -1.5621618907e+00    0.1901355      0.11024  42.62 0.0003827359    1.595    0.373
        33  -7.9454    134.0186    105.9114   4.6852539129e+01   3.5171316262e+01     0.255798     0.194816   0.94  0.001125132    1.789    0.441
        34  -7.5017    109.5223    105.9832   5.3681906720e+01   4.0320204460e+01    0.2192548    0.1301237 -23.84 0.0008088733    2.438    0.590
        35  -8.4301     61.6670    106.2673   6.9041830076e+01   4.8336775762e+01    0.2579846    0.1630468  41.35  0.001227409    1.785    0.440
        36  -8.9226     14.6720    104.8964   8.4865668498e+01   5.3361106342e+01    0.3657756    0.1528479 -40.33  0.001435658    2.243    0.554
        37  -7.9610     64.1792    100.8267   6.6809864573e+01   4.9234315914e+01    0.2008175    0.1583124 -21.15  0.001064463    1.288    0.224
        38  -9.3177      9.9590     95.5587   8.4769567743e+01   5.5794363461e+01    0.4061204    0.1797433 -17.80  0.001764086    3.140    0.682
        39  -7.0916    193.3055     93.7376   3.0709248129e+01   2.3970573194e+01    0.1449645    0.1086496 -79.95 0.0002205009    1.524    0.344
        40  -8.6031     43.7435     91.8855   7.1744715100e+01   5.3774358940e+01    0.3040355    0.1852018  -2.45  0.001452091    2.080    0.519
        41  -8.6281     21.2887     91.2081   7.9809419094e+01   5.5999747446e+01    0.2652639    0.1505542 -38.86  0.001411233    1.541    0.351
        42  -7.8884    130.5220     96.5270   4.5193551954e+01   3.7880348689e+01    0.2749626    0.1403269  36.43 0.0009746464    2.226    0.551
        43  -8.5621    247.6957     90.9486   2.1935137385e+01   1.2982250072e+01    0.2026949    0.1045305 -23.85  0.000704015    4.297    0.767
        44  -8.0300     96.6120     90.0326   5.3081663383e+01   4.6203364869e+01    0.3964436     0.238564  -2.48  0.001372322    3.368    0.703
        45  -7.5373    120.0816     89.1847   4.5923185423e+01   4.1614861875e+01    0.1921854    0.1754035  85.95 0.0002800355    1.263    0.208
        46 -10.1855     37.7227     80.8287   7.1110191165e+01   5.6786434891e+01    0.7116149    0.3622077 -12.81  0.002930053    2.997    0.666
        47  -7.7172    126.3122     83.6529   4.2634267848e+01   4.1312014561e+01    0.3102094    0.1732702  28.93  0.001170778    2.464    0.594
        48  -7.6358     66.6347     84.1302   6.1350110099e+01   5.2481399336e+01     0.191302     0.170354  24.64  0.001113189    1.183    0.155
        49  -9.3005     88.3290     78.1361   5.2139816058e+01   5.0080015999e+01     0.437106    0.2959332   4.82  0.001947179    1.938    0.484
        50  -8.0116     91.6012     75.1660   5.0160411510e+01   5.0031173069e+01    0.2037248    0.1685032 -27.57  0.000347658    1.198    0.165
        51  -7.1323     64.3489     79.2499   6.0720740790e+01   5.3804173969e+01    0.1396046   0.09862377  -5.90 0.0002194239    1.587    0.370
        52  -9.5556      7.6909     77.4067   8.1898579383e+01   5.9888524643e+01    0.4198618     0.172761 -36.80 0.0009429889    2.135    0.532
        53  -8.4012     13.5038     73.8832   7.8798872157e+01   6.0267260189e+01    0.3913305    0.1766418 -29.72  0.001892239    2.228    0.551
        54  -7.7758    184.0674     77.7776   2.8444742318e+01   2.8913811800e+01      0.19964     0.178786  74.44 0.0006301143    1.073    0.068
        55  -9.0269     50.2131     76.6989   6.5187911487e+01   5.6221727895e+01    0.4543804    0.1903883  17.49     0.001676    3.485    0.713
        56  -7.2789    119.7447     75.6478   4.2018789358e+01   4.4210543013e+01    0.1462963    0.1129864   2.81 0.0004489922    1.603    0.376
        57  -7.8212    105.6690     75.6834   4.6002672709e+01   4.7179468361e+01    0.1513289    0.1108518   8.39 0.0002954957    1.685    0.406
        58  -9.2580     24.1453     71.2499   7.3861657082e+01   6.0014218149e+01     0.499143    0.2566599 -51.92  0.002615693    1.675    0.403
        59  -7.7259     74.7840     74.1618   5.5455350190e+01   5.3175375310e+01    0.1940392    0.1502106  -4.54 0.0004557921    1.335    0.251
        60  -7.8152    129.0203     68.8378   3.7570891617e+01   4.3314202920e+01     0.253563    0.1546786  30.63  0.001083225    2.014    0.503
        61  -8.4132    105.5917     67.2692   4.3396112001e+01   4.8664046363e+01    0.4166073    0.2500327  -7.92  0.001624228    2.857    0.650
        62  -7.1067    116.3670     68.2792   4.0688326542e+01   4.6213215511e+01     0.150868    0.1070823  20.82 0.0005311183    1.683    0.406
        63  -8.8034    249.3459     64.5353   1.6508389821e+01   1.6864648614e+01    0.2598399    0.1123585 -59.87  0.001142638    2.477    0.596
        64  -8.6569     83.9311     63.4464   4.8879645771e+01   5.3515390915e+01     0.300635    0.2184881  10.93 0.0007624448    1.491    0.329
        65  -8.2236     16.4894     63.5145   7.4902201872e+01   6.2147789797e+01    0.2702989    0.1747687 -10.68  0.001627404    1.526    0.345
        66  -7.7723     19.5177     60.5549   7.2789814476e+01   6.2490268056e+01    0.2053945    0.1319666 -34.75  0.000792653    1.258    0.205
        67 -10.3712     61.8618     61.0613   5.5855134577e+01   5.7573058326e+01    0.4544105     0.230263  28.87 0.0004673781    1.996    0.499
        68  -8.5583     29.6890     67.9705   7.0705043011e+01   6.0180396497e+01    0.2602588    0.1526417 -28.70  0.001002777    1.577    0.366
        69  -9.2731     36.9597     58.7046   6.4894789250e+01   6.1203654805e+01    0.3951815    0.2155012 -10.48  0.001874828    2.330    0.571
        70  -8.3836     49.3093     58.1769   5.9716616800e+01   5.9826479604e+01    0.2204371    0.1564167  10.23 0.0006993714    1.364    0.267
        71  -7.8266    111.2195     57.5943   3.8731122643e+01   4.9030134400e+01    0.2041161    0.1192743  39.49 0.0005700636    1.642    0.391
        72  -9.2110     99.5243     55.1215   4.1233519265e+01   5.1847699166e+01    0.3576256    0.2669096  -8.77 0.0004688246    1.511    0.338
        73  -9.5230     75.3071     49.9878   4.7186073772e+01   5.7201796689e+01    0.4252369    0.2825565   3.33 0.0004203336    1.764    0.433
        74  -7.4553    163.2047     51.0618   2.5266794821e+01   3.8001864256e+01    0.1719059    0.1118284 -34.59 0.0004994891    1.696    0.410
        75  -7.7474    118.6732     50.8648   3.4643517917e+01   4.8390308938e+01    0.2042636    0.1520401  44.64 0.0005580253    1.216    0.178
        76  -8.6831     45.2392     48.6748   5.8073859799e+01   6.1959560346e+01    0.3324188    0.1954502  -7.02 0.0009347256    2.013    0.503
        77  -8.9498    106.8047     48.0642   3.6838307598e+01   5.1357846553e+01    0.2833856    0.2104982  24.81 0.0004886225    1.389    0.280
        78  -9.1913     57.9455     40.8463   5.0155299755e+01   6.1385043467e+01    0.4911483    0.2508383   2.46   0.00166351    4.067    0.754
        79  -8.2355      1.9925     44.5206   7.5848119379e+01   6.6633748116e+01    0.2445249    0.1020197   6.90  0.001265101    2.627    0.619
        80  -8.1495      6.2210     46.6568   7.4539947472e+01   6.6000788936e+01    0.1924988    0.1055179   4.96 0.0003236454    1.864    0.464
        81  -8.8256     10.3233     47.0004   7.2768693770e+01   6.5670712344e+01      0.28012     0.179878 -36.01 0.0009676867    1.211    0.175
        82  -9.2746     14.4790     44.4032   7.0034344042e+01   6.5824438796e+01    0.4005889    0.1915277 -27.49  0.001380544    1.921    0.479
        83  -8.8493     94.5731     41.7001   3.8133354900e+01   5.4745064574e+01    0.3443502    0.1683735  45.46  0.001025168    1.810    0.447
        84  -8.8851     83.1489     39.8409   4.0958108152e+01   5.7215124560e+01    0.2791559    0.2124443  22.37 0.0006092998    1.201    0.167
        85  -8.1750     87.6423     37.6880   3.8787867303e+01   5.6633725388e+01    0.2453068    0.1767971  26.99 0.0007233826    1.284    0.221
        86  -8.6609     35.6455     37.5258   5.8034806436e+01   6.4887859194e+01    0.2438566    0.1583878 -32.81  0.001310836    1.417    0.294
        87  -8.2774     38.8049     35.1929   5.5771384548e+01   6.4853122711e+01    0.2318827    0.1437823  13.27 0.0004783418    1.522    0.343
        88  -9.7275      6.1805     34.1714   7.0511259547e+01   6.8151342881e+01    0.6272386    0.3344475 -17.62  0.003135507    1.709    0.415
        89  -8.8849      1.4784     28.9809   7.1025186291e+01   6.9300989710e+01    0.2747365    0.1445352 -50.87  0.001670322    1.903    0.475
        90  -9.3520      3.1016     24.8908   6.8703844792e+01   6.9836536857e+01    0.2238473    0.1418946 -24.21 0.0002797777    1.184    0.156
        91  -8.0705    124.1078     39.1162   2.9659290513e+01   4.8723382380e+01    0.2042513    0.1605204  33.13 0.0003516761    1.281    0.219
        92  -9.6679     68.5550     36.8180   4.4734089282e+01   6.0231353332e+01    0.4765365    0.2510886  24.63  0.002022549    2.074    0.518
        93  -8.9021     55.9511     35.2218   4.8778802701e+01   6.2477013849e+01    0.2226135    0.1586558 -15.86 0.0004429379    1.322    0.243
        94  -8.2834    105.4842     36.6426   3.3387499668e+01   5.3122877602e+01    0.2734566    0.1640588  32.17 0.0008290589    1.731    0.422
        95  -7.9098     92.0593     36.4695   3.7037908417e+01   5.5916087263e+01    0.2497104    0.1091987  45.57 0.0003569544    1.983    0.496
        96  -9.3051     95.9519     32.4683   3.4521874838e+01   5.5609849409e+01    0.3808808    0.2567779  59.82  0.001379758    1.598    0.374
        97  -9.4666     21.7270     31.7154   6.2128733636e+01   6.7258323519e+01    0.2999663    0.1760981  15.46  0.000393143    1.590    0.371
        98  -8.2953    248.5044     34.5078   1.0889275657e+01   2.1257121508e+01    0.1198961   0.09239746 -72.78 4.877305e-05    1.013    0.013
        99  -8.9570     71.1425     29.9262   4.1219037928e+01   6.0653814599e+01     0.308024    0.1908213  19.97 0.0003749894    1.647    0.393
       100  -9.2742    205.3030    249.2727   6.0867437322e+01  -8.3012590169e+00    0.2481198    0.1382743  22.39  0.001268661    1.730    0.422
       101 -10.6717     80.1839     23.2719   3.5770327520e+01   5.9747131171e+01    0.3962776    0.2068152  35.76 0.0008737224    1.713    0.416
       102  -8.9138     84.5633     21.4912   3.3798920903e+01   5.9088394367e+01    0.2147686    0.1891275  25.34 0.0005147085    1.094    0.086
       103  -9.1590     61.5794     26.6585   4.3305174333e+01   6.2677248673e+01    0.2557244    0.1761675  10.84 0.0004747985    1.373    0.271
       104  -8.1756     42.1423     27.8680   5.1438403660e+01   6.5439997319e+01     0.168976    0.1419007   7.57 0.0003596236    1.175    0.149
       105  -8.3930     25.7034     24.9619   5.7575935755e+01   6.7828927687e+01    0.2914259    0.1179877 -26.83  0.001392925    2.612    0.617
       106  -8.3709     26.2121     20.7959   5.5599948318e+01   6.8334431273e+01    0.3093585    0.2165737  39.06  0.002013769    1.956    0.489
       107  -9.0915    180.9733    248.9836   6.5794314218e+01  -4.5949074847e+00    0.1864014    0.1504636  59.16  0.001075277    1.682    0.405
       108  -9.3408    109.6285     24.9174   2.8437423407e+01   5.3548541141e+01    0.2282517     0.179491  51.47 0.0002306352    1.097    0.088
       109 -10.1572    167.7112    246.5139   6.8194598825e+01  -2.0763930478e+00    0.3834197    0.2166316  50.40  0.001517655    2.099    0.524
       110 -10.0653    128.9460     21.9174   2.3352783646e+01   4.9539781213e+01     0.230765    0.1842926  50.93  0.001422875    1.094    0.086
       111  -8.5701     92.0998     20.6951   3.1397126549e+01   5.7666271824e+01      0.27676    0.1748202  19.40  0.001224603    1.767    0.434
       112  -8.3452    166.9825     20.9999   1.6848310217e+01   4.0788115497e+01    0.1887586     0.158397  77.88  0.001205234    1.004    0.004
       113  -9.1202      8.8747     19.6135   6.3658118157e+01   7.0183612693e+01    0.3504476    0.2109022  -7.50  0.001155712    1.412    0.292
       114  -9.1079     12.5221     17.9966   6.1118025074e+01   7.0095158636e+01    0.4061312    0.1678232  11.19  0.001979713    2.917    0.657
       115  -7.2277    172.2573     18.7049   1.5567830639e+01   3.9800023498e+01    0.1229996   0.08480639 -72.99 0.0006890881    1.497    0.332
       116  -8.4821    127.8906     16.2195   2.1830970684e+01   5.0328855293e+01    0.1889667    0.1776813  51.18 0.0005300269    1.129    0.115
       117  -8.7768    110.7958    244.3904   8.0204663508e+01   7.5531719199e+00    0.2115112    0.2032447 -89.22 0.0002855525    1.149    0.130
       118  -7.3701    147.0670     14.2056   1.7982089362e+01   4.6107006342e+01    0.1727142   0.08461881  64.41 0.0008478872    1.673    0.402
       119  -9.8718    193.4536    241.2944   6.1938970946e+01  -5.2320588408e+00    0.2880882     0.224877 -63.66  0.001609043    1.943    0.485
       120  -7.2501     36.3152    240.3061   9.5357870114e+01   1.8940439282e+01    0.1077457   0.09278594 -47.29 0.0002817341    1.625    0.385
       121  -8.0310     52.7896     13.7895   4.1273242429e+01   6.5524097435e+01    0.2015357   0.09928804  14.54 0.0009374872    2.711    0.631
       122  -9.4890    188.2994    233.9181   6.1754724305e+01  -3.1500842868e+00    0.2793717    0.2336414 -64.13 0.0009840216    1.664    0.399
       123  -8.5333     88.1902     12.7253   2.9548056541e+01   5.9202886194e+01    0.2463904    0.1283453  40.69 0.0009177366    1.608    0.378
       124  -7.8416     37.9316    216.5383   9.2997092686e+01   2.4021394252e+01    0.1743042     0.120762  37.45  0.000690533    1.527    0.345
       125  -9.7098    124.0058    206.0055   7.1502608922e+01   1.3627560358e+01    0.2071947    0.1974775  51.02  0.001159679    1.005    0.005
       126  -7.8051     12.2232    206.2633   9.7609573470e+01   2.9121110600e+01     0.197558   0.08186314 -88.35 0.0008755658    2.388    0.581
       127  -7.6887    131.2132    191.7214   6.7214533856e+01   1.5635189384e+01    0.2067378    0.1775802 -14.66 0.0006054764    1.353    0.261
       128  -7.8113    213.0137    172.2646   4.4751050063e+01   4.3522558962e+00    0.1938049    0.1809274  -5.15 0.0003807235    1.067    0.063
       129  -7.3075     78.9784    155.7423   7.4335382139e+01   3.3629785744e+01     0.174465     0.131472  33.58 0.0003717468    1.415    0.293
       130  -7.4996    140.6457    148.3205   5.5764693630e+01   2.4130660546e+01    0.1670507     0.127923  82.02 0.0007046637    1.753    0.430
       131  -7.9346    133.8571    147.8878   5.7428216811e+01   2.5632959437e+01    0.2552407    0.2221911 -16.59  0.001231821    1.289    0.224
       132  -8.9300     66.8126    144.2272   7.5681049271e+01   3.8345215513e+01    0.5084703    0.3078509  68.45  0.002046593    2.494    0.599
       133  -7.9134    139.2829    138.5958   5.3824078860e+01   2.6706502740e+01    0.2265957    0.1538632  31.25 0.0009482095    1.642    0.391
       134  -7.2221     15.3151    138.3146   8.9888344310e+01   4.5303845972e+01    0.1356969   0.08113191 -44.47 0.0007035328    1.643    0.391
       135  -7.7271     40.2035    129.5950   8.1048327320e+01   4.5253695791e+01    0.1836628    0.1313674  -2.20 0.0009477941    1.762    0.432
       136  -7.5094     85.5063    121.4283   6.5004864264e+01   4.1165272634e+01    0.1499801    0.1428257 -33.86 9.227086e-05    1.011    0.011
       137  -7.2937    119.5350    118.5045   5.4137025809e+01   3.5491993737e+01    0.1553489    0.1533208 -40.30 0.0002023155    1.018    0.017
       138  -7.5875     99.6659    118.6821   5.9977272717e+01   3.9332950641e+01    0.1605111    0.1201763 -12.19 0.0003465083    1.695    0.410
       139  -7.6943     14.5069    118.5066   8.7228765448e+01   5.0166958374e+01    0.1314083    0.1052717 -56.52 0.0002651805    1.030    0.029
       140  -7.7413      1.3050    110.3592   9.0163019467e+01   5.2885325683e+01     0.136691   0.06790924 -45.20 0.0004059461    1.726    0.421
       141  -7.5770     39.2915    109.6678   7.7438659576e+01   5.0177945732e+01    0.1307437    0.1037338  79.64 0.0002560864    1.631    0.387
       142  -9.0167    247.7951    107.9987   2.5379372591e+01   1.0050539008e+01    0.1930337    0.1406537 -81.98  0.001059927    1.621    0.383
