#   1 NUMBER                 Running object number                                     
#   2 MAG_AUTO               Kron-like elliptical aperture magnitude                    [mag]
#   3 X_IMAGE                Object position along x                                    [pixel]
#   4 Y_IMAGE                Object position along y                                    [pixel]
#   5 X_WORLD                Barycenter position along world x axis                     [deg]
#   6 Y_WORLD                Barycenter position along world y axis                     [deg]
#   7 A_WORLD                Profile RMS along major axis (world units)                 [deg]
#   8 B_WORLD                Profile RMS along minor axis (world units)                 [deg]
#   9 THETA_WORLD            Position angle (CCW/world-x)                               [deg]
#  10 FWHM_WORLD             FWHM assuming a gaussian core                              [deg]
#  11 ELONGATION             A_IMAGE/B_IMAGE                                           
#  12 ELLIPTICITY            1 - B_IMAGE/A_IMAGE                                       
         1 -11.2987     80.6324     23.1403   5.7063834152e+01   5.9738282834e+01    0.5979032    0.2159524  42.68 0.0006449065    2.486    0.598
         2  -8.9381     28.5668     20.8133   7.6488650397e+01   6.8710985486e+01    0.3683016    0.2127029  -7.93  0.002014617    1.962    0.490
         3  -9.9516     78.0646     12.9368   5.3764105233e+01   6.1330433327e+01     0.636048    0.2030443  53.31  0.002634181    2.628    0.619
         4 -12.1353    236.7817      4.4457   2.8743132811e+01   2.6707531537e+01     1.411156    0.6093189  75.27  0.006789097    2.102    0.524
         5 -10.9568    217.9963      9.0546   3.0970578757e+01   3.0058420585e+01    0.5330266    0.3860843 -76.56  0.003002172    1.112    0.101
         6  -9.5878     31.7597     10.8954   7.0336059821e+01   6.9579460248e+01    0.2756915    0.1484329  28.06 0.0004130694    1.660    0.397
         7  -8.7161    125.2333      9.9777   4.2007487044e+01   5.1195219355e+01    0.2218804    0.1527145  64.86 0.0004525151    1.231    0.188
         8 -10.0975     21.0750      8.5414   7.4526918032e+01   7.1263345530e+01    0.3485055    0.2327109  43.46  0.000616601    2.066    0.516
         9 -10.1073      7.4078      5.4815   8.0626921879e+01   7.3160608185e+01    0.6415259    0.2766274  11.72  0.003140469    2.911    0.656
        10 -10.0984     13.9414      4.3626   7.6294490484e+01   7.2618485174e+01    0.2290303    0.1561106   7.26 0.0001627031    1.196    0.164
        11  -7.6583    164.9491      8.6948   3.5956150230e+01   4.1978167847e+01    0.1684377    0.1388195  82.23 0.0003208444    1.015    0.015
        12  -7.3930    142.7194      9.6799   3.9139293878e+01   4.7117117770e+01    0.1254747    0.0865287  41.61 0.0003221864    1.584    0.369
        13  -7.9955    156.2940      7.3094   3.6643647542e+01   4.4136602164e+01     0.123153   0.08550318  45.42 0.0001896356    1.588    0.370
        14  -9.7888     84.9862      5.3531   4.8844409935e+01   6.0584061939e+01    0.2274967    0.1749527  46.03 0.0003260232    1.070    0.065
        15  -8.7784     77.8159      6.5076   5.1221782928e+01   6.1971959029e+01    0.3326619    0.1040193  56.48  0.001366219    2.741    0.635
        16  -8.5769     41.2779      5.2843   6.3327888434e+01   6.8780300076e+01    0.2043763     0.142716  16.71 0.0005709963    1.227    0.185
        17  -8.9626     32.1462      6.0058   6.7756764630e+01   7.0088687808e+01    0.1875796    0.1340016  22.62 0.0003157325    1.154    0.134
        18  -9.1988     57.8171      3.2414   5.6024423376e+01   6.6135454845e+01    0.2194494    0.1633332  22.01 0.0004150171    1.167    0.143
        19  -8.9623     64.9535     13.5404   5.8142367471e+01   6.3826135275e+01    0.3067681    0.1518535  36.23 0.0009393695    1.829    0.453
        20  -7.6059    176.3317      3.2906   3.3364366804e+01   3.9848292921e+01     0.120159   0.08223706  50.87 0.0003477153    1.628    0.386
        21  -8.4768    154.4533      2.7809   3.5654746458e+01   4.4972022126e+01    0.3146431    0.1268841  60.77  0.001471098    2.028    0.507
        22  -8.2219    134.4852      2.9982   3.8386115246e+01   4.9632112822e+01    0.1598334   0.09508081  27.03 0.0003644134    2.309    0.567
        23  -7.9681    125.4078      3.2901   3.9874881595e+01   5.1723783573e+01    0.1474377    0.1165486 -42.55 0.0004936876    1.459    0.315
        24  -8.5536    105.3401      1.8475   4.2975073286e+01   5.6425839533e+01    0.2153208    0.1496237  70.90 0.0007231064    1.342    0.255
        25  -7.8684      3.3107      1.2994   8.0971691969e+01   7.4101406974e+01    0.1124167   0.06445247  -8.61 0.0003546854    1.602    0.376
        26  -7.9530    163.8631      1.0000   3.4103509871e+01   4.2933040492e+01    0.2106747   0.05931879  71.57 0.0008069423    2.974    0.664
        27  -7.6267    125.6694    118.6746   7.4299760115e+01   3.3486850549e+01     0.160328    0.1249236  -3.59 0.0007050673    1.705    0.413
        28 -10.9489     44.4886    248.9704   1.1511713081e+02   1.6281050500e+01    0.4273448    0.2280393  34.42  0.002385213    1.775    0.437
        29  -9.5816    133.8461    107.4206   6.9253521073e+01   3.4184292933e+01    0.6247781    0.2586348 -43.06  0.002195378    2.429    0.588
        30  -8.1760     52.0149    113.2727   9.5672451159e+01   4.7498094746e+01     0.249464    0.1456442  78.44 0.0008919979    3.458    0.711
        31  -9.0764      8.9228    109.2030   1.0969291773e+02   5.2566849119e+01    0.3017598     0.215539  83.37  0.001083783    1.562    0.360
        32  -9.3581    248.6311    108.7602   4.8272692098e+01   9.9365108597e+00     0.283819    0.1690779 -67.63    0.0013743    2.307    0.567
        33  -9.4957    115.0583    106.6977   7.4097968668e+01   3.8344214674e+01    0.3242383    0.2343159  64.08 0.0009479637    1.690    0.408
        34  -8.1876     87.0951    105.7531   8.2236585880e+01   4.3950468487e+01    0.2208875    0.1970145  69.66 0.0005348491    1.282    0.220
        35  -9.2249     61.5248    106.2176   9.0823914722e+01   4.7923005694e+01    0.2689367     0.201795  29.09  0.001386407    1.408    0.290
        36  -8.5020     72.4995    105.1039   8.6833293593e+01   4.6545084862e+01     0.265737     0.197739  52.87 0.0006331679    1.558    0.358
        37  -9.0048     13.8383    105.3985   1.0739202296e+02   5.3145912137e+01    0.2605242    0.1314424 -20.39  0.001155608    2.716    0.632
        38  -8.3628    184.4597    102.0414   5.6760170431e+01   2.3946050638e+01    0.2029757    0.1307415 -15.68 0.0008088878    2.514    0.602
        39  -7.8054     64.7799    101.1770   8.8463531351e+01   4.8633325589e+01    0.2052617    0.1632446 -20.41  0.001063753    1.358    0.264
        40  -8.8883    140.7664     99.1251   6.5322283089e+01   3.4359525532e+01    0.2960927    0.1967195  24.51 0.0009748894    2.092    0.522
        41 -10.2115     12.6889     94.7661   1.0594269595e+02   5.5738882189e+01    0.4285644    0.3521809 -44.15  0.002631494    1.083    0.077
        42  -8.1149    130.7725     96.4178   6.7075243006e+01   3.7136950993e+01    0.2249485    0.1418605  36.64 0.0009531762    1.728    0.421
        43  -9.2807     55.0654     93.0729   8.9828041620e+01   5.1858813539e+01    0.4312609    0.3091339  23.69  0.001738431    1.481    0.325
        44  -8.9570      1.5324     92.6667   1.0969822370e+02   5.6901178377e+01    0.2418381    0.1298644 -74.26  0.000619451    1.749    0.428
        45  -8.9376     43.9288     91.8220   9.3609646212e+01   5.3543397317e+01    0.3298185    0.2020084 -11.26  0.001365206    2.212    0.548
        46  -9.1597     30.2724     91.5482   9.8682935866e+01   5.5053370690e+01    0.2756733    0.1600867 -75.10  0.001133749    2.138    0.532
        47  -8.3975     96.7705     90.4667   7.4981923876e+01   4.5500454340e+01    0.4543428    0.2641326   8.15  0.001390394    4.302    0.768
        48  -9.2289    150.6511     88.3177   6.0108536991e+01   3.4199508431e+01    0.3768609    0.1920241 -51.54  0.001202183    2.192    0.544
        49  -8.3390    152.3259     85.3233   5.8929634783e+01   3.4365136083e+01    0.2532248    0.1491221  48.96  0.001096142    1.684    0.406
        50  -8.4828     73.0961     85.5938   8.1340458099e+01   5.0800919984e+01    0.4048144    0.2279131  61.21  0.001445297    3.488    0.713
        51  -8.6993     66.0524     83.9374   8.3349035296e+01   5.2279904155e+01    0.2180995    0.1943452 -19.45 0.0004922287    1.065    0.061
        52 -10.4041     38.2445     80.6401   9.2933418697e+01   5.6687713504e+01    0.6775696    0.3637789   4.91  0.002142839    2.604    0.616
        53  -8.7603     20.9438     84.2068   1.0063961521e+02   5.7548665182e+01     0.174799    0.1665005 -61.23 0.0003402265    1.170    0.145
        54  -7.5841    127.5131     82.5148   6.3982983394e+01   4.0579303528e+01    0.1486093    0.1440877  34.38 9.790744e-05    1.033    0.032
        55  -8.6309     95.9403     78.6520   7.1721551384e+01   4.8048055904e+01    0.5119144    0.1949284  52.11  0.001658674    3.391    0.705
        56  -8.6922     87.8043     78.6389   7.4299904844e+01   4.9625077763e+01    0.4820806    0.2193723  29.40  0.001701219    2.960    0.662
        57  -7.7306     64.3229     79.3224   8.2621201000e+01   5.3518523001e+01    0.1471738    0.1036158 -14.08 0.0004473797    1.679    0.404
        58  -9.1142    183.8245     77.7150   5.0886618145e+01   2.8394743810e+01    0.3201131    0.2334858  84.28  0.001082391    1.535    0.349
        59  -9.7181      8.4376     76.6704   1.0401042586e+02   6.0127293752e+01    0.3697841    0.1820055 -36.27  0.001353787    1.888    0.470
        60  -9.9682     52.5520     76.4461   8.6180398485e+01   5.5824655233e+01    0.7353823    0.2243941  29.13  0.002492148    3.716    0.731
        61  -9.8503    168.8770     74.2186   5.2636649297e+01   3.2441520146e+01    0.3519686    0.2894035  -0.58  0.001818161    1.640    0.390
        62 -10.1004     24.6252     72.5757   9.6335933685e+01   5.9793209651e+01    0.7441136    0.3094118 -30.23  0.002945459    3.075    0.675
        63  -8.0949     23.3872     69.1901   9.5963085129e+01   6.0622370923e+01    0.1698608    0.1146999 -64.80 0.0003438744    1.620    0.383
        64  -8.3002     75.1855     74.2221   7.7177745478e+01   5.2776525057e+01    0.2445376    0.1672891  32.69 0.0006294499    1.459    0.315
        65 -10.4138    163.7550     71.0089   5.2744572159e+01   3.4177206358e+01    0.3770556     0.342926  83.16  0.001565705    1.054    0.051
        66  -9.3036     34.6718     67.8998   9.0843078194e+01   5.9781640953e+01    0.4293927    0.1443786  38.34  0.001639697    3.506    0.715
        67  -8.4215    107.4739     66.4857   6.4493573870e+01   4.7896114446e+01    0.2760787     0.123894  38.75  0.001035245    2.418    0.586
        68  -9.0140     84.5704     63.6731   7.0570330425e+01   5.3047868243e+01    0.6054764    0.2128897  36.90  0.002077301    3.149    0.682
        69  -7.5451    128.3460     69.3577   5.9899902125e+01   4.2751439474e+01    0.1550693    0.1135269  16.69 -0.000114222    1.837    0.456
        70  -9.4308     25.6996     62.0673   9.2971002663e+01   6.1881852721e+01    0.3650087    0.2085529 -53.73  0.001107526    1.644    0.392
        71  -9.5811     18.9123     61.6604   9.5843996662e+01   6.2567598999e+01    0.3776002    0.1928438  -9.25  0.001757015    2.557    0.609
        72 -10.4281     62.1727     61.0093   7.7605854786e+01   5.7448177607e+01    0.4509029    0.2424969  27.98 0.0002972963    1.969    0.492
        73  -8.7002     11.5546     61.2287   9.9004834400e+01   6.3219813157e+01    0.2241129    0.1119944 -63.38 0.0007578098    2.051    0.512
        74  -8.8660      4.3210     61.6362   1.0234244914e+02   6.3599452418e+01    0.2924233    0.1582607  27.73  0.001621566    2.126    0.530
        75  -7.9888      1.5009     59.4900   1.0308852929e+02   6.4202508289e+01     0.158477    0.1063356  26.57 0.0006143174    1.759    0.432
        76  -8.3691     45.1491     59.9286   8.3996389687e+01   6.0112767522e+01     0.189707    0.1820627 -44.73 0.0008325304    1.272    0.214
        77  -9.2035    183.0363     58.6644   4.6252925371e+01   3.1592778211e+01    0.3269316    0.1729869 -52.01  0.001124261    1.943    0.485
        78 -10.6384    177.9339     54.2402   4.5919404589e+01   3.3434313564e+01    0.5972233    0.3512593  70.99  0.002135373    1.715    0.417
        79  -9.2015     36.7974     58.8952   8.7179168707e+01   6.1339979693e+01    0.3295618    0.1638484   6.86  0.001344978    3.081    0.675
        80  -7.9676    110.8595     58.3865   6.0966358606e+01   4.8508667236e+01    0.2150322    0.1206311  40.25 0.0009406687    1.791    0.441
        81  -8.3235     49.5107     58.5328   8.1742283934e+01   5.9789455902e+01    0.2150769    0.1166778  42.16 0.0008530837    2.112    0.527
        82  -7.7281    155.6726     57.3101   5.0531907578e+01   3.8255291729e+01    0.1469841    0.1053024 -76.48 0.0005652002    1.661    0.398
        83  -9.1867     99.9340     54.9269   6.2874187725e+01   5.1421585559e+01    0.2698425    0.2517481 -14.60 0.0006687628    1.108    0.098
        84  -8.3205    118.7980     50.8783   5.6512024879e+01   4.7880534788e+01    0.2087551    0.1793366  32.21 0.0004319471    1.178    0.151
        85  -8.5743    106.3561     48.9910   5.9086481775e+01   5.0944192487e+01    0.4789851    0.2750845   4.39  0.001669089    3.947    0.747
        86 -10.5946     75.4985     50.0097   6.8905873513e+01   5.7054871077e+01     0.403255    0.2412257  45.10 -0.0008517428    1.651    0.394
        87  -8.9552     45.2074     48.8803   8.0160866017e+01   6.2122957189e+01    0.3624957    0.2111491 -13.08   0.00169178    2.239    0.553
        88  -8.5383      2.4864     45.0201   9.8765210313e+01   6.7033200854e+01     0.313319    0.2021142  50.47  0.001770877    2.575    0.612
        89  -9.3881     10.1799     47.1550   9.5636063144e+01   6.6112952643e+01    0.3780805    0.2372712  14.85  0.002235316    1.651    0.394
        90  -8.5324     13.5172     45.4747   9.3485857578e+01   6.6175383042e+01    0.1931383    0.1769691  57.22 0.0007876317    1.592    0.372
        91  -9.1941     54.9233     44.5780   7.4566188519e+01   6.1428886717e+01    0.4008671    0.1903612 -19.26   0.00143552    3.899    0.743
        92  -8.6901     81.4763     43.9504   6.4696562889e+01   5.6855057654e+01    0.2267994    0.1931096   0.37 0.0004160866    1.165    0.142
        93 -10.6310     83.0226     39.7840   6.2666471137e+01   5.7150806927e+01    0.4610692    0.2493602  39.26 0.0002243271    1.726    0.421
        94  -9.2232     96.1941     42.2637   5.9592243316e+01   5.4100793790e+01    0.8463175     0.212681  46.90   0.00277202    3.496    0.714
        95  -8.6604     65.8389     42.0200   6.9400330204e+01   6.0030612013e+01    0.3370542    0.2194465  36.73  0.001825224    1.434    0.303
        96  -8.8769     32.4900     43.1836   8.3690401437e+01   6.4723047904e+01    0.3370462    0.1584343  33.15  0.001674892    2.179    0.541
        97  -8.7271      3.5478     40.0505   9.6718134721e+01   6.7905184815e+01    0.1766838   0.09735763 -52.01 0.0007849115    1.595    0.373
        98  -9.0117    203.6629     38.4095   3.8671929501e+01   2.9710582487e+01    0.2143472    0.1966067  86.31 0.0007384723    1.170    0.145
        99  -9.3241     67.5178     37.5080   6.7056023270e+01   6.0400232614e+01    0.2373146    0.1787221  28.13  0.001388187    1.204    0.169
       100  -9.3914     71.7820     34.9975   6.4575844490e+01   5.9974209510e+01    0.4646466    0.1828042  46.54  0.001970837    2.378    0.580
       101  -8.0994    225.8487     36.9385   3.6046122918e+01   2.5122507464e+01    0.1706245    0.1577124 -86.94 0.0005361111    1.242    0.195
       102  -8.9878    185.6592     35.8400   4.0229023621e+01   3.4127962780e+01    0.2667283    0.2169637  23.71 0.0008657195    1.756    0.431
       103  -8.8376     46.8802     36.4778   7.4743129520e+01   6.3921942936e+01    0.2644342    0.2121686  65.74   0.00151645    2.147    0.534
       104  -8.8102     35.7014     37.6746   8.0138173415e+01   6.5259349491e+01    0.2029831    0.1322336 -20.64  0.000495867    1.476    0.323
       105  -8.8892     38.7975     35.2107   7.7765217974e+01   6.5251231084e+01    0.2308834    0.1523986  24.81 0.0004922362    1.425    0.298
       106  -8.3913    105.9449     36.5140   5.4951673339e+01   5.2753263145e+01    0.2119927    0.1203791  51.96  0.001021162    1.570    0.363
       107  -9.4591     20.0784     35.9224   8.6922042457e+01   6.7303879489e+01    0.2362845    0.2032582  22.41 0.0009488452    1.377    0.274
       108  -9.1652     21.6042     31.9139   8.4620538711e+01   6.7819725626e+01    0.3282527    0.1858043  12.72 0.0003709212    1.791    0.442
       109  -8.6057    177.9640     34.5219   4.0907424991e+01   3.6085046965e+01    0.1910187    0.1844957 -33.71 0.0004343015    1.256    0.204
       110  -9.6703    179.5388     30.5837   3.9713649935e+01   3.6199126460e+01    0.2319553    0.2179362  64.82 0.0003471404    1.213    0.176
       111  -9.3657     12.1108     34.3232   9.0367479925e+01   6.8302623415e+01     0.345831    0.1780799  43.48  0.001683235    3.273    0.695
       112  -9.0984      5.9313     33.8776   9.3429609056e+01   6.8861625196e+01    0.2637756    0.1740009  -2.99  0.001467096    1.423    0.297
       113  -9.8634    197.0603     32.5903   3.8083803905e+01   3.1928211343e+01     0.244334    0.2249633  70.47 0.0004535394    1.236    0.191
       114  -8.7847     96.2621     32.9356   5.6247974600e+01   5.5318965290e+01    0.2392951    0.1656528  41.54 0.0003130113    1.301    0.231
       115  -9.3111    211.8762     30.4278   3.6022051202e+01   2.8914387158e+01    0.2516117    0.2080344  64.80 0.0007090903    1.341    0.254
       116  -8.8043      1.8691     29.9126   9.4204828176e+01   6.9838262859e+01    0.2789999    0.1573147 -67.24  0.001463062    2.824    0.646
       117  -9.1993     71.0048     30.0145   6.2886082353e+01   6.0781545742e+01    0.1997014     0.171201  19.94 0.0004121424    1.013    0.013
       118  -9.5824     70.9014     26.4919   6.1512906619e+01   6.1244284870e+01    0.2164952    0.2072974  -3.68 0.0007787033    1.220    0.180
       119  -8.6060    190.6086     28.0700   3.7760193613e+01   3.3943282275e+01    0.2302453    0.1552651  87.86  0.001163987    1.382    0.276
       120  -8.9642     42.1537     27.9079   7.3266935276e+01   6.5877036206e+01    0.2152503     0.153174  11.55 0.0004263238    1.291    0.225
       121  -9.3873    174.0250     26.7507   3.9459130779e+01   3.7942764760e+01    0.3392858    0.1445208  57.73  0.001526148    2.140    0.533
       122  -9.1645     63.1759     26.7766   6.4343199381e+01   6.2626743612e+01    0.4628817     0.154011  45.78  0.001213137    2.755    0.637
       123  -7.8554    153.2446     25.9593   4.2183402020e+01   4.2957354446e+01    0.1599737    0.1117379 -34.40 0.0008797397    1.584    0.369
       124 -11.2528     32.1848    245.2757   1.1728664537e+02   1.8459149787e+01    0.4201658    0.2431776  75.28  0.001732638    1.612    0.380
       125  -9.8696    204.8073     23.8898   3.5287775095e+01   3.1247015021e+01    0.2345511    0.2166245  80.93  0.000626031    1.243    0.195
       126  -7.4695    114.6982     25.3180   4.9070456871e+01   5.2109005471e+01    0.1288119   0.09947377 -75.78 0.0002495603    1.622    0.383
       127  -8.4623      3.1893     24.7251   9.1560138880e+01   7.0629091675e+01    0.2355838    0.1163589 -37.87 0.0007854552    1.636    0.389
       128  -9.4045    128.8726     22.1223   4.5172962291e+01   4.9159904308e+01    0.2096824    0.1865851  53.60 0.0002853482    1.075    0.069
       129  -8.9566     46.1886     20.7830   6.8444488026e+01   6.6229549232e+01    0.3152709    0.1601327 -34.70  0.001672386    2.052    0.513
       130 -11.0424     20.4296    240.9958   1.1931157872e+02   2.0616805892e+01    0.4916957    0.2519159  88.37  0.002771741    1.862    0.463
       131  -7.5645    150.9111     23.0000   4.1711601671e+01   4.3840481486e+01    0.2176007   0.06646462  65.58 0.0007925499    2.874    0.652
       132  -8.1470    137.1617     22.6359   4.3843144537e+01   4.7148522664e+01    0.1922961    0.1009399  54.80 0.0003363074    1.662    0.398
       133  -8.6449     92.3681     20.4697   5.2720508459e+01   5.7589050547e+01    0.2533309    0.1718181  38.57 0.0007243868    1.334    0.250
       134  -9.1044      8.6615     19.7350   8.6481722184e+01   7.0992828708e+01    0.3089598     0.186629  23.40  0.001852152    1.659    0.397
       135  -9.0137     18.0145     17.5098   8.0395408481e+01   7.0410574898e+01    0.2768551    0.1789787  45.12   0.00117285    2.456    0.593
       136  -9.0983     13.9600     18.0000   8.2800370403e+01   7.0759870298e+01    0.3948842    0.1340192  28.34  0.001890012    2.835    0.647
       137  -7.8103    147.1395     18.6447   4.1052958860e+01   4.5198363878e+01    0.1894186   0.09877623  57.61 0.0005379393    1.663    0.399
       138  -8.8794    189.7467     15.6216   3.4926937288e+01   3.5549170218e+01    0.2412775    0.1671064 -88.43 0.0009149265    1.276    0.216
       139  -7.6975    127.5079     16.5164   4.3665555787e+01   5.0051084001e+01     0.130669    0.1120242  62.36 -3.932231e-05    1.011    0.011
       140  -7.7476    147.0629     14.2026   3.9799617710e+01   4.5662306666e+01    0.1755821   0.08796783  66.50 0.0008086509    1.695    0.410
       141  -8.2760    135.4687    113.5086   7.0425989600e+01   3.2532825918e+01    0.2917524    0.1917781 -54.41  0.001054949    1.620    0.383
       142 -10.4394    189.8672    236.8824   8.3217979892e+01  -2.5414148894e+00    0.3996142     0.307265 -77.92  0.001578811    2.589    0.614
       143 -10.2486    210.6602    231.8336   7.8348358376e+01  -4.7094902609e+00    0.2264588    0.1894691 -11.26 0.0004132676    1.108    0.097
       144  -7.5413    155.9874     11.5451   3.7825030129e+01   4.3810224641e+01    0.1712604   0.08237438  48.85            0    2.168    0.539
       145  -8.6205     97.4810     11.4810   4.8117484795e+01   5.7363854917e+01     0.246176    0.1063644  57.97 0.0005912498    1.942    0.485
       146  -9.1160    179.8357    227.1311   8.3661099706e+01   5.7129547313e-01    0.2060108    0.1832312   8.85 0.0003159335    1.048    0.046
       147 -11.6655     40.4712    218.9792   1.1356853353e+02   2.3047012239e+01     1.057485    0.5804609  59.80  0.002670159    1.709    0.415
       148  -9.5155     30.4385    212.0899   1.1520071175e+02   2.5726447280e+01     0.355051    0.2284468 -41.25  0.001373644    2.244    0.554
       149  -7.6796    180.7491    222.5626   8.2713290909e+01   1.2187615429e+00    0.1723347    0.1167106  41.35 0.0006839059    1.506    0.336
       150  -7.4741    207.7038    220.2502   7.6940736464e+01  -2.4668854583e+00    0.1092794   0.09963009  47.96 0.0001628949    1.488    0.328
       151  -7.7166     58.6911    210.2858   1.0860671719e+02   2.2736479757e+01    0.1384452   0.08747321  63.40 0.0006987035    1.571    0.363
       152  -9.8609     53.8689    191.9012   1.0770313300e+02   2.7661464334e+01    0.3811781    0.2373599 -58.22   0.00194367    1.612    0.380
       153 -10.4856     58.3971    199.6645   1.0749617180e+02   2.5233147253e+01    0.4701296    0.2350644  42.13  0.002193358    1.841    0.457
       154 -10.7048     56.6648    195.6355   1.0745081150e+02   2.6411010228e+01     0.450308    0.3429595  22.64  0.002495093    1.544    0.352
       155  -8.0944    192.6309    196.7340   7.5677643026e+01   3.9370876783e+00     0.182256    0.1259335 -49.18 0.0004365165    1.608    0.378
       156  -8.0710    190.7783    190.7546   7.4922790430e+01   5.3564767842e+00    0.2101659     0.108459 -52.97 0.0006149778    2.411    0.585
       157  -7.7400    107.6683    151.6615   8.6830312937e+01   2.9262210501e+01    0.1599284    0.1213304 -16.41 0.0007051878    1.741    0.426
       158  -9.0393    177.3221    149.0489   6.9159095614e+01   1.6122406968e+01    0.2443812    0.2120889  47.72 0.0002958386    1.212    0.175
       159  -7.5327    133.5324    147.5300   7.9080931090e+01   2.5291366852e+01    0.1533364    0.1509982 -12.71 0.0008088798    1.027    0.026
       160  -9.5655     67.6742    145.6920   9.7120221431e+01   3.7307498033e+01    0.2906331    0.2737641  15.63  0.001050185    1.168    0.144
       161  -8.7188     65.4948    143.4599   9.7362016562e+01   3.8180485879e+01    0.2705409    0.2238675 -74.71 0.0007202327    1.190    0.160
       162  -7.2999     34.2978    144.6941   1.0688830298e+02   4.1658653883e+01    0.1386139   0.09667885  70.22 0.0007004049    1.589    0.371
       163  -8.2281    243.6704    143.3316   5.5932372489e+01   4.9897847763e+00    0.1289785   0.09577869 -65.04 0.0007051855    1.718    0.418
       164  -8.2926     75.8675    134.1340   9.2401739887e+01   3.8989975958e+01    0.2195631    0.1953764  77.77  0.000423335    1.207    0.172
       165  -7.7783      5.9884    123.4921   1.1263354337e+02   4.9294561304e+01     0.175589   0.08466877  48.87 0.0008099491    2.490    0.598
