#   1 NUMBER                 Running object number                                     
#   2 MAG_AUTO               Kron-like elliptical aperture magnitude                    [mag]
#   3 X_IMAGE                Object position along x                                    [pixel]
#   4 Y_IMAGE                Object position along y                                    [pixel]
#   5 X_WORLD                Barycenter position along world x axis                     [deg]
#   6 Y_WORLD                Barycenter position along world y axis                     [deg]
#   7 A_WORLD                Profile RMS along major axis (world units)                 [deg]
#   8 B_WORLD                Profile RMS along minor axis (world units)                 [deg]
#   9 THETA_WORLD            Position angle (CCW/world-x)                               [deg]
#  10 FWHM_WORLD             FWHM assuming a gaussian core                              [deg]
#  11 ELONGATION             A_IMAGE/B_IMAGE                                           
#  12 ELLIPTICITY            1 - B_IMAGE/A_IMAGE                                       
         1 -15.3861     68.7509    144.6171   9.1906507024e+01   3.7361666499e+01     4.840025     2.758897  84.08  0.006081752    3.556    0.719
         2 -14.0672    208.5541     44.0656   3.4506936733e+01   2.8926666122e+01     1.344053     1.091504  35.99  0.007401481    1.802    0.445
         3 -14.1659    222.0858     32.5389   3.0805438097e+01   2.7670879247e+01    0.9493953    0.7496336  45.48  0.006344367    1.825    0.452
         4 -13.2922    247.3023      8.2249   2.4485221971e+01   2.5734661778e+01     0.723301    0.4065787 -46.48  0.004984443    1.510    0.338
         5 -10.3649      2.3196      2.4877   7.7386770698e+01   7.4351553291e+01    0.1827069   0.08661091 -36.47  0.001082083    2.000    0.500
         6 -12.0693    137.6830    213.0017   8.5314442774e+01   9.6729574876e+00    0.5440682    0.1946096  29.90  0.001889953    2.889    0.654
         7 -12.0229    139.3544    249.7181   9.0535373375e+01   2.0932655950e+00    0.4845645     0.248299  31.16   0.00235955    1.704    0.413
         8 -11.8190    129.1197    249.8762   9.2829633552e+01   3.4925366096e+00    0.3504933    0.2699562  64.62  0.001986531    1.720    0.419
         9 -11.9829    125.1872    244.7461   9.3021516624e+01   5.0262633559e+00    0.3215198    0.2218177 -68.26  0.001705484    1.910    0.476
        10 -15.2600     34.3773    194.6151   1.0904191426e+02   2.8432802254e+01     3.360443     1.555458  68.17   0.01304706    2.892    0.654
        11 -14.7769     44.2172    185.4778   1.0544957981e+02   2.9689656733e+01     2.695387     1.381153  56.72   0.01139959    2.246    0.555
        12 -15.8270      9.1024    207.4624   1.1626686152e+02   2.7691740720e+01     2.475939      1.19503 -78.32  0.008966941    1.838    0.456
        13 -17.4829     11.3693    241.2732   1.1786874053e+02   1.9857616037e+01     8.582887     7.740651  72.11   0.02376143    1.172    0.147
        14 -10.4535     86.9604    205.7096   9.6821381850e+01   1.9085553632e+01    0.2569294    0.2068505 -76.73 0.0003934033    1.324    0.245
        15 -11.8050    192.9911    194.7554   6.9551483961e+01   4.7162680826e+00        1.001    0.4989672 -62.57  0.002861241    6.035    0.834
        16 -10.3652    157.9192    192.6561   7.6871886547e+01   1.0792035593e+01    0.2614453    0.2071434 -51.47 0.0004983834    1.345    0.257
        17 -14.4365     54.8842    233.6206   1.0788601282e+02   1.6835189107e+01     1.043026    0.6998612  34.03 0.0006411278    1.408    0.290
        18  -9.8324    145.3856    183.2278   7.8053422653e+01   1.5011068408e+01    0.2080767    0.1441843 -58.88 0.0005729717    1.631    0.387
        19 -10.1050     99.3941    180.9051   8.9599026154e+01   2.3314949967e+01    0.2766528    0.2220053  20.37 0.0006437608    1.317    0.241
        20 -12.6061    240.5089    170.0561   5.6023868742e+01   2.2623421520e+00    0.3555424    0.2898675  16.78   0.00154797    1.393    0.282
        21 -13.7951     75.8556    157.5301   9.2150137977e+01   3.2950245778e+01     2.152341     1.170988  62.80 0.0005366588    3.004    0.667
        22 -13.5162     62.9333    153.3647   9.5338373061e+01   3.5847590153e+01    0.5497293    0.4629417 -21.44  0.001231874    1.315    0.240
        23 -12.3393    113.8710    245.2108   9.5650150300e+01   6.5325042533e+00    0.4454847    0.3200601 -52.19  0.002514501    1.551    0.355
        24 -12.0416     65.9496    166.4316   9.6637407951e+01   3.1994347091e+01    0.3915586    0.2848666 -33.42  0.001156759    1.557    0.358
        25 -12.6813    117.5381    211.1617   8.9918538717e+01   1.3221560971e+01    0.5854425    0.2579951  32.01  0.002309164    2.169    0.539
        26  -9.8343    180.1391    174.9070   6.8345229824e+01   1.0806825678e+01    0.2171998    0.1976041 -60.77 0.0005803671    1.289    0.224
        27 -10.2527    192.1099    167.2657   6.4261849907e+01   1.0331356473e+01    0.3169996    0.2208244 -38.79 0.0009498595    1.296    0.229
        28  -9.8950    110.8837    167.4568   8.3928552502e+01   2.4785781879e+01    0.2855329    0.2186896 -75.47 0.0006993446    1.562    0.360
        29 -10.1174     41.0940    164.8086   1.0369816721e+02   3.5422797439e+01    0.2163116    0.1813491  71.24 0.0004391416    1.226    0.184
        30 -12.0569     32.6460    156.7281   1.0511072868e+02   3.8418018753e+01    0.5713552    0.3754873  57.04  0.002164948    1.700    0.412
        31 -12.3794     83.5153    151.5102   8.8686069785e+01   3.3369970473e+01    0.6680629    0.4688427 -21.21  0.002919988    1.801    0.445
        32  -9.5910    125.0602    150.3894   7.6451072710e+01   2.6449894446e+01    0.2898315    0.2080726 -38.36 0.0009574653    1.404    0.288
        33  -9.6702    123.0131    146.6860   7.6179359637e+01   2.7731526370e+01      0.24753    0.2247996  81.91 0.0007515045    1.267    0.211
        34 -11.2137    133.8243    145.2951   7.2963011664e+01   2.6001912823e+01     1.162435    0.3223628 -54.81  0.002759963    5.251    0.810
        35 -10.1824    174.8582    149.1587   6.4012543281e+01   1.7207801535e+01    0.2269548    0.2051754 -68.92 0.0006628437    1.253    0.202
        36  -9.7582     47.6111    146.2200   9.8909853022e+01   3.9630690507e+01    0.2179859    0.1201737 -54.41 0.0006762547    1.624    0.384
        37 -10.8711     29.6049    142.9980   1.0413248822e+02   4.2329754694e+01     0.381458    0.2903869 -11.95  0.001957786    1.556    0.357
        38 -11.0152     98.7131    138.1469   8.1232244899e+01   3.4278786459e+01    0.5907063    0.3844768 -14.29  0.002276456    2.326    0.570
        39 -12.4253     85.7245    137.2934   8.5034734260e+01   3.6689458906e+01    0.3337145    0.2829235 -41.79 0.0004481764    1.140    0.123
        40 -10.1267     18.9889    134.4845   1.0633072420e+02   4.5451188768e+01    0.1928038   0.09446948  47.83 0.0008096211    2.475    0.596
        41 -11.2071    107.2322    130.1923   7.6823729494e+01   3.4704601456e+01    0.5674968     0.387668  15.35  0.002383824    1.860    0.462
        42 -12.0930     60.7381    171.1914   9.8902186626e+01   3.1425957109e+01    0.4690009    0.3149108 -30.47  0.001666091    1.840    0.457
        43 -10.5878     76.7208    123.7845   8.4876762242e+01   4.1548677079e+01    0.8118803    0.4379643  69.43  0.001942133    6.937    0.856
        44  -9.8793     96.7744    124.6125   7.8635675634e+01   3.7974330475e+01    0.2655854    0.2245636  -9.96 0.0007199313    1.297    0.229
        45 -10.5634    135.8542    129.9719   6.8811341795e+01   2.9165884765e+01    0.3906097    0.1069429 -46.96  0.001090916    3.548    0.718
        46  -9.5448    162.8282    120.0800   5.9906332796e+01   2.5762459100e+01    0.2323352    0.1997551 -72.11 0.0008690121    1.291    0.225
        47  -9.6495    135.0000    119.9787   6.6552246336e+01   3.1592734961e+01    0.2602789    0.0872388 -45.87  0.000798361    2.914    0.657
        48 -10.5588    231.3681    113.9114   4.6295521975e+01   1.3623379522e+01    0.2661647    0.2033339 -45.95 0.0008334239    1.090    0.083
        49  -9.8005    158.4365    114.4434   5.9500010878e+01   2.7853029424e+01    0.2823513    0.2049263 -77.77 0.0006170569    1.912    0.477
        50 -10.0141    106.1366    118.1061   7.4145866400e+01   3.7799308681e+01    0.2252961        0.217  -8.31 0.0003726669    1.021    0.021
        51  -9.3938     76.0841    111.4836   8.2101183219e+01   4.4678752469e+01    0.2176637    0.1494991  32.17 0.0004576637    1.498    0.332
        52  -9.8668    205.5099    110.2217   4.9444507227e+01   1.9035056703e+01    0.2305728    0.1932078  57.13 0.0006419736    1.331    0.249
        53 -10.0954     32.2968    109.0878   9.7357040063e+01   5.0848763721e+01    0.2030862    0.1639343 -54.84 0.0005036738    1.109    0.098
        54 -11.6427     52.9842     93.2744   8.5744646145e+01   5.2349983752e+01    0.7113743    0.2050104 -56.87  0.002189658    3.737    0.732
        55  -9.3660    161.4824     84.4913   5.1238884043e+01   3.2958343627e+01    0.1419923     0.137127 -76.83 0.0002617423    1.021    0.020
        56  -9.3708     37.8031     63.8337   8.3411692942e+01   6.0577829320e+01    0.1631184    0.1558225  20.36 0.0004437367    1.297    0.229
        57 -11.2240     13.4288     59.9892   9.3564485818e+01   6.3684456161e+01    0.2419677    0.2078482 -40.35 0.0004179107    1.169    0.144
        58 -12.7832    199.1883     50.3838   3.6963632746e+01   3.0029180280e+01    0.4957578    0.3767013  70.97  0.001005582    1.291    0.225
        59 -11.4365    120.0580    244.9877   9.4216106122e+01   5.7048556833e+00    0.2059595     0.185138  24.81 0.0005754359    1.021    0.021
        60 -11.3185    124.0632    202.3785   8.6857032117e+01   1.4189701741e+01    0.3006879    0.2096739 -57.68 0.0002225826    1.541    0.351
        61  -8.9662     24.2962     57.6793   8.7655560862e+01   6.3237657604e+01    0.1130575    0.1030719  63.25 0.0003263314    1.616    0.381
        62  -9.4606      6.5030     50.5599   9.4251884413e+01   6.6066680919e+01    0.1235428   0.09876765 -27.07 9.635153e-05    1.035    0.034
        63  -9.7564    198.0940     23.5218   3.1174865559e+01   3.3635162628e+01    0.1783565     0.141559 -53.61 0.0006212801    1.222    0.182
        64 -11.2060    133.0518    218.4946   8.7317551997e+01   9.2170525156e+00    0.2231652    0.1321254  30.86   0.00103245    1.589    0.371
        65  -9.3910    189.5121     14.9790   3.0143277874e+01   3.6391468314e+01    0.1621429    0.1095056 -40.59 0.0005549607    1.542    0.351
