#   1 NUMBER                 Running object number                                     
#   2 MAG_AUTO               Kron-like elliptical aperture magnitude                    [mag]
#   3 X_IMAGE                Object position along x                                    [pixel]
#   4 Y_IMAGE                Object position along y                                    [pixel]
#   5 X_WORLD                Barycenter position along world x axis                     [deg]
#   6 Y_WORLD                Barycenter position along world y axis                     [deg]
#   7 A_WORLD                Profile RMS along major axis (world units)                 [deg]
#   8 B_WORLD                Profile RMS along minor axis (world units)                 [deg]
#   9 THETA_WORLD            Position angle (CCW/world-x)                               [deg]
#  10 FWHM_WORLD             FWHM assuming a gaussian core                              [deg]
#  11 ELONGATION             A_IMAGE/B_IMAGE                                           
#  12 ELLIPTICITY            1 - B_IMAGE/A_IMAGE                                       
         1 -13.9199    213.5798      8.2677   4.0033413003e+01   3.0328395950e+01     2.370139     1.206835  47.75   0.01078722    2.374    0.579
         2 -12.8603    194.2189     33.3875   4.8991691971e+01   3.2280111993e+01    0.7169059    0.6121189  62.71  0.001653366    1.157    0.135
         3 -13.0880    174.3799     53.1578   5.7983899863e+01   3.4646990786e+01     1.988196     1.185065  32.58  0.005800187    2.242    0.554
         4 -13.3654    189.3991     39.2946   5.1373284434e+01   3.2744332827e+01     1.061154    0.9825093  69.45  0.003559787    1.066    0.062
         5  -8.8711     56.6810    224.5905   1.2100954361e+02   2.1379291309e+01    0.1168113   0.08233771  71.69 0.0004444813    1.139    0.122
         6 -12.7441    247.3960    243.8802   8.7926471659e+01  -1.0902207488e+01    0.9463872    0.5950567 -18.90  0.006317369    1.581    0.367
         7 -19.4906     23.5025    147.9587   1.2111172127e+02   4.1577741945e+01     19.11406     4.681138 -75.09   0.06676185    3.844    0.740
         8 -11.3513     67.3781    206.2952   1.1731524150e+02   2.3589277766e+01    0.2139497    0.1873728  71.58 0.0003048583    1.149    0.130
         9  -7.5667     72.6473    203.2478   1.1592914243e+02   2.3490673040e+01     0.342591    0.1902978  58.44  0.001828402    1.645    0.392
        10 -10.8351    193.1774    195.5755   8.9510334772e+01   4.2850778335e+00    0.9683747    0.4884941 -61.04  0.002957255    5.943    0.832
        11 -10.9018     58.4522    202.5817   1.1876461735e+02   2.5534910218e+01    0.3286639    0.2136954 -42.79  0.001202794    2.445    0.591
        12 -11.6834     60.2634    196.5919   1.1781211341e+02   2.6555479798e+01    0.3430837    0.2364558 -46.22  0.001201822    2.027    0.507
        13  -9.6101     75.1715    249.1844   1.1962532939e+02   1.4502419884e+01    0.2919338   0.08652543 -58.09  0.001325449    4.012    0.751
        14 -11.1766     71.8928    245.5454   1.1991426982e+02   1.5568104784e+01    0.3078025     0.169664 -75.53  0.001903194    1.947    0.486
        15  -9.6883    204.5227    199.4789   8.8009955274e+01   1.6135286814e+00      0.13549    0.1148352  16.88 0.0001107925    1.033    0.032
        16 -10.9065    150.4969    196.1891   9.8418293268e+01   1.2078057085e+01     0.375597     0.231132 -63.14  0.001773914    2.127    0.530
        17  -9.1222     82.1064    195.0065   1.1301424702e+02   2.3856934464e+01    0.2003749    0.1683846  73.99  0.001261199    1.017    0.017
        18  99.0000     63.1950    221.3110   1.1951676344e+02   2.1164205287e+01     0.371946    0.1607221  66.31  0.001724294    2.631    0.620
        19 -10.8338     96.4307    189.7891   1.0922525114e+02   2.2770554107e+01    0.3620131    0.3219132  21.63   0.00121837    1.426    0.299
        20  -9.6179    156.6807    189.9655   9.6034829461e+01   1.2101601229e+01    0.1806713    0.1802844 -85.19 0.0003440996    1.106    0.095
        21 -11.3833    149.7920    187.9574   9.7167723939e+01   1.3781691987e+01    0.3786128    0.3017232  67.05  0.002043677    1.398    0.285
        22  -9.2875    238.3178    185.3360   7.9028141472e+01  -2.1392582842e+00    0.1387733   0.09041152   4.60 0.0004122438    1.700    0.412
        23 -10.8195    151.1390    180.1581   9.5479189104e+01   1.5058365521e+01    0.4380654    0.2846291 -75.99  0.001872096    2.466    0.594
        24 -11.1781    145.1759    180.8888   9.6931707377e+01   1.6051877826e+01    0.3613063    0.3055522  10.29  0.001065052    1.409    0.290
        25 -11.8793    141.8637    174.8029   9.6569080852e+01   1.7926563239e+01    0.7537036     0.479745  68.54  0.003063787    2.198    0.545
        26 -10.8263     99.3260    180.7863   1.0730012278e+02   2.4248239685e+01    0.2741033    0.2589832  24.67 0.0006277351    1.289    0.224
        27  -9.7830    189.1638    178.4720   8.7043994822e+01   7.9705869734e+00     0.388771    0.2961066  67.70  0.001128362    1.799    0.444
        28  -9.8593    187.8567    173.4308   8.6299195654e+01   9.1317267411e+00    0.4594646    0.2687043 -59.28  0.001870376    2.655    0.623
        29  -9.2462     43.7650    220.9629   1.2312005008e+02   2.3669061147e+01    0.1891263    0.1695147  86.50  0.001445056    1.343    0.256
        30  -8.5919     80.9183    220.3926   1.1602066483e+02   1.8904011586e+01    0.1536369     0.107142  34.14 0.0003349079    1.618    0.382
        31  -9.2650     50.3004    216.3934   1.2155549605e+02   2.3769419737e+01    0.3298481     0.241046  -2.26  0.001792528    3.229    0.690
        32 -11.7176     55.0521    211.7272   1.2025984008e+02   2.4103538937e+01    0.3593999    0.1799345  62.85  0.001608031    1.844    0.458
        33  -9.6567    240.4652    169.4581   7.5424486909e+01  -1.4659936593e-01    0.1357101    0.1153647  -2.05 6.927296e-05    1.015    0.015
        34 -10.5849     39.1008    212.4821   1.2337222962e+02   2.5881801214e+01    0.1570818    0.1230149  79.95 0.0003060828    1.086    0.079
        35 -11.8213     96.8662    151.5168   1.0311860609e+02   3.1313613767e+01    0.5929329    0.4660006 -28.12  0.003024593    1.686    0.407
        36 -10.9068    133.9311    145.7063   9.2644224710e+01   2.5775776877e+01     1.267845    0.3168052 -54.67   0.00295837    5.985    0.833
        37  -9.5859    113.4518    151.4149   9.8910811015e+01   2.8425934660e+01    0.3523144    0.2209845  79.79  0.001309188    2.520    0.603
        38  -9.5567    174.3403    148.8612   8.3918397370e+01   1.6618030019e+01    0.3100196    0.2703559  84.29 0.0008673381    1.391    0.281
        39 -10.0708    107.0831    145.5690   9.9381837360e+01   3.0936784751e+01    0.2756028    0.2018588 -77.94 0.0005968144    1.530    0.346
        40 -10.9598    108.1660    138.2637   9.7615774363e+01   3.2453372432e+01    0.5222997    0.3288953 -40.81  0.002107228    1.777    0.437
        41  -9.5109    187.4394    152.2607   8.1868876592e+01   1.3166625891e+01    0.3237989    0.2159038 -75.94  0.001227312    2.942    0.660
        42  -9.8462    143.4220    144.7601   9.0125843212e+01   2.4041617175e+01    0.2950405    0.1490534 -52.34  0.001003399    2.103    0.525
        43  -8.9735    112.6378    142.2774   9.7286443233e+01   3.0691840517e+01    0.1553558    0.1128741  73.33 0.0007009675    1.668    0.400
        44 -11.7491     96.4336    137.4183   1.0055116472e+02   3.4722512612e+01    0.2908401    0.2756408 -84.67   0.00042255    1.026    0.025
        45 -10.8360    105.9546    130.9347   9.6636934402e+01   3.4582393131e+01    0.4474937    0.3416515 -56.78  0.001547506    1.267    0.211
        46 -10.1234    135.6889    129.3041   8.8478670568e+01   2.9090223450e+01    0.4272828    0.1416713 -48.76  0.001319141    3.058    0.673
        47 -10.1053    115.1766    128.9758   9.3728446744e+01   3.3311668636e+01    0.3245214     0.274976 -13.47 0.0006699866    1.462    0.316
        48  -9.3679    160.8723    128.1373   8.2074247918e+01   2.3845804558e+01    0.2534334     0.222767 -86.06  0.001250378    1.315    0.240
        49 -10.5535    102.9192    124.7244   9.6082807214e+01   3.6600363188e+01    0.3103025    0.2633452  -1.62 0.0007563278    1.492    0.330
        50 -10.0041    120.2093    123.0995   9.1007588852e+01   3.3683799696e+01    0.3924719    0.2357663 -30.14  0.001523676    2.270    0.559
        51  -9.5142    110.3393    118.1219   9.2482823019e+01   3.6768766526e+01     0.257633    0.2141223  54.53 0.0003278267    1.257    0.205
        52  -9.9987    231.1977    113.7000   6.4453843662e+01   1.0768322078e+01    0.2693861    0.2640836  18.81 0.0007570802    1.100    0.091
        53  -9.4185    167.4909    112.4631   7.6540242893e+01   2.5578739215e+01    0.3571052    0.2457028 -82.75  0.001365558    2.412    0.585
        54 -10.9610    119.2805    110.8561   8.8190954939e+01   3.6670148868e+01    0.5071585    0.3825798  80.70  0.001706412    1.776    0.437
        55  -9.5860    205.3512    110.2328   6.8140711070e+01   1.7126136255e+01    0.3149348    0.2126385  45.58 0.0007622096    1.540    0.351
        56  -9.8135    134.5589    105.3596   8.2632361903e+01   3.4639227161e+01    0.4811701    0.1518121 -45.59  0.001435676    3.142    0.682
        57  -9.8541    184.4823    212.0108   9.4119013797e+01   3.1948627192e+00    0.1843146    0.1304456 -38.16  0.001036501    1.603    0.376
        58  -8.7191    182.7289     82.9857   6.5167055843e+01   2.7545921159e+01    0.2045713    0.1354758 -35.63 0.0007266437    1.492    0.330
        59  -9.0661     70.1682     72.3053   9.2446134665e+01   5.4026549894e+01    0.1785506     0.172445  11.75 0.0004123422    1.140    0.123
        60  -5.6396     43.8495    211.5936   1.2240596840e+02   2.5503761314e+01    0.2528015    0.1280635 -81.73  0.001158143    1.844    0.458
        61  -9.5004    157.3359    233.6754   1.0270535951e+02   4.4483335163e+00    0.1257403   0.08822691  63.55 0.0007051199    1.716    0.417
        62  -9.3942    167.7622    231.6246   1.0041944336e+02   3.0244163227e+00    0.2111456    0.1799354   7.06  0.001049309    1.298    0.230
