#   1 NUMBER                 Running object number                                     
#   2 MAG_AUTO               Kron-like elliptical aperture magnitude                    [mag]
#   3 X_IMAGE                Object position along x                                    [pixel]
#   4 Y_IMAGE                Object position along y                                    [pixel]
#   5 X_WORLD                Barycenter position along world x axis                     [deg]
#   6 Y_WORLD                Barycenter position along world y axis                     [deg]
#   7 A_WORLD                Profile RMS along major axis (world units)                 [deg]
#   8 B_WORLD                Profile RMS along minor axis (world units)                 [deg]
#   9 THETA_WORLD            Position angle (CCW/world-x)                               [deg]
#  10 FWHM_WORLD             FWHM assuming a gaussian core                              [deg]
#  11 ELONGATION             A_IMAGE/B_IMAGE                                           
#  12 ELLIPTICITY            1 - B_IMAGE/A_IMAGE                                       
         1 -13.0919    123.3150     13.1044   7.5261018342e+01   5.3169046791e+01     2.738111     1.643757  72.75   0.01203813    1.845    0.458
         2 -14.3579    169.8965     64.9898   8.3440741762e+01   3.4333822758e+01     7.528314      2.54572 -32.01   0.02114685    3.161    0.684
         3 -14.7086    247.6304     23.9655   6.1747943271e+01   2.0696805464e+01     1.584303     1.244621  35.31  0.002023027    1.759    0.431
         4 -16.2122    243.8500     13.5304   5.9651849433e+01   2.2777992026e+01     3.900631     1.010306  62.23   0.01461353    3.537    0.717
         5 -13.8150    145.1248     39.6896   8.0339477335e+01   4.4558758243e+01     5.323442     1.822947  54.27  0.001983529    2.607    0.616
         6 -15.7043    205.4655     58.2548   7.5341884862e+01   2.6272212307e+01     5.195791     3.772147  -0.28    0.0240072    1.931    0.482
         7 -14.4544    249.2001      2.7275   5.6824642704e+01   2.2747817085e+01     1.058383    0.4681863  75.46  0.002929244    2.154    0.536
         8 -10.9548    151.0556      7.8739   6.8336574940e+01   4.6714137643e+01    0.5156541    0.2057212 -25.24  0.001168667    2.650    0.623
         9 -10.9708      8.4564      8.6875   1.1652795745e+02   7.3167783524e+01    0.2650153    0.1666431  16.67  0.001570625    1.714    0.417
        10  -9.3685     52.3177      7.3340   9.3947546840e+01   6.8256400792e+01    0.2706397    0.1630444 -30.94  0.001063311    1.605    0.377
        11  -9.0636    215.7253      4.6800   5.9850214023e+01   3.0436560290e+01    0.3249945     0.213781   8.20  0.001326611    2.440    0.590
        12 -10.3693    215.8928      1.3740   5.9003563859e+01   3.0726457975e+01    0.1986095    0.1302608  83.92 0.0003280432    1.379    0.275
        13  -9.2712    199.8651      5.7133   6.1600514558e+01   3.4305433317e+01    0.2651132    0.1583186 -27.63 0.0009843939    1.799    0.444
        14 -14.5843    241.1834    124.0284   8.6347874126e+01   7.4346306730e+00     13.00176     2.028128 -34.99   0.03202105    5.917    0.831
        15  -8.9044    172.4725      3.4778   6.3978897285e+01   4.1571493772e+01    0.4181664    0.1602633 -53.01  0.001497578    3.332    0.700
        16  -8.9646    183.8644      3.1707   6.2567527772e+01   3.8651033295e+01    0.2574114    0.1625248 -30.11  0.001041626    1.688    0.407
        17  -9.2246    208.8621      1.9847   5.9766048349e+01   3.2406880960e+01     0.416778    0.1826099  50.91  0.001770595    2.577    0.612
        18 -10.4567    210.3618    136.9050   9.4679593864e+01   1.1726792228e+01    0.3787372    0.3155738  71.67  0.001865459    1.468    0.319
        19  -8.9148     53.7219    250.6539   1.4338589936e+02   1.8146927901e+01    0.1636692   0.08216298  42.22 0.0003675639    1.727    0.421
        20  -8.5205    154.0163    158.3547   1.1118179395e+02   1.9668524968e+01    0.2119392    0.1749215  48.96 0.0003817044    1.151    0.131
        21  -8.9649     78.6719    247.6779   1.3891789838e+02   1.5375766553e+01   0.09509626   0.08758762  21.59 0.0007048649    1.691    0.409
        22 -10.0189    181.7492    135.3792   1.0002036121e+02   1.8296216148e+01    0.2844991    0.1929241  38.69  0.001031996    1.511    0.338
        23  -9.7560    199.8842    133.7631   9.5953464711e+01   1.4570726016e+01    0.2975764    0.1954882 -62.52   0.00125158    2.148    0.534
        24  -9.4669    119.5326    132.1408   1.1389034018e+02   3.2352297518e+01    0.3241917    0.2501231  66.88 0.0006631979    1.411    0.291
        25 -10.1850    213.7480    131.3746   9.2761333173e+01   1.1968142132e+01    0.2912307     0.243705 -51.33  0.001537849    1.290    0.225
        26 -10.7961    135.4583    127.0526   1.0868408568e+02   3.0239296696e+01    0.7040799    0.2904018 -49.00  0.002488218    2.456    0.593
        27 -10.3053    135.3034    119.7397   1.0694811451e+02   3.1877529181e+01    0.3315351    0.2838673 -54.61  0.001070441    1.168    0.144
        28 -10.3614    134.6632    112.8416   1.0536469803e+02   3.3520978844e+01    0.7057387    0.2085327 -45.74  0.002089611    3.369    0.703
        29  -9.3555    135.8501    106.6937   1.0344585874e+02   3.4586409276e+01    0.3824529    0.2560633  42.95  0.001243575    1.525    0.344
        30 -10.8321    140.9584    122.2498   1.0615894210e+02   3.0105837682e+01    0.5395042    0.3677315 -78.54  0.001826767    2.169    0.539
        31 -10.3636    160.7578    128.5041   1.0298570172e+02   2.4386774675e+01    0.3928677    0.3136243  87.49  0.001845036    1.568    0.362
        32 -11.0817    206.5086    123.5602   9.2241988819e+01   1.4947276273e+01    0.4885756    0.3983637  -1.16  0.002464504    1.407    0.289
        33 -10.2146    191.5461    125.4936   9.5625195462e+01   1.7976745859e+01    0.3070974    0.2349165  84.02 0.0009305308    1.774    0.436
        34 -11.4686    184.8006    124.1758   9.6680722917e+01   1.9770824716e+01    0.5925116    0.4991942  63.37  0.002986985    1.271    0.213
        35 -10.0742    185.3909    119.1716   9.5313807610e+01   2.0595171348e+01    0.3790607    0.2653895 -54.95  0.001701284    1.595    0.373
        36 -12.5497     45.7847    173.2222   1.3871436026e+02   3.4315950247e+01    0.6113961    0.4674842 -83.59  0.001804197    1.132    0.117
        37  -8.7385     31.8072    228.7082   1.4577698540e+02   2.4627311728e+01    0.1663457    0.1214761 -84.50 0.0005664187    1.338    0.252
        38 -13.2586     15.1805    194.9635   1.4679144091e+02   3.2929909109e+01    0.8837266     0.621679  88.63  0.004346757    1.135    0.119
        39  -9.2246    221.1755    119.8700   8.8699235798e+01   1.2343614174e+01    0.2167234    0.1930315 -59.06 0.0004099208    1.228    0.186
        40 -11.8323    213.7517    115.9481   8.9056998293e+01   1.4669598604e+01    0.7865813    0.5663915 -75.48  0.002272496    2.020    0.505
        41 -11.7869    205.5056    110.6224   8.9230905217e+01   1.7496276457e+01     0.787386    0.5772703 -49.38  0.003779643    1.405    0.288
        42 -10.7595    200.0817    120.9817   9.2835259237e+01   1.6868423161e+01    0.4339655    0.3050024 -56.50  0.001982201    1.653    0.395
        43  -8.6707     51.3249    206.2859   1.4060349868e+02   2.6645907362e+01   0.09923016   0.09222435 -50.16 0.0002924596    1.604    0.376
        44  -9.7976    176.3083    201.4893   1.1448272948e+02   7.2889259991e+00    0.2229991    0.1996152  38.86  0.000280244    1.046    0.044
        45  -8.3804    221.9493    104.5619   8.4832248005e+01   1.4778163957e+01    0.2391771    0.1897825 -59.26  0.000609748    1.383    0.277
        46  -9.5600    139.9366    103.5170   1.0155319639e+02   3.4345206519e+01    0.4144739    0.2587645  58.57   0.00171869    1.785    0.440
        47  -9.9597    147.0147     99.4181   9.8672960932e+01   3.3568866611e+01    0.3417152    0.3154121  47.88 0.0007329269    1.088    0.081
        48  -9.2014    121.9542    100.9504   1.0554223087e+02   3.8836467871e+01    0.2511917    0.1916724 -85.25 0.0009583102    1.718    0.418
        49  -9.9949    228.0124     97.0662   8.1995065536e+01   1.4656809155e+01    0.5822492    0.3950506  89.43 0.0008320419    2.165    0.538
        50  -8.8791    133.6575     96.2050   1.0111973774e+02   3.7295910720e+01    0.2648028    0.2334981 -87.40 0.0007238788    1.263    0.208
        51  -8.9511    204.2758     91.4859   8.4513886785e+01   2.1162152286e+01    0.3467539    0.2365307 -61.33  0.001370024    1.741    0.426
        52 -10.0986    140.3899     88.7413   9.7250550830e+01   3.7279676435e+01    0.3411627    0.3041495 -59.47 0.0009941572    1.159    0.137
        53  -9.2616    214.1229     88.3155   8.2008248295e+01   1.9335451502e+01    0.5029562    0.2840433 -69.25  0.001480459    3.154    0.683
        54 -10.8256      3.9105     82.1553   1.3878945834e+02   5.8789149327e+01    0.4771044    0.2168373  89.32  0.002203112    2.818    0.645
        55  -8.4735    198.8250    153.1157   1.0056222967e+02   1.1288625742e+01    0.2018878    0.1652885  16.53 0.0004504152    1.298    0.230
        56  -9.4847    192.0514    151.6542   1.0159688341e+02   1.2977546077e+01    0.3385041    0.2051375 -55.24  0.001348577    2.100    0.524
        57  -9.0518    145.3473     71.5332   9.0798109653e+01   3.9379418822e+01    0.5731891    0.2267553 -51.05  0.001727352    3.511    0.715
        58  -8.9860    151.6023     71.4774   8.9326905480e+01   3.7848704260e+01    0.3738826    0.2162562 -62.73  0.001027114    2.633    0.620
        59  -8.0071     76.0142     63.9599   1.0845382607e+02   5.5290277139e+01    0.1710322    0.1453567 -37.63 0.0006383926    1.081    0.075
        60  -9.4646    221.8071     79.0298   7.8398214090e+01   1.9025331924e+01    0.6206817    0.1562879 -39.47  0.001900259    3.413    0.707
        61  -9.0964    244.6522     60.4769   7.0705458556e+01   1.6537057321e+01      0.25358    0.1962331 -72.02 0.0006913092    1.327    0.246
        62  -9.3579    191.6635    192.4700   1.0987191032e+02   5.9314124165e+00     0.523524    0.3017915 -68.86  0.001691232    5.544    0.820
        63  -8.3908    250.6010     56.2487   6.9019130393e+01   1.5807772600e+01    0.1848146    0.1242865 -23.50 0.0009409068    1.624    0.384
        64  -9.3143    244.1061     55.9798   6.9683758653e+01   1.7300615496e+01    0.1923313    0.1825681 -51.64 0.0002944211    1.107    0.096
        65  -8.7119    129.9130     56.0846   8.9502333301e+01   4.5796628305e+01    0.2163591     0.197087 -74.87            0    1.231    0.188
        66  -9.5223    133.6166    145.7267   1.1331556333e+02   2.6511926294e+01    0.7517061    0.1564282 -52.83  0.001758111    6.094    0.836
        67  -9.2369    122.3206    146.9430   1.1632146945e+02   2.8471261354e+01    0.2446602    0.2057086  42.16 0.0002678704    1.208    0.172
        68  -8.7527    192.0249    143.9871   9.9888121157e+01   1.4401160823e+01    0.2199028    0.2161422 -24.36 0.0003894244    1.056    0.053
        69  -9.3243    202.4774     35.2217   6.9402709613e+01   3.0262249189e+01    0.2913743    0.1891215 -63.09 0.0002349471    1.641    0.391
        70  -9.4915    112.9163     29.3588   8.4057188217e+01   5.3753425105e+01    0.2022732    0.1729738  41.63 0.0007307339    1.098    0.089
        71  -9.6251    221.6017    191.2677   1.0399793800e+02   6.6289900093e-01    0.3591591    0.2023786  54.95   0.00154661    2.396    0.583
        72 -10.7762    215.7758    188.9661   1.0462943184e+02   2.0462513664e+00     0.630882     0.286723  53.85  0.001801615    3.080    0.675
        73  -8.2978    124.7899    140.6232   1.1440051417e+02   2.9404525843e+01    0.2127823    0.1342672  53.87 0.0004740353    1.630    0.387
        74 -11.4750     41.1830    189.0463   1.4118381992e+02   3.1421068495e+01    0.3671627    0.2900171 -68.08  0.002502693    1.399    0.285
        75  -7.8700    212.0393     10.4897   6.1674941231e+01   3.0747131419e+01    0.1736372    0.1210507  84.53 0.0003206163    1.322    0.244
        76  -9.8795    222.2380    177.8813   1.0128680246e+02   2.5588257905e+00    0.3454592    0.2702911 -84.51  0.001653416    2.342    0.573
        77 -12.2780     69.3504    149.6858   1.3015359735e+02   3.6685604825e+01     2.426226    0.8643823 -59.24   0.00971929    2.520    0.603
        78 -12.3429     52.2132    168.0936   1.3670873658e+02   3.4691294728e+01    0.9184367    0.5673264 -82.37  0.002949101    1.472    0.321
        79 -12.0185     57.3461    163.6250   1.3498788946e+02   3.5062234624e+01    0.6588232    0.4532857 -86.13  0.002005897    1.318    0.241
        80 -11.8075     32.8303    173.2916   1.4157672166e+02   3.5741710300e+01    0.5548186    0.2942926  56.63  0.003120356    1.723    0.420
        81  -9.5228    219.7771    170.1309   1.0017195483e+02   4.2301426757e+00    0.3718642    0.1967206  58.99  0.001486144    2.945    0.660
        82  -8.7142    214.9738    168.0000   1.0062351754e+02   5.4929592917e+00    0.2481528    0.1828482  70.64  0.000962191    2.076    0.518
        83  -9.9769    187.8074    137.9207   9.9353982383e+01   1.6463386310e+01    0.3450091    0.2389786  38.90 0.0008011521    1.463    0.316
        84  -8.4520    203.6421    160.9167   1.0129910495e+02   8.9249840892e+00    0.1964644    0.1750245 -32.03 0.0005656769    1.156    0.135
