#   1 NUMBER                 Running object number                                     
#   2 MAG_AUTO               Kron-like elliptical aperture magnitude                    [mag]
#   3 X_IMAGE                Object position along x                                    [pixel]
#   4 Y_IMAGE                Object position along y                                    [pixel]
#   5 X_WORLD                Barycenter position along world x axis                     [deg]
#   6 Y_WORLD                Barycenter position along world y axis                     [deg]
#   7 A_WORLD                Profile RMS along major axis (world units)                 [deg]
#   8 B_WORLD                Profile RMS along minor axis (world units)                 [deg]
#   9 THETA_WORLD            Position angle (CCW/world-x)                               [deg]
#  10 FWHM_WORLD             FWHM assuming a gaussian core                              [deg]
#  11 ELONGATION             A_IMAGE/B_IMAGE                                           
#  12 ELLIPTICITY            1 - B_IMAGE/A_IMAGE                                       
         1 -14.3618    239.4870     12.7205   5.5383356593e+01   2.5396719807e+01     2.348693     1.391669 -70.23     0.014163    1.463    0.316
         2  -8.9916    160.6590      9.3168   6.3016504655e+01   4.3491661650e+01    0.1305105   0.08614234 -75.17 0.0007048664    1.709    0.415
         3 -10.9556    216.2052    232.3683   1.0448474964e+02  -7.2737971367e+00    0.6528608    0.4345778  -6.89  0.003518471    1.732    0.423
         4  -9.2958    248.9346    250.5683   1.0156482530e+02  -1.4583550181e+01    0.1652945   0.09915079  29.30 0.0009464204    1.531    0.347
         5 -10.4848    224.5179    249.3320   1.0580566325e+02  -1.1073358709e+01    0.2671664    0.2185636 -30.36   0.00118607    1.350    0.259
         6 -11.0736    225.1172    242.0405   1.0446355050e+02  -1.0101675037e+01    0.4459422    0.2434113 -35.31  0.002406696    1.857    0.462
         7 -11.2010    209.9236    248.3829   1.0841222860e+02  -8.7792195893e+00    0.4316395    0.3312361  -7.90  0.002269272    1.293    0.226
         8 -10.6252    140.3677    248.1578   1.2223779589e+02   2.5402278044e+00    0.3789617    0.2949736  -1.69  0.002135286    1.802    0.445
         9  -9.9853    124.3018    248.8576   1.2558482661e+02   5.0681241893e+00     0.275744    0.1539659 -53.53  0.001411906    2.049    0.512
        10 -11.3142    215.2960    223.4329   1.0307186735e+02  -5.6819073128e+00    0.9364434    0.5424817  -1.29  0.003983273    2.833    0.647
        11 -11.2841    217.1486    183.6408   9.5071476494e+01   1.0705834281e+00     2.054749    0.4842827 -35.21  0.004288328    8.603    0.884
        12 -11.8541    225.0536    176.7868   9.2166568391e+01   9.3501173376e-01     1.740068    0.3875317 -37.59  0.004574458    5.294    0.811
        13 -11.2139    222.1783    190.7505   9.5532794395e+01  -1.1339226911e+00    0.7775421    0.5612509 -24.85  0.003145725    1.371    0.271
        14 -11.2242    231.7804    175.7681   9.0715138717e+01  -6.7544558049e-02     1.486452    0.4023809 -33.67  0.003675141    6.301    0.841
        15 -11.0814    238.6005    166.0970   8.7511424897e+01   5.0906519243e-01    0.8569981    0.3756082 -27.09  0.002965361    3.455    0.711
        16 -12.0905    234.5813    148.1584   8.4453281399e+01   4.5699198161e+00     2.379098    0.6715559 -33.32  0.005494448    6.985    0.857
        17 -13.2193    244.4264    141.6407   8.1435021564e+01   3.9556552585e+00     3.381426      1.02444 -33.75  0.009638301    4.738    0.789
        18 -11.1820    230.3768    235.5371   1.0235526650e+02  -9.9044342048e+00     0.503894    0.4431141  57.22  0.002760932    1.684    0.406
        19 -11.7502    227.8779    222.2998   1.0046012387e+02  -7.4761098283e+00     1.057209    0.5150498 -38.10  0.005128218    2.011    0.503
        20 -11.9949    246.9046    241.1409   1.0031518443e+02  -1.3035938536e+01    0.9121002    0.6935939 -67.17  0.005004729    2.991    0.666
        21 -11.6686    217.3259    209.1806   1.0004484288e+02  -3.5936190751e+00     1.408591    0.3271146 -43.32  0.004409767    4.337    0.769
        22 -12.7541    227.8098    198.8407   9.6055838185e+01  -3.5314648671e+00     2.610312    0.8407386 -32.38  0.008165046    4.301    0.767
        23 -12.5406    247.2513    159.6082   8.4700294789e+01   1.8285663425e-01     1.985302    0.5463606 -36.17  0.006192979    3.937    0.746
        24 -11.5115    235.8276    228.3916   1.0007963959e+02  -9.6222181625e+00    0.4675954    0.3407758 -33.42  0.001677057    1.362    0.266
        25 -11.5537    233.1974    211.5712   9.7480666266e+01  -6.5577294666e+00    0.6169285    0.3397517 -23.97  0.002240208    2.009    0.502
        26 -11.8282    238.2446    219.0042   9.7931167148e+01  -8.5244595984e+00     0.647544    0.3718829 -32.81  0.002191506    1.636    0.389
        27 -12.2267    236.7902    194.5270   9.3551547579e+01  -4.2538942383e+00     1.941449    0.3316201 -39.88  0.005255882    5.585    0.821
        28 -12.0260    248.7268    180.3856   8.8646922267e+01  -3.7368794595e+00     1.230984    0.3040495 -44.44  0.003952998    3.997    0.750
        29 -11.7641    241.3171    178.5949   8.9578262689e+01  -2.2088146183e+00    0.8116227      0.28927 -41.05  0.002609377    2.528    0.604
        30 -12.8679    247.6483    213.7644   9.5264415993e+01  -9.0880694267e+00     1.194734    0.3914526 -41.67   0.00484715    2.960    0.662
        31 -11.3197    250.1228    199.8037   9.2193420285e+01  -7.2217037454e+00    0.4657733    0.1803707 -40.78  0.002015901    2.369    0.578
        32 -11.5031    240.2302    207.6248   9.5445442758e+01  -6.9975483215e+00    0.5898107    0.2778234 -46.62  0.002168049    2.378    0.579
        33 -11.6321    242.8166    200.0238   9.3528516752e+01  -6.1416411606e+00    0.5678414    0.2825181 -30.48  0.001577729    1.987    0.497
        34 -12.2833    245.1166    191.0407   9.1376650765e+01  -4.9894863315e+00    0.8291694    0.5276355 -48.21  0.003419065    1.709    0.415
        35 -11.3825    249.4149    233.6272   9.8552977688e+01  -1.2313913805e+01     0.364999    0.2821165 -28.39  0.001417593    1.280    0.218
        36 -11.9966    247.3069    225.6674   9.7506420889e+01  -1.0858821814e+01    0.5455589    0.4096957 -20.62  0.003116139    1.172    0.147
        37 -11.0870    191.5883    246.6372   1.1169823682e+02  -5.6531218424e+00    0.4702747    0.3561198 -24.08  0.002342857    1.430    0.301
        38 -10.9566    233.1456    245.9675   1.0363973703e+02  -1.1821717917e+01    0.3734975    0.2543609 -19.11  0.001297576    1.409    0.290
        39 -10.6352    176.4571    245.3548   1.1451076146e+02  -2.9850015804e+00    0.4581663    0.3010849 -23.35   0.00228868    1.950    0.487
        40  -9.8413    156.5947    246.9809   1.1877403406e+02   3.9502289985e-02    0.2565584    0.1917394 -23.89 0.0009856491    1.710    0.415
        41  -9.6921    163.3970    245.9769   1.1724448860e+02  -9.2236050753e-01    0.2884674    0.1582611 -50.80  0.001164771    2.133    0.531
        42  -9.7746    132.6114    246.0108   1.2352322959e+02   4.2255132071e+00    0.2612408    0.2010917 -28.15  0.001192119    1.767    0.434
        43 -10.2762    113.1064    245.4448   1.2741754108e+02   7.5397558847e+00    0.3217287    0.1804321 -53.11  0.001645065    2.039    0.509
        44  -9.2262    151.3983    245.7272   1.1964856208e+02   1.1317752715e+00    0.1652011    0.1240386 -36.18 0.0005808062    1.593    0.372
        45  -9.7564     93.3923    245.7960   1.3141713721e+02   1.0589075204e+01    0.1693707    0.1145516 -54.87 0.0009567728    1.729    0.422
        46 -10.4130    104.0559    242.7682   1.2892456461e+02   9.5167071070e+00    0.3127477    0.2017705 -43.12  0.001638186    2.102    0.524
        47 -10.2963    201.6738    241.3656   1.0885063105e+02  -6.4191982779e+00    0.3321241    0.2367903 -30.52  0.001296135    1.474    0.322
        48 -11.0897    204.6754    233.9655   1.0700703110e+02  -5.7071109230e+00    0.4891872      0.43229 -52.03  0.003059468    1.435    0.303
        49 -10.3266    198.8016    226.1371   1.0681074194e+02  -3.4356985671e+00    0.3293546    0.2381419 -36.39   0.00125989    1.436    0.304
        50 -10.1626    169.5136    241.3528   1.1529124607e+02  -1.1453335509e+00    0.3244743    0.2332485 -22.29   0.00156345    1.728    0.421
        51 -10.4157    125.4538    241.0200   1.2431856136e+02   6.3632060125e+00      0.25879    0.2226528 -19.12  0.001550301    1.547    0.353
        52 -10.0294    214.0573    240.4890   1.0629931864e+02  -8.2108299131e+00    0.2338303    0.1791641 -28.70 0.0008871261    1.330    0.248
        53 -10.4035    183.4201    238.5476   1.1201919696e+02  -2.9905637506e+00    0.3846661    0.2661012 -34.15  0.001660657    1.590    0.371
        54  -9.8852    148.5169    239.1468   1.1927513632e+02   2.8163305039e+00    0.2699167     0.221765 -30.53  0.001281846    1.453    0.312
        55  -9.6963    134.8429    239.7267   1.2219668487e+02   5.0331311885e+00     0.219844    0.1845247 -42.15  0.001315681    1.403    0.287
        56  -9.7562    117.5145    240.0533   1.2582904883e+02   7.8685367676e+00    0.1873839    0.1300716 -60.98 0.0008912155    1.593    0.372
        57 -10.5798    159.3529    237.1937   1.1673195101e+02   1.3209549175e+00    0.3597482    0.2901331 -45.29  0.002098158    1.391    0.281
        58 -11.0487    190.8488    233.8488   1.0973988463e+02  -3.4279554374e+00    0.5029146    0.3242249 -43.63  0.002145335    1.699    0.412
        59 -10.4822    177.0238    234.4149   1.1264380375e+02  -1.2008589310e+00    0.4768964    0.2417624 -35.12  0.002140475    2.396    0.583
        60  -9.7068     90.3059    237.3564   1.3108045191e+02   1.2764799047e+01    0.1193564    0.1033018 -23.47  0.000704097    1.721    0.419
        61  -9.7927    139.1401    235.6207   1.2071050272e+02   5.0867949469e+00    0.2520685    0.2005354 -43.79  0.001450817    1.448    0.310
        62 -10.0180    219.7054    239.6713   1.0508044942e+02  -8.9431078861e+00    0.2471017    0.1796173 -40.23 0.0009551313    1.536    0.349
        63  -9.8748    170.6423    233.8023   1.1385710121e+02  -2.1545528103e-03    0.2806825    0.1795437 -39.27  0.001173195    1.745    0.427
        64  -8.9861    165.4365    232.7903   1.1477295787e+02   1.0777392733e+00    0.1757843    0.1270173 -31.59 0.0009366165    1.611    0.379
        65  -9.3034    152.5898    233.2795   1.1753540359e+02   3.2121083586e+00    0.1768778     0.128166 -36.99 0.0009443773    1.613    0.380
        66 -10.1781    145.3327    231.6371   1.1881121807e+02   4.7851435710e+00    0.2834918    0.2244499   3.79  0.001539545    1.641    0.390
        67  -9.5136    133.4354    231.2761   1.2127728184e+02   6.9149915985e+00    0.2454715    0.1288604 -48.18  0.001126839    2.149    0.535
        68  -9.9823    123.3271    231.4804   1.2345047647e+02   8.6020202117e+00    0.2847929    0.2186092   2.77  0.001477345    1.967    0.491
        69  -9.5947     99.4381    231.7782   1.2852539143e+02   1.2484370937e+01    0.1757459    0.1214461 -51.49 0.0009466506    1.681    0.405
        70  -9.3579    158.1314    230.1337   1.1587564708e+02   2.8406266118e+00    0.2082001    0.1802101   3.97 0.0007170068    1.292    0.226
        71 -10.1197    113.5559    229.7084   1.2527850697e+02   1.0606878423e+01    0.2493758    0.1272081 -53.77    0.0011488    2.132    0.531
        72  -9.1728    152.4156    228.7493   1.1686280437e+02   4.1047619243e+00    0.1832843    0.1291931 -37.11 0.0009486241    1.657    0.396
        73  -9.6468    174.2625    227.8699   1.1212732098e+02   4.4734839099e-01    0.2646335    0.1968195  -1.93  0.001385139    1.686    0.407
        74  -9.5305    170.3743    224.3672   1.1234993125e+02   1.7754134421e+00    0.3139271    0.1231635 -40.19  0.001187764    3.002    0.667
        75  -9.0308    138.5821    228.1559   1.1971583896e+02   6.6422194591e+00    0.1833062    0.1283915 -39.61 0.0009412444    1.703    0.413
        76 -10.2360    205.9959    224.5115   1.0508893337e+02  -4.3509457183e+00    0.3602423    0.2253489 -32.46  0.001271117    1.652    0.395
        77  -9.9568    190.5635    225.0235   1.0828083921e+02  -1.8511575722e+00    0.3680693    0.2127462 -31.23  0.001313776    1.982    0.495
        78 -10.7038    193.4197    217.8373   1.0642081328e+02  -1.0588396246e+00    0.4217778    0.2865424 -38.42  0.001610484    1.523    0.343
        79  -9.5744    184.5541    226.7737   1.0981385593e+02  -1.1331585363e+00    0.2357129    0.1828671 -18.34  0.001306731    1.427    0.299
        80 -10.0177    163.1516    226.3790   1.1420775204e+02   2.6691991667e+00     0.283395    0.2108314 -12.03  0.001458542    1.773    0.436
        81  -8.9444    155.3886    224.2407   1.1550556478e+02   4.4522405988e+00    0.1805826    0.1342581 -63.47 0.0008723476    1.597    0.374
        82  -9.4843    129.7033    224.1563   1.2102057150e+02   8.9975609464e+00    0.2582967    0.1818775  12.82  0.001226004    2.098    0.523
        83  -9.9184    180.6627    221.9913   1.0978987767e+02   4.0814907866e-01    0.3101101    0.1800447 -40.38  0.001288888    1.844    0.458
        84 -10.1539    148.1352    221.9005   1.1668275844e+02   6.2038534023e+00    0.3258253    0.2298223 -35.39  0.001659472    1.693    0.409
        85  -8.9043    135.4760    223.5021   1.1967235020e+02   8.1221540034e+00    0.1383544    0.1267961  47.46  2.93566e-05    1.034    0.033
        86  -9.9292    185.8868    220.4234   1.0843142931e+02  -2.1809600254e-01    0.3207509    0.1861311 -40.39  0.001443414    1.821    0.451
        87  -9.4374    174.6468    221.8726   1.1102630015e+02   1.4886171544e+00    0.2110586    0.1670888 -24.27 0.0009692036    1.404    0.288
        88  -9.2547    120.4623    225.4914   1.2321163717e+02   1.0314512036e+01    0.1376634    0.1230397  58.91 0.0001050291    1.005    0.005
        89  -9.2340    140.5877    221.1731   1.1820048679e+02   7.6935784820e+00     0.190706    0.1304413 -40.04 0.0009469428    1.710    0.415
        90 -10.7590    202.2243    217.7254   1.0461706530e+02  -2.5490210194e+00    0.4710106    0.2859994 -39.79  0.002199107    1.685    0.407
        91  -9.2975    204.5802    212.2492   1.0313615795e+02  -1.9798352567e+00    0.2469182    0.1570144 -20.42  0.001029674    1.883    0.469
        92 -10.5406    210.6153    217.3624   1.0288226006e+02  -3.8939920172e+00    0.3670861    0.2399594 -36.28  0.001307228    1.530    0.346
        93  -9.9432    210.2311    211.3658   1.0184639321e+02  -2.7854848852e+00     0.356545    0.2321374  -4.08  0.001431162    2.058    0.514
        94  -9.5981    158.8734    218.2307   1.1375856293e+02   5.0074765613e+00    0.2610796    0.1816284 -18.31  0.001228173    2.035    0.509
        95 -10.2305     56.0015    216.9230   1.3589200064e+02   2.2120540105e+01    0.3922202    0.1570224 -68.95  0.001414105    2.354    0.575
        96 -10.0627    170.8634    215.4318   1.1070401673e+02   3.3910546673e+00    0.3748913    0.1992396 -38.73  0.001374654    2.109    0.526
        97  -9.6149    179.3300    216.0034   1.0901282923e+02   1.7607874091e+00     0.250312    0.1884456   9.83 0.0007968217    1.540    0.350
        98  -9.3859    185.5482    214.6890   1.0747570881e+02   9.0041071501e-01    0.2678875    0.1369305 -44.57 0.0008230187    2.053    0.513
        99  -9.3666    186.6596    209.9022   1.0636898346e+02   1.6028141512e+00    0.2792431    0.2013826 -13.88  0.001003203    1.697    0.411
       100  -9.1758    165.4677    215.0363   1.1178980486e+02   4.4449188841e+00    0.2067768    0.1389968 -44.59  0.001023898    1.587    0.370
       101  -9.4339    143.6635    214.6586   1.1647303197e+02   8.4804134826e+00    0.2219558    0.1743753  -3.41   0.00111976    1.731    0.422
       102  -9.4864    132.4783    214.0107   1.1883946063e+02   1.0627706118e+01    0.1904306    0.1195879 -29.93 0.0008084258    2.416    0.586
       103  -8.5943    101.4289    214.5984   1.2582059226e+02   1.5850854143e+01    0.1340354    0.1251048  64.66 0.0007960571    1.100    0.091
       104  -9.2253    154.4996    213.0167   1.1381833313e+02   6.8471960129e+00    0.2076477    0.1408224 -46.99  0.001021618    1.576    0.365
       105  -9.8966    176.9759    209.6172   1.0835891871e+02   3.4117834888e+00    0.3115986    0.2098348 -42.96  0.001194127    1.552    0.356
       106  -9.4068    200.1772    210.0371   1.0361110835e+02  -8.1881359953e-01    0.2165074    0.1729233  -8.24 0.0007608696    1.318    0.241
       107 -10.0532    192.9162    208.9211   1.0488793689e+02   6.6794156149e-01    0.3246181     0.203419 -38.41  0.001036235    1.636    0.389
       108  -9.7227    161.1181    209.5759   1.1177152789e+02   6.3318131648e+00    0.2881765    0.1870629 -29.21  0.001314928    1.962    0.490
       109  -8.7006    149.6388    210.6818   1.1448549092e+02   8.2169466256e+00    0.1465755    0.1127281   0.01 0.0007042562    1.766    0.434
       110 -10.4280    210.2563    199.9078   9.9656545748e+01  -7.2897257119e-01    0.3763229    0.2872604 -44.51  0.001416692    1.363    0.266
       111  -9.8692    209.2736    193.7529   9.8645815315e+01   5.8602293701e-01    0.3177471    0.2158846 -24.35 0.0008630921    1.587    0.370
       112 -10.1409    206.2869    206.8492   1.0177985955e+02  -1.3026065891e+00    0.3372046    0.2329665 -16.70  0.001350297    1.664    0.399
       113  -8.8344    205.9727    202.0714   1.0092961172e+02  -3.7429350882e-01    0.2521158    0.1645733 -29.04 0.0006265632    1.601    0.376
       114  -9.2333    183.0175    206.4122   1.0648664329e+02   2.9318621971e+00    0.2473993    0.1797562 -15.46  0.001215541    1.687    0.407
       115  -9.5303    171.3887    206.7800   1.0903791349e+02   4.9976965178e+00    0.1997824    0.1317313 -34.41 0.0009412935    1.691    0.409
       116  -9.6079    149.8229    206.1412   1.1365671547e+02   9.1324813230e+00    0.1984978    0.1741028  -5.86  0.001073768    1.332    0.249
       117 -10.2992    198.0255    202.6293   1.0264781255e+02   9.3508284876e-01    0.4249662    0.2437724 -30.77  0.001562578    1.951    0.487
       118  -9.7567    186.8467    202.3349   1.0491201823e+02   3.0222118725e+00    0.2820634    0.2019011 -33.88  0.001161943    1.452    0.311
       119  -9.2096    179.0101    202.9991   1.0669931185e+02   4.3385465204e+00    0.2288302    0.1725088  -4.54  0.001008258    1.664    0.399
       120  -9.1918    156.4718    205.9574   1.1214856177e+02   7.9354065378e+00    0.2137667    0.1427697 -47.54  0.001023838    1.577    0.366
       121  -9.0221    192.8451    201.6016   1.0351882587e+02   2.0667513226e+00    0.1970114    0.1719798 -12.16  0.001020624    1.151    0.131
       122  -9.8813    165.0566    200.8189   1.0931850684e+02   7.3920809831e+00    0.2764888    0.1900584 -17.64  0.001201011    2.057    0.514
       123  -9.9892    132.8409    199.3198   1.1631038403e+02   1.3756421289e+01    0.2887634    0.2233175 -31.29            0    1.585    0.369
       124  -9.8526    139.1383    198.9306   1.1479834089e+02   1.2674780682e+01    0.2179929    0.1898849  75.25  0.001167492    1.213    0.175
       125 -10.0192    202.3352    196.2075   1.0052414827e+02   1.3723295255e+00    0.3649091    0.2435723 -26.39  0.001349373    1.631    0.387
       126  -9.1882    176.4467    196.5349   1.0602174783e+02   6.1177256475e+00    0.2590336    0.1325289 -35.64  0.001028319    2.272    0.560
       127  -9.0672    170.3805    196.7652   1.0738660837e+02   7.2219341389e+00    0.2118933     0.134004 -35.78 0.0009510711    1.746    0.427
       128  -9.0581    149.3486    197.3053   1.1218003575e+02   1.1109510149e+01    0.1492102    0.1171032  -1.03 0.0007041869    1.700    0.412
       129  -9.7251    184.6150    195.0083   1.0397347389e+02   4.8828887951e+00    0.3191982    0.2155132 -24.22  0.001477674    1.780    0.438
       130  -9.4501    194.3347    193.5985   1.0165376974e+02   3.3428819034e+00    0.2830155    0.1731606 -38.55  0.001312318    1.644    0.392
       131  -9.3219    205.3774    190.2196   9.8723386072e+01   1.9599516531e+00    0.2632138    0.1291923 -38.44 0.0008580363    2.028    0.507
       132  -9.6669    199.0423    190.0009   9.9967537171e+01   3.1703453044e+00    0.3011006    0.1837083 -25.93  0.001322771    1.962    0.490
       133  -9.2683    185.6343    189.3678   1.0264479338e+02   5.8252707945e+00    0.2897741    0.1668557 -25.64  0.001150304    2.387    0.581
       134  -9.2330    172.3965    189.8106   1.0559767956e+02   8.2821123112e+00    0.2157649    0.1360724 -35.04 0.0009508171    1.751    0.429
       135  -9.6285    210.2133    188.2831   9.7368640373e+01   1.4478760522e+00     0.250661    0.1785641 -30.12 0.0009300282    1.394    0.282
       136  -9.2360    178.9736    188.9805   1.0399836802e+02   7.1834928161e+00    0.2379448     0.178905  -9.03   0.00112479    1.697    0.411
       137  -9.4212    193.1846    187.1387   1.0060571583e+02   4.8353357544e+00    0.2315942    0.1916651  -6.12 0.0008805504    1.326    0.246
       138  -9.4016    166.4971    185.0033   1.0595513041e+02   1.0453059829e+01    0.2168156    0.1274408 -25.40 0.0008106134    2.574    0.611
       139  -9.8568    203.3734    182.6167   9.7591159332e+01   3.8044261906e+00    0.3327668    0.2304937 -26.17  0.001136139    1.561    0.359
       140 -10.2044    211.1776    180.9937   9.5698508013e+01   2.6641551528e+00      0.49025    0.2850661 -23.72  0.002068254    2.198    0.545
       141  -8.9451    215.0000    176.0638   9.3934478014e+01   2.9046086035e+00    0.2126879    0.1578786 -21.38 0.0006396343    1.434    0.303
       142  -8.9645    215.5323    172.5206   9.3094567116e+01   3.4884448802e+00    0.2523919    0.1336487 -40.81 0.0008185169    1.780    0.438
       143  -9.4695    183.6623    182.0964   1.0160001881e+02   7.6961907818e+00    0.3515892    0.1742073 -39.43  0.001395038    2.096    0.523
       144  -9.0851    197.4815    181.4978   9.8566405734e+01   5.1431332142e+00    0.2507261    0.1331052 -33.26  0.001016393    2.089    0.521
       145  -9.3635    176.5272    180.4473   1.0281170330e+02   9.4455534832e+00    0.2847144    0.1360897 -35.77  0.001041105    2.474    0.596
       146  -9.7329    190.7864    178.2937   9.9301339286e+01   7.0860416496e+00    0.3088558    0.1954189 -34.42  0.001276073    1.654    0.395
       147  -9.6075    197.8909    175.7957   9.7301533495e+01   6.2092055298e+00    0.3280944    0.1937809 -34.74  0.001276817    1.757    0.431
       148  -9.6968    210.4701    174.7745   9.4552879848e+01   4.0020248628e+00    0.3181868    0.1846468 -35.73  0.001116578    1.702    0.413
       149  -9.4967    205.0408    175.7239   9.5831650869e+01   4.8462981260e+00    0.2709571    0.1953933 -19.03   0.00100461    1.605    0.377
       150 -10.5713    100.9988    175.9935   1.1984419043e+02   2.4926369808e+01    0.2100793    0.1948272  88.41            0    1.004    0.004
       151  -9.3489    182.4758    175.0205   1.0039317052e+02   9.4082518612e+00    0.2347775    0.1451875 -42.59  0.001031522    1.604    0.377
       152  -9.0179    192.6508    172.1968   9.7633805349e+01   7.9709174660e+00    0.2194568    0.1329127 -34.67 0.0009447595    1.733    0.423
       153  -8.7646    187.6433    171.6908   9.8583929945e+01   9.0731583286e+00    0.1556673    0.1177502   0.59 0.0007042548    1.730    0.422
       154 -10.5363    218.9441    167.1639   9.1317625335e+01   3.8830364323e+00    0.4794121    0.3037522 -22.81  0.001817118    1.897    0.473
       155  -9.8323    221.2862    160.9565   8.9562819600e+01   4.6391664877e+00    0.3059282    0.2267062 -30.18  0.000812933    1.322    0.243
       156  -9.3251    211.9288    168.6888   9.2989717985e+01   4.9165799914e+00    0.2545982    0.1853964 -30.88 0.0007546456    1.361    0.265
       157  -9.6543    205.1609    168.4556   9.4278230170e+01   6.2697027536e+00    0.2846512    0.1996433 -39.42   0.00138439    1.363    0.267
       158  -9.3144    178.6345    168.1924   9.9784524902e+01   1.1635008613e+01    0.2216371    0.1389505 -36.21 0.0009477562    1.686    0.407
       159  -9.6951    191.7091    164.2731   9.6137278396e+01   9.8014351705e+00    0.4468153     0.189049 -35.85  0.001535519    2.735    0.634
       160  -9.0047    184.5169    164.9487   9.7810174875e+01   1.1124769530e+01     0.235683    0.1464397 -43.00   0.00102585    1.577    0.366
       161 -10.4374    213.0269    161.7124   9.1291572530e+01   6.0786271487e+00    0.5331098    0.2654268 -36.93  0.002183697    1.989    0.497
       162  -9.5919    199.5263    163.7783   9.4414748257e+01   8.3283985470e+00    0.2788974    0.1405516 -39.28  0.001114495    1.957    0.489
       163  -9.7167    205.2562    160.6766   9.2590884990e+01   7.8144512872e+00    0.3550106    0.2250402 -31.60  0.001592453    1.669    0.401
       164  -8.9758    176.5212    158.9744   9.8246608932e+01   1.4062248740e+01    0.2424452    0.1493631 -45.55  0.001033285    1.594    0.372
       165 -10.2628    226.7017    156.1891   8.7553033611e+01   4.5298843588e+00    0.4639896    0.2319675 -35.78  0.001359724    1.955    0.489
       166 -10.4140    228.2790    151.0349   8.6169456812e+01   5.2154880179e+00    0.6225224    0.2272269 -33.70  0.002034697    3.355    0.702
       167  -9.5355    197.0166    156.4195   9.3322978525e+01   1.0349411790e+01    0.3022988    0.2031364 -29.51  0.001269176    1.639    0.390
       168 -10.1076    221.3599    151.5833   8.7538508398e+01   6.4421242368e+00    0.3566308    0.2316623 -32.97 0.0009987399    1.530    0.346
       169  -9.7705    216.1056    155.5573   8.9377553113e+01   6.6910363217e+00    0.2960677     0.199475 -34.58 0.0009375043    1.443    0.307
       170  -8.9820    187.5934    155.2301   9.5021620313e+01   1.2549331425e+01    0.2244313    0.1410497 -33.96 0.0009531407    1.703    0.413
       171  -9.4210    211.6214    151.1814   8.9277609941e+01   8.4472776918e+00    0.3210887    0.1353272 -38.54  0.001182213    2.338    0.572
       172  -9.1559    205.7786    153.4389   9.0908078521e+01   9.1723383464e+00    0.1963348    0.1418045  30.81 0.0006838975    1.586    0.369
       173  -9.5673    215.0398    148.1401   8.7961930687e+01   8.3658418116e+00    0.2694275    0.2023844 -42.25 0.0009426782    1.236    0.191
       174  -8.9460    196.6153    149.2392   9.1809370955e+01   1.1918988747e+01    0.2188487     0.138093 -33.63 0.0009428195    1.672    0.402
       175 -10.1987    223.4441    145.4927   8.5838492331e+01   7.2163060341e+00    0.3546473    0.2496236 -22.42  0.001245314    1.656    0.396
       176  -9.3872    208.1172    144.1030   8.8383129017e+01   1.0578896899e+01    0.2325499    0.1995174 -14.11 0.0009268913    1.301    0.231
       177  -8.6870    200.3094    144.3551   8.9967302764e+01   1.2152487376e+01     0.154812    0.1192044  -5.66 0.0007043197    1.726    0.421
       178  -8.9203    218.6764    143.6537   8.6301639106e+01   8.5204711821e+00    0.1493621    0.1139618  -5.08 0.0007049913    1.741    0.425
       179 -10.3908    229.9180    139.8085   8.3464580462e+01   7.0409521871e+00    0.4492293    0.1927673 -42.10  0.001341863    2.096    0.523
       180  -9.0750    213.9863    141.4917   8.6690089945e+01   9.8955040392e+00    0.2427489    0.1795617 -41.68 0.0007178406    1.257    0.205
       181  -9.4359    224.2934    139.3421   8.4344573330e+01   8.2374853690e+00    0.2625172     0.161003 -32.96 0.0006648751    1.665    0.400
       182 -10.4324    234.5282    134.3075   8.1496035151e+01   7.1843619946e+00    0.4983762    0.2701615 -41.88  0.002268298    1.645    0.392
       183  -9.7437    233.0247    128.4924   8.0486060715e+01   8.5703367100e+00    0.2721035    0.2140676 -18.94 0.0009142896    1.502    0.334
       184  -9.5171    218.8024    137.4202   8.4902188691e+01   9.7150835959e+00     0.292744    0.1824804 -27.49  0.001137697    1.882    0.469
       185  -8.8029    208.6898    136.6682   8.6603307290e+01   1.1952310363e+01    0.1495071    0.1179232  -3.97  0.000704254    1.672    0.402
       186  -8.9544    198.6172    136.1914   8.8444229409e+01   1.4185628530e+01    0.2180174    0.1389409 -33.95  0.000887817    1.649    0.394
       187  -8.2338    187.6748    134.6652   9.0308733858e+01   1.6874976803e+01    0.1567998    0.1236874  -0.76 0.0007051281    1.715    0.417
       188  -9.3717    225.7296    132.6026   8.2614372158e+01   9.2462610503e+00    0.2637884    0.1671339 -31.55 0.0009091837    1.662    0.398
       189 -10.6230    240.5399    125.2197   7.8573882063e+01   7.7071891080e+00    0.5011632    0.2810934 -27.94  0.002168755    2.201    0.546
       190  -9.6570    221.7095    127.2422   8.2123038278e+01   1.1093783176e+01    0.2945299    0.2142678   2.34  0.001329155    2.193    0.544
       191  -8.6472    192.3151    128.3171   8.7870021050e+01   1.7172804853e+01    0.1522071    0.1228793   0.78 0.0003187712    1.649    0.394
       192  -9.3443    228.0271    124.0081   8.0331814445e+01   1.0416560326e+01    0.2201608    0.1737613 -10.79 0.0008736238    1.657    0.396
       193 -10.8354    238.4253    118.7341   7.7511251338e+01   9.3110250312e+00    0.4858057     0.122703 -41.12  0.001529711    3.500    0.714
       194  -9.1152    230.6401    115.1896   7.7963305806e+01   1.1532067243e+01    0.2016311    0.1249353 -34.03 0.0006412643    1.658    0.397
       195  -9.3160    247.8151    111.9131   7.4657499521e+01   8.7048178883e+00    0.2038019    0.1728559 -24.92 0.0007830936    1.344    0.256
       196  -9.7481    242.6566    118.4573   7.6804009710e+01   8.5308519517e+00    0.2255635    0.1567145 -25.68 0.0007903561    1.692    0.409
       197  -9.1688    243.4299    108.7580   7.4623135506e+01   1.0123297265e+01    0.1870328    0.1222802 -34.07 0.0006750412    1.559    0.359
       198  -9.3984    248.0431    106.0257   7.3387913601e+01   9.7002865853e+00    0.2100987    0.1788127 -51.16 0.0006148884    1.038    0.036
       199  -9.3401    247.1520    101.8946   7.2643802686e+01   1.0597852857e+01    0.1806786    0.1504842 -30.96 0.0006242582    1.328    0.247
       200  -9.2365    248.6070     96.6749   7.1351996919e+01   1.1213710780e+01    0.2524492    0.1187925 -37.27  0.000941808    2.062    0.515
       201  -8.9567    247.5218     91.5052   7.0415688763e+01   1.2311786115e+01    0.1349375    0.1157121 -58.36 0.0004676359    1.032    0.031
       202  -8.4366    127.9828     91.2196   9.3018371883e+01   3.9289048291e+01    0.1850768    0.1217237  47.37  0.000826158    1.513    0.339
       203  -8.8701    246.5627     84.2202   6.9018886613e+01   1.3727988932e+01    0.1834413    0.1205658 -32.11 0.0009400595    1.720    0.419
       204  -9.2289    243.0000     82.0555   6.9020960492e+01   1.4814322082e+01    0.2182419    0.0684616 -40.07 0.0006810608    2.875    0.652
       205  -9.2396    247.9707     73.5376   6.6633663494e+01   1.5182806157e+01    0.2173089    0.1482017 -46.96 0.0007759394    1.297    0.229
       206 -10.3728    248.6181     64.9992   6.4814837205e+01   1.6391510038e+01    0.2838131    0.1099703 -40.27  0.001224514    2.342    0.573
       207  -9.5994    250.4824     55.9280   6.2788272136e+01   1.7383074550e+01    0.1946152    0.1091035 -44.20  0.001033308    1.594    0.372
       208  -9.1810    172.2071     50.0235   7.1950105299e+01   3.5965078396e+01    0.1812126    0.1668269 -80.84  0.001074124    1.064    0.060
       209 -11.0751    242.2726    247.1458   1.0217686367e+02  -1.3242110794e+01    0.6813261    0.3073941 -47.46   0.00313504    3.290    0.696
