#   1 NUMBER                 Running object number                                     
#   2 MAG_AUTO               Kron-like elliptical aperture magnitude                    [mag]
#   3 X_IMAGE                Object position along x                                    [pixel]
#   4 Y_IMAGE                Object position along y                                    [pixel]
#   5 X_WORLD                Barycenter position along world x axis                     [deg]
#   6 Y_WORLD                Barycenter position along world y axis                     [deg]
#   7 A_WORLD                Profile RMS along major axis (world units)                 [deg]
#   8 B_WORLD                Profile RMS along minor axis (world units)                 [deg]
#   9 THETA_WORLD            Position angle (CCW/world-x)                               [deg]
#  10 FWHM_WORLD             FWHM assuming a gaussian core                              [deg]
#  11 ELONGATION             A_IMAGE/B_IMAGE                                           
#  12 ELLIPTICITY            1 - B_IMAGE/A_IMAGE                                       
         1 -14.3440    166.5511     54.2004   6.9731005401e+01   3.6678642370e+01     2.413442     1.568524  18.97  0.007057202    2.188    0.543
         2 -13.8815    180.7345     38.3194   6.1992219261e+01   3.5298765239e+01    0.9723372    0.8041054 -51.39  0.002470494    1.237    0.192
         3 -13.8362    185.2261     31.9403   5.9213420919e+01   3.4944573978e+01    0.7415708    0.7109053 -44.02  0.001555384    1.028    0.027
         4 -14.7007    201.4825      6.7641   4.9178732401e+01   3.3452777096e+01     1.500538       1.1707 -13.14  0.005184319    1.377    0.274
         5 -13.6483    190.2394     14.7447   5.2962773541e+01   3.5618531396e+01    0.9044604    0.4949443 -61.47  0.003021369    2.220    0.550
         6  99.0000     12.1798    206.0809   1.3185270834e+02   3.1755224736e+01    0.3688853    0.1535445  42.10  0.002412788    2.037    0.509
         7 -13.5347    247.6516    246.1058   9.6823475666e+01  -6.1732760138e+00    0.7094496    0.4432868 -11.91   0.00533718    1.737    0.424
         8 -17.6496     57.0249    238.2353   1.2622930550e+02   2.1684359801e+01     7.522236     5.904826  78.81   0.06316713    1.248    0.199
         9 -11.1029    204.5548    176.5674   9.2770166523e+01   8.1409981282e+00    0.3416585    0.2627722 -46.00  0.001556776    1.606    0.377
        10 -19.0497     33.9012     99.6451   1.1818038457e+02   5.1584815654e+01     14.93663    0.8920398 -67.62   0.02739324   13.609    0.927
        11 -10.7002    164.9314    171.5729   9.9211822222e+01   1.6231185859e+01    0.2056847    0.1865179 -63.58  0.000347793    1.267    0.211
        12  -9.3876    172.6498    189.2787   1.0068625660e+02   1.2063903745e+01    0.1232378   0.09101847  66.40 0.0007010123    1.644    0.392
        13  -9.8027    200.8951    168.4768   9.1927504194e+01   9.9574534080e+00    0.1878006    0.1783321  55.99 0.0008420835    1.236    0.191
        14  -9.8196    204.8507    166.9704   9.0934838578e+01   9.4306415391e+00    0.2854647    0.1483212  37.75  0.001371095    1.789    0.441
        15  -9.8602     26.3596    188.4058   1.2847549386e+02   3.3568838658e+01    0.1013042   0.07808367  81.29 0.0002841005    1.136    0.120
        16 -11.6614    192.8446    164.8943   9.2715238481e+01   1.2010624187e+01    0.3969316    0.2798135 -52.98  0.001541123    1.811    0.448
        17  -9.8501    124.1229    161.1697   1.0573875254e+02   2.5497267914e+01    0.1794723    0.1392062  70.65 0.0004369137    1.299    0.230
        18  -9.8634     63.9884    186.4817   1.2123025060e+02   2.9664671445e+01    0.1606764   0.09000789  50.60 0.0007658558    1.502    0.334
        19  -9.9481      8.5208    160.5733   1.3024569075e+02   4.0613585855e+01    0.1070161   0.07907723  81.76 0.0001629672    1.047    0.045
        20 -11.5084    189.0206    154.8946   9.1482754086e+01   1.4301123581e+01    0.4436001    0.3815426  61.22  0.002611768    1.292    0.226
        21 -10.5041    126.0836    153.8223   1.0409349648e+02   2.6570377128e+01    0.2091309    0.1666993  74.10 0.0005727866    1.290    0.225
        22 -12.0692    133.9085    145.5887   1.0090903787e+02   2.6745126751e+01     1.124819    0.3048402 -55.90  0.003103938    5.624    0.822
        23  -9.9422    129.0837    140.4751   1.0100587451e+02   2.8661032747e+01    0.2491903     0.195431  32.38  0.001341575    1.433    0.302
        24 -10.8042    120.2021    149.7056   1.0466749595e+02   2.8428105085e+01    0.2654131    0.1570813  42.14  0.001308679    1.649    0.394
        25 -10.8155    174.5210    148.7638   9.3053166520e+01   1.8202618188e+01    0.3018116    0.2599842 -80.58   0.00121012    1.432    0.302
        26 -10.1260    161.4264    149.2580   9.5788423379e+01   2.0730970081e+01    0.1774573    0.1324354 -58.67 0.0004580401    1.545    0.353
        27 -11.7226    144.1100    146.5383   9.8882202311e+01   2.4620972103e+01    0.4593443    0.2480766 -68.21  0.001757128    3.170    0.685
        28 -12.6960     99.8935    137.8767   1.0724997940e+02   3.4339579665e+01    0.3934067    0.2671492  43.06 0.0005684625    1.490    0.329
        29 -11.4647    135.4036    127.2012   9.6871429032e+01   3.0116784434e+01    0.5462997    0.1837514 -49.90  0.001877683    3.103    0.678
        30 -10.9211    160.4511    127.5639   9.1413908333e+01   2.4906082838e+01    0.3227031    0.2588789 -72.70  0.001068546    1.507    0.336
        31 -10.6012    121.1183    123.7195   9.9467791213e+01   3.3597353789e+01    0.2599333    0.1845007 -24.87 0.0008775725    2.056    0.514
        32 -11.2913    117.2566    129.0889   1.0149519400e+02   3.3187542652e+01    0.2952655    0.2360934 -42.00 0.0007427327    1.392    0.282
        33 -10.4176    111.9378    118.5688   1.0060231952e+02   3.6393449307e+01    0.2172623    0.1902047 -48.98 0.0003640873    1.190    0.160
        34 -10.8167    168.1374    113.0396   8.6349375579e+01   2.5941053876e+01    0.3786692    0.2804833 -76.39  0.001149261    1.879    0.468
        35 -10.6220    134.7270    105.8650   9.2070410517e+01   3.4601124959e+01      0.52859    0.1420621 -47.44  0.001552235    3.788    0.736
        36 -11.9092    193.5663    195.7214   9.7970523784e+01   7.4967324028e+00    0.9268973    0.5020522 -63.84  0.003151309    6.702    0.851
        37 -10.6910    205.5175    110.1572   7.8351372079e+01   1.8016546660e+01      0.32152    0.2027927  41.30 0.0009844803    1.605    0.377
        38 -11.4057    159.6833    197.3614   1.0428656427e+02   1.3108249112e+01    0.2696561    0.1961682  34.03 0.0001503989    1.307    0.235
        39 -10.1840     78.7082    104.9752   1.0642278771e+02   4.4930813080e+01    0.1928518    0.1579689 -67.49 0.0004445137    1.097    0.088
        40 -10.5899     65.8550     98.7440   1.0876815774e+02   4.8162441805e+01    0.2331093    0.2018065 -67.02 0.0006912395    1.048    0.046
        41  -9.5617    127.0446     94.5053   9.1012795570e+01   3.8539277527e+01    0.2091746    0.1467638  48.76  0.000988399    1.461    0.315
        42  -9.7032     79.9641     75.6478   9.8991991473e+01   5.1293150685e+01     0.222308      0.10286  59.72 0.0007046718    4.434    0.774
        43 -12.6677    172.5641     71.6042   7.4013030432e+01   3.2313495837e+01    0.7411447    0.4536093 -78.13  0.002165953    3.118    0.679
        44 -11.6714    158.5084    234.0911   1.0924175832e+02   8.2217720806e+00    0.2550309    0.1837038  28.64  0.001791909    1.434    0.303
        45 -11.5602    167.9951    232.7619   1.0751766024e+02   6.9282737182e+00    0.2665892    0.1568219  45.62  0.000808279    1.315    0.239
        46 -14.3638     66.6761    212.4164   1.2289464872e+02   2.4675335239e+01     1.360323    0.8125255  40.05  0.006233892    1.656    0.396
        47 -10.4130     13.5678     59.8911   1.1795100607e+02   6.2186718584e+01    0.1778709    0.1608609  77.78 0.0004102641    1.273    0.215
        48 -10.0030    169.2944    178.3762   9.9535219061e+01   1.4334555197e+01    0.1963021    0.1551601 -74.61 0.0005297117    1.701    0.412
