#   1 NUMBER                 Running object number                                     
#   2 MAG_AUTO               Kron-like elliptical aperture magnitude                    [mag]
#   3 X_IMAGE                Object position along x                                    [pixel]
#   4 Y_IMAGE                Object position along y                                    [pixel]
#   5 X_WORLD                Barycenter position along world x axis                     [deg]
#   6 Y_WORLD                Barycenter position along world y axis                     [deg]
#   7 A_WORLD                Profile RMS along major axis (world units)                 [deg]
#   8 B_WORLD                Profile RMS along minor axis (world units)                 [deg]
#   9 THETA_WORLD            Position angle (CCW/world-x)                               [deg]
#  10 FWHM_WORLD             FWHM assuming a gaussian core                              [deg]
#  11 ELONGATION             A_IMAGE/B_IMAGE                                           
#  12 ELLIPTICITY            1 - B_IMAGE/A_IMAGE                                       
         1 -14.0944    118.2489     91.0757   1.0469393697e+02   4.1297325633e+01     1.184041    0.3799384 -51.17  0.003427471    3.849    0.740
         2 -10.6807    196.0301     11.7373   6.4781712980e+01   3.4405892637e+01    0.1672782    0.1627468  73.99  0.001037045    1.115    0.103
         3 -10.3843     38.6858      2.6555   9.8057286860e+01   7.0047738092e+01      0.12406   0.07522061   0.42 0.0007047433    1.712    0.416
         4 -16.0910     17.4355    207.6633   1.4733497715e+02   3.0062505979e+01     2.401485    0.9810142  89.60  0.005093284    2.265    0.559
         5 -15.6812    180.4652     79.3335   8.6739036610e+01   2.9023510165e+01     4.457507     2.192858 -60.16   0.01176824    3.775    0.735
         6 -14.2499    159.1159     70.8643   8.8597239637e+01   3.5778962109e+01    0.9487252    0.7147831   2.87  0.001503055    1.723    0.420
         7 -17.7317    239.0515    125.5932   8.8235750884e+01   7.8105038499e+00     13.07393     4.235318 -35.26   0.04687386    2.808    0.644
         8 -11.4789    133.5071    144.7229   1.1402600949e+02   2.6641023372e+01     1.061024    0.2459503 -54.53  0.002327077    7.290    0.863
         9 -11.6099    153.8464    125.9086   1.0498083006e+02   2.6365820546e+01    0.2356538    0.2140333   5.09 0.0008618322    1.218    0.179
        10 -13.3825    127.1714    106.1464   1.0648208730e+02   3.6260837665e+01     1.125863    0.2068549 -46.89  0.002641442    5.552    0.820
        11 -12.1255    200.4036    238.0087   1.1680513942e+02  -1.7081109470e+00    0.5573429    0.1540969  46.79  0.002080262    3.784    0.736
        12 -12.3574    112.5524    104.4783   1.0991528724e+02   3.9578993593e+01    0.4512709    0.4166873 -52.29  0.002075485    1.044    0.042
        13 -13.6406    120.1097    102.5081   1.0736356785e+02   3.8498654988e+01    0.7288323    0.5362786  38.22  0.003508718    1.435    0.303
        14 -12.9133    125.4666     97.8508   1.0468047998e+02   3.8374442580e+01    0.5238258    0.3121403  38.64  0.001659238    1.807    0.447
        15 -10.8882    112.0055    112.9768   1.1221582902e+02   3.7811824829e+01    0.2264442    0.1837717  -8.89 0.0004942131    1.601    0.376
        16 -12.0779     20.9887     99.7441   1.3597581690e+02   5.3132534987e+01    0.2890381    0.1742392 -82.18 0.0006755913    1.601    0.375
        17 -12.0565    113.2311     95.6812   1.0736375255e+02   4.1345085704e+01    0.3577986    0.2596641 -29.25 0.0008868597    1.536    0.349
        18 -13.4196    136.6611     90.1607   9.9626426831e+01   3.7504773528e+01    0.5570809     0.404079  38.55  0.001179894    1.448    0.310
        19 -10.8877    207.6798     78.3596   8.1607296522e+01   2.2492642474e+01    0.3277059    0.2061156 -12.77 0.0009343207    2.154    0.536
        20 -12.7321      5.1083    246.7955   1.5122344043e+02   2.4264663484e+01    0.4710684    0.2164716  74.12   0.00228786    1.664    0.399
        21 -12.8987    188.3679     64.7484   8.1098446502e+01   2.9447146215e+01    0.7109163    0.6673484  65.35  0.002340915    1.068    0.064
        22 -11.6687     66.6215    220.5257   1.3934669426e+02   2.1930683243e+01    0.2049624    0.1649448 -88.87  0.001130849    1.211    0.174
        23 -10.2751    224.3318     65.7411   7.5756301417e+01   2.0451036949e+01    0.1423461    0.1384622 -42.35 0.0003639254    1.062    0.058
        24 -11.6796    226.1333     62.3613   7.4637774578e+01   2.0521939482e+01    0.2874001    0.2302949  81.77  0.001541595    1.339    0.253
        25 -11.3277    204.9122     64.4640   7.8284522100e+01   2.5352569059e+01    0.2598441    0.2100508 -40.06  0.001173033    1.193    0.162
        26 -11.8261     60.2418    216.8687   1.4021161818e+02   2.3442021908e+01     0.272618    0.1447604 -76.73  0.001597255    1.858    0.462
        27 -10.4694    178.9443     63.2810   8.2359397553e+01   3.2061032764e+01    0.2145502    0.1906365 -75.71  0.000818911    1.194    0.162
        28 -11.1838    203.5942     58.8044   7.6930882735e+01   2.6531526472e+01    0.4558114    0.3089344  66.06  0.002171442    1.515    0.340
        29  99.0000    200.7438     54.7742   7.6246296289e+01   2.7837125342e+01     0.630114    0.4817406  78.06  0.002709084    1.381    0.276
        30 -13.2259    119.7491    111.4328   1.0978065230e+02   3.6637779695e+01    0.7918423    0.4824772  68.80  0.003048645    2.581    0.613
        31 -10.2358    225.1298     54.5865   7.2766775079e+01   2.1875542234e+01    0.1805705    0.1364522  70.61 0.0007734017    1.372    0.271
        32 -12.1627    188.3232     48.5070   7.6394298586e+01   3.1887477511e+01    0.3310482    0.2017852 -44.70  0.001221479    1.647    0.393
        33 -10.4649    216.5004     50.4403   7.2815837924e+01   2.4542835289e+01    0.1430024    0.1317267 -65.71 0.0004649021    1.024    0.024
        34  99.0000    219.0699     46.6407   7.1475822314e+01   2.4438268565e+01    0.4056463    0.2172242  34.66  0.001571559    2.919    0.657
        35  99.0000    159.1211     37.0915   7.7884589619e+01   4.0945299030e+01     8.952499      7.70492  45.11   0.04857483    1.143    0.125
        36 -11.2546    176.8213     48.2443   7.8229554850e+01   3.4872223818e+01    0.2678636    0.2373529 -35.39 0.0005282238    1.146    0.127
        37 -10.8598    211.3694     47.7753   7.2792396121e+01   2.6175332943e+01    0.1932763     0.154608 -33.80 0.0007008919    1.239    0.193
        38 -15.7692     36.2171    186.7451   1.4229398322e+02   3.2290348135e+01     1.545153     1.257423  38.39  0.006158307    1.497    0.332
        39 -11.8138    192.5237    194.4197   1.1114500096e+02   5.8020507497e+00    0.8577868    0.4261744 -61.83  0.002353394    7.825    0.872
        40 -10.2411    225.2203     42.6186   6.9670712230e+01   2.3489001803e+01    0.1468023   0.09033126 -53.03 0.0006862294    1.606    0.377
        41 -10.3835    214.9709    174.0117   1.0301154548e+02   4.8458087343e+00    0.2014676    0.1762308  18.34 0.0003974793    1.033    0.032
        42 -13.7987     68.5750    145.0542   1.3009486682e+02   3.7535047436e+01     1.106645    0.6223919  56.19  0.003074738    1.928    0.481
        43 -11.3325     93.7869     27.1304   8.9541730109e+01   5.7559560332e+01    0.1921525    0.1800642 -22.36 0.0004929983    1.172    0.147
        44 -13.5029     60.7231    168.4527   1.3519410727e+02   3.3301281921e+01    0.3627667    0.3361847 -33.54 0.0009565737    1.475    0.322
        45 -15.6124     69.6241    160.4133   1.3210138536e+02   3.3905122968e+01     1.772326     1.343756 -16.64  0.007204053    2.239    0.553
        46 -11.8530    144.2741    145.6846   1.1171500485e+02   2.4278493349e+01    0.3221061    0.2472079  84.12  0.001538992    1.675    0.403
        47 -10.2726    101.3588    134.8950   1.1992080295e+02   3.4804650385e+01    0.1988246    0.1736542 -58.35  0.000455115    1.117    0.105
        48 -13.4349    169.9997    152.9917   1.0757067416e+02   1.7499581947e+01    0.8208954    0.3855821  54.90  0.003062476    2.532    0.605
        49 -13.0827    167.9290    148.3041   1.0699986638e+02   1.8840273859e+01    0.4756525    0.3469466  72.91  0.002193886    1.839    0.456
        50 -11.2986     39.1904     16.2003   1.0463139274e+02   6.8147584719e+01    0.1538218    0.1333289 -31.53  0.001072141    1.336    0.251
        51 -10.8454    169.9383    228.1597   1.2085493357e+02   4.6041628191e+00    0.1885429     0.142593  51.51 0.0004683058    1.272    0.214
