#   1 NUMBER                 Running object number                                     
#   2 MAG_AUTO               Kron-like elliptical aperture magnitude                    [mag]
#   3 X_IMAGE                Object position along x                                    [pixel]
#   4 Y_IMAGE                Object position along y                                    [pixel]
#   5 X_WORLD                Barycenter position along world x axis                     [deg]
#   6 Y_WORLD                Barycenter position along world y axis                     [deg]
#   7 A_WORLD                Profile RMS along major axis (world units)                 [deg]
#   8 B_WORLD                Profile RMS along minor axis (world units)                 [deg]
#   9 THETA_WORLD            Position angle (CCW/world-x)                               [deg]
#  10 FWHM_WORLD             FWHM assuming a gaussian core                              [deg]
#  11 ELONGATION             A_IMAGE/B_IMAGE                                           
#  12 ELLIPTICITY            1 - B_IMAGE/A_IMAGE                                       
         1 -11.3337     61.6951     47.2101   2.9136415022e+02   6.7905437204e+00   0.04261689   0.02682037 -72.05  0.004333183    1.791    0.442
         2  -9.6612     82.8648      4.3069   2.9086901359e+02   7.1590184988e+00   0.03438702   0.01377063 -64.00  0.002681683    2.598    0.615
         3 -11.2745     85.6625     18.8060   2.9092137510e+02   6.9809681536e+00   0.05125423   0.02842174 -80.16  0.004541485    2.514    0.602
         4 -12.8588     21.6347     31.2576   2.9173431164e+02   7.1851956553e+00   0.07252915   0.03777133  36.08  0.003820311    1.896    0.473
         5 -12.5262      6.6027      5.8582   2.9176015528e+02   7.5514369153e+00   0.06115192   0.05207585  34.84    0.0074354    1.191    0.160
         6 -11.7075     50.2957      4.7296   2.9124808742e+02   7.3295583922e+00   0.05371321    0.0290674  34.89  0.005240358    1.815    0.449
         7 -10.8028     39.6662      4.1191   2.9136747328e+02   7.3935500228e+00   0.03000516   0.01941456 -41.53  0.002851405    1.568    0.362
         8 -11.5023      5.8286     20.7522   2.9185592480e+02   7.3881114909e+00   0.02267211   0.01740948  10.62 0.0006887133    1.348    0.258
         9 -13.0149     28.2678      6.6460   2.9151407820e+02   7.4263593752e+00   0.06251031   0.04187731 -54.52 0.0007549778    1.450    0.310
        10 -11.4872     18.9799     10.5704   2.9164442106e+02   7.4320836312e+00   0.04595567   0.02260149  55.57  0.002552449    3.104    0.678
        11  -9.8389    126.9400     33.8215   2.9053222622e+02   6.5895239263e+00   0.03989319   0.02454452  67.01  0.003695014    2.397    0.583
        12 -11.2098    114.1153     31.9378   2.9066933278e+02   6.6799204777e+00   0.04449265   0.02845252  13.74   0.00281461    1.680    0.405
        13 -10.5772    119.3519     30.3671   2.9059967243e+02   6.6693225269e+00   0.03977108   0.02072555 -69.94 0.0009763726    2.199    0.545
        14 -10.9856    105.4480     21.8734   2.9071065826e+02   6.8398276123e+00    0.0395042   0.02630953  64.91  0.001974881    1.999    0.500
        15 -11.3879    109.6423     15.9675   2.9062768682e+02   6.8835883044e+00   0.03661002    0.0167749 -54.59 0.0007502876    2.053    0.513
        16  -9.7677    114.0265     15.6964   2.9057545058e+02   6.8629794371e+00   0.01432901   0.01191205 -48.07  0.000472431    1.178    0.151
        17 -10.5759    144.6197     24.1449   2.9027152756e+02   6.6027958150e+00   0.02150705     0.014403 -62.79 0.0007877118    1.514    0.339
        18 -11.1851     70.0017     23.2103   2.9112811266e+02   7.0157817688e+00   0.03408922   0.02058121  13.73  0.002415648    1.812    0.448
        19 -11.0191     66.5754     18.2087   2.9113852571e+02   7.0904576161e+00   0.03315086   0.02394952  39.61   0.00214406    1.420    0.296
        20 -10.0401    246.3430     21.5676   2.8908343403e+02   6.0806619898e+00   0.02020789   0.01411286  74.05  0.001950228    1.922    0.480
        21  -9.1239    129.2977     18.2032   2.9041370961e+02   6.7523575757e+00   0.02167832   0.01215198 -34.02  0.002027369    2.071    0.517
        22  -9.8832    147.6641     18.9500   2.9020600169e+02   6.6447226843e+00   0.01292655    0.0114622 -24.31  0.000748202    1.126    0.112
        23 -10.4171     76.4323     14.0691   2.9100040201e+02   7.0839364758e+00   0.02843246    0.0138092 -67.31  0.002529382    2.263    0.558
        24 -10.4893     76.7929      6.4038   2.9095146067e+02   7.1681571819e+00    0.0295788   0.01630767 -46.65   0.00281096    1.788    0.441
        25 -10.3265    188.6081     13.9283   2.8970413376e+02   6.4795662436e+00   0.02271514   0.01755987  62.11  0.002212234    1.528    0.346
        26 -10.5797    172.2331     13.8132   2.8989237509e+02   6.5695323568e+00   0.01648136   0.01334689 -53.24 0.0007328085    1.214    0.176
        27 -11.0454    176.7387      8.2812   2.8980800819e+02   6.6072815333e+00    0.0159659   0.01514553 -39.48 0.0005572572    1.037    0.036
        28  -9.2599    132.7295     10.2877   2.9032778937e+02   6.8227748283e+00    0.0173898   0.01361339  84.03  0.001442021    1.556    0.357
        29  -9.4410    154.5255      9.9067   2.9007389037e+02   6.7092334833e+00   0.02233842    0.0103496  44.00  0.001931901    2.400    0.583
        30 -10.0850    202.1268      7.4891   2.8951052358e+02   6.4786265114e+00   0.02753232   0.01703197 -40.18  0.002401674    1.676    0.403
        31  -9.7609    240.9958      8.0021   2.8906555372e+02   6.2619835233e+00    0.0187292   0.01145298  24.23  0.001920282    1.629    0.386
        32  -8.6927     69.9741      8.3702   2.9104178336e+02   7.1827699337e+00  0.009027096  0.008094953  11.02 0.0004452401    1.107    0.097
        33  -9.3669    224.9701      4.4295   2.8922926754e+02   6.3890794123e+00   0.01930167   0.01419929 -51.92  0.001562548    1.326    0.246
        34  -9.3518    243.8314      2.8223   2.8900254122e+02   6.3047247619e+00   0.01528765   0.01101564  86.46  0.001615394    1.788    0.441
        35  -8.5712    240.0062      2.0174   2.8904188651e+02   6.3345319946e+00   0.01191549  0.009247656  21.74 0.0005532269    1.284    0.221
        36 -10.2587    139.8727     13.9510   2.9026672318e+02   6.7430121892e+00   0.02613453   0.01073098  41.28  0.002162082    2.577    0.612
        37  -9.5535    158.0350      2.8762   2.8999223468e+02   6.7692286915e+00   0.02043561   0.01467369  28.81  0.001720691    1.375    0.273
        38  -7.8840    139.9719      1.4969   2.9019272518e+02   6.8824056260e+00  0.009839577  0.006333179  22.96 0.0007508906    1.554    0.356
        39 -11.7559    202.9737    214.2137   2.9070769734e+02   4.1490253913e+00    0.1169263   0.04947347  35.42  0.009453829    2.279    0.561
        40  -9.1043    198.1716    248.3433   2.9096145960e+02   3.7907798349e+00   0.01435443   0.01131663 -68.73  0.001656716    1.335    0.251
        41 -11.6066    205.5770    182.4116   2.9049254962e+02   4.4929118832e+00   0.03708273   0.02428071  42.60 0.0006783598    1.605    0.377
        42 -10.6143    208.4830    178.0929   2.9043393277e+02   4.5258165087e+00   0.01379974   0.01208534  27.64 0.0004696675    1.141    0.123
        43 -12.4787    195.1571    200.1661   2.9071589939e+02   4.3493427310e+00   0.04193503   0.02678824 -21.99  0.002175481    1.908    0.476
        44 -12.8615    199.0324    195.5043   2.9064414691e+02   4.3808946709e+00   0.05459308    0.0293711  15.88 0.0009809716    2.060    0.514
        45  -8.5791     60.5002    215.0293   2.9235359989e+02   4.9070439947e+00   0.01002041  0.006427682 -64.77  0.001032498    1.605    0.377
        46  -9.0115    100.2206    214.7285   2.9189406436e+02   4.6969691866e+00   0.01617363  0.008816641  37.14 0.0005078082    1.830    0.454
        47 -10.1559     79.5184    212.6684   2.9212070039e+02   4.8314828611e+00   0.01409024   0.01167939 -48.34 0.0006351917    1.180    0.153
        48  -7.7248    140.4678    213.5246   2.9142337208e+02   4.4938713635e+00  0.006383304  0.006266405  -6.69 0.0001392368    1.029    0.028
        49 -11.0307     12.8363    195.3837   2.9278936868e+02   5.3840606107e+00   0.05155357   0.02541069 -38.93   0.00455839    2.283    0.562
        50 -10.3077      6.4584    208.5148   2.9293891793e+02   5.2702382720e+00   0.01673542     0.012902 -38.78 0.0006706415    1.300    0.231
        51 -11.8183     10.8800    206.9102   2.9287864951e+02   5.2646422472e+00   0.04140542    0.0299947  20.25  0.002859413    1.388    0.279
        52  -9.5447    122.4996    209.4763   2.9160685434e+02   4.6362381998e+00   0.01137376   0.01053093  -7.27   0.00060768    1.067    0.063
        53 -10.2951    123.9951    205.9967   2.9156940984e+02   4.6673775204e+00  0.009124758  0.008786731 -17.58            0    1.002    0.002
        54  -8.8207     52.7878    206.9811   2.9239586239e+02   5.0391324597e+00   0.01092098  0.007412492  74.58  0.001082649    2.028    0.507
        55  -7.9542    161.6702    205.2715   2.9113118639e+02   4.4725344931e+00  0.006601051  0.004816097  55.22 0.0003523209    1.586    0.370
        56  -8.7125     26.4579    203.7165   2.9268053294e+02   5.2171601579e+00    0.0110575  0.008644964  19.45 0.0006928605    1.281    0.219
        57  -8.2446    121.2823    201.6070   2.9157516663e+02   4.7314287294e+00   0.01233236  0.006827141 -42.34 0.0009587763    1.864    0.464
        58  -9.3941     46.8354    201.1160   2.9243049831e+02   5.1371673389e+00   0.02934049   0.01327919 -23.69  0.001877178    4.753    0.790
        59  -8.4799    223.1019    200.6374   2.9039703437e+02   4.1931232142e+00  0.009923841  0.008998279 -89.44 0.0004012925    1.216    0.178
        60  -8.8563    113.9845    201.0000   2.9165573989e+02   4.7775543298e+00  0.009489167  0.009121447 -19.07  0.001208856    1.005    0.005
        61  -9.1768     60.8904    200.3137   2.9226379116e+02   5.0707564737e+00   0.01160299  0.009362571 -40.05 0.0003426539    1.228    0.186
        62  -8.6127    138.9947    199.0348   2.9135612730e+02   4.6649925344e+00  0.009174713  0.008785126 -26.82  0.001165343    1.014    0.014
        63  -9.3369    132.9901    198.9741   2.9142495889e+02   4.6980272024e+00  0.009145677  0.008854567 -15.75            0    1.006    0.006
        64  -9.4606    175.5232    194.1638   2.9090702539e+02   4.5228784743e+00   0.02631481   0.01186427 -68.20  0.002217121    2.530    0.605
        65  -8.0066     56.6772    195.6683   2.9228543152e+02   5.1457222820e+00    0.0070329  0.004672811 -28.11  0.000705002    1.701    0.412
        66  -8.4048     36.7369    193.8553   2.9250486918e+02   5.2731637744e+00  0.009819345  0.008288571 -35.97 0.0007825619    1.176    0.150
        67 -10.0622     21.6057    189.1595   2.9265217514e+02   5.4072113859e+00   0.02701663    0.0177621 -22.04   0.00275012    1.808    0.447
        68  -8.9409    116.6394    189.4707   2.9155815549e+02   4.8931252092e+00   0.01632653  0.009520227   2.54  0.001505911    2.203    0.546
        69  -7.8050    139.1949    189.4267   2.9129795700e+02   4.7721187770e+00   0.00896021  0.005767115  37.45 0.0003073126    1.566    0.361
        70  -9.2511    222.9856    188.0163   2.9032484170e+02   4.3357774096e+00  0.009185976  0.008857191 -14.45  0.001171044    1.004    0.004
        71  -9.9095     61.7071    184.9999   2.9216554150e+02   5.2389137986e+00   0.01560564   0.01200319 -20.05 0.0008286824    1.407    0.289
        72  -7.6873     90.1902    185.3838   2.9183931982e+02   5.0814965888e+00  0.008703417  0.005801704  35.19  0.000196022    1.496    0.332
        73  -7.8761     70.7560    183.9718   2.9205522004e+02   5.2018823170e+00  0.009312867  0.007341966 -35.20   0.00047371    1.284    0.221
        74  -9.7199     75.5819    182.1536   2.9198901256e+02   5.1964308923e+00     0.015538   0.01165823   2.07 0.0004930405    1.445    0.308
        75  -8.3682    188.8461    183.6844   2.9069259442e+02   4.5689416352e+00   0.01289799  0.006134498  14.12  0.001073316    2.555    0.609
        76  -9.4718    233.5839    180.4469   2.9015877448e+02   4.3636642670e+00   0.01377056   0.01194229 -14.16 0.0009928449    1.177    0.151
        77  -8.5087    185.2165    178.7800   2.9070582991e+02   4.6437453273e+00  0.009177526  0.008735227  72.64 0.0008314252    1.139    0.122
        78  -9.9492    193.3841    175.5572   2.9059299958e+02   4.6359190582e+00   0.02423152   0.01221854 -62.13  0.001704017    1.987    0.497
        79  -9.5650    245.5896    174.4771   2.8998584690e+02   4.3659038950e+00   0.01855317  0.008950552 -43.80  0.001659557    2.140    0.533
        80 -12.6683    235.7811    170.9945   2.9007838066e+02   4.4581314898e+00   0.03760198   0.01973827 -29.03  0.003229333    2.553    0.608
        81  -9.0226    101.0104    175.9783   2.9165991766e+02   5.1292326330e+00  0.009042227  0.008662949 -17.94  0.001148468    1.010    0.009
        82  -8.6079     43.4407    175.4713   2.9232095177e+02   5.4443449665e+00  0.006395208   0.00621555 -20.36 6.455118e-05    1.013    0.013
        83  -9.9796     11.6892    170.2368   2.9265693212e+02   5.6735816276e+00    0.0250618   0.01077768 -47.39    0.0021586    2.286    0.563
        84  -9.1927    212.6212    171.3771   2.9034715574e+02   4.5790337983e+00   0.01297284   0.01039755 -13.62 0.0008287767    1.333    0.250
        85  -7.9614    188.7469    169.9626   2.9061380827e+02   4.7239354136e+00  0.008519952  0.005467558 -59.84 0.0006977129    1.543    0.352
        86  -9.3399    249.2634    169.1971   2.8991278984e+02   4.4054262892e+00   0.01574328   0.01188692  70.54  0.000990539    1.647    0.393
        87  -8.9503    246.1066    163.7513   2.8991733430e+02   4.4837630134e+00   0.01047376   0.01032102 -10.77 0.0004570661    1.034    0.032
        88  -9.4884     24.0467    163.1507   2.9247325284e+02   5.6871970158e+00   0.01785463   0.01153043   1.54   0.00111495    1.843    0.457
        89  -9.2397    240.1823    159.5749   2.8996112936e+02   4.5627953460e+00   0.01150897   0.01131867  84.46 0.0005700391    1.083    0.077
        90  -8.4045     32.4951    159.4807   2.9235447003e+02   5.6832408214e+00   0.00644302  0.006217006 -17.20 3.192325e-06    1.001    0.001
        91 -10.5247      6.2484    156.4851   2.9264000995e+02   5.8576792647e+00   0.02536749   0.02012719   0.66  0.002116747    1.334    0.250
        92 -10.0650    158.9529    156.2701   2.9087729492e+02   5.0389163033e+00   0.02270787   0.01062653 -41.08  0.001962506    2.340    0.573
        93  -8.6360    183.8537    152.8761   2.9057059949e+02   4.9426849018e+00  0.009824764  0.008344102 -29.25 0.0003651001    1.186    0.157
        94  -8.1794    109.1605    151.3854   2.9142292700e+02   5.3623494911e+00   0.01099721  0.008167837 -45.68 0.0004301596    1.322    0.243
        95  -8.9496    238.4968    150.4772   2.8992744160e+02   4.6742559922e+00   0.01207476  0.009397767 -48.72 0.0009286731    1.255    0.203
        96  -8.8330    237.3864    146.7357   2.8991838484e+02   4.7223513587e+00   0.01762942  0.009531289  29.87  0.001709802    1.797    0.443
        97  -8.3120    138.0840    151.4958   2.9109004347e+02   5.2052411090e+00  0.009577936  0.006355893  21.76  0.000430966    1.515    0.340
        98  -8.4654     84.3756    151.1507   2.9170746076e+02   5.4983918298e+00  0.009944166  0.008508687  -5.75 0.0004428585    1.202    0.168
        99  -8.7302     29.9798    148.7168   2.9232103591e+02   5.8180041498e+00   0.01184479  0.006422697  68.78  0.000901454    3.468    0.712
       100  -9.5287     10.9323    139.4280   2.9248701271e+02   6.0247656397e+00   0.01390898   0.01194549  65.59 0.0004242654    1.319    0.242
       101  -9.8748     15.3243    148.1645   2.9248699642e+02   5.9028030643e+00   0.01384143   0.01184215 -10.89  0.001667678    1.203    0.169
       102 -10.1939     16.0006    143.7378   2.9245350692e+02   5.9490509265e+00   0.01549739    0.0117573 -82.69   0.00103442    1.539    0.350
       103  -8.2051    185.2034    147.1460   2.9052164755e+02   4.9998877502e+00  0.008776231  0.007566044  68.04 0.0003286708    1.319    0.242
       104  -9.3551    179.4000    144.9201   2.9057553382e+02   5.0562894251e+00   0.01381808  0.007254286 -47.33  0.001305196    1.870    0.465
       105  -7.8806    121.2678    145.4391   2.9124868694e+02   5.3640885955e+00  0.008782597  0.005903657  35.93 0.0007102592    1.490    0.329
       106  -9.8717    249.3225    142.0516   2.8975369587e+02   4.7104333711e+00   0.02156506  0.008754275 -62.38  0.001796386    2.472    0.595
       107  -9.7062    189.1709    142.3293   2.9044785595e+02   5.0326596802e+00   0.01749969   0.01345694  -3.70  0.001050997    1.416    0.294
       108  -9.2666      4.9551    142.2234   2.9257223737e+02   6.0252929938e+00    0.0112741  0.009062935 -49.04 0.0003127835    1.215    0.177
       109  -9.0850     32.7118    138.1045   2.9222788942e+02   5.9229034349e+00   0.01432164  0.009717786 -88.83  0.001159123    1.932    0.482
       110 -10.1200     33.1115    132.9008   2.9219305350e+02   5.9793766818e+00   0.02411188   0.01521076  13.98  0.001879045    1.705    0.413
       111  -9.5018     27.0224    144.0784   2.9232824902e+02   5.8861226026e+00   0.01797149  0.008863682   7.45  0.001458274    2.831    0.647
       112 -10.8538    245.7936    130.6110   2.8972750219e+02   4.8582051547e+00   0.02595372   0.01730358 -12.43 0.0006413101    1.831    0.454
       113  -9.3845    249.0211    124.9226   2.8965714011e+02   4.9046973148e+00   0.01516538   0.01082367 -60.10 0.0004436664    1.397    0.284
       114  -8.3949    163.1588    134.4421   2.9070162497e+02   5.2619332355e+00   0.01084239  0.007797302 -67.15  0.001185693    1.457    0.314
       115  -7.7786    140.7986    134.0325   2.9095702908e+02   5.3872176123e+00   0.01250765   0.00556171  54.12  0.000888777    3.708    0.730
       116  -8.9086     41.1780    132.5939   2.9209814442e+02   5.9395444137e+00   0.01501791  0.009851576 -42.68  0.001385575    1.531    0.347
       117  -9.1217    235.3614    130.2313   2.8984535008e+02   4.9189545486e+00   0.02521278  0.007156851 -57.39  0.001850338    3.104    0.678
       118  -7.4734     79.3431    132.2954   2.9165587881e+02   5.7378281246e+00  0.006914205  0.004732865 -24.54  0.000362951    1.664    0.399
       119 -10.5699     11.9281    127.9164   2.9240870529e+02   6.1491119571e+00   0.02549115   0.01770268 -24.20  0.001132439    1.627    0.385
       120  -9.6687      4.7300    128.4340   2.9249483182e+02   6.1818461619e+00   0.01405899   0.01232982  39.52 0.0002893002    1.177    0.150
       121  -8.5222    229.0178    129.5174   2.8991420540e+02   4.9613191864e+00   0.01001304  0.006316355  24.06 0.0007361279    1.579    0.367
       122  -8.3662    114.1842    128.0189   2.9122896704e+02   5.5984115995e+00   0.01007154  0.008256193 -28.74 0.0006113629    1.247    0.198
       123  -8.0969     24.3066    127.3004   2.9226218854e+02   6.0896926341e+00  0.006787532  0.004721119 -27.07 0.0003046806    1.595    0.373
       124  -9.9739    222.8865    124.4208   2.8995504033e+02   5.0518297399e+00   0.01336059   0.01295863  17.78 0.0004958454    1.045    0.043
       125  -8.5294    102.1075    125.3893   2.9135299126e+02   5.6930760299e+00   0.01034518  0.008439359 -43.40   0.00041381    1.204    0.169
       126 -10.0185    189.4594    123.4171   2.9033421553e+02   5.2439210862e+00   0.01735849   0.01403248  59.01   0.00133692    1.409    0.290
       127  -9.4878    188.1410    117.7619   2.9031640790e+02   5.3146794930e+00   0.02357759   0.01274615 -17.75  0.001351374    2.869    0.651
       128  -8.4046     36.5600    122.4671   2.9209262044e+02   6.0783960303e+00  0.006410768  0.006194139 -21.39 4.174287e-05    1.006    0.006
       129  -8.6423    194.8458    121.1722   2.9025905241e+02   5.2400595580e+00  0.009263663  0.007281418 -31.24 0.0004669453    1.310    0.237
       130  -9.5181    237.9552    119.2926   2.8975161413e+02   5.0279353425e+00  0.009475174  0.008596394   9.54  0.001132645    1.094    0.086
       131  -7.6618    155.2353    132.9854   2.9078447384e+02   5.3211047689e+00  0.008175715   0.00538828 -61.69 0.0002908462    1.523    0.344
       132 -11.0405     17.6787    113.8299   2.9226048905e+02   6.2769576240e+00    0.0310633   0.02348157 -16.32  0.003396792    1.458    0.314
       133  -8.6853     29.7915    118.0686   2.9214522236e+02   6.1642557451e+00   0.01025455  0.009165797  14.91 0.0003168524    1.111    0.100
       134  -9.0536      9.2731    117.9916   2.9238174548e+02   6.2751342234e+00  0.008874337  0.008272426 -54.89 0.0004126184    1.079    0.074
       135  -7.9164    250.5172    117.0702   2.8959405361e+02   4.9848899027e+00   0.00965636  0.006289578 -59.89 0.0006012624    1.522    0.343
       136  -9.6657    228.9637    114.7659   2.8982868788e+02   5.1275273534e+00   0.03038485   0.01075039  36.96  0.001128084    2.725    0.633
       137 -10.0299      2.2915    114.0712   2.9243962234e+02   6.3566919598e+00       0.0219   0.01345755 -47.95   0.00125732    1.588    0.370
       138  -8.5648      1.7778    108.6090   2.9241383911e+02   6.4209649134e+00   0.01003519   0.00888242 -33.50 0.0006736357    1.113    0.102
       139 -10.7437    244.7664    108.7843   2.8961182661e+02   5.1092086793e+00     0.022031   0.01935398 -66.42  0.002705901    1.179    0.152
       140 -10.3253    239.6109    110.0430   2.8967852267e+02   5.1229822157e+00   0.01670145    0.0116739  31.08  0.001354877    1.414    0.293
       141  -9.0824    212.9682    109.5497   2.8998243007e+02   5.2727758691e+00   0.01072411  0.008395688 -58.76  0.001233993    1.273    0.214
       142  -7.9725    163.6705    110.3077   2.9055498081e+02   5.5307918524e+00  0.006743499  0.004861708  58.72 0.0005403593    1.660    0.398
       143  -8.1342    159.0027    108.0099   2.9059539772e+02   5.5818609821e+00   0.01037367  0.007230736 -27.69 0.0004413471    1.586    0.370
       144  -7.5438    129.9674    107.0067   2.9092444551e+02   5.7498681037e+00  0.007202057  0.006870829 -38.76 0.0009051747    1.033    0.032
       145  -9.3604    233.5009    102.3933   2.8970416884e+02   5.2420925473e+00   0.01441977   0.01059612 -19.23  0.001577984    1.521    0.342
       146 -10.0202    208.7948    101.5153   2.8998358141e+02   5.3857282424e+00   0.02504201   0.01451319   3.91  0.001909991    2.200    0.545
       147  -9.8737      9.0648    102.4925   2.9229412645e+02   6.4508114418e+00   0.02483507   0.01160393  39.21  0.002224413    2.176    0.540
       148  -8.5205     67.8971     98.3858   2.9159068115e+02   6.1812281897e+00   0.01583109  0.008756925 -73.54  0.001420277    2.179    0.541
       149  -9.1361     13.1267     97.7516   2.9221964898e+02   6.4824310632e+00   0.00969099  0.008673873  45.84  0.000583272    1.178    0.151
       150  -8.6519    146.3213     94.9584   2.9066551261e+02   5.7972069808e+00   0.01921236    0.0133883  85.95  0.001976685    1.905    0.475
       151  -8.6315    107.6375     95.9260   2.9111753318e+02   5.9949810135e+00   0.01097237  0.008624523   3.40 0.0002407427    1.343    0.255
       152 -11.8327    240.1003     75.1330   2.8946882752e+02   5.5127895702e+00   0.03623928     0.027258 -65.15  0.002963883    1.371    0.270
       153 -10.7868    244.0143     82.1669   2.8946489774e+02   5.4125144813e+00   0.03920382    0.0201945  21.45  0.003658671    2.005    0.501
       154 -10.4020    249.3475     74.4164   2.8935817479e+02   5.4707062934e+00   0.02659241   0.01859013 -67.61  0.001649471    1.509    0.337
       155 -10.6993    244.6372     69.4581   2.8938339912e+02   5.5519694552e+00   0.01821821   0.01615786  33.33  0.001206363    1.142    0.124
       156  -8.3529    227.9224     95.0572   2.8972553515e+02   5.3547945419e+00  0.009705282  0.009179872  -6.51 0.0004400431    1.034    0.033
       157  -8.9067    171.1210     94.3554   2.9037597858e+02   5.6700248076e+00   0.01168025  0.009673778 -72.38 0.0008053063    1.291    0.226
       158  -9.7902     66.5299     91.6673   2.9156735250e+02   6.2642185176e+00   0.02632217   0.01636948  42.78  0.002700731    1.698    0.411
       159  -8.9833     73.4096     94.2713   2.9150306538e+02   6.1979017658e+00   0.01485096  0.008231992 -76.69  0.001177016    2.322    0.569
       160  -8.3363     61.8696     95.1850   2.9164165655e+02   6.2496725431e+00  0.009505949  0.008695451  48.91 0.0004676043    1.161    0.138
       161  -9.6760     78.4728     91.6779   2.9142949162e+02   6.1998553840e+00   0.01860299    0.0110333 -57.46 0.0006214234    1.638    0.390
       162  -8.0699     41.2070     93.3705   2.9186976369e+02   6.3811161293e+00   0.00892051  0.005726523  34.96 0.0002391699    1.549    0.354
       163  -9.9595      3.1231     75.7040   2.9220708263e+02   6.7842777609e+00   0.02743131   0.02028433 -86.57  0.002999144    1.643    0.391
       164  -9.2356      3.2337     86.8553   2.9227063338e+02   6.6581371180e+00   0.02446196   0.01446677 -30.36  0.002346535    2.000    0.500
       165  -9.4460      1.4873     83.0028   2.9226842334e+02   6.7108680529e+00   0.02126539   0.01168245 -51.73  0.001224845    1.743    0.426
       166  -9.8551      6.6050     88.8316   2.9224316081e+02   6.6178232628e+00    0.0222134   0.01455756 -25.60  0.002003414    1.772    0.436
       167 -11.1457     11.2096     83.6665   2.9215992123e+02   6.6513019912e+00   0.03544087   0.02571206 -15.04  0.003549889    1.564    0.360
       168  -8.0905    128.1203     90.8947   2.9085180161e+02   5.9411659103e+00  0.008254872  0.006972172 -26.11 0.0009759203    1.204    0.169
       169  -7.5808     50.9867     90.7593   2.9174159545e+02   6.3579878727e+00  0.007924441  0.005413264  22.62 -0.000430966    1.463    0.316
       170 -10.4540     15.9566     90.3364   2.9214384699e+02   6.5507579859e+00   0.02201614   0.01164856 -43.84 0.0006602588    1.924    0.480
       171  -8.1908    234.6586     86.7261   2.8959927111e+02   5.4119692365e+00  0.006772902  0.004763616 -22.34 0.0006997288    1.615    0.381
       172  -9.1267    175.5079     85.8617   2.9027580297e+02   5.7418589876e+00   0.01382424  0.008775338  -0.94  0.001354687    1.942    0.485
       173  -8.4579    222.8632     83.3810   2.8971556076e+02   5.5134779595e+00   0.01331577  0.008721471 -69.50  0.001168491    1.655    0.396
       174  -9.9498     43.9217     76.7797   2.9174183767e+02   6.5533139911e+00   0.03819757   0.02002667 -83.27  0.003090973    3.076    0.675
       175  -9.1638     47.1124     71.6225   2.9167493903e+02   6.5942230107e+00   0.02400859   0.01266205 -60.44  0.001573748    1.866    0.464
       176  -9.8738     46.5420     65.0397   2.9164318834e+02   6.6713755861e+00   0.02400757   0.01158982  47.82  0.002062055    2.509    0.601
       177 -10.9401     46.1023     60.4439   2.9162149701e+02   6.7254585399e+00   0.03015701    0.0243425  -9.09  0.002143334    1.317    0.241
       178  -9.5311     65.2270     79.0585   2.9150896472e+02   6.4131597148e+00   0.01859451   0.01501289 -89.76  0.001262854    1.452    0.311
       179  -7.5204    148.3487     80.2819   2.9055647040e+02   5.9513897409e+00  0.006854123  0.004750901 -22.92 0.0003816856    1.647    0.393
       180  -8.3165    103.1397     79.9269   2.9107618110e+02   6.1992849825e+00  0.009556732  0.008738825  74.75 0.0004550346    1.213    0.176
       181  -8.3856    117.5907     78.0858   2.9089861186e+02   6.1420983133e+00    0.0108159  0.008445309  34.56 0.0005596111    1.287    0.223
       182 -10.2342    232.7548     75.2303   2.8955398184e+02   5.5515103448e+00    0.0226092  0.009271843 -69.59  0.001748715    3.033    0.670
       183  -9.4878    195.4868     74.4731   2.8997894221e+02   5.7618656190e+00   0.01812987   0.01109745  75.02  0.001621591    2.587    0.613
       184 -11.1415    190.2742     72.2217   2.9002587295e+02   5.8153907006e+00   0.03914418   0.02041351 -13.99  0.003025703    3.318    0.699
       185  -9.3000    195.2843     69.5317   2.8995239673e+02   5.8185232820e+00   0.01162661   0.00996934 -35.93 0.0006165868    1.155    0.134
       186  -8.0978     75.3533     77.6248   2.9138364209e+02   6.3748233301e+00   0.01275444   0.00562364  30.61  0.000657567    2.160    0.537
       187  -8.5157     88.8232     72.3974   2.9119759660e+02   6.3611423597e+00  0.009346466  0.006148009   6.32 0.0009052022    1.724    0.420
       188  -8.7506    120.7483     70.4770   2.9081776554e+02   6.2106771190e+00   0.01461048  0.008608419 -59.02  0.001182893    1.664    0.399
       189  -9.7060    126.3760     66.5556   2.9072991419e+02   6.2244298442e+00   0.02011675   0.01078341  31.88  0.000802619    1.810    0.448
       190  -8.9198    120.1706     64.5609   2.9078990755e+02   6.2803516078e+00    0.0157905  0.008904127 -45.28 0.0008563047    1.769    0.435
       191  -9.4498    214.9266     68.8852   2.8972224630e+02   5.7194312951e+00   0.01326419  0.009455134  58.61  0.001199072    1.688    0.407
       192  -8.5723    147.7871     67.1762   2.9048642959e+02   6.1018485817e+00   0.01317491    0.0101231 -32.91 0.0004306066    1.341    0.254
       193  -9.4509    199.2051     71.3884   2.8991805454e+02   5.7764236161e+00   0.01436933   0.01160756  41.40  0.001075142    1.283    0.221
       194  -9.9515    247.5923     94.1881   2.8949399270e+02   5.2579948833e+00   0.02114858   0.01374878  21.91  0.001406182    1.549    0.354
       195  -9.7795     96.2677     65.9197   2.9107384180e+02   6.3939320820e+00   0.01861758   0.01470422  31.86  0.001752069    1.264    0.209
       196  -8.2471     83.4063     67.0492   2.9122897842e+02   6.4504934792e+00   0.01427413  0.008138523  -0.90  0.001266784    2.401    0.583
       197 -10.3536    201.7673     65.2717   2.8985276706e+02   5.8313214313e+00   0.02667989   0.01195356  40.51  0.002323999    2.314    0.568
       198  -8.3256     38.0022     64.6650   2.9173970127e+02   6.7214608500e+00  0.009111229   0.00789615  20.38 0.0003574481    1.146    0.127
       199 -10.2891     37.3182     56.6397   2.9170086413e+02   6.8154486520e+00   0.02945233   0.01670151 -30.67  0.002162979    2.137    0.532
       200 -10.7203     29.7684     58.5203   2.9179908769e+02   6.8348154919e+00   0.03822728   0.03567985 -83.97  0.004846212    1.157    0.135
       201 -10.4459     20.5178     40.3334   2.9180011053e+02   7.0890918224e+00   0.01886794   0.01562477  27.39 0.0006433659    1.201    0.167
       202 -10.9425     31.1320     44.3198   2.9170060400e+02   6.9872834155e+00   0.01949195   0.01618793 -11.25 0.0009445809    1.259    0.206
       203 -10.2535     18.9302     46.0193   2.9185158735e+02   7.0336363205e+00   0.01718373   0.01551977 -41.77 0.0005506204    1.083    0.076
       204 -11.6148     26.0632     48.9918   2.9178642652e+02   6.9619229344e+00   0.02475185   0.01911567  45.98 0.0006690612    1.382    0.277
       205  -9.7444     26.2790     43.9504   2.9175456405e+02   7.0174873809e+00   0.01440204   0.01170893  26.73 0.0006459898    1.221    0.181
       206  -9.4150    249.5973     61.2011   2.8927798790e+02   5.6178493052e+00   0.01443653  0.009940387 -44.31  0.001563838    1.440    0.306
       207  -9.9261    249.0730     56.7332   2.8925787983e+02   5.6708903420e+00   0.01526679   0.01299038 -23.97   0.00104521    1.198    0.165
       208 -10.7639    246.6093     89.4931   2.8947785963e+02   5.3160991830e+00   0.02974711   0.01842077  37.53  0.002305639    1.625    0.385
       209  -9.1204    128.6949     60.4458   2.9066747679e+02   6.2806442494e+00   0.01211589   0.01166193 -25.85 0.0007838699    1.011    0.011
       210  -9.2742     77.3373     61.2684   2.9126537874e+02   6.5482112480e+00   0.03368874   0.01197927  16.92  0.002321169    3.792    0.736
       211 -10.8476     76.4747     54.4858   2.9123579210e+02   6.6291677355e+00   0.04853681   0.02515882 -36.06  0.004099364    2.249    0.555
       212 -10.5271     83.3582     54.8343   2.9115829657e+02   6.5881885944e+00   0.03075772   0.01898307 -17.72  0.002285775    2.091    0.522
       213 -10.7309     84.2168     49.9251   2.9111973698e+02   6.6387930538e+00   0.03125842   0.01972577 -45.20    0.0032609    1.570    0.363
       214 -10.0495    208.4094     58.5854   2.8973711753e+02   5.8705101693e+00     0.022832   0.01789976  65.18  0.002590979    1.517    0.341
       215  -9.6230    208.2781     52.6598   2.8970397380e+02   5.9378232823e+00   0.01764027   0.01131931 -44.40  0.001439405    1.552    0.356
       216 -10.3610    231.8151     58.9899   2.8946981624e+02   5.7391269084e+00   0.01362914   0.01079286  43.66  0.001152182    1.325    0.245
       217 -10.2065    243.1788     56.3878   2.8932372303e+02   5.7067443637e+00   0.01562418   0.01041451  46.78  0.001642667    1.640    0.390
       218  -7.7707    182.2991     57.0048   2.9002888560e+02   6.0296391409e+00  0.008904568  0.008344184 -44.50 0.0004544909    1.053    0.050
       219  -8.4740    164.6147     57.1613   2.9023377337e+02   6.1235362148e+00   0.00959149  0.005525685 -49.73 0.0005382745    1.680    0.405
       220  -9.2370     56.1452     51.7234   2.9145460705e+02   6.7696099148e+00   0.02831604  0.008482833 -53.43  0.002133462    2.942    0.660
       221  -9.7563     69.2160     48.5232   2.9128489137e+02   6.7353130277e+00   0.01952808    0.0157571  53.71  0.001282962    1.375    0.273
       222  -8.2456    181.6486    249.0947   2.9115593447e+02   3.8714172019e+00   0.00908552  0.008104123 -53.82 0.0004888111    1.114    0.103
       223  -9.6069     66.7799     40.9779   2.9126903441e+02   6.8332977481e+00   0.02180763   0.01522213 -26.67  0.002106852    1.591    0.371
       224 -10.3714    124.2195     54.1761   2.9068253596e+02   6.3753186258e+00   0.01506492   0.01390133 -11.01 0.0006484179    1.071    0.066
       225  -9.2869    100.6191     53.4167   2.9095063624e+02   6.5111448814e+00   0.01300601   0.01160085 -77.97 0.0004192872    1.210    0.173
       226  -9.6629    227.3656     53.2243   2.8948733794e+02   5.8280373904e+00   0.01588337  0.009498457 -48.21  0.001079926    1.632    0.387
       227  -9.9527    249.0707     49.5806   2.8921604498e+02   5.7512563733e+00   0.01747307   0.01581171  25.00  0.001886167    1.103    0.094
       228  -9.1058    135.8856     50.4234   2.9052593926e+02   6.3545442428e+00   0.01317632  0.009146712 -37.64 0.0004109735    1.486    0.327
       229  -8.6864     96.7514     49.4347   2.9097207088e+02   6.5767832820e+00   0.02161882  0.006820361 -54.21  0.001660282    2.816    0.645
       230  -9.1292    172.0158     49.9924   2.9010649608e+02   6.1641117114e+00  0.009075649  0.008839651 -19.41            0    1.016    0.016
       231  -8.5417    141.3783     53.4156   2.9048001726e+02   6.2912305544e+00   0.01489647    0.0065723 -68.81  0.001218772    2.655    0.623
       232  -9.2733     91.6163     46.8906   2.9101654478e+02   6.6330693932e+00   0.02143249   0.01208995  82.88  0.001713778    3.274    0.695
       233  -9.5695    129.1291     46.4666   2.9058082603e+02   6.4355219951e+00   0.01146054   0.01043856 -44.98 0.0003412796    1.078    0.072
       234  -9.3795     39.9423     46.9982   2.9161435474e+02   6.9098419929e+00   0.01839036   0.01229223   7.99 0.0003922454    1.659    0.397
       235  -9.7561     37.5047     43.8963   2.9162445724e+02   6.9578322811e+00   0.01928709   0.01208194 -41.22  0.001539624    1.632    0.387
       236  -8.5573    209.1271     44.8805   2.8964868171e+02   6.0206483516e+00   0.01004508  0.008824202  66.02  0.000926326    1.277    0.217
       237  -8.1916    142.7895     43.7902   2.9040749150e+02   6.3918424176e+00   0.01543927  0.008178717  83.33  0.001078091    4.239    0.764
       238 -10.6647      8.6120     39.6036   2.9193354500e+02   7.1611450202e+00   0.02944822   0.02179786  86.93  0.003199517    1.697    0.411
       239  -9.7412    244.5534     40.5788   2.8921536684e+02   5.8768818533e+00   0.01453234   0.01151486  19.43 0.0006013958    1.262    0.208
       240  -8.7437    112.5836     39.6835   2.9073226896e+02   6.6010891034e+00   0.01518263   0.01185365  11.12  0.001733971    1.318    0.241
       241  -8.4752     49.3608     39.7686   2.9146332960e+02   6.9405714844e+00   0.01146908  0.007878366  -9.81 0.0009924896    1.726    0.421
       242 -10.3412    233.7854     36.4818   2.8931540197e+02   5.9813215247e+00   0.02246018   0.01915111 -82.98  0.002585138    1.307    0.235
       243  -9.8544     54.3191     36.8354   2.9138890494e+02   6.9469124543e+00   0.02019437   0.01317975  66.75  0.001773312    2.111    0.526
       244  -9.3328    190.0076     35.9331   2.8981676423e+02   6.2247607520e+00   0.02132178  0.009034446 -60.87  0.001494441    2.311    0.567
       245  -8.7795     90.6709     35.0569   2.9095839275e+02   6.7712572623e+00   0.02968703  0.008069895 -55.24  0.002159532    3.158    0.683
       246  -9.8273     96.2250     27.8056   2.9085187528e+02   6.8228637074e+00   0.02324609   0.01542087 -26.88  0.002401778    1.722    0.419
       247  -8.5569    108.2235    248.4440   2.9199743985e+02   4.2741304400e+00    0.0112849  0.008861192 -56.85 0.0005111742    1.259    0.206
       248  -7.7978     33.4953    249.4966   2.9286433425e+02   4.6635457845e+00  0.006405484   0.00625542 -11.85 0.0008105947    1.019    0.019
       249  -8.4712     91.9840     23.2366   2.9087419576e+02   6.8970928399e+00   0.01143593  0.008775906   7.63 0.0003653172    1.367    0.269
       250  -9.1443     95.4380     21.5213   2.9082426250e+02   6.8977606324e+00   0.01152968   0.01005721  74.88 0.0004738169    1.307    0.235
       251 -10.2871    213.0349    242.2173   2.9075486316e+02   3.7795426694e+00   0.03045212   0.01862343 -11.39  0.001476942    2.174    0.540
       252  -7.7975    160.5016    243.5215   2.9136694292e+02   4.0481382327e+00  0.006421912  0.006242713 -13.06 0.0008102673    1.013    0.013
       253 -14.1864    232.3303    235.4299   2.9049345899e+02   3.7517716474e+00   0.04198917   0.02491931 -12.29  0.003844113    2.323    0.570
       254  -7.8821    168.0000    241.9695   2.9127161532e+02   4.0252048337e+00   0.01060482  0.003658748 -62.48 0.0007964108    2.901    0.655
       255 -10.6712      6.2732     26.4214   2.9188381281e+02   7.3219680279e+00   0.02063406   0.01339688  24.51  0.000579086    1.529    0.346
       256  -9.0085    116.0708    240.0291   2.9185826220e+02   4.3267013429e+00   0.01043479  0.009250158   9.63 0.0003424407    1.125    0.111
       257 -11.0446    125.3919    237.3693   2.9173547839e+02   4.3064996476e+00   0.01911488   0.01587228 -17.99 0.0005902838    1.254    0.203
       258 -10.2780    129.7570    231.3291   2.9165014781e+02   4.3510323632e+00   0.02307635   0.01335502 -41.74 0.0007877906    1.783    0.439
       259  -9.5798    250.0883     32.8264   2.8910624334e+02   5.9339090825e+00   0.02980138   0.01194733 -73.52  0.002077045    3.887    0.743
       260  -9.6630    132.0001    226.3193   2.9159522559e+02   4.3953797028e+00   0.01247824    0.0115254 -16.81 0.0003550238    1.067    0.063
       261  -9.3900    134.7618    223.9800   2.9154983213e+02   4.4068541427e+00   0.01112499   0.01012172 -46.58 0.0003542263    1.081    0.075
       262  -7.9506     71.1698    239.5516   2.9237272641e+02   4.5734497759e+00  0.008833157  0.006142559   1.71 0.0004372688    1.630    0.386
       263 -11.8919    209.8964    229.5087   2.9071704147e+02   3.9395090620e+00   0.04490425   0.03812533 -17.27  0.003227885    1.213    0.176
       264  -7.9055    110.3003    235.3455   2.9189755733e+02   4.4105029049e+00  0.007006578  0.004643654 -30.09 0.0007037512    1.681    0.405
       265  -8.7258     74.9678    232.9899   2.9229095181e+02   4.6269790623e+00   0.01086879  0.007598187  58.75  0.001136163    1.738    0.425
       266  -8.0007    173.9116     34.0749   2.8999155115e+02   6.3327769060e+00  0.008467698  0.007045303 -27.65 0.0009941583    1.226    0.184
       267  -9.4918    144.1393     32.3103   2.9032481304e+02   6.5136114286e+00   0.02024564   0.01083377 -50.41  0.001947327    1.797    0.444
       268  -9.3504    141.1327     28.3998   2.9033666296e+02   6.5738153916e+00   0.01824131   0.01064029  41.36  0.001343525    1.786    0.440
       269  -9.0658     61.8676    232.0618   2.9243652583e+02   4.7077879656e+00   0.01254565  0.008717421 -54.45 0.0004867521    1.401    0.286
       270 -10.0288     73.8931     28.7208   2.9111529776e+02   6.9328702304e+00   0.02476129   0.01615269 -29.80 0.0004689642    1.724    0.420
       271  -7.5095      1.6525    233.6824   2.9313983984e+02   5.0123323272e+00  0.007054397  0.004686168 -26.16 0.0007048354    1.728    0.421
       272  -8.3256    153.9955    232.3241   2.9137680425e+02   4.2092793533e+00  0.009330719  0.008187563  21.93 0.0008683869    1.132    0.117
       273  -8.8460    166.5984     26.9067   2.9003400138e+02   6.4529062377e+00   0.01141204  0.009067404  30.30 0.0003947367    1.252    0.201
       274  -9.6359    182.7750     25.1062   2.8983683726e+02   6.3855834120e+00   0.02562589   0.01223991  36.55  0.001786089    2.060    0.515
       275  -8.7499    212.1745     23.1369   2.8948630398e+02   6.2484155977e+00   0.01060837  0.009844318 -22.12  0.000443161    1.057    0.054
       276  -8.5270    106.4981    232.5049   2.9192487881e+02   4.4629533932e+00   0.01182879  0.006353655   7.97  0.001035077    2.368    0.578
       277  -9.2080     44.5197    231.6737   2.9263419179e+02   4.8052601258e+00   0.01152829  0.008394995 -38.45 0.0006173479    1.394    0.283
       278 -10.0882     22.4863    227.2106   2.9286230331e+02   4.9736882889e+00   0.01746152   0.01324626   1.00 0.0007617328    1.427    0.299
       279  -9.6077    233.0624     28.5166   2.8927709813e+02   6.0747069218e+00   0.02098699   0.01536636 -11.63  0.002295092    1.551    0.355
       280  -8.0131    215.5601     17.5067   2.8941431382e+02   6.2932927170e+00   0.01082004  0.006334126  23.76 0.0002192443    1.708    0.415
       281  -9.1608    182.2907     17.4199   2.8979744310e+02   6.4745606946e+00   0.01805336  0.008783164  42.86  0.001474803    2.214    0.548
       282  -8.6586     14.1770    227.8701   2.9296189056e+02   5.0107732579e+00   0.01060163  0.009171058  15.86 0.0006065252    1.152    0.132
       283  -8.3502    250.0116    226.8808   2.9024039169e+02   3.7524622955e+00  0.009643373  0.009159634 -10.17 0.0005014124    1.026    0.025
       284  -8.5231     35.9516    226.6800   2.9270403444e+02   4.9074850560e+00   0.01073962  0.008411811 -40.78 0.0005860971    1.268    0.211
       285  -8.5176    221.9726     22.0410   2.8936695971e+02   6.2075912569e+00   0.01014637  0.007209858 -24.82  0.001081919    1.569    0.363
       286  -9.0506    190.0399    222.2054   2.9090304718e+02   4.1288648726e+00   0.01090615   0.00945145 -74.73 0.0003686241    1.238    0.192
       287  -8.2271    162.9672    221.7842   2.9121225740e+02   4.2796094245e+00  0.009039352  0.008118027  22.95 0.0003597443    1.108    0.098
       288  -8.1300    150.2927    222.3161   2.9136129685e+02   4.3419298427e+00  0.006817188  0.004695648 -29.06 0.0002836056    1.599    0.375
       289  -8.1423    250.5607     14.0157   2.8899062552e+02   6.1425408869e+00  0.009468186   0.00627974 -60.89 0.0004449891    1.507    0.337
       290  -8.4915    145.4969    222.4604   2.9141736647e+02   4.3661440587e+00   0.00646442     0.006188 -17.40 0.0001379308    1.011    0.011
       291 -10.5027     56.0230    217.0270   2.9241678407e+02   4.9085704368e+00   0.02111856  0.009040723 -62.27  0.001049349    2.331    0.571
       292  -8.6554    176.0392    216.7210   2.9103231509e+02   4.2661325048e+00   0.01215529  0.008809167  55.89 0.0009263411    1.610    0.379
       293  -9.0396    112.7420    215.1727   2.9175236127e+02   4.6245977963e+00   0.01605212   0.01054841  -1.86  0.001621176    1.829    0.453
       294  -7.9990    250.5558    215.0746   2.9016536964e+02   3.8823402197e+00  0.009701171  0.006394483 -65.04  0.001012008    1.568    0.362
       295  -9.0372    242.9817    204.3937   2.9019023782e+02   4.0434359555e+00   0.01643251   0.01258557  57.30  0.001542687    1.506    0.336
       296  -8.5319    233.4344    205.5024   2.9030650661e+02   4.0825536204e+00   0.01859682   0.01009838  22.53  0.001510679    1.867    0.464
       297  -9.6084    229.8605    213.6955   2.9039533610e+02   4.0096710395e+00   0.02125163   0.01410534  41.65  0.001696359    1.569    0.363
       298 -10.6311    234.9487    209.6508   2.9031325284e+02   4.0276952130e+00    0.0387953   0.01893322  19.88   0.00328194    2.182    0.542
