#   1 NUMBER                 Running object number                                     
#   2 MAG_AUTO               Kron-like elliptical aperture magnitude                    [mag]
#   3 X_IMAGE                Object position along x                                    [pixel]
#   4 Y_IMAGE                Object position along y                                    [pixel]
#   5 X_WORLD                Barycenter position along world x axis                     [deg]
#   6 Y_WORLD                Barycenter position along world y axis                     [deg]
#   7 A_WORLD                Profile RMS along major axis (world units)                 [deg]
#   8 B_WORLD                Profile RMS along minor axis (world units)                 [deg]
#   9 THETA_WORLD            Position angle (CCW/world-x)                               [deg]
#  10 FWHM_WORLD             FWHM assuming a gaussian core                              [deg]
#  11 ELONGATION             A_IMAGE/B_IMAGE                                           
#  12 ELLIPTICITY            1 - B_IMAGE/A_IMAGE                                       
         1 -14.8424     41.6971    199.3518   1.3145384789e+02   2.9324625431e+01     8.677998     1.671542  53.11   0.03068474    5.134    0.805
         2 -14.9419      6.6708    146.0538   1.3440785287e+02   4.3464959337e+01     4.784739     1.005598 -79.98   0.01655661    4.877    0.795
         3 -13.0091    197.1020     33.5449   6.1252907457e+01   3.1455244196e+01     1.314736      1.08151  46.86  0.006876438    1.256    0.204
         4 -13.7741    212.1241     16.1207   5.4421769034e+01   2.9642071415e+01     1.566558     1.054162  30.63  0.007686454    1.900    0.474
         5 -11.3738      2.5032     15.6402   1.1341264166e+02   7.1340175209e+01    0.4303502    0.1932188 -60.92  0.002292235    2.197    0.545
         6 -11.0629      1.9891      6.9004   1.1021307803e+02   7.2915108365e+01    0.5483322    0.1206121 -52.70  0.002313631    3.395    0.705
         7 -10.8803    189.2758    249.7592   1.1041672559e+02  -4.9587231237e-02    0.3438018   0.07265844  44.13   0.00130543    3.764    0.734
         8 -11.0260    162.9733    249.4945   1.1478149693e+02   4.0111844312e+00    0.2951152     0.170876  52.30  0.001839026    1.584    0.369
         9 -12.2678    140.1401    248.8522   1.1855593681e+02   7.5700157899e+00    0.4485889    0.3576393  61.41  0.003388596    1.224    0.183
        10 -12.6634    107.5878    245.0782   1.2367161361e+02   1.2897245450e+01    0.6464005    0.2421377  46.86  0.003242161    2.006    0.501
        11 -10.3768    101.1455    249.8304   1.2516644472e+02   1.3101571258e+01    0.2297586    0.1602515  51.32  0.001490201    1.087    0.080
        12 -11.9274     92.7292    249.1758   1.2649627759e+02   1.4355632077e+01    0.4331939    0.2483486  61.47  0.002904347    1.488    0.328
        13 -12.1845      6.9635    225.7791   1.3887349109e+02   2.8121441183e+01    0.4218163    0.3721067  75.77  0.003898615    1.474    0.321
        14 -11.5671     30.8470    248.9082   1.3625134105e+02   2.1938950109e+01    0.4535802    0.2894813  39.86  0.003530466    1.708    0.414
        15 -11.5528     39.4657    247.8344   1.3488733892e+02   2.1167054922e+01     0.646749    0.3167318  74.52  0.004395848    1.798    0.444
        16 -12.0457      4.6756    247.7002   1.4005170176e+02   2.4760149034e+01    0.8493154    0.3057567  51.72  0.005832838    1.854    0.460
        17 -12.6552     13.8490    240.7528   1.3844164774e+02   2.4982181781e+01     1.127599    0.3940914  59.72  0.007048622    2.086    0.521
        18  -9.0168     46.5398    231.4560   1.3281825791e+02   2.3028747255e+01    0.1049052   0.07605467  67.09 1.823419e-05    1.019    0.018
        19 -10.8201    152.1739    228.8149   1.1413363107e+02   8.4971391455e+00    0.2212379    0.1732019  47.94  0.001517581    1.058    0.055
        20  -9.7107     42.1883    230.9055   1.3349867291e+02   2.3618562544e+01    0.2211552    0.1133588  59.30 0.0009824152    1.488    0.328
        21 -11.0982    143.6579    229.3873   1.1572563324e+02   9.7763268035e+00    0.2584044    0.1597539  51.46  0.001575354    1.377    0.274
        22  -8.9059    173.6772    219.6733   1.0903140442e+02   6.2680677971e+00    0.1216442   0.08583841  16.44 0.0007048447    1.689    0.408
        23 -11.9581    125.7661    245.9648   1.2068575652e+02   1.0120997222e+01    0.3921025    0.2338866  64.62  0.002436942    1.809    0.447
        24 -10.8955    227.6080    203.7916   9.6945652589e+01  -6.9700070276e-01    0.3307135    0.2394622 -53.50  0.001156987    2.280    0.561
        25 -11.4984     59.8866    193.0864   1.2747707188e+02   2.8374976841e+01    0.3161475    0.2317617 -48.53  0.001311131    1.896    0.472
        26  -9.1171    191.4803    191.9832   1.0134477447e+02   7.1865686875e+00    0.1683628    0.1148578 -66.96 0.0008103565    2.627    0.619
        27  -8.4287    181.5007    192.4663   1.0330864798e+02   8.9216447090e+00    0.1309277    0.1130988  35.14  2.88993e-05    1.016    0.016
        28 -11.6137     65.9230    185.7855   1.2556466410e+02   2.9042108037e+01    0.2465596    0.2087853 -64.06 0.0006007134    1.381    0.276
        29 -10.8602     76.1836    173.9492   1.2210182318e+02   3.0063928949e+01    0.2237847     0.202787  87.76 0.0004039674    1.143    0.125
        30 -13.1670     62.9743    171.2608   1.2460751654e+02   3.2377244864e+01    0.4464974    0.2548115 -48.43  0.001855013    2.254    0.556
        31 -11.8285     83.9929    165.2831   1.1927586215e+02   3.0756494958e+01    0.5900454     0.485135  62.82  0.003724264    1.109    0.099
        32 -10.9515     22.6848    156.2657   1.3176870273e+02   3.9959625672e+01    0.2642194    0.1363406  75.88  0.001479755    1.885    0.469
        33 -12.4557     67.6321    144.1608   1.2005937026e+02   3.7607295606e+01    0.8148013    0.4995266  82.84  0.003534596    1.915    0.478
        34 -11.4581     57.4756    131.8886   1.2074510199e+02   4.1642203116e+01     1.731046     0.551147 -76.02  0.003798641    9.825    0.898
        35  -9.1223     99.9932    146.0162   1.1258231218e+02   3.2398803006e+01    0.1979734    0.1653013 -21.73 0.0003329854    1.625    0.384
        36 -11.9692     85.5003    148.7415   1.1648464263e+02   3.4079293145e+01    0.2693853     0.232279 -51.90  0.000650688    1.285    0.222
        37 -10.0756     32.9731    156.2861   1.2953315501e+02   3.8968264324e+01    0.1658102    0.1349739  78.59  0.001118214    1.072    0.067
        38  -9.3721    109.2466    135.5864   1.0840193293e+02   3.3091001391e+01    0.3268868    0.2297934  -6.32  0.001410646    2.667    0.625
        39 -10.4196     96.2314    132.6198   1.1105083562e+02   3.5951223462e+01    0.2487998    0.2153182 -36.36 0.0003654424    1.338    0.253
        40  -9.0966    106.3446    122.9080   1.0651306530e+02   3.6376832403e+01    0.1913679    0.1650636 -55.80 0.0002852903    1.127    0.112
        41  -9.9663    167.6794    112.6684   8.9361477320e+01   2.5893504392e+01    0.3414454    0.2734541 -78.74  0.001032061    1.620    0.383
        42  -9.7428     97.0105    149.9542   1.1396308680e+02   3.2031732554e+01    0.2528614    0.2381779  36.87 0.0007764942    1.221    0.181
        43  -9.0364    203.4447    111.5009   8.1847567396e+01   1.7935487631e+01    0.1494343    0.1396924   0.15 7.942708e-05    1.037    0.036
        44 -12.5596     32.2407    225.6070   1.3481890528e+02   2.5617078161e+01    0.2600186    0.2139533 -86.12 0.0007516281    1.378    0.274
        45 -11.1163    243.0042     92.4860   7.0532213775e+01   1.2112044461e+01    0.3170711    0.1764994 -11.43  0.001283717    2.444    0.591
        46 -13.7668     39.0716    217.3575   1.3317479786e+02   2.6312163959e+01    0.7743323    0.5575585  68.57  0.002963536    1.021    0.021
        47 -10.7130     55.1205    239.0671   1.3190203315e+02   2.0761763623e+01    0.2888384    0.1661249 -86.96 0.0008448507    1.698    0.411
        48 -11.2708     20.2697    235.1454   1.3721779920e+02   2.5257456619e+01    0.2201387    0.1930949  85.11  0.001998299    1.483    0.326
        49  -8.7402     16.6755     25.3117   1.1002840340e+02   6.8611064290e+01    0.1010143   0.08829222 -85.39   0.00070399    1.658    0.397
        50 -13.8171     10.0007    207.0353   1.3753108066e+02   3.1129705418e+01     1.649385    0.6537075  86.53  0.009545397    2.263    0.558
