#   1 NUMBER                 Running object number                                     
#   2 MAG_AUTO               Kron-like elliptical aperture magnitude                    [mag]
#   3 X_IMAGE                Object position along x                                    [pixel]
#   4 Y_IMAGE                Object position along y                                    [pixel]
#   5 X_WORLD                Barycenter position along world x axis                     [deg]
#   6 Y_WORLD                Barycenter position along world y axis                     [deg]
#   7 A_WORLD                Profile RMS along major axis (world units)                 [deg]
#   8 B_WORLD                Profile RMS along minor axis (world units)                 [deg]
#   9 THETA_WORLD            Position angle (CCW/world-x)                               [deg]
#  10 FWHM_WORLD             FWHM assuming a gaussian core                              [deg]
#  11 ELONGATION             A_IMAGE/B_IMAGE                                           
#  12 ELLIPTICITY            1 - B_IMAGE/A_IMAGE                                       
         1 -14.6755     57.7507    128.6644   6.5761690458e+01   4.3277341822e+01     5.493972     2.053127 -84.98    0.0105058    9.332    0.893
         2 -13.8073    214.3890     53.6582   1.0410720407e+01   2.5914872745e+01    0.8977839    0.8701046 -36.00  0.003939335    1.312    0.238
         3 -14.1719    228.4012     44.2174   7.0971834379e+00   2.4437186739e+01    0.8280299    0.7162781  41.16   0.00572708    1.672    0.402
         4 -12.7989      2.6894     23.5392   7.2020254993e+01   7.6625224904e+01    0.5612633    0.2922463 -65.77  0.001595942    1.829    0.453
         5 -12.4713      3.4345      9.7647   6.4803082480e+01   7.9563861824e+01    0.6469596    0.2217368 -51.82   0.00285301    2.497    0.599
         6  -9.5788    158.1604      9.1229   3.5908685065e+00   4.4202197881e+01    0.1948696     0.128462 -61.85 0.0004364644    1.297    0.229
         7 -10.1361     32.6927      5.3435   3.2973718104e+01   7.6160355225e+01    0.1240825    0.1028693 -80.91  0.000433232    1.693    0.409
         8 -10.9361     79.4829    188.6436   6.7394792408e+01   2.4925601548e+01    0.5651488    0.2664291 -65.43  0.002430849    2.359    0.576
         9 -16.0421     58.1911    232.7719   7.6837743384e+01   1.8252103963e+01     4.513319     3.522561  -6.58   0.01941193    1.680    0.405
        10 -11.3593    132.1812    188.9920   5.4100947179e+01   1.7062847127e+01    0.2811688    0.1867748 -61.54 0.0009478873    1.855    0.461
        11 -15.5988      9.6733    206.9926   8.7510359037e+01   2.8629344077e+01     1.386725    0.9752225  31.98  0.005097597    1.270    0.213
        12 -14.5288     37.7878    175.4125   7.8000131713e+01   3.3396070570e+01      1.40309     1.078422  76.16  0.007740141    1.235    0.190
        13 -11.0279     99.0137    181.2701   6.1187286933e+01   2.3746209424e+01    0.2976878    0.2500964  28.86 0.0006683174    1.124    0.110
        14 -10.8506    174.5063    181.0237   4.3722818919e+01   1.2163590080e+01    0.2841669     0.183254 -48.78   0.00155531    1.715    0.417
        15 -11.2575    172.6350    176.2110   4.3252058696e+01   1.3268406637e+01    0.2363164    0.2054748 -34.26  0.001108301    1.170    0.145
        16 -10.0391     92.1301    175.5114   6.2219134828e+01   2.6103702323e+01    0.2586878    0.1963594  77.93 0.0009878332    1.531    0.347
        17  -9.6017    123.5106    172.4840   5.3519975731e+01   2.1791988865e+01    0.1410058    0.1312665  30.90 9.016069e-05    1.005    0.005
        18 -10.8656    125.0000    247.0294   6.3147602442e+01   7.8373348215e+00    0.3801135   0.06835981 -55.83  0.001265011    7.070    0.859
        19 -13.4324     58.1488    146.6425   6.8389795307e+01   3.8365701522e+01    0.6983991    0.4974757 -10.05  0.001020146    2.027    0.507
        20 -12.2609     55.6339    163.0260   7.1307027583e+01   3.4406250598e+01    0.4599412    0.3366776 -13.35  0.001470501    1.917    0.478
        21 -12.2602     61.0651    158.8264   6.9085391645e+01   3.4762250274e+01    0.4355546    0.3536026   8.25 0.0007845183    1.466    0.318
        22 -12.8003     71.8897    151.1644   6.4578599501e+01   3.5181594727e+01    0.6049434    0.4120284 -85.71 0.0007008727    1.647    0.393
        23 -13.7109     69.7489    145.2296   6.4341739442e+01   3.7052190441e+01     1.559507    0.7922996  78.14  0.005033176    3.454    0.711
        24 -11.5960    179.5639    166.8090   4.0216491046e+01   1.3839756808e+01    0.4396186    0.3155833 -73.55  0.002195163    2.504    0.601
        25 -10.3518    110.4580    167.1323   5.5965050145e+01   2.5107351435e+01    0.2396643    0.1929279  36.00 0.0003657381    1.158    0.137
        26 -11.5947     87.0222    164.9535   6.2101948614e+01   2.9393330392e+01    0.7572033    0.2971156  52.75  0.002210099    3.326    0.699
        27 -10.1426     95.2108    163.5285   5.9541439203e+01   2.8435547085e+01    0.5049208    0.2525319 -77.54  0.001758141    3.267    0.694
        28  -9.7515     80.9460    152.9497   6.2035658255e+01   3.3320720299e+01    0.2453961    0.1655273  61.86 0.0007176014    1.598    0.374
        29 -15.7472     12.1004    243.2079   8.7949858874e+01   2.0920721905e+01     1.783528    0.9383289  55.33  0.009777528    1.478    0.324
        30 -10.7754    133.9728    146.0892   4.6037134684e+01   2.5648818579e+01    0.9096773     0.213517 -55.44  0.001902837    8.179    0.878
        31 -12.6628     80.1540    145.6656   6.1074364537e+01   3.5302887778e+01    0.8064583    0.5486796 -37.93  0.003332207    1.837    0.455
        32 -10.6884     46.8538    147.1099   7.2265088502e+01   3.9727127188e+01    0.2462521    0.1877358  60.46 0.0009565746    1.222    0.182
        33 -10.2484     40.6555    146.0502   7.4264088542e+01   4.0761290548e+01    0.2158971    0.1804773  86.73 0.0007317195    1.144    0.126
        34 -10.9640     96.2684    134.6618   5.4010315558e+01   3.5312001776e+01    0.5207513    0.3817292  -1.42  0.002229049    2.060    0.515
        35 -11.0279     73.3348    135.1596   6.1451998660e+01   3.9141756061e+01    0.3217423     0.218576  69.45  0.001119482    1.672    0.402
        36 -12.2473     82.9937    133.0404   5.7864144660e+01   3.8082556171e+01    0.3159158    0.2876196 -64.21 0.0004429298    1.136    0.120
        37 -10.3558    105.6625    130.3187   5.0295860498e+01   3.4622758290e+01    0.3161223    0.2558553  88.17  0.001297522    1.398    0.285
        38 -10.1936    107.4751    127.0479   4.9049646386e+01   3.5062352136e+01    0.3425933    0.2601315 -18.37  0.001058263    1.843    0.457
        39 -10.5044     74.5990    130.3620   6.0140094545e+01   4.0202006049e+01     0.385868    0.1329561 -56.59  0.001257761    2.813    0.644
        40 -11.2619     68.3857    129.2129   6.2067332285e+01   4.1514584406e+01    0.2946895    0.2088368  52.94  0.001000473    1.375    0.273
        41 -10.7167     66.9165    124.8672   6.1776691541e+01   4.2913963312e+01    0.3443323    0.3087393 -16.22  0.001751237    1.347    0.258
        42 -13.6639      1.9025    248.9987   9.0298812995e+01   2.0722652672e+01    0.5549597    0.2594517 -86.80 0.0008341244    2.371    0.578
        43 -10.2926     21.9549    127.1410   7.9081505326e+01   4.7912333658e+01    0.2333646    0.1723985  58.43 0.0005097015    1.256    0.204
        44 -11.1962     94.1961    122.4039   5.2041563896e+01   3.8764328678e+01    0.3649359    0.2941473 -11.39  0.001097314    1.693    0.409
        45 -10.8782     41.1172    123.1341   7.1143251122e+01   4.7018829099e+01    0.3029019    0.1987332  72.63            0    1.610    0.379
        46 -16.3731      7.5331    219.7382   8.8404498193e+01   2.6045207991e+01      5.67139     1.379324  21.33   0.01424056    3.924    0.745
        47  -9.2625    135.0000    119.9921   4.0039008702e+01   3.1117950620e+01    0.2450003   0.08473329 -47.10 0.0005624778    2.858    0.650
        48 -10.6024     49.6945    119.5321   6.7238090062e+01   4.6918104801e+01    0.3421957    0.1980273  57.83  0.000919072    1.855    0.461
        49 -10.1416    104.9264    116.7488   4.7422890454e+01   3.8052896552e+01    0.2229707     0.209869  20.30 0.0003984249    1.191    0.161
        50 -11.5837     18.5436    112.6873   7.8976258828e+01   5.2246690728e+01    0.3383032    0.2138745  62.33  0.001059898    1.557    0.358
        51  -9.9857    205.2290    110.4812   2.4421967252e+01   1.9097382980e+01    0.2250681    0.1609825 -39.48 0.0005908405    1.197    0.165
        52 -11.1293     23.7099    105.1956   7.5832205693e+01   5.3900939435e+01    0.3757949    0.2644567  59.08 0.0009522263    1.406    0.289
        53  -9.7578     12.4685    101.4960   8.0446784055e+01   5.5836458730e+01    0.1444479    0.1305295  80.39 0.0001992325    1.018    0.017
        54 -12.5176     52.9242     94.3020   6.0816160839e+01   5.3361809064e+01    0.6378686    0.3009091 -57.46  0.002441062    2.039    0.510
        55  -9.8499     35.7648     96.4851   6.8974267433e+01   5.5079210691e+01    0.2395965    0.1903319 -47.77 0.0003705997    1.321    0.243
        56 -11.3067     40.1497     87.2409   6.4996797155e+01   5.7069595118e+01    0.4673395    0.2105549  45.15  0.001403499    2.285    0.562
        57 -12.0601    148.5977    228.6981   5.6121120639e+01   7.8320694422e+00    0.3325894     0.234236 -50.60  0.002110751    1.759    0.432
        58 -10.3845     20.9753     70.9498   7.1409816331e+01   6.3558829350e+01    0.2462684    0.1569313  60.17  0.001133843    1.779    0.438
        59 -11.9015      2.0000     52.0030   7.9732659129e+01   6.9752488001e+01    0.4520439    0.1354428 -72.55  0.001664783    2.883    0.653
        60 -10.0786     19.9273     65.5037   7.0819187506e+01   6.5090037556e+01    0.2105357    0.1399572  18.54 0.0008384612    1.573    0.364
        61 -12.4794     13.4649     60.6938   7.3746151896e+01   6.6864334215e+01    0.5407984    0.3049585 -65.03  0.001578055    1.624    0.384
        62 -12.8458      7.8257     60.1623   7.7254941613e+01   6.7363707920e+01    0.4268552    0.3489081  82.95  0.001597576    1.257    0.204
        63 -12.6706    204.3219     60.0291   1.2922708178e+01   2.7061007865e+01    0.3909241    0.3265198 -63.60 0.0008108643    1.075    0.070
        64 -10.5521    192.2037    193.6124   4.2524270643e+01   7.6851739075e+00    0.2176144    0.1445853 -70.13 0.0009477113    4.255    0.765
        65 -16.7947     26.6408    181.9433   8.1752684462e+01   3.2939294619e+01     8.863351     3.261553  80.49   0.02921043    3.300    0.697
        66 -10.8324     19.8765     48.0954   6.6137607528e+01   6.9511808608e+01    0.2081213    0.1843619  57.82 0.0005226667    1.231    0.188
        67  -8.9289     54.3618     53.7103   4.7492227833e+01   6.3227463637e+01     0.153765    0.1140738  71.48 0.0007025995    1.695    0.410
        68 -10.1693     10.3343     32.3179   6.8131933033e+01   7.4102463818e+01    0.1434283   0.08688147 -31.72 0.0007048412    1.696    0.410
        69 -11.5842    212.0063    242.5041   4.6357950488e+01  -1.1237095403e+00    0.1987444    0.1334985 -23.92  0.001260578    1.367    0.269
        70  -9.9505     60.3651     21.1653   2.8686082672e+01   6.8043013874e+01    0.2291665    0.1775935  45.48 0.0005223858    1.220    0.180
        71 -11.3015    119.1013    242.1731   6.3878649838e+01   9.3086314684e+00    0.1940511    0.1703306  50.30  0.000736712    1.329    0.248
        72  -9.9198     93.7464    191.9914   6.4019887987e+01   2.2160757439e+01     0.182684    0.1771305  38.14 0.0004613886    1.104    0.094
        73  -9.6318    189.7852     15.2089   2.9125274667e+00   3.5981714152e+01    0.1564531    0.1510331  87.37  0.000995742    1.339    0.253
