#   1 NUMBER                 Running object number                                     
#   2 MAG_AUTO               Kron-like elliptical aperture magnitude                    [mag]
#   3 X_IMAGE                Object position along x                                    [pixel]
#   4 Y_IMAGE                Object position along y                                    [pixel]
#   5 X_WORLD                Barycenter position along world x axis                     [deg]
#   6 Y_WORLD                Barycenter position along world y axis                     [deg]
#   7 A_WORLD                Profile RMS along major axis (world units)                 [deg]
#   8 B_WORLD                Profile RMS along minor axis (world units)                 [deg]
#   9 THETA_WORLD            Position angle (CCW/world-x)                               [deg]
#  10 FWHM_WORLD             FWHM assuming a gaussian core                              [deg]
#  11 ELONGATION             A_IMAGE/B_IMAGE                                           
#  12 ELLIPTICITY            1 - B_IMAGE/A_IMAGE                                       
         1 -12.6764      2.9352      3.8655   7.2344568934e+01   7.5313987169e+01    0.4629472    0.3120743   0.21  0.003090891    1.178    0.151
         2 -13.7296      7.2112     10.6369   7.2780863858e+01   7.3901170373e+01     1.360439    0.3692968 -34.07  0.005053279    4.432    0.774
         3 -13.2652     13.3379     10.4456   6.8435255116e+01   7.3235138953e+01    0.5042521    0.1737913 -39.33  0.002324071    3.015    0.668
         4 -11.9112    161.1512      9.5955   2.4922221685e+01   4.2887698296e+01    0.2403433    0.1546235 -68.22  0.001467016    1.491    0.329
         5 -10.5078    167.5139      9.4942   2.4254223478e+01   4.1515373699e+01    0.1188851   0.09407592 -83.72  0.000810119    1.043    0.042
         6 -10.9525    149.4370      9.0244   2.6070530955e+01   4.5531594800e+01    0.2432321    0.1433171 -88.68  0.001336791    1.635    0.388
         7 -11.2500    139.3152      8.6536   2.7210816024e+01   4.7844058827e+01    0.1975418    0.1216949 -72.98  0.001104836    1.736    0.424
         8 -10.6993    206.6855      7.3234   2.0588421061e+01   3.3722190156e+01    0.1171457   0.06134448 -65.43 0.0004734525    1.662    0.398
         9 -11.2607    168.9927      2.4984   2.2492155159e+01   4.1839888416e+01     0.196314    0.1177993 -80.14   0.00119252    1.508    0.337
        10 -11.9103    183.1080      4.2092   2.1686288301e+01   3.8720196341e+01     0.251799    0.1188667 -65.54   0.00129725    2.082    0.520
        11 -11.5284    154.0032      4.5287   2.4426004572e+01   4.4918906274e+01    0.2072146     0.127751 -62.43  0.001147072    1.606    0.377
        12 -11.2746    143.9808      4.6658   2.5571320368e+01   4.7139956462e+01     0.224074    0.1390226 -62.70  0.001101375    1.664    0.399
        13 -11.0334    159.9664      2.9787   2.3443085789e+01   4.3745831826e+01     0.269347    0.1248844 -79.45  0.001300499    2.450    0.592
        14 -11.3135    134.8086      4.6219   2.6682694050e+01   4.9215799425e+01    0.1798076   0.09690326  83.66 0.0009465079    1.746    0.427
        15 -12.2821     22.5884      2.1649   5.8054554481e+01   7.3000130155e+01    0.3404319    0.1163464  33.02  0.001497165    2.627    0.619
        16  -9.9623    173.4990      1.4909   2.1874848455e+01   4.0972571665e+01    0.1155028   0.08942104 -82.44 -0.0001007855    1.032    0.031
        17 -11.5331     30.2471    240.7151   1.0629678129e+02   1.7909369404e+01    0.4189572     0.235081  70.92  0.001869571    1.958    0.489
        18 -11.6631    249.8189    249.8511   5.9595982222e+01  -8.1997166181e+00    0.2096972    0.1357933 -26.80   0.00152201    1.237    0.191
        19 -11.5062     90.3349    249.3356   9.2693028320e+01   9.4828667221e+00     0.356286    0.1819063  40.46  0.001723845    1.796    0.443
        20 -11.7430     84.8031    245.2650   9.3583824439e+01   1.0966235313e+01    0.4001786     0.164909  44.40  0.001668575    2.464    0.594
        21 -10.9850     75.2814    250.5646   9.6411830787e+01   1.1013889596e+01    0.2717669   0.09797335  31.65  0.001147264    2.198    0.545
        22 -11.9355     65.3963    248.9546   9.8613580247e+01   1.2470894995e+01    0.4356369    0.2233547  42.45  0.002038712    1.734    0.423
        23 -11.1553     50.7466    250.1877   1.0217729293e+02   1.3823294097e+01    0.3732606     0.135384  31.23  0.001643552    2.178    0.541
        24 -11.0234     20.6927    248.8624   1.0898371164e+02   1.7083716269e+01    0.3005948    0.1824409  62.78  0.001738652    1.568    0.362
        25 -11.1265     12.2607    248.8954   1.1085647449e+02   1.7831781834e+01    0.3507448    0.1735527  54.68  0.001887281    1.790    0.441
        26 -10.5720      4.7125    250.1242   1.1255388415e+02   1.8222717406e+01    0.2166412    0.1282585  41.08  0.001310089    1.380    0.275
        27 -10.7953     45.0126    237.2551   1.0251468058e+02   1.7174037007e+01    0.2450815    0.1575252  61.14   0.00128843    1.615    0.381
        28 -11.0113      6.6577    235.6760   1.1146299088e+02   2.1115091757e+01    0.3180275    0.1480242  53.13  0.001620057    1.902    0.474
        29 -11.2611     95.3797    236.1685   8.9954554919e+01   1.1544429734e+01    0.2690409    0.1946699  57.66  0.001432405    1.668    0.400
        30 -11.4652     82.1681    236.6319   9.3286911898e+01   1.3081414541e+01    0.3309054    0.1884028  46.69   0.00159806    1.793    0.442
        31 -10.8105     21.9006    235.0705   1.0789817581e+02   1.9923267869e+01    0.2957226    0.1286081  54.56  0.001361056    2.235    0.553
        32 -11.4820     59.4948    233.1615   9.8584961682e+01   1.6497670307e+01    0.4826092    0.1456905  45.37  0.001687983    3.359    0.702
        33 -10.7189     48.7726    230.5070   1.0102125378e+02   1.8267823814e+01     0.327479    0.1476485  61.86  0.001287275    3.017    0.669
        34 -10.5091     40.9731    229.9692   1.0291736033e+02   1.9207684212e+01    0.2237153    0.1319337  54.98  0.001134575    1.687    0.407
        35 -11.2787      5.3244    228.4155   1.1141093912e+02   2.2822446762e+01    0.3482878    0.1842783  60.70  0.001839963    1.764    0.433
        36 -10.1616     32.0283    228.9983   1.0505004418e+02   2.0321120319e+01    0.2232766    0.1257477  54.68  0.001126896    1.725    0.420
        37 -11.1622     26.0148    226.9446   1.0637826892e+02   2.1359167275e+01    0.3873952    0.1913591  79.48  0.001760333    2.413    0.586
        38 -10.8683     73.6610    227.6774   9.4437604079e+01   1.6059846800e+01    0.3029892     0.118122  43.49  0.001179226    2.516    0.603
        39 -10.7011    235.3245    227.0150   5.8450889512e+01  -3.6879551701e+00    0.2000534   0.06132624 -28.21 0.0007051182    4.359    0.771
        40 -10.9854     12.0258    226.5662   1.0973441350e+02   2.2686571169e+01    0.2489576    0.1504981  70.32  0.001360958    1.619    0.382
        41 -10.4166     11.8703    232.5360   1.1010189856e+02   2.1367003577e+01    0.2596081    0.1345875  73.16  0.001312172    2.001    0.500
        42 -10.2226     32.6583    223.3063   1.0446532318e+02   2.1557917277e+01     0.143331   0.08258458  53.76 0.0004438435    1.686    0.407
        43 -11.2675      1.7068    220.2549   1.1185464746e+02   2.4947945374e+01    0.3054723    0.1483323  89.12  0.001207099    2.051    0.513
        44 -12.0641     13.6746    216.7297   1.0874924180e+02   2.4807592423e+01    0.3461834    0.1925518  70.57  0.001744168    1.846    0.458
        45 -11.8340    247.5957    215.9048   5.4656661938e+01  -3.2449779007e+00     0.349565   0.07927047 -38.97  0.001412649    3.409    0.707
        46 -10.4335     27.9687    213.0662   1.0486648475e+02   2.4407230862e+01    0.2265637     0.132065  54.78  0.001123696    1.688    0.408
        47 -11.3876      2.6428    212.3299   1.1121957140e+02   2.6712378407e+01     0.286421    0.1578943  56.35  0.001484625    1.683    0.406
        48 -11.1488     15.6448    212.2229   1.0796534502e+02   2.5703731315e+01     0.358341   0.07508934  35.57  0.001280807    3.322    0.699
        49 -11.3624      7.0476    206.6427   1.0979541626e+02   2.7727439811e+01     0.305345    0.1578309  76.72   0.00145737    2.013    0.503
        50 -10.1104     36.0205    207.5140   1.0228044778e+02   2.4968335159e+01    0.2124976   0.07863161  44.81 0.0008104358    2.579    0.612
        51 -10.5685      1.5714    205.2464   1.1110089517e+02   2.8469213706e+01    0.2387106    0.1145239 -87.14  0.001127803    2.033    0.508
        52 -11.3684     14.5367    204.5132   1.0772902759e+02   2.7647183317e+01    0.3257571     0.140277  55.52  0.001383521    2.408    0.585
        53 -12.0200      3.7809    196.8124   1.1004152275e+02   3.0353833051e+01    0.4589523    0.2066373  66.67  0.001991692    2.407    0.584
        54 -10.1241     14.4988    196.9806   1.0720459556e+02   2.9498139692e+01     0.202434    0.1237378 -82.03  0.001028649    1.591    0.371
        55 -11.0762     19.8070    195.2258   1.0562963117e+02   2.9496676182e+01    0.2477608     0.101308  56.13 0.0009501325    2.780    0.640
        56  -9.9442     39.6916    194.3066   1.0000022002e+02   2.7872579499e+01    0.1477927   0.09647151  57.28 0.0003453717    1.612    0.380
        57 -11.2809      7.6806    194.5764   1.0886545403e+02   3.0621011677e+01    0.2267709    0.1356746  71.33 0.0005881926    1.683    0.406
        58 -10.7308     11.4327    191.2551   1.0761910418e+02   3.1165962860e+01    0.1882309    0.1165776  83.66 0.0009454516    1.622    0.384
        59 -12.2387      3.9616    188.6583   1.0947642026e+02   3.2361238474e+01    0.5374159    0.2065619  50.55  0.002205155    2.617    0.618
        60 -11.7187      9.5399    186.8087   1.0781646009e+02   3.2427255145e+01    0.2161946    0.1523675  32.92 0.0009085055    1.408    0.290
        61 -11.7724      2.1432    178.5418   1.0930076767e+02   3.5037447193e+01    0.3950484    0.1918366  85.40  0.001753636    2.136    0.532
        62 -11.1037      9.2279    177.3936   1.0719197464e+02   3.4851279215e+01    0.1880135    0.1152105  33.99 0.0008264337    1.617    0.382
        63 -12.0375      1.7313    169.8415   1.0880093856e+02   3.7295038146e+01    0.3804421    0.1443077 -74.61  0.001553228    2.334    0.572
        64 -10.1490      6.6800    170.2976   1.0737632810e+02   3.6860489741e+01    0.1421591   0.09034004  57.29 0.0003086021    1.618    0.382
        65 -10.3667     21.7800    170.0333   1.0279946589e+02   3.5807496794e+01    0.1901825    0.1088944 -74.52 0.0008712571    1.672    0.402
        66  -9.5302     45.6645    157.2992   9.3622012527e+01   3.6916148587e+01    0.1556635    0.1076063  57.60 0.0004978631    1.655    0.396
        67 -11.1618      3.1050    154.8465   1.0719240304e+02   4.1122306268e+01    0.2180741    0.1727293  63.49  0.001234573    1.295    0.228
        68 -11.6071      5.3582    147.1660   1.0576913278e+02   4.3016543029e+01    0.2018965    0.1190821 -89.68 0.0009476119    1.728    0.421
        69 -11.9476      7.9674    144.5668   1.0464316724e+02   4.3549290971e+01    0.4056813    0.1672913  69.37  0.001347432    3.813    0.738
        70 -11.0533      4.4289    131.2364   1.0445702392e+02   4.7281408601e+01    0.1946898    0.1233678 -89.62 0.0009470215    1.639    0.390
        71 -10.3681    248.6590    130.3303   3.9759994616e+01   9.9383007066e+00    0.1160113   0.07979419 -62.75 0.0007051475    1.744    0.427
        72 -10.3128    248.3071    119.6498   3.7882087163e+01   1.1643582535e+01    0.1178931   0.07659623 -60.79 0.0005309927    1.708    0.415
        73 -11.1357    242.4203     93.2368   3.3742938325e+01   1.6510958494e+01    0.1726289   0.08446424 -49.08 0.0009506238    1.683    0.406
        74 -11.4283    237.0177     90.0447   3.3742456235e+01   1.7837447491e+01    0.2473363    0.1190452 -57.03  0.001030466    2.176    0.540
        75 -11.6239    240.3875     86.1981   3.2663327847e+01   1.7860628102e+01    0.2711641    0.1439906 -73.62  0.001298478    3.093    0.677
        76  -9.9836    239.3269     81.3100   3.1870019921e+01   1.8734800726e+01       0.1023   0.08773559  -9.71 0.0007039919    1.660    0.397
        77 -11.3794    242.6181     78.3529   3.0993917798e+01   1.8624341480e+01    0.2883587   0.09720588 -35.72  0.001260881    3.025    0.669
        78 -11.5133    249.6801     80.7020   3.0731034077e+01   1.7184695535e+01    0.1670753    0.1345164  76.53  0.001250324    1.443    0.307
        79  -9.7485    239.3415     76.6606   3.1008885471e+01   1.9391821326e+01    0.1219958   0.07121688 -64.46 0.0007049579    1.770    0.435
        80 -11.7092    248.3070     74.0344   2.9670017094e+01   1.8321628921e+01    0.1643829    0.1151797 -51.29 0.0007744971    1.106    0.096
        81 -10.1442    239.6724     72.3381   3.0179498380e+01   1.9940820204e+01    0.1207807    0.0699176 -63.83 0.0007051758    1.730    0.422
        82 -11.2672    249.0132     65.5171   2.8092392004e+01   1.9359604476e+01    0.1442174    0.1019769  77.06  0.001028717    1.582    0.368
        83 -12.3874    239.4576     60.5271   2.8034260197e+01   2.1573996317e+01    0.2794276    0.1637764 -85.21  0.001693414    2.011    0.503
        84 -11.4017    250.5045     56.4775   2.6378882602e+01   2.0301198667e+01    0.2193766   0.08485068 -40.53 0.0009585056    2.097    0.523
        85 -11.5583    244.4225     52.1153   2.6098003704e+01   2.1840409668e+01    0.2575403    0.0596381 -45.37  0.001133291    3.056    0.673
        86 -10.3528    231.6560     51.3201   2.7024593214e+01   2.4100391106e+01    0.1205801   0.06735782 -65.57 0.0007049703    1.725    0.420
        87 -11.8426    246.7003     47.5797   2.5118613742e+01   2.2035199569e+01    0.2505807    0.1019567 -60.42   0.00130566    2.490    0.598
        88 -10.5095    238.3290     43.6601   2.5067796326e+01   2.3913061864e+01    0.1185538   0.06255062 -63.70 0.0007051681    1.738    0.425
        89 -10.6070      2.0000     40.9468   8.8670154184e+01   6.9040463523e+01    0.1950914   0.06467798 -58.98 0.0008029657    2.946    0.661
        90 -12.2860    242.8417    246.5660   6.0242812028e+01  -7.1658320820e+00    0.5028063    0.1124517 -31.54  0.001771071    5.062    0.802
        91 -11.7420    229.3016    247.9915   6.2766103624e+01  -6.1496195816e+00    0.1673427    0.1129205 -19.51 0.0008786171    1.120    0.107
        92 -10.3238    156.7507     17.5975   2.7385990717e+01   4.3078409385e+01    0.1772646    0.1002315  84.24 0.0009514133    1.686    0.407
        93 -10.1085    141.3483     17.6812   2.9394501130e+01   4.6532064171e+01    0.1312463   0.08287401 -73.60 0.0004732905    1.733    0.423
        94 -10.1835    162.3272     15.6665   2.6268500294e+01   4.2042730269e+01    0.1283601   0.07616562 -69.53 0.0007051611    1.717    0.417
        95 -10.5716    148.7693     15.6260   2.7862025769e+01   4.5056940145e+01     0.180909    0.1000908  82.44 0.0009516666    1.719    0.418
        96 -11.1807     35.9403    247.2593   1.0541036718e+02   1.5959450961e+01    0.2987684    0.1750243  47.30  0.001377485    1.495    0.331
        97 -10.5345    143.6529     12.3252   2.7642856035e+01   4.6526456529e+01    0.1299597   0.07973428 -72.26 0.0007049815    1.747    0.428
        98  -9.9116    175.3068     12.6904   2.4239382407e+01   3.9539485915e+01    0.1220602   0.07208797 -68.84 0.0003728711    1.615    0.381
        99 -12.2167     98.2116    244.7865   9.0287685374e+01   9.4313764424e+00    0.4429225    0.1988985  39.34   0.00197785    2.045    0.511
       100 -11.0671     45.4013    244.4635   1.0299001818e+02   1.5583378272e+01    0.3144643    0.1873715  43.50  0.001674757    1.460    0.315
       101 -11.5927      3.4823    243.3002   1.1252512933e+02   1.9743618593e+01    0.3998126    0.1915257  54.81  0.002138835    1.818    0.450
       102 -11.6154    233.6905    243.8614   6.1373608472e+01  -5.9715698911e+00    0.1919806    0.1061785 -21.31   0.00108047    1.461    0.316
       103 -11.7439     57.7802    242.3654   9.9850977948e+01   1.4697221652e+01     0.475654    0.2205667  46.27  0.002195934    2.040    0.510
       104 -10.6107    210.8129    243.4008   6.5403910125e+01  -3.6824986210e+00    0.1694067   0.09328139   9.65 0.0009544637    1.724    0.420
       105 -12.2249    248.4973    240.5071   5.8391500094e+01  -6.8285610673e+00     0.308035   0.07604403 -37.61  0.001370686    3.139    0.681
       106 -10.9317    109.6602    241.9958   8.7187005669e+01   8.5607511782e+00    0.1959927    0.1145359  88.31 0.0007051182    4.452    0.775
       107 -11.3487     17.6678    241.1880   1.0924072035e+02   1.8978154702e+01    0.4204842    0.1649611  40.86  0.002014652    2.037    0.509
       108 -11.8109     72.7479    240.4208   9.6016928872e+01   1.3403565656e+01    0.3324118    0.1900725  43.03  0.001670765    1.621    0.383
       109 -10.5356     38.6525    240.6653   1.0430661844e+02   1.7089024024e+01    0.2697711    0.1365376  55.06   0.00125749    1.993    0.498
       110 -10.7002    226.3479    240.3101   6.2101523354e+01  -4.7692080528e+00     0.124447   0.06850936 -11.64 0.0007045018    1.710    0.415
