#   1 NUMBER                 Running object number                                     
#   2 MAG_AUTO               Kron-like elliptical aperture magnitude                    [mag]
#   3 X_IMAGE                Object position along x                                    [pixel]
#   4 Y_IMAGE                Object position along y                                    [pixel]
#   5 X_WORLD                Barycenter position along world x axis                     [deg]
#   6 Y_WORLD                Barycenter position along world y axis                     [deg]
#   7 A_WORLD                Profile RMS along major axis (world units)                 [deg]
#   8 B_WORLD                Profile RMS along minor axis (world units)                 [deg]
#   9 THETA_WORLD            Position angle (CCW/world-x)                               [deg]
#  10 FWHM_WORLD             FWHM assuming a gaussian core                              [deg]
#  11 ELONGATION             A_IMAGE/B_IMAGE                                           
#  12 ELLIPTICITY            1 - B_IMAGE/A_IMAGE                                       
         1 -13.5562    215.3792     27.7203   1.4012860721e+01   2.9502959157e+01    0.8462012    0.6538817 -42.96  0.004049727    1.154    0.133
         2 -11.2991     60.8455      2.7005   2.6167666373e+01   7.0062913932e+01    0.2366835    0.1520789  50.10   0.00121398    1.429    0.300
         3 -10.4438     89.9029    221.9405   7.7741497588e+01   1.6535080303e+01    0.3474636    0.2016547  23.28  0.001732198    1.504    0.335
         4 -13.0922    247.0241    247.4450   5.1119094896e+01  -3.6114557453e+00    0.5062815    0.3934639  -7.21  0.004663195    1.402    0.287
         5 -12.9633    248.6325    231.9509   4.8806394017e+01  -2.1205413582e+00    0.4957305    0.1759458 -31.78  0.003038341    2.284    0.562
         6 -14.7506    122.4542    233.4119   7.1532864371e+01   1.0623571044e+01     6.262297     4.705186  84.72   0.03792645    2.233    0.552
         7 -11.7913     89.2377    217.1292   7.7412678260e+01   1.7545238654e+01    0.3805783    0.2576645  32.27  0.001810251    1.218    0.179
         8 -12.0936     40.2787    230.9388   9.0470621893e+01   2.0232284253e+01    0.1839122    0.1713376  22.90   0.00113963    1.234    0.189
         9 -12.1779     47.8363    228.9442   8.8526663099e+01   1.9867415826e+01    0.2392915    0.2127524 -32.24  0.001621853    1.439    0.305
        10 -10.7342     67.8960    214.3553   8.2461917677e+01   2.0644909267e+01    0.1692507    0.1324671  30.11  0.000253663    1.089    0.081
        11 -10.9398    152.5013    208.0279   6.1830178625e+01   1.1181117165e+01    0.2404499    0.1561515  10.63  0.001085248    1.528    0.346
        12 -10.1526     51.3328    201.6265   8.5737936907e+01   2.5277862697e+01    0.2083026    0.1184584 -66.15 0.0005595359    1.958    0.489
        13 -10.1255     61.2619    201.7219   8.3075634883e+01   2.4125547939e+01    0.1350976   0.08669057  52.96 0.0006864652    1.475    0.322
        14  -9.8380    210.9759    198.6930   4.9556294488e+01   5.5466999095e+00    0.1522586    0.1193102   1.24 0.0004769273    1.105    0.095
        15  99.0000     55.0911    192.1412   8.3905858061e+01   2.7020823069e+01    0.2947119    0.1828146  80.77  0.001438264    1.864    0.464
        16 -12.4335     91.8501    241.5573   7.9143414898e+01   1.2746955264e+01    0.2339416    0.1759465 -46.54 0.0006519016    1.632    0.387
        17 -10.7636     41.0681    188.4963   8.7576078968e+01   2.9442129109e+01    0.3244425    0.1476826  47.38  0.001418523    1.904    0.475
        18 -10.3195     49.3058    184.5933   8.4880025407e+01   2.9474119374e+01    0.2563935    0.1942687   7.39  0.001326315    1.506    0.336
        19 -12.1945     49.1935    178.0604   8.4317040778e+01   3.1081859716e+01    0.9467503    0.4665862  65.24  0.002928004    2.381    0.580
        20 -19.2092     20.9618    132.7888   8.9629883199e+01   4.6031691909e+01     19.58976     3.353068 -80.31   0.04403051    6.758    0.852
        21 -11.8018    173.4812    176.5133   5.2534157014e+01   1.3693964303e+01    0.6546897    0.3455429 -47.15  0.002332709    1.989    0.497
        22 -10.8311     54.4530    239.9452   8.7622446000e+01   1.7067541256e+01    0.1190862   0.08364977   3.40 0.0004544058    1.659    0.397
        23  -9.3611     74.0950    180.9368   7.7359606324e+01   2.7285748668e+01    0.2515991    0.1984643  87.45 0.0005652492    1.415    0.293
        24  -9.4306     72.4390    177.2325   7.7383841927e+01   2.8385485587e+01    0.1946445    0.1441727 -73.75 0.0003332823    1.480    0.324
        25  -9.4366     63.5821    181.2505   8.0410494862e+01   2.8569812666e+01    0.1682419     0.133112 -55.88 0.0002722051    1.413    0.292
        26 -11.8066     59.6189    179.7724   8.1405456466e+01   2.9419139748e+01    0.4212497    0.2972767 -27.99  0.001098789    1.876    0.467
        27 -13.1967    110.9181    167.6992   6.5284359435e+01   2.4962840677e+01    0.7599802    0.5159974  69.34  0.001144002    2.105    0.525
        28 -12.0648     59.8776    227.7094   8.5514894691e+01   1.8842769255e+01    0.1919289     0.164187  -7.18 0.0007647762    1.392    0.282
        29 -12.1758    104.7237    172.0437   6.7633328627e+01   2.4951060758e+01    0.3909816     0.362448 -36.43  0.001696373    1.152    0.132
        30 -11.6967    139.7398    171.7256   5.8854118997e+01   1.9599344371e+01    0.2468476    0.2270919  38.80 0.0005317002    1.157    0.136
        31 -11.9511    234.0872    169.0844   4.1155864105e+01   6.9568395329e+00    0.3190219    0.1727768 -44.81  0.001885952    1.984    0.496
        32 -10.8970    100.4582    161.4870   6.7086860067e+01   2.8029089203e+01    0.2634097    0.2254686  64.91 9.067394e-05    1.255    0.203
        33 -11.8784     96.0655    160.8003   6.8211810802e+01   2.8882839510e+01    0.3256659    0.3127448 -35.33 0.0004406035    1.113    0.102
        34 -10.7142     93.6688    157.3153   6.8322350273e+01   3.0092976476e+01    0.2582057    0.1959702  39.47 0.0004661204    1.234    0.190
        35  -9.8222    138.9858    155.4768   5.6053758844e+01   2.3004436380e+01    0.2073939    0.1818982 -43.96 0.0004692693    1.155    0.134
        36 -11.0388    112.7913    151.3239   6.1880811771e+01   2.8356787860e+01    0.4926926    0.3005763  79.80  0.001727343    3.447    0.710
        37 -11.7959    108.8793    145.3734   6.1816640812e+01   3.0408957721e+01    0.3409268    0.3094382 -51.58 0.0006513503    1.134    0.118
        38 -11.6653     90.6452    148.9913   6.7786301990e+01   3.2608143889e+01     0.367573    0.3093261   5.90 0.0007504176    1.363    0.266
        39 -13.0272     96.4660    142.8322   6.4911261343e+01   3.3156990994e+01     0.828931    0.5828013 -30.63  0.003732026    1.785    0.440
        40 -10.3558    116.3143    148.6990   6.0431560099e+01   2.8351147863e+01    0.2057558    0.1361265 -84.70 0.0004760878    2.433    0.589
        41 -12.0056    133.3196    145.3671   5.5415168350e+01   2.6103882963e+01     0.896093    0.3238378 -54.23  0.002817625    3.208    0.688
        42 -11.7935    179.3353    168.7733   5.0034523002e+01   1.4171498436e+01    0.5275984    0.3906518 -35.96   0.00318653    1.263    0.208
        43 -12.3805    106.3829    132.0907   5.9817399325e+01   3.4005412861e+01    0.6924933    0.4670206 -63.07  0.003111987    1.608    0.378
        44 -10.0716    151.1953    134.9488   4.9071780305e+01   2.5043285862e+01    0.2052998    0.1853585 -69.85 0.0003865627    1.237    0.191
        45 -11.8522     96.1291    130.8875   6.2625985152e+01   3.6163432171e+01    0.3014194    0.2912489 -10.26 0.0003646577    1.124    0.110
        46 -11.6671    134.9146    129.7149   5.1685127260e+01   2.9168939346e+01    0.4383264    0.3374314 -72.70  0.002145081    1.586    0.370
        47 -10.4861    114.8619    125.7922   5.6019543897e+01   3.3895278035e+01    0.2340939     0.210859  -3.12 0.0009128384    1.269    0.212
        48 -10.5499    102.4798    120.5884   5.8414030735e+01   3.7512848334e+01     0.288018    0.2577711  -3.60 0.0005680508    1.314    0.239
        49 -11.1943    160.8162    117.8156   4.3196497979e+01   2.6598009323e+01    0.4442918    0.2699175 -64.12  0.001521911    2.314    0.568
        50  -9.7051    110.2063    115.7806   5.4987469982e+01   3.7147907335e+01    0.2040209     0.183999  -8.85 0.0003418132    1.297    0.229
        51 -11.4827    116.4127    109.4179   5.1646869555e+01   3.7356251060e+01    0.3908647    0.2787201  65.35  0.001252412    1.639    0.390
        52 -11.5325    119.3565    103.9851   4.9432648758e+01   3.7960397009e+01    0.3448328    0.2403633 -69.68  0.001415768    1.727    0.421
        53 -11.5492     66.8261    104.1660   6.6823802004e+01   4.8241844138e+01     0.381475    0.3541296 -55.30  0.001661379    1.117    0.105
        54 -11.2000     64.6887     99.8654   6.6639875045e+01   4.9746921359e+01    0.5111429    0.1987561  42.29  0.001721202    2.485    0.598
        55 -11.8915    112.1305     99.2416   5.0167426537e+01   4.0570144880e+01    0.5396324     0.354141  75.71  0.002134851    2.209    0.547
        56 -10.1597    129.0021     90.9224   4.3376161084e+01   3.8651925801e+01    0.2242164      0.21347 -77.38 0.0002990427    1.013    0.013
        57  -9.1093    115.3185     89.6831   4.6577369166e+01   4.1987162780e+01    0.1613768    0.1207862 -87.11 0.0005957182    1.656    0.396
        58 -10.3390     98.8233     88.7934   5.1207742513e+01   4.5835985614e+01    0.3365123    0.2201355  84.83  0.001261038    2.422    0.587
        59  -9.5577     92.9205     85.4268   5.2125706694e+01   4.7891418557e+01    0.2263177     0.131761  66.55  0.000804782    2.434    0.589
        60 -10.3617     55.9812     83.9751   6.6218148301e+01   5.5395839977e+01     0.243196    0.2275391  68.03 0.0004946538    1.050    0.048
        61 -10.3611     74.0699     79.8762   5.7294685341e+01   5.3131054214e+01    0.3059628    0.2133155  52.48 0.0008228852    1.452    0.311
        62  -9.7252    112.7985     72.8376   4.2098175852e+01   4.6099701993e+01    0.2128205    0.1741142 -82.88 0.0003484359    1.305    0.233
        63 -12.7490    173.5979     66.8481   2.8100174850e+01   3.2958300659e+01    0.4315268    0.3799607 -45.56 0.0008310071    1.107    0.096
        64  -9.1823    147.7333     64.9941   3.1790937255e+01   3.9184053319e+01    0.1798525    0.1210076 -41.02  0.000280428    1.416    0.294
        65 -11.1075    165.8875     63.3211   2.8282553697e+01   3.5238932664e+01    0.2440311    0.1708837 -51.32 0.0004265448    1.281    0.219
        66 -13.5157    190.0115     53.5586   2.2531016629e+01   3.1390715858e+01    0.9493936    0.8393229  12.51  0.003633686    1.566    0.361
        67 -11.9414    196.1019     48.0586   2.0498222971e+01   3.0866773561e+01    0.3346031    0.3103112  45.15  0.001003608    1.416    0.294
        68 -15.6579     68.6700    143.7965   7.3870724426e+01   3.7349892783e+01     2.473307     1.753029  60.43   0.01100265    1.472    0.321
        69  -9.5900     46.9251     50.4593   5.9416903239e+01   6.5173934726e+01    0.2274306    0.1417786  37.90 0.0007401318    1.569    0.363
        70 -10.0511     90.0869     48.0953   3.9828174264e+01   5.6359226388e+01    0.2329998    0.2081415  82.83 0.0005328617    1.088    0.080
        71  -9.5218     62.5145     47.4805   5.0218371348e+01   6.2803996539e+01    0.1490579    0.1426514  61.76 0.0001377656    1.013    0.013
        72 -11.9652     53.5354    230.7036   8.7256635389e+01   1.8929535505e+01    0.3017955    0.1738985  79.34  0.001622711    2.145    0.534
        73 -10.7975     60.8717     21.1549   3.7587743138e+01   6.7820530626e+01    0.2186941    0.1898573  84.81 0.0006968664    1.239    0.193
