#   1 NUMBER                 Running object number                                     
#   2 MAG_AUTO               Kron-like elliptical aperture magnitude                    [mag]
#   3 X_IMAGE                Object position along x                                    [pixel]
#   4 Y_IMAGE                Object position along y                                    [pixel]
#   5 X_WORLD                Barycenter position along world x axis                     [deg]
#   6 Y_WORLD                Barycenter position along world y axis                     [deg]
#   7 A_WORLD                Profile RMS along major axis (world units)                 [deg]
#   8 B_WORLD                Profile RMS along minor axis (world units)                 [deg]
#   9 THETA_WORLD            Position angle (CCW/world-x)                               [deg]
#  10 FWHM_WORLD             FWHM assuming a gaussian core                              [deg]
#  11 ELONGATION             A_IMAGE/B_IMAGE                                           
#  12 ELLIPTICITY            1 - B_IMAGE/A_IMAGE                                       
         1 -15.5695    234.2634     46.6577   1.1091709170e+00   2.2196370818e+01     3.540505     1.490079 -41.82   0.01815343    1.860    0.462
         2 -15.5232    240.3087    100.7040   1.1730498621e+01   1.3536897911e+01     4.179431      1.21724  43.70   0.01434587    5.810    0.828
         3 -13.1119    135.8092    126.3678   3.6698762590e+01   2.9349320049e+01     1.852097    0.4684075 -47.29   0.00505682    4.024    0.752
         4 -14.8000    243.8579     20.6943   3.5515899055e+02   2.3504615066e+01     2.804954    0.8392372 -45.02   0.01383532    2.307    0.567
         5 -14.2676    249.6131     42.8651   3.5914491852e+02   1.9859950008e+01     2.145938    0.4835629 -30.97  0.006966204    5.584    0.821
         6 -11.7730    220.2946     22.2311   3.5699577695e+02   2.7899313052e+01    0.3081796     0.250491 -25.30  0.001035162    1.517    0.341
         7 -12.0543    203.0102     17.7352   3.5727326198e+02   3.2037691675e+01    0.3042373    0.2570176 -49.50  0.001029705    1.194    0.163
         8 -11.9329    204.0262     10.8962   3.5562404927e+02   3.2546863108e+01    0.4183047    0.2782199   7.93  0.001784372    2.955    0.662
         9 -11.0189    188.6569     14.4149   3.5763727178e+02   3.5588240547e+01    0.3499319    0.1194114 -50.48  0.001480955    2.635    0.621
        10 -12.0267    196.8853     11.8203   3.5635642613e+02   3.4012459819e+01    0.3043019    0.1922466 -70.60  0.001788394    1.385    0.278
        11 -12.0035    190.6771      8.0078   3.5591123881e+02   3.5788277922e+01    0.3139021    0.1717313 -60.84  0.001708229    1.625    0.384
        12 -11.8014    179.2260      3.3045   3.5561925813e+02   3.8865168608e+01    0.4372577    0.2626969  64.36  0.002471331    1.645    0.392
        13 -11.5884    213.1028      2.5282   3.5318851132e+02   3.1467702391e+01    0.5509559    0.1890753  77.71  0.001963057    2.716    0.632
        14  -9.9118    195.3269      3.0270   3.5439432717e+02   3.5237929195e+01    0.1718381   0.09805188   7.26 0.0007046664    4.460    0.776
        15 -10.7738    209.6589    187.3389   3.3601119365e+01   4.5304412903e+00    0.2389116    0.1140249 -42.88   0.00103857    2.105    0.525
        16 -13.0399    247.0890    247.7944   3.7169731094e+01  -8.0368423298e+00    0.6602776    0.3217513 -22.09  0.004248858    1.724    0.420
        17 -11.5916    207.5234    184.0130   3.3379521320e+01   5.3686503255e+00    0.3186663    0.1757701  32.41  0.001660311    1.853    0.460
        18 -11.3318    236.1972    185.5466   2.8763344094e+01   1.2620392177e+00    0.2281774    0.2017604 -85.19  0.001487529    2.198    0.545
        19 -11.5741    223.0409    165.4994   2.7192810681e+01   6.1014097170e+00    0.3448077    0.2001004 -44.60  0.001836648    1.748    0.428
        20 -12.7206    221.9873    177.2416   2.9583370407e+01   4.4002605413e+00    0.5205077    0.3053449 -45.74  0.002800984    1.872    0.466
        21 -11.1716    216.8779    170.9346   2.9268568203e+01   6.1290161070e+00     0.286031    0.2398454 -62.46   0.00174578    1.763    0.433
        22 -12.5542    227.8649    172.4127   2.7708746487e+01   4.3345062509e+00    0.4262844    0.2460636 -33.77  0.002135622    1.475    0.322
        23 -12.3317    230.4423    168.0067   2.6467721688e+01   4.6566134323e+00    0.4734323    0.2795453 -51.06  0.002464156    2.219    0.549
        24  -9.2727    150.6169    180.5236   4.4541970723e+01   1.4972260139e+01    0.1399806    0.1303029   2.43 7.809189e-05    1.044    0.042
        25 -11.5250    209.9680    176.9752   3.1625503878e+01   6.1594603877e+00    0.1887807    0.1670669 -32.05 0.0005278511    1.254    0.202
        26 -13.2334    192.4414    164.7258   3.2515127311e+01   1.0970922220e+01    0.6970107    0.4405331 -43.83  0.001753908    1.574    0.365
        27 -12.4094    199.9236    164.6444   3.1079801361e+01   9.7732696181e+00    0.5556345    0.3820778 -37.22  0.001726565    1.344    0.256
        28 -11.5474    177.4584    169.2139   3.6419662869e+01   1.2641883719e+01    0.3923343    0.2575583 -21.76  0.001592923    1.665    0.399
        29 -11.0033    184.8522    169.7675   3.5012099236e+01   1.1310014992e+01    0.2545898    0.1835249 -65.09  0.001081936    2.170    0.539
        30 -11.6575    249.5284    168.4994   2.3660634073e+01   2.0462577123e+00    0.2299234    0.1874043 -42.39   0.00116905    1.437    0.304
        31 -11.8980    228.4004    157.9074   2.4866631506e+01   6.5220601033e+00    0.3467399    0.1846508 -26.82  0.001403072    1.805    0.446
        32 -11.5081    191.0959    153.7970   3.0555081729e+01   1.3163408337e+01    0.5164193    0.4512791 -49.55  0.003038533    1.280    0.219
        33 -12.5434    200.8884    101.0302   1.7184990299e+01   2.0696898753e+01    0.7720646    0.2425085  51.05  0.002682602    3.448    0.710
        34 -15.3918    241.6552    140.5316   1.9519362136e+01   7.2768041769e+00     3.326207     1.494163 -40.94   0.01670723    1.868    0.465
        35 -10.2012    197.6028    228.2795   4.2793128681e+01  -1.4027102142e-01    0.2095588    0.1262081  34.75 0.0009704926    1.712    0.416
        36 -14.4691    220.2225     98.3368   1.3773428927e+01   1.7430636118e+01     1.260707    0.8614349 -37.62  0.005760612    1.269    0.212
        37  -9.2631    197.2886    222.3094   4.1907949097e+01   7.7585591655e-01    0.1251783   0.07911982  -5.01 0.0003010256    1.578    0.366
        38  -9.5212    216.3105    208.6876   3.6155315814e+01   3.8215585820e-01   0.09983633   0.09830581 -17.34 0.0002569046    1.629    0.386
        39 -12.1432    134.6735    112.5824   3.3539021252e+01   3.2594377017e+01    0.7030299    0.2947244 -48.85  0.002434945    2.489    0.598
        40 -11.5973    134.7725    104.6193   3.1414335872e+01   3.4265864965e+01    0.5626642    0.3703163 -39.40  0.002310259    1.552    0.356
        41 -10.3410     59.9676    148.3063   6.4141865252e+01   3.7430548618e+01    0.2861024    0.2170097 -78.02 0.0005759578    1.365    0.267
        42 -12.3441     67.3128    144.5604   6.1128308946e+01   3.7382851348e+01    0.9436762    0.4752261  43.27    0.0037568    1.968    0.492
        43 -10.7972    143.7936    145.7912   3.9167301477e+01   2.3497369705e+01    0.5014998    0.2713138 -64.69   0.00171881    3.186    0.686
        44 -11.9076    141.7896    139.3581   3.8227864547e+01   2.5287338037e+01    0.4092233     0.366043 -72.39   0.00175734    1.280    0.219
        45 -11.3740    147.5966    137.0946   3.6288200262e+01   2.4619818332e+01    0.3136888     0.266973 -43.80 0.0007146035    1.172    0.147
        46 -11.7156    142.5130    132.6875   3.6510682017e+01   2.6592092489e+01    0.3589306    0.2980598 -42.98 0.0008910818    1.199    0.166
        47 -11.8581    188.3996    131.5899   2.6299002914e+01   1.7718249063e+01    0.3906964     0.305281 -60.18  0.001341099    1.494    0.331
        48 -11.6348    152.3477    131.1885   3.3789578491e+01   2.4910350595e+01    0.3311645    0.2517292  60.82  0.001109268    1.551    0.355
        49 -12.6980     44.5576    128.4968   6.6200727857e+01   4.4656665227e+01    0.9082288    0.5536538 -66.57  0.002373794    1.576    0.366
        50 -12.6989     29.1134    128.7988   7.1815671789e+01   4.6209258307e+01    0.6508409    0.4574116   4.53  0.001965009    1.678    0.404
        51 -12.6793     37.2021    127.3366   6.8676264683e+01   4.5791308692e+01    0.7753981    0.5298001 -60.61  0.002514721    1.376    0.273
        52 -12.8574    160.9166    128.4083   3.1184753793e+01   2.3738296080e+01    0.5570033    0.4926956  53.64   0.00203021    1.210    0.174
        53 -12.4322    173.2725    125.4472   2.7862485805e+01   2.1824252837e+01    0.3714661    0.3047999 -74.87  0.001211383    1.527    0.345
        54  -9.8533    213.1877    129.8071   2.1602493812e+01   1.3541836350e+01    0.1950696    0.1630109 -46.26 0.0006653125    1.180    0.153
        55 -14.2927    235.1348     95.6959   1.1314621893e+01   1.5167412629e+01     1.150746    0.5982211  40.13  0.005633073    2.775    0.640
        56 -11.2637     54.8945    121.2486   6.1132665422e+01   4.5285854870e+01    0.4014671    0.2035835 -71.15  0.001534433    2.218    0.549
        57 -12.1087    133.2752    144.1440   4.1464932445e+01   2.5899919583e+01     1.856216    0.4310757 -54.23  0.003633477    8.449    0.882
        58 -11.4770    151.1153    122.1902   3.1925760539e+01   2.7042368886e+01    0.2384973    0.2120343   4.85 0.0008757815    1.232    0.188
        59 -12.2890    163.4221    119.5202   2.8517651050e+01   2.5003324356e+01    0.4162931    0.2953999  -8.50  0.001837994    1.997    0.499
        60 -12.1515    156.5644    119.3944   2.9993996332e+01   2.6468765803e+01    0.4562882    0.2957577 -58.16  0.001984502    1.817    0.450
        61 -12.5549    119.5274    102.5012   3.4921118798e+01   3.8092091065e+01    0.5630926    0.4368852  68.10  0.002593289    1.513    0.339
        62 -10.9400    125.2666    113.4289   3.6250761151e+01   3.4438142904e+01    0.3147821    0.1514901  38.49   0.00113984    2.184    0.542
        63 -12.2911    126.7223    106.3718   3.3992297350e+01   3.5671486834e+01    0.7633572    0.4103226 -56.15  0.002865518    2.219    0.549
        64 -10.8292    150.5523    109.5671   2.8898294601e+01   2.9755831380e+01    0.3454157    0.2668546 -37.25   0.00113628    1.297    0.229
        65 -12.7399    188.0114    103.0887   1.9785262765e+01   2.2950995110e+01    0.6658662    0.3227374 -45.65 0.0003519398    1.949    0.487
        66 -11.1380    195.2043    106.2611   1.9313723328e+01   2.0935215672e+01    0.2427453    0.2108871 -55.07 0.0002622122    1.128    0.113
        67 -11.0554    161.0046    107.4214   2.6040459883e+01   2.7897738468e+01    0.5531734    0.1688748  47.92  0.001743262    3.353    0.702
        68 -12.0609    112.7989    105.2284   3.7609787181e+01   3.8942162671e+01     0.504609    0.4519143  45.01  0.001767777    1.103    0.093
        69 -12.2340    179.8632    104.0837   2.1477906231e+01   2.4474331446e+01    0.5073777    0.4292524  37.74  0.001685793    1.303    0.232
        70 -12.1469    160.7563    100.2661   2.4261293530e+01   2.9330028400e+01    0.3224002    0.2712755 -35.91 0.0004652799    1.185    0.156
        71 -10.7105    144.2155    100.5504   2.8007486356e+01   3.2984850653e+01    0.3012057     0.260372 -71.56   0.00073084    1.264    0.209
        72 -12.8702    179.5377     94.6239   1.9205379295e+01   2.6235623126e+01     0.443544    0.3586104 -26.91  0.001148618    1.312    0.238
        73 -10.0877    195.7878     94.6708   1.6498568768e+01   2.2796551002e+01    0.2274402    0.1775184 -45.80 0.0003200265    1.160    0.138
        74 -10.1893    113.1887     95.1548   3.4672737675e+01   4.1083852204e+01    0.2310149    0.2135068  -2.42 0.0003674545    1.178    0.151
        75 -11.8265    141.2741    119.8932   3.3728498793e+01   2.9607518540e+01    0.4890531    0.3709563 -44.83    0.0010061    1.311    0.237
        76 -11.5215    184.0324     79.7410   1.4718343357e+01   2.7786395702e+01    0.4478295    0.2526909 -40.28  0.002086089    1.642    0.391
        77  -9.2729    170.5175     79.5026   1.6930921924e+01   3.0866073753e+01    0.1438269    0.1347137 -65.90  9.51089e-06    1.002    0.002
        78 -10.4803      6.3299    208.3238   8.4958854602e+01   2.8242336897e+01    0.1152091   0.08997723 -42.40 0.0004975834    1.699    0.412
        79 -11.4545    182.9833     67.3953   1.1746218173e+01   2.9989640385e+01    0.4415026    0.1951278 -32.65 0.0009996936    2.353    0.575
        80  -9.3713    214.2529     70.3584   8.2994277158e+00   2.2859155765e+01    0.1201234   0.09900428  -7.51 0.0005919393    1.611    0.379
        81 -11.0238    193.2278     68.3422   1.0514424450e+01   2.7568261842e+01    0.3010972    0.2574446  71.84 0.0006648079    1.219    0.180
        82 -10.3149    177.4713     69.2636   1.3075222150e+01   3.0951223350e+01    0.2027041    0.1206652 -48.47 0.0009460184    1.603    0.376
        83 -12.0620    141.6424    126.7657   3.5319931547e+01   2.8052276791e+01    0.4340507    0.3489213 -61.25  0.001647479    1.381    0.276
        84 -10.1001    206.0081     66.0237   8.2948647456e+00   2.5183665743e+01    0.2019335    0.1703039 -56.82 0.0005063736    1.026    0.026
        85 -10.0068    150.3113     65.3021   1.6753225703e+01   3.8015927887e+01     0.144145    0.1150015  24.85 0.0002631888    1.608    0.378
        86 -15.1098    236.2902     84.8086   8.9087148838e+00   1.6577235382e+01     1.940946     1.269389  31.15  0.007122159    2.455    0.593
        87 -11.2633    214.6152     55.1230   4.8018901039e+00   2.4947979896e+01    0.3837586    0.1784121 -25.83  0.001655652    2.741    0.635
        88 -10.7447    161.7525     55.7197   1.1940670513e+01   3.6741903705e+01    0.2347249   0.09629221 -45.17 0.0008991378    2.387    0.581
        89 -11.0031    240.9758    205.0103   3.1377164703e+01  -2.0535530378e+00    0.1503806    0.1386636 -33.05 0.0006133437    1.657    0.396
        90  -9.9410    141.0178     51.7276   1.4485690694e+01   4.2434986676e+01    0.2045081    0.1823697  71.85 0.0005184097    1.055    0.053
        91  -9.5964    199.0241     51.3448   5.6349664160e+00   2.8762445368e+01    0.1761179    0.1535989 -71.37  0.001102933    1.039    0.037
        92 -10.1895    185.1992     50.8567   7.2009856410e+00   3.1919555950e+01     0.199537    0.1619494 -62.76 0.0004569732    1.114    0.103
        93 -11.4800    152.5171     48.7117   1.1468047813e+01   4.0025113361e+01    0.2972611    0.2291576 -63.39   0.00127703    1.310    0.236
        94 -10.2482    190.5639     38.4389   3.4209243753e+00   3.2355447476e+01    0.3854344    0.1467539 -44.35  0.001400808    2.290    0.563
        95 -10.7971    169.1975     37.8803   5.8527538997e+00   3.7423035925e+01    0.3695236    0.2846637   6.69  0.001957303    1.928    0.481
        96  -9.3005    122.7738     44.9675   1.6106623810e+01   4.7993773937e+01    0.1830912    0.1223187 -33.02 0.0006555874    1.620    0.383
        97 -10.0750    181.1030     35.2653   3.6786588749e+00   3.4931982304e+01    0.2034268    0.1756539 -26.92 0.0005090555    1.359    0.264
        98  -9.7860    184.1953     30.7830   2.1780133604e+00   3.4764176466e+01    0.1600574    0.1484645  55.68   0.00033626    1.306    0.234
        99 -11.8353    206.8419     25.4429   3.5874581383e+02   3.0342860401e+01     0.375919    0.2417061 -28.35  0.001248805    1.722    0.419
       100  -9.5417    195.1420     25.1123   3.5968354144e+02   3.2942875833e+01    0.1755027    0.1210695 -64.47            0    1.272    0.214
       101 -10.3822    249.4843    203.4684   2.9786868991e+01  -2.8012146666e+00     0.114379   0.08428775 -13.10 1.783756e-05    1.006    0.006
       102 -10.0639    220.3426     17.1352   3.5589381739e+02   2.8456955642e+01    0.1629753    0.1506746 -71.32 0.0006563691    1.262    0.208
       103 -11.0636    198.5071     22.4784   3.5875416087e+02   3.2496299467e+01    0.2729962    0.1980988   2.88  0.001505875    2.295    0.564
       104 -11.7460    192.1810    194.4217   3.8176580302e+01   5.8728258216e+00    0.7913672    0.4174343 -59.83  0.002750124    5.114    0.804
       105 -10.0474    160.6773    198.1007   4.5394985188e+01   9.9614441399e+00     0.196171    0.1755106 -68.63  0.001153942    1.530    0.346
       106 -13.4706    246.8771    109.3449   1.2691291032e+01   1.1184632031e+01    0.8033559    0.5767764 -43.52  0.001701849    1.156    0.135
       107 -10.4721    154.5358     15.4404   1.3215948054e+00   4.3613323299e+01    0.2231472    0.1339108  -6.55  0.001038802    2.584    0.613
       108 -10.6243    226.3359    196.0615   3.2242927168e+01   9.7033994110e-01    0.1738653    0.1657176  15.25 0.0006337797    1.508    0.337
       109  -9.0243    217.2850     13.3154   3.5527090262e+02   2.9495574646e+01    0.1005884   0.09080582  42.26 0.0002031953    1.583    0.368
       110  -9.5991    157.3877    193.2289   4.5281511618e+01   1.1386464999e+01    0.1786492    0.1330284 -56.04 0.0004988585    1.671    0.401
       111 -10.9155    239.8538    190.8774   2.9126074487e+01   4.2488025348e-02    0.1814551    0.1276689 -12.22 0.0004252311    1.190    0.160
       112 -11.4491    218.8236    189.2136   3.2314811490e+01   2.9778222273e+00    0.2321092    0.1807392 -40.18  0.001099468    1.446    0.309
       113 -12.6470    219.0804    183.0077   3.1143653908e+01   3.9030264921e+00     0.396556    0.2759663 -31.02  0.001644964    1.262    0.208
