#   1 NUMBER                 Running object number                                     
#   2 MAG_AUTO               Kron-like elliptical aperture magnitude                    [mag]
#   3 X_IMAGE                Object position along x                                    [pixel]
#   4 Y_IMAGE                Object position along y                                    [pixel]
#   5 X_WORLD                Barycenter position along world x axis                     [deg]
#   6 Y_WORLD                Barycenter position along world y axis                     [deg]
#   7 A_WORLD                Profile RMS along major axis (world units)                 [deg]
#   8 B_WORLD                Profile RMS along minor axis (world units)                 [deg]
#   9 THETA_WORLD            Position angle (CCW/world-x)                               [deg]
#  10 FWHM_WORLD             FWHM assuming a gaussian core                              [deg]
#  11 ELONGATION             A_IMAGE/B_IMAGE                                           
#  12 ELLIPTICITY            1 - B_IMAGE/A_IMAGE                                       
         1 -13.1884     37.1521     50.2287   9.2528209167e+01   6.4081773846e+01    0.9333772     0.882529 -13.16  0.005592619    1.217    0.178
         2 -12.4882     67.5934     39.2161   7.3917446524e+01   6.1184745073e+01     1.038187    0.6256129   4.71  0.003371512    2.411    0.585
         3 -11.4075     78.1298     32.4014   6.7007330780e+01   6.0042525727e+01     1.372257    0.5662745 -14.45  0.003438136    7.339    0.864
         4 -11.5780    103.6675     20.3720   5.4560269198e+01   5.5639497340e+01    0.5247301    0.4550846  -3.78  0.002112108    1.273    0.214
         5 -10.2406    126.8658      3.5508   4.3994442209e+01   5.1462879889e+01    0.3008766    0.1397817 -42.08  0.001133545    2.404    0.584
         6 -11.6101    129.5311     18.7739   4.8695429599e+01   4.9464600321e+01     0.492785    0.2800204 -15.91  0.001624774    2.181    0.541
         7 -10.7348    128.7692     11.3742   4.6333346609e+01   5.0344751869e+01    0.4737494    0.1805647  67.35  0.001947798    2.272    0.560
         8 -10.3740    127.0087      8.0541   4.5494129460e+01   5.1065115626e+01    0.2147748    0.1898813 -41.53 0.0002905535    1.275    0.216
         9 -10.3223     89.8817     20.5650   5.8220766354e+01   5.8870199235e+01    0.3550976     0.263312  -1.21  0.001949028    1.514    0.340
        10 -11.6594     13.4296      3.0363   8.4226600725e+01   7.5033753077e+01    0.5078468    0.3425826  42.66  0.001783682    2.176    0.540
        11  -9.8651     15.1028     14.1786   8.9504282295e+01   7.3165844467e+01    0.2080952    0.1624658 -41.26  0.000615856    1.515    0.340
        12 -11.1233     32.4227      1.7823   7.1300810776e+01   7.2476626749e+01    0.2538461    0.1528815  39.02 0.0006326455    1.491    0.329
        13 -10.8551     27.3591      3.2016   7.5106622979e+01   7.3117044483e+01    0.3342503    0.2095484  47.05  0.001557665    2.015    0.504
        14 -11.2811     20.3811     16.4035   8.7161732651e+01   7.2214369290e+01    0.4783353    0.4304902  52.06  0.002811388    1.847    0.458
        15 -12.2040     22.7858      6.8076   8.0163138591e+01   7.3318900473e+01    0.6669785     0.362621 -44.38  0.003460741    2.483    0.597
        16 -11.3849      9.8817     15.5532   9.3876512171e+01   7.3457279136e+01    0.2657287     0.171727 -15.53 0.0005347147    1.324    0.245
        17 -11.8255      3.8266     17.8002   9.9322360335e+01   7.3556966883e+01    0.3833739    0.3720044  20.23  0.001844083    1.518    0.341
        18 -10.8386     48.8543     15.0781   7.0570814567e+01   6.8074847450e+01    0.8691103    0.2289288  50.47  0.002648378    5.031    0.801
        19 -10.0934     35.0826      7.1201   7.3061735289e+01   7.1423614502e+01    0.4945252    0.1824029  27.53  0.001816598    3.632    0.725
        20 -10.3924     43.5015      8.5839   6.9574073476e+01   6.9809359735e+01    0.2524075    0.2210689   1.74  0.001095085    1.198    0.165
        21 -11.2443     39.9085     12.2799   7.3445999255e+01   6.9987928768e+01    0.4692116    0.1960586 -31.97  0.001549089    2.479    0.597
        22 -11.0454     34.5612     15.4648   7.8078599314e+01   7.0423672795e+01    0.5919019    0.2450038  21.85  0.002187878    3.589    0.721
        23 -10.6827     31.1702     12.8239   7.8546186691e+01   7.1301066219e+01    0.2415057    0.1587473 -24.70 0.0003340191    1.465    0.317
        24 -10.4396     60.0998     16.8292   6.6593757475e+01   6.5724379392e+01    0.2980199    0.1948287   6.66 0.0003466166    1.692    0.409
        25 -10.4032     64.3264     13.8776   6.3482237749e+01   6.5200158587e+01    0.3919801    0.2255137   2.31  0.001850995    2.235    0.553
        26 -12.1987    234.3006     11.9790   3.5885525338e+01   2.6332977491e+01    0.4261322    0.2481884 -23.18   0.00253147    2.089    0.521
        27 -10.9400     75.4394     15.6582   6.0444306914e+01   6.2643463669e+01    0.6942014    0.3048287  55.57  0.003033523    2.083    0.520
        28 -10.7213     74.1249      2.7103   5.4757288781e+01   6.4131878763e+01    0.4151969     0.291936 -11.14  0.002421702    1.583    0.368
        29 -11.0522     79.4773     10.5012   5.6817241457e+01   6.2255506615e+01    0.3393517    0.1859453  43.69 0.0005210455    1.544    0.352
        30 -11.6382     75.9322     10.4875   5.7885159580e+01   6.3050213178e+01    0.5017952    0.3896496  69.11  0.002906944    1.466    0.318
        31 -11.3479    176.0042     12.2469   4.0557584054e+01   3.8805492610e+01    0.4494053    0.2148201 -49.25  0.001660015    2.059    0.514
        32 -10.3294    155.0105     14.9885   4.3698445054e+01   4.3556747824e+01    0.2389186    0.1579396  25.97 0.0008084353    2.073    0.518
        33 -10.6682    157.9691     12.4478   4.2597632746e+01   4.3078720447e+01     0.435941    0.1186098 -41.68   0.00161462    3.509    0.715
        34 -10.8187     98.7393     12.5967   5.2641893715e+01   5.7578451540e+01    0.3770906    0.3124857  53.54  0.001809802    1.041    0.040
        35  -9.7929    118.6923     12.6751   4.8522422830e+01   5.2717317035e+01    0.1990614    0.1816068  43.42  0.000662067    1.112    0.100
        36 -10.4317    117.3922      9.2561   4.7533607734e+01   5.3335660723e+01    0.2398511      0.20021 -49.76 0.0007967653    1.361    0.265
        37  -9.3462     55.3592      9.7955   6.4921886617e+01   6.7446643041e+01    0.1801827    0.1270054  21.46   0.00046233    1.284    0.221
        38 -11.8500    241.6826     10.1655   3.5087192535e+01   2.5113124668e+01    0.2952307     0.139218 -44.16  0.001131412    1.672    0.402
        39 -11.1949    226.9451     10.3065   3.6007675385e+01   2.7942884517e+01    0.2831751    0.2173419  69.77  0.001993607    1.421    0.296
        40  -9.7796    164.8017      9.7587   4.1062551101e+01   4.1684408583e+01    0.1880887    0.1318505 -70.21  0.001075663    1.404    0.288
        41  -9.7772     59.2202      9.8240   6.3386490103e+01   6.6672325461e+01    0.1835003     0.129077  23.15  0.001046268    1.295    0.228
        42 -11.0131      8.1930      9.0566   9.1660219573e+01   7.4688875757e+01    0.4459296    0.1963949  36.69  0.002135543    2.921    0.658
        43 -11.6294    216.8124      6.6348   3.5893902841e+01   3.0354327007e+01    0.2729974     0.223873 -14.34  0.001028279    1.617    0.382
        44 -12.3003    178.9726      4.4323   3.8266567337e+01   3.8836342647e+01    0.3505416    0.2463766 -85.57 0.0001074568    1.270    0.212
        45 -11.1660    146.2288      6.4282   4.2267177700e+01   4.6469796902e+01    0.3220592    0.2696038 -17.61  0.002020256    1.422    0.297
        46  -9.3616    112.6371      8.7815   4.8236113421e+01   5.4543136868e+01    0.1396171   0.08025077  47.20 0.0006847238    1.569    0.363
        47 -10.0252     67.1821      7.7747   5.9433135230e+01   6.5213767484e+01     0.180045    0.1234113  31.00 0.0003072043    1.294    0.227
        48 -11.3559     67.2290      3.7523   5.7413041549e+01   6.5563221441e+01    0.4732954    0.1745659  53.34  0.001865291    2.171    0.539
        49 -10.3998    191.4015      6.4299   3.7706825827e+01   3.5832889771e+01    0.2638841    0.1276397 -38.33  0.001393026    1.928    0.481
        50  -9.3369    161.2697      6.9699   4.0673055355e+01   4.2778724328e+01    0.1412295    0.1097143 -33.94  0.000394794    1.410    0.291
        51 -10.4669     97.4084      4.7832   4.9773992199e+01   5.8559675013e+01    0.4525114    0.2047508  36.25  0.001969887    2.380    0.580
        52 -10.6955     91.3479      7.2684   5.2203857193e+01   5.9798925660e+01    0.2919591     0.163754  57.50  0.001053601    1.485    0.327
        53 -10.1302     93.3341      4.3314   5.0497527247e+01   5.9566391661e+01     0.222386     0.158333  27.40 0.0003972619    1.443    0.307
        54 -10.5933    249.3846      8.8485   3.4409825343e+01   2.3826285517e+01    0.1399843   0.09506787 -25.96 0.0009210626    1.724    0.420
        55  -9.8519    130.5321      6.0513   4.4284876648e+01   5.0360433826e+01    0.1740897    0.1323929 -18.82 0.0005834679    1.548    0.354
        56 -11.0629     80.8110      4.2455   5.3584335757e+01   6.2495493128e+01     0.324612    0.2436522 -31.12  0.001145694    1.571    0.363
        57 -11.3491    237.3841      3.4494   3.4016354873e+01   2.6589355473e+01    0.3132874    0.1820659 -23.70  0.001551454    2.080    0.519
        58 -10.7416    243.3379      3.0535   3.3627264222e+01   2.5509065305e+01    0.1572975    0.1120218 -54.35 0.0008296061    1.112    0.100
        59 -10.6826    208.4543      2.3226   3.5510877277e+01   3.2505391958e+01     0.203862   0.09455919  78.93  0.001081186    1.987    0.497
        60  -9.8215    194.5820      1.7835   3.6359714414e+01   3.5550047031e+01    0.1639339   0.09306008 -45.31 0.0009393126    1.611    0.379
        61  -9.8332     87.9735      1.6696   5.0614506040e+01   6.1034320577e+01    0.2248455    0.1228288  47.45  0.001147254    1.512    0.339
        62 -10.4793    164.5233      5.1104   3.9817594843e+01   4.2163435193e+01    0.1736767     0.119181 -34.41  0.001011527    1.555    0.357
        63 -10.5919    203.2490      3.3770   3.6101138021e+01   3.3517503813e+01    0.1935927    0.1748271 -47.17 0.0005309324    1.237    0.191
        64  -9.3578     74.5225    171.4516   1.0673855475e+02   2.9735579201e+01    0.1415885    0.1384771  24.27 5.145537e-05    1.032    0.031
        65 -10.5428    250.1254    246.8542   7.9795349836e+01  -8.3938218529e+00    0.1932147    0.1253017 -16.54  0.001121323    1.215    0.177
        66 -10.7653     88.6482    249.8449   1.1264789084e+02   1.1075975218e+01    0.3162857    0.1840109  24.50  0.001093402    1.568    0.362
        67 -10.0336     72.6388    249.9495   1.1613207178e+02   1.3015481320e+01    0.2062186    0.1669638 -22.03  0.001345952    1.622    0.384
        68 -12.6731     17.8260    238.6720   1.2701495685e+02   2.1027470628e+01     0.958519    0.3770121  32.92  0.005045066    2.067    0.516
        69 -12.0062     28.9409    248.2663   1.2522254955e+02   1.8120347644e+01    0.5188411    0.2760903  68.99  0.003030349    1.867    0.464
        70 -11.4228      4.0415    237.2344   1.2975872041e+02   2.2526546457e+01    0.4185976    0.2471638 -57.72  0.002610296    2.095    0.523
        71 -13.1161      6.1223    244.9359   1.2964002796e+02   2.0867604888e+01    0.9390618    0.4660114  39.64  0.004436268    1.577    0.366
        72 -12.1263     21.9461    248.8063   1.2666530025e+02   1.8698095635e+01    0.4593276    0.2341268  41.08   0.00170909    1.514    0.339
        73 -11.1040     17.2740    247.4126   1.2753548090e+02   1.9399535955e+01    0.2211051    0.1488504  54.07 0.0008030086    1.170    0.146
        74 -10.8546     36.9438    157.9393   1.1597466419e+02   3.7605772665e+01    0.3120242    0.2028055 -81.03 0.0003542504    1.540    0.351
        75 -11.0534     40.6966    163.2035   1.1548394838e+02   3.5890334221e+01    0.8100789    0.2040504 -64.97  0.002706426    3.359    0.702
        76 -11.8105     50.6163    162.1158   1.1240827059e+02   3.5086471024e+01    0.6526039    0.4646502  63.49  0.002320285    1.526    0.345
        77 -11.5226     36.5151    166.9744   1.1713043969e+02   3.5364569766e+01    0.3883514    0.2924072  68.79  0.001975823    1.344    0.256
        78 -11.1312     35.7704    163.3802   1.1694945505e+02   3.6341576623e+01    0.3525141    0.2492616   2.54  0.001198426    1.738    0.425
        79  -9.3009    176.7320    168.6834   7.9696731560e+01   1.3367920502e+01    0.1458378    0.1029826  -8.48 0.0001900809    1.554    0.356
        80 -11.1488     44.5624    162.7038   1.1428221189e+02   3.5609055874e+01    0.3600668     0.255808 -74.22  0.001432767    1.377    0.274
        81  -9.6757     99.2658    164.9615   9.8570669378e+01   2.7618699931e+01    0.2016588    0.1922431 -36.01 0.0003268594    1.073    0.068
        82  -9.7700     67.2302    165.3884   1.0794631018e+02   3.2217573162e+01    0.2142958    0.1223013  40.26 0.0009456052    1.704    0.413
        83  -8.9563    200.3036    162.6422   7.3584169188e+01   1.0474189066e+01    0.1295128    0.1110666 -67.13 0.0007039158    1.719    0.418
        84  -9.8825      9.0504    162.4302   1.2451177399e+02   3.8817081848e+01    0.3627358          nan  32.46 0.0009550514    6.780    0.853
        85 -12.3207     21.9921    157.0844   1.2033433006e+02   3.9173796040e+01    0.6464073    0.5246174 -17.08  0.003774941    1.472    0.321
        86 -10.1305     11.4417    153.4810   1.2310490513e+02   4.0883611604e+01    0.2581473    0.1298323  18.33  0.001225869    2.220    0.550
        87 -10.1276    177.6028    151.0795   7.5753438034e+01   1.6584535084e+01    0.2747069    0.2077262  54.40  0.001248286    1.669    0.401
        88  -9.2619    216.3824    155.1918   6.9052545461e+01   9.1198183783e+00    0.1825388    0.1130056 -42.93 0.0004019412    1.601    0.376
        89 -10.4887     17.6172    147.1380   1.2065934656e+02   4.2047304301e+01    0.2912971    0.1756584  -3.01  0.001184876    2.163    0.538
        90 -10.2229    207.1441    146.1910   6.8812591023e+01   1.2197625891e+01     0.209736    0.1712124  -6.76  0.000726755    1.180    0.153
        91  -9.3728     41.2384    146.3753   1.1315950216e+02   4.0144513296e+01    0.1888584    0.1243031  37.68 0.0002260978    1.543    0.352
        92  -9.6225    220.4690    143.9892   6.6003479500e+01   1.0322088141e+01    0.2041097    0.1154473 -36.49 0.0007338193    1.540    0.351
        93  -9.4296     30.2763    143.6722   1.1630040773e+02   4.1901370165e+01    0.1418392   0.09778508  66.79 0.0003357614    1.591    0.372
        94  -9.7704     49.2855    142.0080   1.0992029694e+02   4.0403827192e+01    0.2024879    0.1769041 -59.16 0.0003716609    1.094    0.086
        95  -9.5065    239.7029    140.6663   6.2254598585e+01   7.7899777771e+00      0.12952   0.08766264  -9.36 0.0005322598    1.646    0.393
        96  -9.6106     57.0123    139.4912   1.0697527788e+02   4.0136947253e+01     0.218304    0.1460275  23.91  0.001022212    1.564    0.361
        97  -9.6500     15.0015    140.0000   1.2074440585e+02   4.4066028913e+01    0.2084215    0.0771305  17.38 0.0008142021    3.025    0.669
        98 -11.0283      2.8272    137.0420   1.2429731005e+02   4.5582318308e+01    0.3091592    0.1611735 -77.19  0.001283579    1.663    0.399
        99 -10.2687      9.3124    136.9082   1.2224012215e+02   4.5235604809e+01    0.1914828     0.146305 -74.76 0.0004051251    1.149    0.129
       100  -9.4460    123.0056    135.4830   8.5628429725e+01   3.0379218379e+01    0.2120699    0.1339943  60.32 0.0004070332    2.301    0.565
       101  -9.7491     20.9693    135.2986   1.1829302297e+02   4.4842473302e+01    0.1876633    0.1676317 -73.32 0.0008379862    1.011    0.011
       102 -10.0504    249.3308    134.0472   5.9530546735e+01   7.3432510868e+00    0.1801414    0.1338389 -32.09 0.0005499299    1.086    0.080
       103 -10.3159     55.5984    133.1504   1.0633299587e+02   4.1955611435e+01    0.2948347    0.2209658  55.25 0.0008716016    1.496    0.332
       104 -10.3748    110.9715    130.6860   8.7958853415e+01   3.3787518881e+01    0.2251584     0.205166  28.43 0.0005798244    1.083    0.076
       105 -11.2974     37.0525    129.7748   1.1211142011e+02   4.4885838231e+01    0.4319708    0.2995233 -54.51  0.001474563    1.328    0.247
       106 -11.4655     73.3045    129.1578   9.9571757211e+01   4.0572655149e+01    0.4988283    0.2843998  49.41  0.002017633    2.071    0.517
       107  -9.4297      9.4964    129.4356   1.2142377891e+02   4.7141424478e+01    0.1321658     0.117066 -74.53 6.960801e-05    1.011    0.010
       108  -9.7732     57.0114    125.8393   1.0448019390e+02   4.3672069205e+01    0.2654397    0.1645723 -20.36  0.001097997    2.148    0.535
       109 -11.5695     21.8700    121.1705   1.1615899315e+02   4.8441957769e+01    0.4488653    0.2755515 -29.75  0.002175028    1.832    0.454
       110 -10.6872     24.8305    117.1688   1.1450822405e+02   4.9252181172e+01    0.3879363     0.245983 -81.29  0.001374739    1.631    0.387
       111 -11.3234     13.4345    126.0387   1.1972235272e+02   4.7770327609e+01    0.4491001    0.2368981  12.51 0.0005793484    2.192    0.544
       112 -11.1886     10.7879    122.7659   1.2025032923e+02   4.8780489534e+01    0.3015016    0.2364941  82.39  0.001189962    1.288    0.223
       113  -9.6414    220.3584    124.2379   6.1781730647e+01   1.3611277741e+01     0.190221    0.1091276 -42.32 0.0006760585    1.583    0.368
       114 -10.8426      2.7855    123.1570   1.2302677290e+02   4.9123347171e+01      0.32356     0.181029 -52.96 0.0006707069    1.600    0.375
       115  -9.9685      1.4320    118.9635   1.2306801548e+02   5.0260364902e+01    0.2932945    0.1560756  68.51  0.001223561    2.201    0.546
       116 -10.5822     72.1215    117.8167   9.7482261609e+01   4.3617214056e+01    0.4290099    0.1953505 -58.46  0.001182109    2.252    0.556
       117 -10.0356     15.5846    119.5341   1.1817347059e+02   4.9311274039e+01    0.2029356    0.1681062 -39.01 0.0005518279    1.209    0.173
       118 -10.9438     16.3393    115.8362   1.1741037500e+02   5.0217271235e+01    0.3070929    0.1978558   2.96  0.001287072    1.810    0.448
       119 -10.4701     85.9437    116.6119   9.2448698161e+01   4.1686946014e+01    0.2626356    0.2039241 -37.08 0.0004723173    1.287    0.223
       120  -9.2942    220.2671    116.6613   6.0133793576e+01   1.4868312130e+01    0.1319831   0.09566136 -56.70 0.0002650332    1.596    0.373
       121  -9.7198    213.9480    115.6934   6.0914737383e+01   1.6181595473e+01    0.1767968    0.1678122   2.97 0.0005630025    1.125    0.111
       122 -10.9067    249.3135    112.3152   5.5139149689e+01   1.0603988045e+01     0.230749    0.1760058 -42.36 0.0006324452    1.151    0.131
       123  -9.7680     94.8139    112.7746   8.8534668606e+01   4.1038903969e+01    0.2128574    0.1916595  84.67 0.0007513748    1.342    0.255
       124 -12.4089     14.4813    109.1092   1.1715865793e+02   5.2072154001e+01    0.5944726    0.3709818 -38.79  0.002564045    1.573    0.364
       125 -11.5950      2.8603    106.7375   1.2120901893e+02   5.3311180111e+01    0.5301714    0.3458563 -68.95  0.002046272    1.296    0.229
       126 -12.1543     55.3492    110.3262   1.0185616627e+02   4.7862276854e+01    0.3686936    0.2953101 -36.47  0.001499338    1.210    0.174
       127 -11.4007     36.6815    109.6890   1.0879784401e+02   5.0140216690e+01    0.4961717    0.2996246  67.64   0.00209168    2.435    0.589
       128 -10.8429     35.9260    102.8086   1.0774252303e+02   5.1976384515e+01    0.5150543    0.2668377 -12.38  0.001975643    2.844    0.648
       129 -11.1365     25.4202    105.9464   1.1246365037e+02   5.2105107763e+01    0.6316944    0.2521596 -70.13  0.002217903    2.444    0.591
       130  -9.5999     82.5130    108.9162   9.1679363960e+01   4.4139936224e+01    0.2347723    0.1515739 -52.53  0.001018121    1.556    0.357
       131  -9.8609     70.8297    108.1122   9.5623023265e+01   4.6230483183e+01    0.2272124    0.2086928  85.73 0.0006238544    1.272    0.214
       132 -10.8540    243.9468    104.6839   5.4246785365e+01   1.2616445350e+01    0.1676067    0.1507876 -35.22  0.000609458    1.092    0.085
       133 -10.1055     50.9783    104.9831   1.0231676462e+02   4.9763780741e+01    0.1853329    0.1623758 -47.64 0.0005902924    1.071    0.066
       134 -10.4126    120.2231    101.1151   7.7511707265e+01   3.8594244269e+01    0.7255281    0.2858556 -31.47  0.002007031    4.114    0.757
       135  -9.1167    223.2889    103.6931   5.6814562388e+01   1.6397058746e+01    0.1297277   0.09402569 -59.59 0.0003003883    1.573    0.364
       136 -10.5711     57.4839     96.6077   9.7755637722e+01   5.0999857369e+01    0.2514188    0.2358716 -26.86 0.0002160301    1.026    0.025
       137 -10.9239     61.9167     98.8406   9.6605855821e+01   4.9832267471e+01    0.3671432    0.3193029 -23.29 0.0008919964    1.111    0.100
       138 -10.3375     66.2020     98.1622   9.4788636903e+01   4.9365193117e+01    0.2663098     0.209601 -12.50 0.0005374038    1.367    0.269
       139 -11.4839      3.3891     99.5048   1.2009838949e+02   5.5122449637e+01    0.2837841    0.2428112 -88.53 0.0005238815    1.194    0.163
       140 -11.2104      1.3975     96.1633   1.2044313501e+02   5.6051630538e+01    0.3187956    0.1649809 -70.60 0.0002371697    1.636    0.389
       141 -11.2520    143.4968     98.5658   7.0614263710e+01   3.4009502189e+01    0.5318327    0.3449959  57.91  0.002295615    1.758    0.431
       142 -10.3858     91.5808    100.2255   8.6216832529e+01   4.4566551924e+01    0.2251527    0.1419377 -36.30 0.0005965433    1.650    0.394
       143  -9.5800     50.9608     99.3056   1.0099991309e+02   5.1188579793e+01    0.1966888    0.1826471   3.81 0.0004197687    1.095    0.087
       144 -10.2165     40.5979     97.8635   1.0481564289e+02   5.2749476266e+01    0.2953664    0.2276022 -60.49  0.001545802    1.252    0.201
       145 -11.0711     14.6544     97.2077   1.1526436981e+02   5.5101785967e+01    0.5325995    0.2206215 -74.34  0.002144949    2.424    0.588
       146 -10.9817     11.2780     91.0104   1.1562635128e+02   5.6864909529e+01    0.4049621    0.1945647  13.31  0.001078552    2.313    0.568
       147 -11.3562     20.6276     93.9519   1.1223533414e+02   5.5523422881e+01    0.6857278    0.1282035 -63.03   0.00212011    3.756    0.734
       148 -10.9029     22.1327     87.0692   1.1024024057e+02   5.7133201130e+01     0.327364    0.2142181 -31.85  0.001683758    1.480    0.324
       149  -9.6032    249.8561     95.8160   5.1703560879e+01   1.2929988996e+01    0.1651284    0.1227857 -52.63 0.0004783657    1.291    0.226
       150 -11.0416     26.3660     92.6857   1.0958524467e+02   5.5397697150e+01    0.5550942    0.2911161 -86.69    0.0021535    2.931    0.659
       151  -9.2737     77.5130     95.4507   8.9820388732e+01   4.8189066142e+01    0.1539957    0.1436768  -9.75 0.0002376286    1.010    0.010
       152  -9.8253    173.4819     83.5028   6.0050522422e+01   2.9964360688e+01    0.2065665    0.1389725 -25.07 0.0007626027    1.640    0.390
       153 -11.5870    157.4726     82.0589   6.2816446763e+01   3.3871285153e+01    0.7191463    0.4012073  28.31  0.002648321    2.841    0.648
       154 -12.4685    165.7786     84.6152   6.1829741602e+01   3.1522319319e+01    0.8176239    0.6714978  60.84  0.004306394    1.269    0.212
       155 -12.3782    158.6815     89.6220   6.4660048654e+01   3.2258812723e+01    0.5039223    0.3625362 -27.79  0.001591665    1.466    0.318
       156 -10.1833    135.4981     91.9960   7.0752710569e+01   3.7088115678e+01     0.237058    0.1518114 -37.66 0.0006533397    1.577    0.366
       157  -9.5119     46.8153     92.6191   1.0103701221e+02   5.3347628694e+01    0.1936938    0.1300894  36.44  0.000420048    1.606    0.377
       158 -10.4813     35.7915     91.1853   1.0528657509e+02   5.4912523257e+01    0.2381521    0.2122088  31.27 0.0006727165    1.244    0.196
       159 -10.2166     31.4374     92.9127   1.0750302905e+02   5.4899391846e+01    0.2010833    0.1936634  32.69  0.000362173    1.176    0.150
       160 -10.1893    108.8234     91.4069   7.8062651695e+01   4.3065074767e+01    0.2226304    0.1442339  30.68 0.0007103265    1.644    0.392
       161 -11.0026     96.2618     89.8213   8.1599533961e+01   4.5980510455e+01    0.4381158    0.2958027  -0.40  0.001771901    2.145    0.534
       162  -9.8931     83.0281     88.9351   8.5913763433e+01   4.8702693158e+01     0.272784    0.1940881  16.51 0.0005724867    1.569    0.363
       163 -10.7491     78.9588     88.0245   8.7121272853e+01   4.9637698767e+01    0.3358383    0.2131417 -45.61  0.001062241    1.558    0.358
       164 -10.9722     46.3611     87.6814   9.9965886928e+01   5.4604192365e+01     0.575633    0.3473268  76.37  0.002005783    3.857    0.741
       165 -10.1772     46.3251     84.3462   9.9093804028e+01   5.5408753641e+01    0.3664763    0.2352021  43.87  0.001711998    1.846    0.458
       166  -9.0915    139.2905     87.7031   6.8559717345e+01   3.7046893183e+01    0.1489284    0.1220793 -79.53 0.0006976962    1.557    0.358
       167  -8.8120    120.6843     87.3001   7.3334857612e+01   4.1331514931e+01    0.1521433     0.125766 -88.90  0.000556862    1.613    0.380
       168 -10.2826     64.9763     87.2959   9.2246593413e+01   5.2126472549e+01    0.2368395      0.19659  -8.83    0.0012009    1.218    0.179
       169 -10.1607     67.5054     84.5033   9.0423648691e+01   5.2369005691e+01    0.3209807    0.1982846 -30.15  0.001386635    1.777    0.437
       170 -10.7957    116.0768     84.7390   7.3869215780e+01   4.2858279131e+01    0.3566483    0.2665052 -13.28  0.001625975    1.606    0.377
       171 -11.6822      5.8542     83.8043   1.1673703733e+02   5.8939833013e+01    0.7018031    0.3520081 -40.19  0.003406937    1.783    0.439
       172 -10.3570      3.0799     78.4250   1.1705460241e+02   6.0385066434e+01    0.3026581    0.1440026 -57.91  0.001131219    1.647    0.393
       173 -10.4717     15.7679     58.8504   1.0652873286e+02   6.4308270832e+01    0.3041632    0.2556159   2.79  0.001262291    1.228    0.185
       174 -12.0943      8.4725     73.9916   1.1374373257e+02   6.1206745647e+01    0.8137594    0.3238094  16.47  0.003546601    2.689    0.628
       175 -13.6025     16.3280     67.6047   1.0853024404e+02   6.2252596401e+01    0.5323661    0.3019497 -46.38  0.001057629    1.465    0.317
       176 -11.6105     22.0901     66.8558   1.0549554064e+02   6.1995174444e+01     0.428141    0.2409726  45.88   0.00121072    2.459    0.593
       177 -11.1028     12.4229     77.7840   1.1267401648e+02   6.0068619339e+01    0.3507944    0.2072884 -51.82 0.0008064637    1.394    0.282
       178 -10.9752     13.9811     74.3268   1.1122101676e+02   6.0810005847e+01    0.2101317    0.1869358  56.33 0.0003561385    1.392    0.281
       179 -11.8316     31.1646     81.2165   1.0492223185e+02   5.7801433905e+01      0.60759    0.3178506 -17.06  0.001578721    2.485    0.598
       180  -9.5670    145.9640     81.9557   6.5306480579e+01   3.6560024790e+01    0.1804686    0.1778304  -0.23 0.0006692289    1.012    0.012
       181 -11.1327     22.0000     74.9145   1.0758493122e+02   6.0105360724e+01     0.541918    0.2870774 -73.08  0.002389651    2.239    0.553
       182 -10.5753     21.4549     81.4774   1.0934632192e+02   5.8560826255e+01    0.3552118    0.2017638 -25.94  0.001070044    1.857    0.462
       183 -10.0346     18.6991     79.3011   1.1011845751e+02   5.9292590168e+01    0.3170482    0.1828171 -55.70    0.0015822    1.470    0.320
       184  -9.9649     86.2862     80.5881   8.2150797036e+01   4.9904701420e+01    0.2655275    0.1881139  26.53 0.0007096704    1.443    0.307
       185  -9.6791     71.0999     79.4985   8.7469036638e+01   5.2893048565e+01    0.2114079    0.1443251  32.28 0.0003340532    1.453    0.312
       186 -10.6330     60.8411     77.9053   9.1092021268e+01   5.4902042458e+01    0.3391176    0.2765732 -67.43  0.001085674    1.526    0.345
       187 -10.6864     54.0327     73.7100   9.2655479066e+01   5.6844372250e+01    0.2903416    0.2378242 -10.31 0.0009374553    1.182    0.154
       188  -9.7733     58.0030     74.2178   9.1117065716e+01   5.6150945875e+01     0.213364    0.1954623  32.81 0.0004458258    1.210    0.173
       189 -11.9923     62.3235     71.5876   8.8445152570e+01   5.6054813453e+01    0.4357503    0.2924053 -14.08 0.0001725258    1.774    0.436
       190 -11.5741    161.8398     93.1592   6.4952589184e+01   3.0906208782e+01    0.3312118    0.2988292  45.36 0.0006864418    1.127    0.113
       191 -12.6744     44.7155     75.2920   9.7237457646e+01   5.7726921947e+01    0.2972356    0.2732277  27.57 0.0005083648    1.214    0.176
       192 -10.8460     41.9757     37.8507   8.5034424461e+01   6.5774908643e+01    0.5564642    0.4848123  11.30  0.003431454    1.137    0.121
       193 -10.7447     31.6636     68.0409   1.0116125556e+02   6.0852883770e+01      0.24888    0.2026843 -14.85 0.0003068248    1.143    0.125
       194 -12.0127     36.9542     66.5970   9.8194502583e+01   6.0616046071e+01     0.856994     0.572064  55.97  0.002820086    2.323    0.569
       195 -11.1267     28.7533     60.3791   1.0029102546e+02   6.2865550222e+01    0.6471501    0.3482212  28.30  0.003111761    1.933    0.483
       196 -12.2294    226.1947    245.8297   8.3757268972e+01  -5.7586867518e+00    0.5961617    0.2840976  -9.10  0.003001672    2.489    0.598
       197 -10.9971     91.3248     75.1526   7.8612554106e+01   5.0028699257e+01    0.3981261    0.2836199  31.48  0.001875615    1.388    0.280
       198 -10.9943     74.3449     75.5390   8.4931507862e+01   5.3183096669e+01    0.4159906     0.176303 -44.27  0.001549352    2.335    0.572
       199 -11.2028     78.5695     69.4381   8.1263317811e+01   5.3668544946e+01    0.6735111    0.2820059  38.28  0.002505604    2.340    0.573
       200 -10.8725     77.3429     64.3736   7.9946517573e+01   5.4898465379e+01    0.4002889    0.3619434 -31.22  0.002213007    1.153    0.133
       201 -10.1663    144.6903     74.0471   6.3271606226e+01   3.8238213972e+01    0.3201676    0.2149828  45.76  0.001486173    1.475    0.322
       202  -9.7380    137.4585     74.0222   6.4933664940e+01   3.9947610402e+01    0.2200317    0.1484396 -35.02 0.0004073207    1.522    0.343
       203 -10.3820    102.5317     73.4722   7.4362677353e+01   4.8011462712e+01    0.3061273    0.1459569  45.05  0.000858416    2.033    0.508
       204  -9.7615     47.0955     56.9034   9.0102716131e+01   6.1413924495e+01    0.1957858    0.1854461  17.28  0.001171276    1.224    0.183
       205 -11.7434     50.1322     68.6896   9.2762065354e+01   5.8499512894e+01    0.3731412      0.27648  -5.40 0.0003382676    1.404    0.288
       206 -11.4513     51.7308     62.7593   9.0043233831e+01   5.9541922633e+01    0.4029036    0.3522505 -76.42  0.001221088    1.579    0.367
       207 -10.1621    173.0645     69.9421   5.6489515206e+01   3.2251284604e+01    0.2026014    0.1989471 -65.53 0.0002913085    1.028    0.028
       208 -11.5754    167.8848     69.8737   5.7390201726e+01   3.3462767540e+01    0.2469797    0.2168036  52.84 0.0003206565    1.153    0.133
       209 -10.8321     10.5432     63.1284   1.1033426399e+02   6.3665189869e+01    0.3002449    0.2022506 -39.81   0.00104144    1.240    0.193
       210 -12.0396      3.9488     64.9271   1.1406878884e+02   6.3584940230e+01     0.482841    0.4087674  74.54  0.002032981    1.492    0.330
       211 -11.6296      4.9377     58.5511   1.1213769416e+02   6.5021337403e+01    0.3986545    0.2998354  62.66 0.0009348882    1.850    0.460
       212  -9.1141    189.3197     68.7138   5.3528649193e+01   2.8755563696e+01    0.1397142    0.1002666 -69.06 0.0002241047    1.594    0.373
       213 -10.5995     94.6990     65.8574   7.4303695054e+01   5.1119521568e+01    0.4262945    0.2782132   8.68  0.001747943    2.223    0.550
       214  -9.0731    147.3056     64.2668   5.9782047264e+01   3.9219881195e+01    0.1444903    0.1106744  26.75 0.0001920451    1.531    0.347
       215  -9.2179    114.0000     62.8806   6.7397597419e+01   4.7352505158e+01    0.2441795   0.08596212 -36.32 0.0003692194    2.968    0.663
       216  -9.3144    109.2956     63.2991   6.8878989245e+01   4.8359975828e+01    0.1517269    0.1137376  15.00 0.0002127554    1.571    0.363
       217 -10.6385     84.7389     61.7399   7.6268773426e+01   5.3944994644e+01    0.4335173    0.2715491  -4.54  0.001719294    2.477    0.596
       218  -9.4282    167.1513     61.0926   5.5085209625e+01   3.4974897816e+01     0.193238    0.1577249 -68.22  0.000356412    1.304    0.233
       219 -10.4429    155.9580     61.0652   5.7108078027e+01   3.7640148677e+01    0.2689525    0.2049441 -86.77  0.001341258    1.563    0.360
       220 -10.3013    121.6413     61.4079   6.4852590174e+01   4.5812099774e+01    0.3640859    0.1348903  50.60  0.001056539    2.517    0.603
       221 -12.5143    147.1287     56.8540   5.7579911049e+01   4.0397326703e+01    0.3345043    0.2727653 -43.03   0.00041465    1.263    0.208
       222  -9.7486     98.2034     60.1900   7.1165187612e+01   5.1378487915e+01     0.216576    0.1894348   6.39 0.0003813578    1.152    0.132
       223 -11.2445     63.2602     59.9785   8.3996412152e+01   5.8289836776e+01    0.3285356    0.1993403  28.92  0.001434875    1.628    0.386
       224 -11.1618     58.8947     58.8956   8.5471946328e+01   5.9227395467e+01    0.4075658    0.3189512 -77.94   0.00193334    2.122    0.529
       225 -11.7726     75.1611     56.1396   7.7748897356e+01   5.6860824348e+01    0.2506881    0.2241028 -28.66 0.0002806693    1.170    0.145
       226 -10.3581     73.8315     51.1708   7.6347378214e+01   5.8001237254e+01    0.3283979    0.2587693   8.43 0.0008386787    1.280    0.219
       227 -11.1699     78.6468     47.6159   7.3121376026e+01   5.7646373390e+01    0.4063148    0.2405104 -27.64  0.001637774    1.827    0.453
       228 -10.8042     98.4390     55.9519   6.9565847425e+01   5.2047529107e+01    0.3291602    0.1978457  41.05 0.0003894426    1.574    0.365
       229 -12.0416    130.4798     50.0944   5.8976365152e+01   4.5431435155e+01    0.6857989     0.479605 -40.91  0.002116914    1.515    0.340
       230 -10.7712     11.1076     44.4013   1.0479220456e+02   6.7801719223e+01    0.4430781    0.1757571 -53.66   0.00146044    2.088    0.521
       231 -12.5521      8.3845     51.5371   1.0847774515e+02   6.6423144611e+01    0.5559012    0.2925695  12.84 0.0002092853    1.982    0.495
       232 -10.4080      4.3662     46.2375   1.0926595948e+02   6.7809187350e+01    0.2696635    0.1443294 -50.09 0.0006980301    1.492    0.330
       233 -10.3522    120.2428     52.6931   6.2279875080e+01   4.7517337302e+01    0.2985707     0.214298  25.21 0.0002642495    1.614    0.380
       234 -11.2881    105.2490     52.4783   6.6255191422e+01   5.1071083401e+01     0.430852    0.2472879  49.27 0.0009423531    1.625    0.385
       235 -10.8927     87.8179     51.7237   7.1466402701e+01   5.5059915216e+01    0.3020943    0.2589063   5.37 0.0006689667    1.158    0.136
       236 -10.0992     62.1181     53.1116   8.1888540234e+01   5.9799927285e+01    0.2209524    0.1786596  -2.34 0.0004706193    1.190    0.160
       237  -9.6105    181.6062     49.8018   4.9761252987e+01   3.3186628184e+01    0.1874705    0.1132028 -46.09  0.000271225    1.603    0.376
       238 -11.8550     26.5588     49.5879   9.7865801028e+01   6.5404232016e+01    0.5312681    0.3785371 -67.05  0.002725267    1.854    0.460
       239 -10.7974    112.6605     47.1255   6.2288429065e+01   5.0149483461e+01    0.4550216    0.3302777 -70.96  0.001651424    1.978    0.495
       240  -9.4596    166.9072     48.7662   5.1677043864e+01   3.6776579631e+01    0.1764451    0.1093178  61.04 0.0004043405    1.550    0.355
       241  -9.6284    151.5119     48.0003   5.4067195703e+01   4.0593446976e+01     0.195063    0.1250352   5.19 0.0008103774    2.575    0.612
       242 -10.6693    143.0413     45.7178   5.4953480299e+01   4.2972141150e+01    0.3036028    0.2515886 -60.62 0.0009056974    1.302    0.232
       243 -10.6543     82.8341     40.8815   6.8912626980e+01   5.7829942972e+01    0.3152056    0.2158973  25.66  0.001504327    1.499    0.333
       244 -11.3539     81.5500     34.9772   6.6914870341e+01   5.8956405005e+01    0.5396718    0.2797227 -26.33  0.001154204    2.142    0.533
       245 -12.3811    233.3515    246.7233   8.2631118461e+01  -6.6475194471e+00    0.5175409    0.3142667 -29.63  0.003433821    1.597    0.374
       246  -9.6203     71.3369     41.2599   7.3298470336e+01   6.0133740953e+01     0.243575    0.1448292 -38.61 0.0002277107    1.806    0.446
       247 -10.9200     73.5246     37.6370   7.0927925704e+01   6.0252436592e+01    0.3231872     0.220048  -6.65  0.001003635    1.712    0.416
       248 -11.8513     36.9030    243.4337   1.2329523351e+02   1.8235939382e+01    0.6188506    0.3210254  82.35  0.003371371    2.212    0.548
       249 -10.5991     57.4668     46.4985   8.1285660255e+01   6.1800235601e+01     0.277366    0.1299018  37.04  0.001066302    2.049    0.512
       250 -11.0666     91.8265     42.7462   6.6673890463e+01   5.5593335302e+01    0.4336044    0.3060244 -34.33  0.002199525    1.520    0.342
       251 -11.6400    100.7543     37.2808   6.1880772861e+01   5.4325838962e+01    0.6757862    0.3298161  33.37  0.002029381    2.516    0.603
       252 -12.5094     57.3762     34.2503   7.6055721539e+01   6.3861831819e+01    0.4229863    0.3369434 -53.50   0.00232942    1.765    0.433
       253 -10.6051     51.2524     44.9955   8.3514752138e+01   6.3088494230e+01    0.2325552    0.1799973 -27.73 0.0004019951    1.236    0.191
       254 -11.6123     52.4292     40.3718   8.1012904897e+01   6.3713094766e+01    0.6856131     0.326851  40.69   0.00194782    2.109    0.526
       255 -11.0344     47.7402     31.6831   7.9363855535e+01   6.5918729416e+01    0.4067863    0.2174363  37.45 0.0008021843    1.778    0.437
       256 -10.0470     50.4831     27.5296   7.6082848554e+01   6.6095436937e+01    0.2693877    0.1907322  17.36 0.0008761439    1.310    0.237
       257  -8.8036    173.9838     44.0000   4.9292835562e+01   3.5726098598e+01     0.221242   0.07358778  64.31 0.0007992165    2.920    0.658
       258 -10.3822    123.1788     41.7804   5.7835697657e+01   4.8363615837e+01    0.3700191    0.3279092 -78.40  0.002077849    1.270    0.213
       259 -10.8987      7.1281     41.1374   1.0609718948e+02   6.8748831066e+01    0.2511124    0.1482758 -44.20 0.0006410507    1.369    0.269
       260  -9.1375    163.3387     42.2524   5.0395408189e+01   3.8486574658e+01    0.1365769   0.09879294  39.91 0.0003409934    1.570    0.363
       261 -10.3945     23.7462     41.7408   9.6549391829e+01   6.7287894295e+01    0.2949128    0.2154095  43.45  0.001643086    1.857    0.461
       262 -11.3433     30.2050     32.8296   8.9173176285e+01   6.8253422577e+01    0.3414007    0.2102246  21.87 0.0009074722    1.538    0.350
       263 -12.1731     24.6718     34.9638   9.3294922995e+01   6.8504762757e+01    0.5622241    0.2921407   0.55 0.0008495058    2.418    0.586
       264 -11.8320     27.5479     38.4259   9.3076947032e+01   6.7531733553e+01    0.2948177     0.264998 -62.52  0.001288412    1.546    0.353
       265 -11.2011     30.7253     37.3477   9.0841225803e+01   6.7365259162e+01    0.2228356    0.2012752  18.70 0.0002739357    1.300    0.231
       266  -8.8834     15.2914     47.3212   1.0333313817e+02   6.6878604633e+01    0.1405205   0.07887559 -30.29 0.0007012041    1.607    0.378
       267 -10.3754    222.5095     38.0918   4.2280212654e+01   2.5776560658e+01    0.2501677    0.1642553  80.52   0.00108692    1.567    0.362
       268  -9.5837    171.3615     36.7642   4.7685863173e+01   3.7250247202e+01    0.2311249    0.1387351  49.35 0.0007997963    1.761    0.432
       269  -9.5680      1.7522     37.3793   1.0819081495e+02   6.9837443177e+01    0.1756774    0.0990104 -11.10 0.0009470356    1.713    0.416
       270 -10.1332    136.6360     36.5383   5.3264587720e+01   4.5733335512e+01    0.3326613    0.1222125  59.28  0.001256228    2.403    0.584
       271 -10.1954     95.0989     34.8545   6.2559421111e+01   5.5955734023e+01    0.2889465    0.2050688 -33.18  0.001230625    1.536    0.349
       272 -10.2781     98.2697     31.3911   6.0282236822e+01   5.5665196472e+01    0.3142468    0.2417061  63.51  0.001684593    1.340    0.254
       273 -11.4326    101.4251     28.3839   5.8250171775e+01   5.5287440739e+01    0.3142604    0.2673201 -74.19  0.001766454    1.467    0.318
       274 -12.6723     74.5712    238.3173   1.1467130497e+02   1.4965038112e+01    0.7670535    0.5185391 -69.09  0.004572161    1.728    0.421
       275 -11.0219     17.5549     31.2680   9.6028680927e+01   6.9922938254e+01    0.6295049    0.2951006   6.69  0.002833202    2.493    0.599
       276 -10.3385      9.4099     34.8412   1.0253342210e+02   6.9897353964e+01    0.3146829    0.2022914 -25.72 0.0008341675    1.319    0.242
       277 -11.0168      8.4256     31.5011   1.0190842816e+02   7.0632921948e+01     0.371711    0.2004707  -1.57  0.001877684    1.876    0.467
       278 -10.0526    201.8798     34.0355   4.3349199324e+01   3.0601197511e+01    0.1835369    0.1651633 -63.24 0.0003967686    1.064    0.060
       279 -10.7774    165.6671     32.1293   4.7186240033e+01   3.9160253099e+01    0.3172818    0.2441679  58.93   0.00181161    1.261    0.207
       280 -10.7430    246.9105     33.0601   3.9248869138e+01   2.1667183675e+01    0.2109434    0.1152056 -72.67  0.001210501    1.943    0.485
       281 -11.1012    234.9184     30.8398   3.9693499909e+01   2.4174087598e+01    0.3903998    0.2391499  37.87  0.001422312    2.775    0.640
       282  -9.8144    225.7900     33.2112   4.0930756231e+01   2.5692981196e+01    0.2155856   0.09033971 -61.30 0.0009488462    2.768    0.639
       283  -9.8518    183.9816     33.4868   4.5196299662e+01   3.4686097168e+01    0.1969612    0.1198101  69.34  0.001025661    1.572    0.364
       284  -9.1243    139.2100     30.9512   5.0989027686e+01   4.5764665309e+01    0.1624579    0.1115359 -30.25 0.0003791772    1.580    0.367
       285 -10.0949     89.2377     31.3039   6.2888769065e+01   5.7750627085e+01    0.2129844    0.1702655  30.85  0.001177418    1.153    0.133
       286  -9.9337     68.9736     22.2033   6.5748492043e+01   6.3281287154e+01    0.4004427    0.1917714  58.22  0.001526106    2.519    0.603
       287 -10.7918     59.4580     21.5158   6.9168985875e+01   6.5276434117e+01    0.2260895    0.1551181  32.56 0.0009266287    1.268    0.211
       288 -10.7190     62.3598     23.7968   6.9073183986e+01   6.4416376839e+01    0.3588917    0.2317225  20.02  0.001810737    1.600    0.375
       289 -11.6782    194.5178     25.8611   4.2127124088e+01   3.3161289016e+01    0.3877558    0.2474928 -77.74  0.001549876    1.596    0.374
       290 -10.5243    111.8351     26.5347   5.4992505151e+01   5.3001338735e+01     0.471645    0.1893026 -22.87  0.001477255    2.995    0.666
       291 -11.2470     70.3982     25.9859   6.6964309705e+01   6.2512666699e+01    0.5436216    0.2739723  27.40  0.002269975    2.390    0.582
       292 -10.3274    213.6921     26.3084   4.0446362751e+01   2.8957335675e+01    0.2182941    0.1819366 -50.58 0.0006883409    1.123    0.109
       293 -10.1666    195.5032    238.6454   8.8389215624e+01  -1.1640942919e+00    0.2716693    0.1675766   4.46  0.001570762    1.496    0.331
       294 -11.0974    130.5961     25.6237   5.0804830201e+01   4.8491703018e+01    0.4466407    0.3255787 -88.74  0.001792077    1.541    0.351
       295 -10.2085    243.5313    237.5394   7.9420620750e+01  -6.5996726925e+00    0.1792806   0.09487357 -40.31 0.0008882203    2.339    0.572
       296  -9.8389    135.3398    237.9948   1.0094087258e+02   6.9839446127e+00     0.204046   0.08439285 -30.64 0.0007051373    4.445    0.775
       297 -11.8125     30.0463    233.9928   1.2418534964e+02   2.0784117762e+01    0.4375244    0.2001332  80.04   0.00213803    2.580    0.612
       298 -11.1400      9.7154     25.0854   9.8451003697e+01   7.1768330488e+01    0.5196608    0.2110038  24.33  0.002030508    2.418    0.587
       299  -9.9711    218.8450     25.9224   3.9926143638e+01   2.7930741343e+01     0.158489    0.1497934 -79.27 0.0002907086    1.200    0.167
       300 -10.1148    146.8101     26.3988   4.8287342813e+01   4.4399705876e+01    0.3225155    0.1076362  61.43 0.0007426111    2.530    0.605
       301 -10.0663    118.8939     25.8183   5.3181105834e+01   5.1356785973e+01    0.2085929    0.1797303  15.66 0.0002818425    1.278    0.218
       302 -10.0096    120.5128     21.1503   5.1190822053e+01   5.1454092930e+01     0.289067    0.1705884  35.43  0.001210508    1.891    0.471
       303  -9.7659      1.4316     25.7518   1.0435800409e+02   7.2212549323e+01     0.162705   0.08999389 -41.84 0.0002438597    1.434    0.303
       304 -10.1969    159.8607    235.9264   9.5299717873e+01   3.9537325035e+00     0.203675    0.1486563   2.28 0.0005195767    1.274    0.215
       305 -10.2053     91.6717     24.7161   5.9445401995e+01   5.7994867074e+01     0.352148    0.1869901  34.59  0.001167753    1.983    0.496
       306 -10.7062     96.4150     23.3344   5.7569107441e+01   5.7046183837e+01    0.4495618    0.2954729  77.99  0.001366897    1.982    0.495
       307  -9.5703    186.8514     22.8752   4.2170611387e+01   3.5218838933e+01    0.1817227    0.1296174 -68.60 0.0004923469    1.338    0.253
       308 -10.6858    168.1398     21.5507   4.3922854438e+01   3.9733520993e+01    0.1915989    0.1173968  74.36 0.0004045574    1.510    0.338
       309 -10.7356     60.4874     27.5392   7.1618133730e+01   6.4274839133e+01    0.2938071    0.2038791 -44.54  0.001155415    1.838    0.456
       310  -8.9600     48.3199     23.3048   7.5046901260e+01   6.7080629864e+01    0.1387835   0.09012305   9.87 0.0003532936    1.633    0.387
       311  -9.6834    155.7942     21.8339   4.5595774478e+01   4.2683384360e+01    0.1829052    0.1404978 -75.03 0.0002521185    1.321    0.243
       312 -10.1491    109.4285    242.8550   1.0731931250e+02   9.6449584546e+00    0.2478224    0.1401345  43.12 0.0009517606    1.627    0.385
       313 -10.3541     26.3618     14.1480   8.2155390470e+01   7.1797811442e+01    0.1922629    0.1359409   4.90 0.0002690597    1.221    0.181
       314  -9.8455    177.4012    234.8106   9.1439529480e+01   1.7554194417e+00     0.172078    0.1051333 -24.98  0.000947747    1.679    0.404
       315 -11.4798    153.3849    232.6778   9.6219818818e+01   5.3830046144e+00    0.3694141    0.2153337 -60.12  0.001520301    2.806    0.644
       316  -9.8806     16.3477     18.7732   9.1045710916e+01   7.2276952933e+01    0.2052258    0.1198024 -16.85 0.0002452412    1.657    0.397
       317  -9.7928     38.3501    232.8562   1.2230699522e+02   2.0168611582e+01    0.1562982    0.1362156  73.38 0.0007041047    1.129    0.114
       318 -10.3620     88.8869    241.2357   1.1174043822e+02   1.2619302732e+01    0.2270101      0.14958 -28.58  0.001224655    2.114    0.527
       319  -9.4280    169.6992    229.2968   9.2194715988e+01   3.6723116465e+00    0.1161944   0.09713704  44.44 0.0002784328    1.576    0.366
       320  -9.6910    190.4985    226.4892   8.7440530312e+01   1.2832491223e+00    0.2045365    0.1037756 -27.64  0.000726007    2.036    0.509
       321 -10.4550     86.4525    233.2706   1.1146607339e+02   1.4447897815e+01     0.241872    0.1238556  46.26  0.001082195    1.824    0.452
       322 -10.2859      5.1915     13.2447   9.6125602375e+01   7.4257466322e+01    0.1826006    0.1566241  18.67 0.0007418744    1.448    0.309
       323  -9.7272    139.9214     19.8684   4.7330394972e+01   4.6784089552e+01    0.2036952    0.1603683  47.93 0.0006048311    1.259    0.206
       324  -9.5379    143.0911     16.8968   4.5910966260e+01   4.6294454544e+01    0.2024378    0.1402193  41.75 0.0003522811    1.550    0.355
       325  -9.4256    130.6874    227.3455   1.0052521687e+02   9.5217051104e+00    0.1305849   0.09727739  55.79 0.0007046556    1.710    0.415
       326 -11.1880    120.2652    226.3469   1.0278944342e+02   1.1186504179e+01    0.2028121    0.2018998 -20.07 0.0009538314    1.216    0.178
       327 -10.0339     65.9878    226.2108   1.1550459693e+02   1.8417339338e+01    0.1967777    0.1809951 -89.89 0.0006876851    1.185    0.156
       328 -11.1107     41.5695     19.2197   7.6322543072e+01   6.8789984979e+01    0.4605113      0.25101  40.86  0.002176567    1.788    0.441
       329 -10.7120      4.4199    226.1180   1.2923526547e+02   2.4712550254e+01    0.2784079    0.1250695  45.74  0.001448566    1.760    0.432
       330 -10.1406     24.1095    232.4486   1.2537138002e+02   2.1672326844e+01    0.2234109    0.1863239   9.31 0.0008810137    1.495    0.331
       331 -11.2535     20.9817    222.3735   1.2548538850e+02   2.4035132456e+01    0.2521939    0.1626524 -84.22  0.001091463    1.532    0.347
       332 -10.5239    228.9272     16.7640   3.7212839058e+01   2.6887435573e+01    0.1885422    0.1687428 -45.10 0.0004303451    1.247    0.198
       333  -9.8465    204.5261     17.5136   3.9227073238e+01   3.1855621663e+01    0.1205694    0.1027553 -72.91  3.70421e-05    1.020    0.020
       334 -10.1170    123.5999    222.1749   1.0143869814e+02   1.1499219184e+01    0.2254696    0.1452812 -18.78  0.001097632    2.034    0.508
       335 -10.2615    142.5292    220.6460   9.6839240191e+01   9.0339805898e+00    0.2732943    0.1115302  20.38 0.0009533049    3.309    0.698
       336  -9.2319     41.6845    220.7039   1.2068837749e+02   2.2328997166e+01    0.1146389   0.09401412 -25.89 0.0007013374    1.605    0.377
       337 -10.1989    187.0227     15.7988   4.0382273411e+01   3.5915148646e+01     0.254616    0.1183265  58.77  0.001239466    2.098    0.523
       338  -9.5595    174.0079    220.0000   8.9788906976e+01   4.5900965057e+00     0.216829   0.06581371  32.73 0.0008025204    2.943    0.660
       339 -11.5269      9.8008    217.1702   1.2767393122e+02   2.6121733703e+01    0.3106376    0.1968726  52.60  0.001669992    1.322    0.243
       340  -9.6465     37.9376    217.5105   1.2131778771e+02   2.3402836803e+01    0.1833671    0.1115931  29.49 0.0008170672    1.544    0.352
       341 -11.4104     30.0569    215.8999   1.2303076953e+02   2.4544331246e+01    0.3905507    0.2540037   9.27  0.002170894    1.977    0.494
       342 -11.5278    235.8277    215.0544   7.6987848347e+01  -2.8021948644e+00    0.2885703    0.1426183 -26.03  0.001084573    1.762    0.433
       343 -11.8149    241.0169    211.6790   7.5514657353e+01  -2.9522764930e+00    0.3781775    0.2384145   8.36  0.002364262    1.434    0.303
       344  -9.5497    137.1709    215.6280   9.7306864414e+01   1.0752613581e+01    0.2040467    0.1155307  21.25 0.0009492645    1.737    0.424
       345  -9.7416     67.0007    215.5228   1.1421716202e+02   2.0534537765e+01    0.1986064    0.1168763  30.20 0.0004982805    1.539    0.350
       346 -10.4784     21.6181    212.6077   1.2476279782e+02   2.6058621034e+01    0.3084064     0.157306  47.04  0.001658302    1.676    0.403
       347 -10.1601    208.9501    212.0385   8.1356809238e+01   1.0230018646e+00    0.1983245    0.1500764  -3.36 0.0005500126    1.058    0.055
       348  -9.5084     76.3273    212.2965   1.1158775726e+02   2.0052052901e+01    0.1301712     0.100945 -14.42 0.0004460219    1.631    0.387
       349 -12.3491      4.3168    208.2897   1.2846201194e+02   2.8475142348e+01    0.6018788    0.3504709 -85.12  0.003559044    1.593    0.372
       350  -9.5089    184.8344    208.3651   8.5528718674e+01   4.9705310274e+00     0.189796     0.108242  19.35 0.0004157229    1.715    0.417
       351  -9.2670    188.2405    205.3523   8.4289467889e+01   4.9777584343e+00    0.1353807   0.08798306 -11.02 0.0003691683    1.578    0.366
       352 -11.3502     22.1954     25.7028   9.0660477426e+01   7.0455851472e+01    0.3364719    0.2743586  -3.42  0.001036599    1.067    0.063
       353 -10.8470     19.7542    200.6165   1.2443717430e+02   2.8885283011e+01    0.3482743    0.1278157 -66.91  0.001246576    2.546    0.607
       354 -10.3067    175.4131    202.7075   8.6524025103e+01   7.3359293935e+00    0.2314021    0.1882885  21.85  0.000508795    1.158    0.137
       355  -9.9707     10.8170    208.4743   1.2699981242e+02   2.7907049326e+01    0.2021845    0.1662927 -28.97 0.0005390802    1.624    0.384
       356  -9.1186    223.4698    201.4827   7.6771852886e+01   6.9028112408e-01    0.1241758    0.1015542  -8.61 0.0001496179    1.123    0.110
       357  -9.2373     34.3247    201.3076   1.2093290590e+02   2.7352813215e+01    0.1230206   0.09476092 -34.11 0.0007036276    1.649    0.394
       358  -9.5446    215.6537    194.6805   7.6956406755e+01   2.7893759748e+00    0.1381102    0.0849979  -4.02 0.0007049161    1.730    0.422
       359 -10.8355     16.4135    193.1551   1.2475860351e+02   3.0880019507e+01    0.2744372    0.1947733  21.07 0.0009919005    1.546    0.353
       360  -9.2807    222.3098    192.3624   7.5306304731e+01   2.2304492026e+00    0.1373637   0.08293834  -7.76 0.0007040204    1.746    0.427
       361  -8.9482    101.6756    192.3055   1.0247913575e+02   2.0909945679e+01    0.1465677    0.1055225  59.07 0.0004236033    1.644    0.392
       362  -9.5889    211.5071    188.4660   7.6565895275e+01   4.3663901907e+00    0.2402791    0.1052514 -28.52  0.001030826    2.331    0.571
       363  -9.5068      1.6189    188.1970   1.2808422594e+02   3.3178633817e+01    0.1675846   0.09773656 -70.70 0.0006187963    1.609    0.378
       364 -10.9002     16.6137    183.8122   1.2406453064e+02   3.3050506005e+01    0.3506445    0.2060577 -85.02  0.001871717    1.605    0.377
       365 -10.1600     15.2937    180.6561   1.2417891869e+02   3.3909952380e+01    0.2365324    0.1820393  13.02 0.0007759405    1.518    0.341
       366  -9.8296    167.5074    183.4975   8.4702261862e+01   1.2104904866e+01    0.1449609    0.1256415   0.97 3.970191e-05    1.009    0.009
       367  -9.6713     58.8043    182.1846   1.1261816890e+02   2.9150217318e+01    0.1889174    0.1615984 -28.55 0.0009478717    1.343    0.255
       368  -9.3186      1.5443    180.5009   1.2768311951e+02   3.4975420809e+01     0.123055    0.1043197  78.51 0.0001543114    1.004    0.004
       369 -10.1049    244.2467    178.3822   6.8941870672e+01   1.3933901875e+00    0.2362259    0.1203502 -25.58  0.001101508    1.733    0.423
       370  -9.3729     69.6297    178.1423   1.0908921295e+02   2.8761854740e+01    0.1942011      0.12169 -49.92 0.0004522526    1.667    0.400
       371 -10.4740     46.5107    177.6837   1.1548911760e+02   3.1664905735e+01    0.2685437    0.2459079  56.58  0.001281652    1.041    0.039
       372  -9.4730    200.5343    176.4615   7.6346477865e+01   8.0275812855e+00    0.1385345    0.1153578  -8.07 0.0001121898    1.013    0.013
       373 -12.2139     34.0617    174.3080   1.1858863571e+02   3.3783720968e+01     0.252028    0.2084648 -77.17 0.0005442387    1.155    0.134
       374 -11.0251     18.0464    173.1570   1.2287827688e+02   3.5497983612e+01    0.3990079    0.2218246  59.53   0.00199481    1.812    0.448
