#   1 NUMBER                 Running object number                                     
#   2 MAG_AUTO               Kron-like elliptical aperture magnitude                    [mag]
#   3 X_IMAGE                Object position along x                                    [pixel]
#   4 Y_IMAGE                Object position along y                                    [pixel]
#   5 X_WORLD                Barycenter position along world x axis                     [deg]
#   6 Y_WORLD                Barycenter position along world y axis                     [deg]
#   7 A_WORLD                Profile RMS along major axis (world units)                 [deg]
#   8 B_WORLD                Profile RMS along minor axis (world units)                 [deg]
#   9 THETA_WORLD            Position angle (CCW/world-x)                               [deg]
#  10 FWHM_WORLD             FWHM assuming a gaussian core                              [deg]
#  11 ELONGATION             A_IMAGE/B_IMAGE                                           
#  12 ELLIPTICITY            1 - B_IMAGE/A_IMAGE                                       
         1 -13.1476    169.2635     41.3883   6.8118150908e+01   3.7641370213e+01     1.378977     1.086275  -0.92  0.004287271    1.453    0.312
         2 -10.2997    169.9987     18.1589   6.0439249089e+01   4.0310970951e+01    0.5038749    0.2777891   4.50  0.001964656    2.750    0.636
         3 -13.3375    187.7016      8.5868   5.5031672940e+01   3.6680079909e+01     2.006406     1.016283  60.20   0.00774275    1.801    0.445
         4 -11.9919    240.2082    243.3539   1.0122822116e+02  -6.9528990237e+00    0.2004984    0.1606869  23.84 0.0002515754    1.196    0.164
         5  -8.8598    167.8944    248.0466   1.1378114695e+02   3.4362363630e+00    0.2306999    0.1399789 -44.00  0.001497905    2.172    0.540
         6 -10.2726    133.4678    249.3802   1.1973453842e+02   8.4979130626e+00    0.2025553    0.1944655 -70.03  0.001682804    1.374    0.272
         7 -18.7738     59.8215    231.3004   1.3059854740e+02   2.1472480393e+01      4.37411     3.329475  58.39   0.02614103    1.139    0.122
         8  -9.6061    115.9298    201.3749   1.1741378461e+02   1.8784365548e+01    0.6014846    0.3080433  76.01  0.002207716    4.476    0.777
         9 -10.3174    163.1233    203.0773   1.0852358373e+02   1.0542118154e+01    0.3355722    0.2443016  77.02 0.0009490413    1.971    0.493
        10  -9.4141    136.4136    180.1637   1.1022713027e+02   1.9196969350e+01    0.2273268    0.1662465  38.17 0.0005119642    1.320    0.242
        11 -10.2329    203.8876    176.9049   9.6267162029e+01   7.1624196955e+00    0.4528955    0.2533156 -50.48  0.002083977    2.473    0.596
        12 -10.7253    203.6250    168.0459   9.4583668315e+01   8.5682194372e+00    0.7253957    0.4793008 -33.52  0.003803187    1.592    0.372
        13 -10.1459    126.6116    173.5607   1.1122250801e+02   2.2179859795e+01    0.5043976      0.27421  61.72  0.002051637    2.310    0.567
        14 -11.5354    194.1659    168.5276   9.6475980058e+01   1.0322470470e+01    0.6534709     0.409225 -52.30  0.001631805    2.080    0.519
        15  -9.6816    144.0396    175.4814   1.0786615590e+02   1.8687306906e+01    0.2063623    0.1215793  45.66  0.001010502    1.538    0.350
        16  -8.7067    121.6191    199.1563   1.1600862779e+02   1.8261937193e+01    0.1586499     0.147306  83.80 0.0004568985    1.146    0.127
        17 -10.3686    137.5389    172.3307   1.0869581216e+02   2.0463720195e+01    0.2907802    0.2273365  63.15 0.0008516906    1.299    0.230
        18  -9.7703    132.4382    169.8788   1.0936648779e+02   2.1856623538e+01    0.4702916    0.2838765 -77.02  0.002044361    2.624    0.619
        19  -9.4023    113.4690    169.8734   1.1346607357e+02   2.5167019844e+01    0.2742882     0.202507  85.62  0.001286607    1.537    0.349
        20  -9.4910    245.6339    165.8148   8.6717711474e+01   1.0897102219e+00    0.2530436    0.1625195  40.54  0.001088059    1.522    0.343
        21  -9.4242    176.0700    232.0711   1.1033601074e+02   4.1905325902e+00    0.1818343    0.1445516  41.14 0.0006716288    1.059    0.056
        22  -9.4640    121.9907    166.0653   1.1098884835e+02   2.4465314842e+01    0.2012955    0.1751975  66.61  0.001198552    1.081    0.075
        23  -9.3987    246.0874    160.9911   8.5654482089e+01   1.6533811076e+00     0.194034    0.1652431   3.67 0.0003319013    1.015    0.015
        24  -9.6282    189.9865    156.9628   9.4946109588e+01   1.3055769536e+01    0.4077843    0.3554427  -5.32  0.002333773    1.183    0.155
        25  -9.1717    167.8088    158.8239   9.9815009420e+01   1.7188247343e+01    0.2045717    0.1809654  14.98 0.0004394438    1.189    0.159
        26  -8.8479    111.0879    159.2351   1.1227176249e+02   2.7740292830e+01    0.2609388    0.1678254  58.84 0.0008230758    1.607    0.378
        27  -9.8570     12.8537    158.2888   1.3401867653e+02   4.0398930845e+01    0.3987513    0.1411302 -73.99  0.001731328    2.248    0.555
        28 -10.3495     14.9483    151.5440   1.3304275492e+02   4.1639171304e+01    0.3088478    0.1679818 -59.67   0.00153954    1.816    0.449
        29  -9.1426    246.1882    156.1011   8.4619702292e+01   2.2971661803e+00    0.1982161    0.1539796   7.27 0.0003597548    1.193    0.162
        30 -10.3572    214.3799    154.1068   8.9709160654e+01   8.6324151558e+00    0.2342078    0.2037678  33.83 0.0002080917    1.119    0.106
        31  -8.7672     14.2561    228.3211   1.3784320212e+02   2.6995375701e+01   0.08228597   0.06658253 -77.77 0.0003405797    1.543    0.352
        32 -10.6609    133.9483    146.4556   1.0472052558e+02   2.6243259337e+01     1.260094    0.3135922 -54.91  0.003075253    6.509    0.846
        33 -10.9171      9.4752    146.5077   1.3382917821e+02   4.3152148054e+01    0.4233476     0.243178 -66.40  0.002718999    1.530    0.347
        34 -10.0612    100.1877    147.0017   1.1270815826e+02   3.2153788282e+01    0.2285556    0.1913245  40.64 0.0002883608    1.263    0.208
        35  -9.8483     27.1859    145.1780   1.2973416703e+02   4.1921523543e+01      0.22315    0.1683913  64.40   0.00097732    1.252    0.201
        36 -10.4663     31.1116    142.8392   1.2858369600e+02   4.2059969688e+01    0.3090663    0.2197206  87.01  0.001574886    1.198    0.165
        37 -10.1877     34.8083    142.3660   1.2766574093e+02   4.1801915894e+01    0.2122618    0.1922114  19.42  0.001293054    1.500    0.334
        38 -11.6569      5.2532    138.7264   1.3414435141e+02   4.5129603264e+01    0.6631481     0.302015 -78.23  0.003805293    1.709    0.415
        39  -8.9440     21.1601    141.7734   1.3078310565e+02   4.3203645215e+01    0.1834535    0.1285014  44.77  0.000917687    1.534    0.348
        40 -10.7758    115.0979    137.7349   1.0740663348e+02   3.1584965041e+01    0.4590623    0.3027098 -41.63  0.001474605    1.682    0.406
        41 -10.2561    187.9153    242.3801   1.0968181379e+02   1.0211139709e+00    0.3140389    0.1614996 -42.90  0.001020758    2.538    0.606
        42  -8.8957    233.5436    136.1487   8.2381003988e+01   7.5571546157e+00    0.2030271    0.1827202  41.38 0.0004099716    1.212    0.175
        43 -11.0061    104.9091    137.2678   1.0979071559e+02   3.3477137681e+01    0.2797949    0.2407264  51.44 0.0004849167    1.159    0.137
        44 -10.4250    136.0000    129.5596   1.0067104340e+02   2.9324474901e+01    0.8197771    0.1622553 -48.05  0.002089391    5.253    0.810
        45  -9.8212    134.8129    122.1403   9.9254797638e+01   3.1108372236e+01    0.6185973    0.1283245 -45.73  0.001612037    4.836    0.793
        46 -10.6437    120.0590    128.3360   1.0424615579e+02   3.2689185365e+01    0.4573343    0.2750317 -37.19  0.001468556    1.962    0.490
        47 -10.1606      4.8548    121.4784   1.3272708048e+02   4.8888095735e+01    0.3476008    0.1863302 -19.85  0.001742058    3.828    0.739
        48 -10.0995      5.2401    116.4405   1.3213815370e+02   4.9965476144e+01    0.2197346    0.1386116  54.96 0.0009717171    1.679    0.404
        49 -10.3241      3.3187    113.1344   1.3229724710e+02   5.0814767196e+01    0.2402673    0.1657957 -55.78  0.001557645    1.425    0.298
        50  -9.7415    108.3580    124.9098   1.0642941260e+02   3.5579634434e+01    0.2545514    0.2392766 -38.12 0.0004716855    1.153    0.133
        51  -9.7235    130.7973    214.7036   1.1625951410e+02   1.4118984464e+01    0.2208192    0.1754941  84.03 0.0005838408    1.418    0.295
        52 -11.8110     19.9123    128.8645   1.2976380567e+02   4.6138037710e+01    0.6507103    0.3546478 -32.52  0.003249336    3.234    0.691
        53  -9.8929    170.6192    184.1576   1.0397879772e+02   1.2247581321e+01    0.5152262    0.2777468  59.19  0.002226366    2.488    0.598
        54  -9.0531    113.7964    118.4219   1.0361168098e+02   3.6005977056e+01    0.2380118    0.1921291 -66.64 0.0009491776    1.278    0.218
        55 -10.2038     27.4535    119.0417   1.2669054133e+02   4.7684531339e+01    0.1998613    0.1852617  57.30 0.0009142031    1.271    0.213
        56 -10.6062    173.1037    189.6567   1.0444047008e+02   1.0893062677e+01     0.312396    0.2688975  43.24  0.001871657    1.063    0.059
        57  -9.5629    160.4175    128.2934   9.4785212098e+01   2.4485670684e+01    0.3702219    0.2769179 -66.81  0.001748698    1.680    0.405
        58  -9.6338    134.6107    109.7094   9.6272923763e+01   3.3737822827e+01    0.8711096    0.1392088 -46.24   0.00193147    6.431    0.844
        59 -11.1546     70.6765    112.4886   1.1387243432e+02   4.4345838690e+01    0.4082769     0.308888 -88.54  0.002267468    1.432    0.302
        60 -10.2563     24.9648    112.6365   1.2651060257e+02   4.9338715637e+01    0.4092281    0.1170257 -69.03  0.001677733    2.804    0.643
        61  -8.7811    175.9954    187.4819   1.0350743385e+02   1.0712219678e+01    0.2442423     0.183156  55.86 0.0007294761    1.407    0.289
        62  -9.0925     65.8264    100.7920   1.1284924450e+02   4.7657899123e+01    0.2137088     0.189172 -71.85 0.0008063586    1.055    0.052
        63 -11.9639     61.4269    109.2865   1.1583534867e+02   4.6293912645e+01     0.601941    0.4149343  32.15  0.002518874    1.683    0.406
        64 -10.3850     30.6216    112.8757   1.2500876174e+02   4.8792191299e+01    0.2226181    0.2003345 -73.06  0.001078768    1.139    0.122
        65 -10.8424     66.0122    104.9560   1.1366909441e+02   4.6688150174e+01    0.4534365    0.3325115  16.27  0.002473422    1.813    0.449
        66  -9.5911    117.0076    110.3089   1.0086944495e+02   3.7154392074e+01    0.2075603     0.194109  50.21 0.0007184844    1.095    0.087
        67  -8.6703    163.0544    236.7489   1.1321800410e+02   5.6533363501e+00    0.1680782    0.1516158 -77.00  0.001217617    1.446    0.308
        68  -9.8529    165.0435    187.6017   1.0566601051e+02   1.2702878926e+01    0.2697568    0.1691616 -65.21  0.001287948    2.430    0.588
        69  -9.5822    153.6100    203.6662   1.1042625830e+02   1.2100645695e+01    0.3772838    0.1516816 -54.26   0.00160999    3.285    0.696
        70  -8.6492    113.0674     95.2995   9.8062862537e+01   4.1127487620e+01    0.2014418    0.1922478  44.49 0.0006100371    1.090    0.082
        71  -8.4642    174.2441     89.7567   8.1814427828e+01   2.8602161080e+01    0.2023326    0.1724336  18.05 0.0002917448    1.287    0.223
        72  -9.6207    230.3420     80.9343   6.9488557532e+01   1.6637862397e+01    0.2383664     0.200175  44.25 0.0002329508    1.258    0.205
        73 -10.2345    157.0916    200.1991   1.0923710121e+02   1.2056075315e+01    0.2675937     0.186811  56.76  0.001526307    1.445    0.308
        74  -8.5079    146.7572     81.1962   8.5426265133e+01   3.6710200485e+01    0.2124684    0.1808813   7.68 0.0005789292    1.327    0.246
        75  -8.4385    116.9899     72.2698   9.0257134915e+01   4.5020893926e+01    0.1938904    0.1870344  13.90 0.0002970318    1.050    0.047
        76 -12.6403    156.9156     56.4674   7.5420158608e+01   3.8547560897e+01     1.189843     1.114193  -2.33  0.001983674    1.083    0.077
        77  -8.0974      7.3680    183.2000   1.3673083802e+02   3.5846687830e+01   0.08157174   0.07715455 -66.11  0.000676814    1.561    0.359
        78 -11.4330    173.4896     33.8476   6.4959234605e+01   3.7546461922e+01    0.4502228    0.3755015  33.76  0.000897253    1.259    0.205
        79 -10.2721    129.4658     49.9712   7.9519086229e+01   4.6228781136e+01    0.2556901    0.2342425  34.43 0.0002904509    1.076    0.071
        80  -8.9284    224.8953     32.7006   5.7494895446e+01   2.4557032554e+01    0.2741526    0.1884005 -36.44 0.0007466875    1.369    0.270
        81  -9.1102    150.5427    247.6142   1.1666252300e+02   6.1566473638e+00    0.1829831     0.158839  44.74  0.001087238    1.147    0.128
