#   1 NUMBER                 Running object number                                     
#   2 MAG_AUTO               Kron-like elliptical aperture magnitude                    [mag]
#   3 X_IMAGE                Object position along x                                    [pixel]
#   4 Y_IMAGE                Object position along y                                    [pixel]
#   5 X_WORLD                Barycenter position along world x axis                     [deg]
#   6 Y_WORLD                Barycenter position along world y axis                     [deg]
#   7 A_WORLD                Profile RMS along major axis (world units)                 [deg]
#   8 B_WORLD                Profile RMS along minor axis (world units)                 [deg]
#   9 THETA_WORLD            Position angle (CCW/world-x)                               [deg]
#  10 FWHM_WORLD             FWHM assuming a gaussian core                              [deg]
#  11 ELONGATION             A_IMAGE/B_IMAGE                                           
#  12 ELLIPTICITY            1 - B_IMAGE/A_IMAGE                                       
         1 -11.9395    186.5029     34.2106   6.1951118335e+01   3.4200266441e+01    0.8909999    0.8206401  29.24  0.003239362    1.156    0.135
         2 -11.8181    193.5369     24.5099   5.8059182288e+01   3.3550201873e+01    0.6967797    0.5718254  37.88  0.001270778    1.324    0.244
         3 -10.0167    114.1807    218.8360   1.1890528153e+02   1.5990731286e+01    0.1562043    0.1367292  30.34  0.001080432    1.346    0.257
         4 -19.4271     17.7728    130.6405   1.3015545874e+02   4.5955846003e+01     17.19958      2.22002 -73.29   0.04660327    7.098    0.859
         5  -9.6765     90.4350    218.8372   1.2338972602e+02   1.9501350595e+01    0.4027574    0.1483071  52.73  0.001874779    2.467    0.595
         6 -11.0156     58.6178    213.6841   1.2885526290e+02   2.4639933273e+01    0.6177896    0.2081091  44.30 0.0009860264    2.330    0.571
         7 -11.3055     60.3836    207.4233   1.2801545795e+02   2.5574638131e+01    0.6018111    0.3422348  57.70  0.001533497    1.467    0.319
         8 -10.4199     40.8686    213.7045   1.3208296495e+02   2.6716301119e+01    0.3559407    0.1340389  53.02  0.001481959    2.126    0.530
         9  -9.2527     44.3565    210.3717   1.3122331715e+02   2.6934026307e+01    0.2503756     0.121754  55.49  0.001508782    1.672    0.402
        10  -9.5583     40.0693    207.8829   1.3183284757e+02   2.7875390491e+01    0.2238668    0.1153317  50.63 0.0003558225    1.576    0.366
        11  -8.6062     50.3709    213.0365   1.3031816070e+02   2.5749754587e+01    0.1510281    0.1140457  80.05 0.0005155166    1.119    0.106
        12  -8.9719     77.2184    208.3587   1.2488581630e+02   2.3214941305e+01    0.2809652    0.1547953  39.72  0.001620382    1.692    0.409
        13 -13.6947    148.2998    198.6852   1.0956557850e+02   1.3805677453e+01     1.406614    0.9065629  46.25  0.004132686    1.336    0.251
        14  99.0000     67.9908    195.2469   1.2543031969e+02   2.6925352903e+01    0.4792537     0.256002 -61.59  0.002717209    1.964    0.491
        15  -9.3153    193.5540    192.9610   9.9746973220e+01   6.6227163361e+00    0.3830141    0.2269938  48.52  0.001966434    1.657    0.397
        16  -9.0991    208.0000    183.9513   9.5392114527e+01   5.3367248857e+00    0.2017279   0.07435299 -37.18 0.0008043036    2.955    0.662
        17  -8.2345     99.4404    180.7552   1.1718454096e+02   2.5304019166e+01    0.1619809    0.1188504 -52.16 0.0009323656    1.554    0.357
        18 -11.2156     40.1946    201.6710   1.3137132966e+02   2.9028107908e+01    0.2098806    0.1441808  61.09 0.0005333118    1.168    0.144
        19  -8.8710     80.6069    179.1872   1.2105387938e+02   2.8417155203e+01    0.2425223    0.1763667 -47.14  0.001003714    1.733    0.423
        20  -9.9559     84.2127    173.5053   1.1955447879e+02   2.9069968702e+01    0.3577007    0.2052987 -46.45  0.001581949    2.214    0.548
        21  -7.9263    211.3147    178.6674   9.3776112254e+01   5.5068534775e+00    0.1224576    0.1081087  84.88  0.000704607    1.684    0.406
        22 -11.4126    125.7944    173.8867   1.1041613651e+02   2.2300456928e+01    0.4755166    0.3563772  64.70  0.002627941    1.380    0.275
        23 -10.4314    115.2227    173.8610   1.1273811231e+02   2.4124693933e+01    0.2839353    0.1597711 -61.33  0.001377346    1.953    0.488
        24  -8.8804    196.3393    171.0928   9.5158495675e+01   9.4964820256e+00    0.2490647    0.1722566  28.86 0.0008224104    1.398    0.285
        25  -8.3034     72.5025    195.5161   1.2455147975e+02   2.6278403384e+01    0.5500489    0.2424008 -76.92  0.002501861    2.652    0.623
        26  -9.7712     91.4373    164.1341   1.1663765369e+02   2.9958992032e+01    0.2326647    0.2093785  64.04 0.0005009086    1.066    0.062
        27 -11.5422     80.0869    159.3119   1.1857721542e+02   3.2666326487e+01    0.3415684    0.2438268 -41.37  0.001052992    1.802    0.445
        28 -10.1910     96.6547    157.0299   1.1434384321e+02   3.0660392708e+01    0.5013893    0.3517067 -27.80   0.00142829    2.230    0.552
        29  -9.1934    140.7338    157.3089   1.0417664546e+02   2.2836155445e+01    0.2330613    0.2006321  74.80 0.0005430465    1.256    0.204
        30  -9.3217    126.8492    153.1608   1.0657753932e+02   2.6286158061e+01    0.2234643    0.1917648  75.12  0.001247256    1.214    0.176
        31 -10.2090    114.2167    151.7422   1.0928932018e+02   2.8856124636e+01    0.3352718    0.1910491 -72.17  0.001419939    2.394    0.582
        32 -11.7012    133.8082    144.1373   1.0319043035e+02   2.6836775843e+01     1.160961    0.2762461 -53.14  0.003016145    5.550    0.820
        33  -9.8289    144.3865    146.1779   1.0114503537e+02   2.4347028541e+01    0.2086556    0.1371756 -59.96   0.00095621    1.783    0.439
        34 -10.3163     68.8678    143.8077   1.1904638979e+02   3.7619491286e+01    0.5594374    0.2847795  66.62   0.00236972    2.758    0.637
        35 -10.9877    108.2039    141.1093   1.0878915361e+02   3.2187509773e+01    0.4599392    0.3128666 -35.66  0.002227624    1.847    0.459
        36 -10.6360     96.3742    141.4758   1.1179805109e+02   3.4089119014e+01    0.2561201    0.2457558  24.19  0.001566463    1.204    0.169
        37 -11.3608    125.8089    127.3843   1.0158263359e+02   3.1913662508e+01    0.5642308    0.3515756 -89.55    0.0020219    3.312    0.698
        38 -11.9776    120.4225    123.4180   1.0205800346e+02   3.3804447876e+01    0.6864997    0.3958257  33.68  0.002943358    1.963    0.491
        39 -12.2701    115.3290    131.2025   1.0503724403e+02   3.3071877636e+01    0.8915674    0.3701288 -47.81  0.003419903    2.443    0.591
        40 -11.8610    119.7421    128.8807   1.0343146158e+02   3.2754142118e+01    0.8100125    0.4676009  71.27  0.002904871    3.235    0.691
        41 -11.6087    135.7134    122.9079   9.8109472648e+01   3.0882387937e+01    0.6009544    0.3348601 -47.29  0.002202502    1.827    0.453
        42 -10.3710    105.9871    130.7399   1.0732022273e+02   3.4844596945e+01    0.3320929    0.2871488  45.44  0.001293658    1.166    0.142
        43  -9.8106    102.9913    127.4800   1.0743092076e+02   3.6084385592e+01    0.3053401    0.2648339 -22.51 0.0009585858    1.391    0.281
        44 -10.2017    110.4765    119.6091   1.0378334493e+02   3.6494801476e+01    0.2570305    0.2413477 -64.48 0.0006051086    1.043    0.042
        45 -10.0112    134.5884    113.2788   9.6075234303e+01   3.3126834582e+01    0.4559592    0.1452792 -46.71  0.001437718    3.191    0.687
        46 -11.6895    115.2016    111.2865   1.0059939936e+02   3.7429519068e+01    0.5299125    0.3558756 -28.31  0.002374478    1.903    0.474
        47  -9.1815    134.5122    102.4944   9.3337498589e+01   3.5378093079e+01    0.2725022    0.1415291 -54.07  0.001031525    2.247    0.555
        48 -10.2907    115.1243     95.6003   9.6626903755e+01   4.0807911086e+01    0.3829504    0.1598928 -40.05  0.001367749    2.550    0.608
        49  -7.9371    168.6638    113.3543   8.8054892761e+01   2.5637851545e+01    0.1586704    0.1226523 -81.38 8.848615e-05    1.797    0.444
        50  -8.9623    115.0000     83.9664   9.3408848966e+01   4.3249909370e+01    0.2455186   0.08288874 -43.94 0.0004807913    2.897    0.655
        51  -9.3857    168.4733     68.5198   7.5634262236e+01   3.3797954571e+01    0.3687251    0.2514604 -84.33 0.0008877617    2.267    0.559
        52 -10.9267    175.2416     44.1816   6.6865122234e+01   3.5797929566e+01    0.4064094    0.3227726  60.03 0.0009479422    1.221    0.181
        53 -11.6472    157.1846    227.3986   1.1189207024e+02   7.7806009750e+00    0.6220611    0.2096965  37.54  0.002631433    2.667    0.625
