#   1 NUMBER                 Running object number                                     
#   2 MAG_AUTO               Kron-like elliptical aperture magnitude                    [mag]
#   3 X_IMAGE                Object position along x                                    [pixel]
#   4 Y_IMAGE                Object position along y                                    [pixel]
#   5 X_WORLD                Barycenter position along world x axis                     [deg]
#   6 Y_WORLD                Barycenter position along world y axis                     [deg]
#   7 A_WORLD                Profile RMS along major axis (world units)                 [deg]
#   8 B_WORLD                Profile RMS along minor axis (world units)                 [deg]
#   9 THETA_WORLD            Position angle (CCW/world-x)                               [deg]
#  10 FWHM_WORLD             FWHM assuming a gaussian core                              [deg]
#  11 ELONGATION             A_IMAGE/B_IMAGE                                           
#  12 ELLIPTICITY            1 - B_IMAGE/A_IMAGE                                       
         1 -12.2787    248.4124     55.4870   9.4519652564e-01   1.7850574377e+01    0.8007367    0.3332476 -43.61  0.004172096    1.846    0.458
         2 -11.0838     58.3083     30.7622   3.0379552859e+01   6.6531194415e+01    0.5221243     0.365701  -9.59  0.002474556    1.871    0.465
         3 -10.0764     24.1306     18.1884   4.4963116600e+01   7.4714833010e+01    0.4190177    0.2109094 -60.36  0.001685137    2.984    0.665
         4 -11.0987    130.5651     15.2450   2.5091390434e+00   5.0094882692e+01    0.3664994    0.3337203  -8.14  0.001064211    1.331    0.249
         5 -10.6712    249.4067     14.1558   3.5230945271e+02   2.2316838383e+01    0.2632582    0.1840776 -13.22  0.001699858    1.927    0.481
         6 -11.7758    173.9561      3.8344   3.5419626743e+02   3.9785295881e+01    0.5374852    0.2976079 -70.93   0.00213662    1.661    0.398
         7 -12.0631    184.0715     11.0164   3.5543388347e+02   3.6599699871e+01    0.5408414    0.3565307 -80.58  0.002045112    1.362    0.266
         8 -11.8494     50.4530     14.1302   2.4836669368e+01   7.0744497051e+01    0.6116683    0.2860441  44.57  0.001913626    1.918    0.479
         9 -10.5788     45.1943     12.1150   2.6397257100e+01   7.2112883836e+01    0.2931264    0.2343053  -6.45  0.001137595    1.327    0.246
        10  -9.9872     35.0975     13.8152   3.3888298233e+01   7.3772934562e+01    0.2471649    0.1988241 -31.63  0.000636069    1.300    0.231
        11 -10.2257     32.4765     10.1063   3.3181312778e+01   7.4807527393e+01    0.2545635    0.1904255 -17.11 0.0007974685    1.387    0.279
        12 -11.5308    242.2011     11.0587   3.5200028222e+02   2.3982388862e+01    0.3436973    0.2029893 -66.31   0.00197729    1.447    0.309
        13 -10.8214    237.3179      7.7723   3.5152851307e+02   2.5254707286e+01    0.5385839    0.3158015  49.79  0.003094355    2.548    0.607
        14  -9.6426    120.4435     12.7105   3.1246460265e+00   5.3114662446e+01    0.2935556    0.1769897  49.68 0.0007799692    1.676    0.403
        15  -9.4744     79.1507     11.8835   1.1980865844e+01   6.4244285051e+01    0.2128869    0.1803086  84.33 0.0006799968    1.240    0.194
        16  -9.2875     39.6154     12.2371   2.9832581457e+01   7.3190458888e+01    0.1761038    0.1230767 -19.57 0.0005578884    1.561    0.360
        17  -9.5587     27.5639     11.4865   3.7866459939e+01   7.5399649822e+01    0.2134783    0.1619279 -20.69  0.001241185    1.318    0.241
        18 -10.2231    171.8060     10.7868   3.5636246149e+02   3.9656389306e+01    0.2003314    0.1328484 -64.93  0.000843867    1.349    0.259
        19 -12.1889    166.3299      8.2719   3.5609806050e+02   4.1292723886e+01    0.5922095    0.4116374  37.78   0.00228187    1.927    0.481
        20 -10.0191    218.8895      8.7590   3.5264822165e+02   2.8906514375e+01    0.1895107     0.145282 -45.61 0.0005274903    1.157    0.136
        21  -9.3383    141.6572      9.3280   3.5893260337e+02   4.7676410759e+01    0.1555094   0.09020636 -64.36 0.0007051101    1.743    0.426
        22  -9.5455    115.0772      9.0774   2.5518715534e+00   5.4931814280e+01    0.2256822    0.1699852  54.05 0.0007151074    1.289    0.224
        23 -11.8250     99.9904      6.1234   4.0019501466e+00   5.9305124784e+01    0.5852419    0.3939317  54.91  0.002238208    1.345    0.256
        24  -9.6808     69.4473      9.3459   1.3740132162e+01   6.6950219264e+01    0.2282313    0.1415708 -15.01  0.000733306    1.922    0.480
        25 -10.8748     85.6249      7.2148   7.7483316850e+00   6.3037574652e+01    0.2664745    0.2488465 -55.78 0.0007420516    1.192    0.161
        26  -9.3890     78.4871      7.4817   9.8229066082e+00   6.4865414598e+01    0.1423955     0.124379  58.39 0.0004279365    1.002    0.002
        27 -10.3555     16.6089      4.5025   4.2390554715e+01   7.8141038121e+01     0.242164     0.205927  -5.24 0.0008512787    1.034    0.033
        28  -9.4566     14.4583      1.4561   4.2136753871e+01   7.8926840986e+01    0.1666657    0.1540104  51.59 0.0006333751    1.496    0.331
        29 -10.9317    183.6737      2.7929   3.5323443026e+02   3.7492828135e+01    0.2898273    0.2008178  85.74  0.001496284    1.305    0.234
        30  -8.8001    131.4328      3.4448   3.5806025982e+02   5.0970868411e+01    0.1408075    0.1204999  86.95 0.0002288351    1.015    0.014
        31 -10.1060    178.9859      1.5241   3.5319682644e+02   3.8752199408e+01    0.1858907      0.13713 -87.45  0.001092611    1.181    0.153
        32 -11.0820    124.0845      6.6396   2.1070101222e-01   5.2692893512e+01     0.406424    0.2328708 -86.28  0.001463546    1.761    0.432
        33 -11.0932    114.0816      1.8187   3.5972696965e+02   5.5835387341e+01     0.332056     0.182238  76.02 0.0007279019    1.581    0.367
        34  -9.5080     35.9833      1.4839   2.4272620045e+01   7.5339684433e+01    0.1972702    0.1150952  46.60 0.0005151411    1.535    0.349
        35  -9.1849     47.5091    121.4938   6.3587142816e+01   4.6649519204e+01    0.1486274    0.1413124  68.88  0.000105155    1.013    0.013
        36  -8.8980      6.2963    121.6936   7.9425403474e+01   5.0381770611e+01    0.1447265   0.08688195  57.13 0.0007002259    1.587    0.370
        37 -10.2636    134.6935    124.0900   3.5701128709e+01   3.0254062238e+01     0.217145    0.2042157 -39.21  0.001148289    1.099    0.090
        38 -10.1679    224.0000    116.9479   1.6724099558e+01   1.3824948320e+01    0.2171766   0.06291894 -35.37 0.0003439455    2.979    0.664
        39  -9.6635     91.2144    116.7643   4.6787792173e+01   4.0858988968e+01    0.2326227    0.2061882  62.33 0.0004454705    1.133    0.117
        40  -9.0699    232.3145    116.6993   1.5538957665e+01   1.2463119832e+01    0.1190282   0.08856679 -57.14 0.0004239395    1.612    0.380
        41  -9.3377     21.1364    115.7066   7.3128058602e+01   5.0945779507e+01    0.2973565    0.1441042 -49.40  0.001240465    2.176    0.541
        42  -9.8437     14.9698    114.7150   7.5488823885e+01   5.1680095475e+01    0.3278632    0.1516173 -61.22 0.0009828461    2.012    0.503
        43  -9.6824     96.0156    111.8863   4.4012579455e+01   4.1110410957e+01    0.2333676    0.2297779  51.01 0.0005195818    1.041    0.040
        44 -12.8639    242.8875     93.6096   9.4520673214e+00   1.3904219374e+01    0.5093498    0.3132432 -41.07  0.003038227    1.347    0.258
        45 -12.8243    246.2896    102.5027   1.0904703827e+01   1.2150485686e+01      0.65397    0.1714783 -34.89   0.00261212    2.996    0.666
        46 -12.4142    249.3172     97.7657   9.6066716932e+00   1.2295702144e+01    0.6532041    0.2514212 -35.80  0.003190878    2.032    0.508
        47  -9.7928      1.3781    108.7429   8.0474746106e+01   5.4067916460e+01    0.2586699    0.1206575 -81.64 0.0002608824    1.936    0.484
        48  -9.5217      1.5175    104.9908   8.0161389640e+01   5.5054651896e+01    0.2294621    0.1719834 -44.67   0.00127859    1.406    0.289
        49 -10.6827     75.7181    105.8859   4.9658402422e+01   4.6457506761e+01    0.4556743    0.3192318 -33.29  0.001978221    1.749    0.428
        50  -8.8355     13.2290    105.9855   7.5333142228e+01   5.4141294358e+01    0.1777072    0.1077154 -79.42 0.0003101932    1.538    0.350
        51  -9.2054     40.3102    105.3491   6.3732417716e+01   5.1859514015e+01    0.1575881    0.1068809 -35.54 0.0007044947    1.713    0.416
        52 -10.6783    231.1880    102.4720   1.2693752640e+01   1.4676146701e+01    0.2437766    0.1405513 -58.24  0.001087249    2.304    0.566
        53  -9.8342     66.0386    103.0150   5.2683293866e+01   4.8854401788e+01    0.2220076    0.2161327  67.05            0    1.011    0.011
        54 -10.3401    117.5086    102.0278   3.4748632786e+01   3.8809806045e+01    0.2500361    0.2031051  46.98 0.0004968517    1.187    0.158
        55  -9.6069     26.3227    101.2909   6.9093468365e+01   5.4393888753e+01    0.1480538    0.1022481 -36.45 0.0002357117    1.609    0.379
        56 -10.5700    103.2799     95.7266   3.7319850980e+01   4.3388611748e+01    0.3681835    0.2760827 -63.08  0.001657336    1.489    0.329
        57 -11.5392     64.8054     96.3242   5.1543137866e+01   5.0779095908e+01    0.3565014    0.2976683  41.26 0.0006382036    1.167    0.143
        58 -10.4482     15.4003     94.4529   7.3049187725e+01   5.7091940246e+01    0.3072222    0.2555043 -16.18  0.001675137    1.330    0.248
        59  -9.9022    108.1231     99.4787   3.6852443120e+01   4.1470019274e+01    0.3741785    0.2225502 -50.51  0.001517835    1.760    0.432
        60  -9.3488     89.7556     94.2119   4.1448720089e+01   4.6626884781e+01    0.2179439    0.1887646   9.12  0.001045482    1.347    0.258
        61  -9.2588      4.4960     95.9856   7.8161802535e+01   5.7306884606e+01    0.2051717   0.07800597 -54.40 0.0007219888    2.426    0.588
        62 -10.0083     38.0098     93.5081   6.2500772268e+01   5.5294536527e+01    0.2213328    0.1435391  26.46 0.0004137268    1.560    0.359
        63 -12.2310    235.0697     94.6969   1.0567022297e+01   1.5090943079e+01    0.3800851     0.276491 -89.88  0.002261432    1.922    0.480
        64 -12.3368    248.7455     85.7544   7.2088932627e+00   1.3967350958e+01    0.7834675    0.2879634 -28.02  0.003402264    2.742    0.635
        65  -8.7289      2.4574     88.5080   7.8417028379e+01   5.9378360510e+01     0.134518    0.1210122 -73.65 0.0001703117    1.024    0.023
        66 -10.3509    144.0160     86.5951   2.3507302931e+01   3.5755093270e+01    0.2737655    0.2057932 -59.21 0.0001640023    1.440    0.305
        67  -9.2769     96.7858     86.3832   3.6696839597e+01   4.6936735029e+01    0.2173238    0.1483245  35.64 0.0003267117    1.525    0.344
        68 -10.3413     11.9622     85.8486   7.3555389356e+01   5.9606465472e+01    0.2220407    0.1842098 -73.23 0.0003293051    1.117    0.104
        69 -12.1073    238.7281     82.7361   7.6082945905e+00   1.6079832654e+01    0.3832329    0.2226824 -48.13  0.002162934    1.555    0.357
        70  -9.5954    187.2497     82.6255   1.4214414890e+01   2.6348540051e+01    0.3127347    0.1332261 -57.65 0.0009692487    4.118    0.757
        71 -11.3560    243.3062     79.8864   6.5326350615e+00   1.5658033408e+01    0.3867954    0.1462213 -44.31  0.001804239    2.235    0.553
        72 -10.9850    159.1538     80.8579   1.8667338925e+01   3.3147737968e+01    0.3985873    0.2038825  67.53  0.001143455    2.436    0.590
        73 -11.4828     54.1354     78.6356   5.1411829602e+01   5.6977223889e+01    0.3945296    0.3121132  54.01 0.0006356899    1.349    0.259
        74  -8.7639      5.6530     80.2656   7.5991757210e+01   6.1413595231e+01    0.1391088   0.09195499  51.46 0.0002648574    1.611    0.379
        75 -10.6812     78.0709     77.9917   4.0905881883e+01   5.2824472734e+01    0.2453452    0.2172501  42.22            0    1.092    0.084
        76  -9.1797     72.6212     78.1573   4.3158474119e+01   5.3861558536e+01    0.2061479    0.1451988 -41.43 0.0003716201    1.514    0.340
        77 -11.5788    234.9641     75.8502   6.5182949586e+00   1.7675659600e+01    0.3721253    0.1830297 -41.12  0.001939433    1.652    0.395
        78  -9.5661    144.0260     77.4658   2.0837023676e+01   3.7444102590e+01    0.2297602    0.1479708  55.60 0.0004464076    1.521    0.343
        79  -9.8050    135.4993     75.5356   2.2203979131e+01   3.9916377385e+01    0.1552195     0.148297  76.32 0.0001674571    1.012    0.012
        80  -9.1468    119.6280     75.7108   2.6311440263e+01   4.3823586019e+01    0.1629427    0.1236976  22.29 0.0007021961    1.719    0.418
        81  -9.3465      3.2930     74.7011   7.6551693271e+01   6.2970716301e+01    0.1353372   0.09298104  57.48 0.0002679249    1.565    0.361
        82  -9.7145     94.8269     71.2702   3.2456043589e+01   5.0671685184e+01    0.3445139    0.2392747  -2.02  0.001318126    2.506    0.601
        83  -9.0696     76.7245     71.6494   3.9337916900e+01   5.4545462876e+01    0.1564302    0.1233298 -10.89 0.0007004528    1.638    0.389
        84 -11.5489     64.0983     69.5712   4.4006031187e+01   5.7475764293e+01    0.2609857    0.2394316 -48.67 0.0003096989    1.117    0.105
        85  -9.9175      7.8994     68.8958   7.3254028545e+01   6.4275856123e+01    0.1988232    0.1862255 -61.28 0.0004626202    1.021    0.021
        86  -9.0714     82.9979     68.0324   3.5610123399e+01   5.4014518061e+01    0.1887268    0.1703451  46.02 0.0009575704    1.060    0.057
        87  -9.0196     33.5757     68.4434   5.8868838888e+01   6.2316617746e+01    0.1417969    0.1344299 -36.75 8.848228e-05    1.021    0.020
        88  -9.6761    151.9721     66.6516   1.5947726706e+01   3.7338559159e+01    0.2217356     0.194401  70.36  0.001167342    1.110    0.099
        89 -10.2741    135.8102     66.8757   1.9419249414e+01   4.1399461887e+01    0.2207669     0.179204 -77.11 0.0005606657    1.338    0.253
        90 -11.1569    249.2399     44.2235   3.5853237082e+02   1.9045206011e+01    0.4083995    0.2127362 -34.95  0.002366189    1.545    0.353
        91  -8.5307    210.6764    230.3330   3.9432961572e+01  -4.8484870192e-02   0.09536578   0.08410144  30.60  0.000670794    1.706    0.414
        92  -9.4280     48.2004     66.6164   5.0628879679e+01   6.0836827885e+01    0.2115247    0.1407329  17.08 0.0009331578    1.698    0.411
        93 -10.5444     17.2841     65.4988   6.7289995281e+01   6.4581489345e+01    0.2706484     0.239123 -51.73 0.0009957665    1.053    0.051
        94 -10.7014      4.5753     63.6105   7.4346825333e+01   6.5785670374e+01    0.2769157    0.2000301 -54.38  0.000711769    1.244    0.196
        95 -10.5109      3.4215     58.9335   7.4311013586e+01   6.7021962445e+01    0.3013947    0.2750658 -43.36  0.001640044    1.050    0.047
        96 -10.7830     99.8561     62.6165   2.7719525523e+01   5.1227830755e+01    0.3998545    0.2666188 -55.94  0.001366142    1.715    0.417
        97  -9.3539     85.1420     63.8077   3.3271007865e+01   5.4431865101e+01    0.2060745    0.1786301  18.40  0.001018768    1.287    0.223
        98  -9.4283     75.0422     64.5321   3.7508097583e+01   5.6464045067e+01    0.2178013    0.1304459  63.82 0.0008076179    2.397    0.583
        99 -11.7317    230.0696     59.4302   3.3793031456e+00   2.0751762125e+01    0.5235399    0.2723523 -59.86  0.001892625    2.093    0.522
       100  -9.6694     78.2387     62.8882   3.5603296956e+01   5.6140250582e+01    0.2234417    0.2046285  86.87 0.0003513531    1.200    0.166
       101  -9.7804    114.3391     61.0356   2.2837087116e+01   4.7922120357e+01    0.2544061    0.2074468  45.78 0.0003800286    1.223    0.183
       102  -8.9088     65.4492     65.4883   4.1982063902e+01   5.8160139588e+01    0.1507013    0.1466991  34.23 4.711371e-05    1.010    0.010
       103  -9.9357    124.9655     59.9163   1.9687832591e+01   4.5397088590e+01    0.2322594    0.2199335  72.39 0.0003983012    1.025    0.024
       104  -9.3906    163.9738     58.3068   1.1323429558e+01   3.5654462097e+01    0.2380403    0.1152195  88.39 0.0007040116    4.203    0.762
       105 -10.1983     65.6047     57.8401   3.9071743074e+01   5.9815861143e+01    0.3854122    0.1958277  55.67  0.001388006    2.617    0.618
       106 -10.5971     22.2353     57.8005   6.2507326540e+01   6.6125040903e+01    0.2367466    0.2327615  47.22 0.0004633134    1.103    0.093
       107  -9.8484     99.0996     55.7080   2.5396104887e+01   5.2716207098e+01    0.2476046    0.2248254 -34.29 0.0004978725    1.190    0.159
       108  -9.6298     78.1007     55.8980   3.2976422748e+01   5.7610056393e+01     0.227802    0.2072856  73.21 0.0004808946    1.178    0.151
       109 -10.0871     44.4766     56.2078   4.9033352213e+01   6.3853289480e+01     0.311885    0.2553566  76.61  0.001602612    1.552    0.356
       110  -9.5007     28.9966     57.0138   5.8197157935e+01   6.5655680054e+01    0.2372805    0.1516583 -32.64 0.0009499923    1.669    0.401
       111  -8.8134     88.6651     52.7193   2.7731321628e+01   5.5799995760e+01    0.1561716     0.118662  22.12 0.0007005698    1.615    0.381
       112  -9.6725    150.3409     50.7471   1.1355139699e+01   4.0266922590e+01    0.1999012    0.1422774 -23.79 0.0009393106    1.640    0.390
       113  -9.9290    130.0006     50.1211   1.5154398098e+01   4.5697862078e+01    0.3056014    0.1780236 -26.96  0.001263059    2.026    0.506
       114  -8.9470     15.3516     51.2729   6.5121427041e+01   6.8287585954e+01    0.1445637   0.08977699 -30.99 0.0004182041    1.635    0.388
       115  -9.3067     11.4830     51.4843   6.7719172844e+01   6.8492531548e+01    0.1344318    0.1207962 -42.60 0.0001524077    1.012    0.012
       116 -10.4938    233.3563     49.4060   8.5734176556e-01   2.1380214079e+01    0.2810007     0.114963 -38.80  0.001372448    1.896    0.473
       117  -9.1799    145.5294     49.5550   1.1844588511e+01   4.1698462165e+01    0.1504875    0.1376039 -89.07 9.440448e-05    1.007    0.007
       118 -11.2889     93.9809     48.6237   2.4275284245e+01   5.5250672857e+01    0.2555474    0.2412477 -42.73 0.0002404346    1.133    0.117
       119 -10.6041     88.0455     48.6081   2.6285170543e+01   5.6699930950e+01    0.4260565    0.2682568  40.96   0.00185794    1.598    0.374
       120  -9.8890     18.8683     48.3609   6.1973041134e+01   6.8720818529e+01    0.1946929    0.1221121  -1.36 0.0009452475    1.757    0.431
       121 -10.1326      6.2826     44.7078   6.9670273405e+01   7.0434655660e+01    0.3628528    0.2366415 -48.51  0.001976541    1.352    0.260
       122  -9.1168    157.4291     45.4677   8.5269025597e+00   3.9197688841e+01    0.1454256    0.1332939 -80.81 0.0001342757    1.019    0.019
       123 -10.8023     39.2280     43.6581   4.7147671716e+01   6.7443126813e+01     0.387698    0.3189279  12.21  0.001424411    1.213    0.175
       124  -9.4172     31.2884     43.6099   5.2108260104e+01   6.8534450473e+01    0.1944739    0.1288739  11.70 0.0008646465    1.628    0.386
       125 -10.8720    226.1996     41.8448   3.5974849433e+02   2.3714484593e+01    0.2816618   0.08441477 -47.01   0.00114779    2.726    0.633
       126 -10.2764    185.8537     41.4514   3.5426577985e+00   3.2659523322e+01    0.2207998    0.2088687 -25.00 0.0003081171    1.243    0.195
       127  -9.8611    130.5576     42.5116   1.2378473026e+01   4.6700407704e+01      0.15153    0.1390688  84.09 9.605927e-05    1.006    0.006
       128 -10.0859    204.2146     65.6511   7.6086140552e+00   2.5188697542e+01    0.2357562    0.1568595 -46.88 0.0006677536    1.335    0.251
       129 -11.1579    158.9362     39.3076   6.4021139725e+00   3.9651240300e+01    0.2763742    0.2387072  83.79 0.0002747946    1.078    0.073
       130  -9.6269    119.4978     40.0398   1.3871769350e+01   5.0015542365e+01    0.2114097    0.1523619 -33.29 0.0003703132    1.502    0.334
       131  -9.7004     90.0584     39.1385   2.1595047418e+01   5.7815018402e+01     0.223398    0.1930228  29.02 0.0002659124    1.238    0.192
       132  -9.2883     74.4366     39.4726   2.7446866887e+01   6.1506653604e+01    0.1482842    0.1391532  44.50  0.000176826    1.016    0.016
       133  -9.1980     57.4503     39.4644   3.5116384403e+01   6.5140706923e+01    0.1443873    0.1358233  26.41 0.0001316287    1.020    0.019
       134  -9.2908     96.1776     37.8851   1.9131161676e+01   5.6464107721e+01    0.2047918    0.1688008  33.75 0.0003478318    1.301    0.232
       135  -9.6051     27.3388     37.7966   5.2389369800e+01   7.0306089022e+01    0.2321409    0.1676679  31.26 0.0007377584    1.394    0.283
       136 -10.1535    173.3938     35.5529   3.3625000170e+00   3.6458649847e+01    0.3088705    0.2405971  50.05  0.001682343    1.474    0.322
       137  -9.2202    144.8173     36.1506   7.5771130688e+00   4.3776559765e+01    0.1957264    0.1680085  44.86 0.0003995964    1.310    0.237
       138 -10.0408    129.9105     36.0514   1.0208325823e+01   4.7783032512e+01    0.2282572    0.2053757  86.72 0.0004345449    1.021    0.020
       139  -9.8087     51.8199     33.1648   3.4959933291e+01   6.7406101549e+01     0.197151    0.1588217  12.37 0.0004651259    1.318    0.241
       140  -9.5197     47.1344     35.8199   3.8890544631e+01   6.7770628204e+01    0.2025338    0.1937345  53.25  0.001187548    1.179    0.152
       141  -9.8434     48.4888     32.4768   3.6445337651e+01   6.8158427998e+01    0.2891541    0.1960659  -1.49 0.0008446469    2.065    0.516
       142 -10.3741     39.8590     35.7487   4.3198694528e+01   6.9003999661e+01    0.5318044    0.1847312  40.27  0.001913202    2.842    0.648
       143 -10.7262    119.1973     34.7897   1.1951816401e+01   5.0839617157e+01    0.2825117    0.2307772  54.75 0.0003753034    1.184    0.155
       144  -9.7235     82.5916     34.5189   2.2074984155e+01   6.0389182815e+01    0.3507888    0.1538714 -27.20  0.001241235    2.970    0.663
       145  -9.4032    192.1607     65.8521   9.2024617739e+00   2.7814693872e+01    0.2029238    0.1647848 -57.81 0.0003970265    1.145    0.127
       146  -9.9801    242.2719    221.4669   3.2939970083e+01  -2.5155395787e+00     0.261019    0.1033696 -11.22 0.0009119341    6.110    0.836
       147 -11.1839     17.6837     31.5952   5.6911012234e+01   7.2696056896e+01    0.3568692     0.287481  50.22 0.0006402796    1.516    0.340
       148  -9.1060     11.9693     35.0000   6.2664930323e+01   7.2398744142e+01    0.2107907   0.07223812  16.33 0.0005165101    2.966    0.663
       149 -10.0549    153.4831     32.2878   4.9906189375e+00   4.1981571607e+01    0.2482264     0.214202  75.95 0.0006229774    1.104    0.094
       150 -10.4108    139.9305     32.9856   7.3210380150e+00   4.5494925737e+01    0.3076671    0.1912588  61.94 0.0007604646    1.491    0.329
       151  -9.7722     65.2572     31.4212   2.7464812948e+01   6.4928942116e+01    0.3912954    0.1630742 -40.52  0.001496334    2.572    0.611
       152 -10.4854     29.7043     32.1988   4.8226195141e+01   7.1206211330e+01     0.527823    0.2562069  46.14  0.002184392    2.625    0.619
       153 -11.3589     35.5183     29.3458   4.2801628164e+01   7.0949142863e+01    0.5089177    0.3447968  39.00  0.001944348    1.480    0.324
       154 -11.0880     92.4663     31.1687   1.7321544380e+01   5.8411152430e+01    0.2632211    0.2271563  59.93 0.0002782433    1.057    0.054
       155 -10.3880      4.0078     31.3805   6.7901736153e+01   7.3703439342e+01    0.3298942    0.1693781  28.61  0.001355979    2.070    0.517
       156  -9.5115     74.9940     29.5388   2.2495584901e+01   6.2987250843e+01    0.2203754     0.178051  50.62  0.001085164    1.131    0.116
       157  -9.6315     76.9781     26.4890   2.0240996126e+01   6.2957754885e+01    0.2358314    0.2065044   1.14 0.0006631431    1.274    0.215
       158 -10.9030    153.2975     27.7105   3.5538438723e+00   4.2591639601e+01    0.2591426    0.2225129 -83.47  0.000264678    1.036    0.034
       159  -9.1707    103.9761     28.2759   1.2893639597e+01   5.5792572932e+01     0.210181    0.1720348  64.37 0.0003480272    1.103    0.093
       160 -10.2225    176.4360     25.4142   1.2121306614e-01   3.6923039190e+01    0.4140694    0.2666013  14.43  0.001104727    2.753    0.637
       161  -9.4204    160.4934     26.9775   2.3896361689e+00   4.0795821151e+01    0.1970507    0.1344031 -35.09 0.0003348165    1.487    0.328
       162 -10.1289     88.3915     25.1725   1.5802921392e+01   6.0281850083e+01    0.3759106    0.2083443 -51.48  0.001560769    2.245    0.555
       163 -11.0378     47.2978     26.5297   3.3952012845e+01   6.9445121741e+01    0.3078665    0.2435572   6.16 -1.667996e-05    1.369    0.270
       164  -9.9607    111.4958     25.3416   9.9083203639e+00   5.4148145406e+01    0.2811022    0.2125681  15.25 0.0005890747    1.733    0.423
       165  -9.5697    241.8474     23.8315   3.5471186560e+02   2.2710959382e+01    0.1610181    0.1399007 -44.83 0.0003750757    1.206    0.171
       166  -9.6953    128.9389     23.9936   5.9943571129e+00   4.9573004218e+01    0.2167509    0.1971649  78.19 0.0003407628    1.051    0.048
       167 -10.5198     98.5129     22.8847   1.1931551703e+01   5.7929396915e+01    0.2715905    0.2450407  54.82   0.00055535    1.069    0.064
       168 -10.0864     38.2405     22.7517   3.7353912856e+01   7.1732498514e+01    0.2406638     0.196671  20.60  0.000404365    1.141    0.124
       169 -10.2473     20.1430     22.5389   5.0688542296e+01   7.4359023372e+01    0.3109965    0.1730975   1.54  0.001311607    2.306    0.566
       170  -9.6921    107.2571     22.5789   9.7016460624e+00   5.5626867511e+01    0.2888055    0.1369528  71.09  0.001124307    2.075    0.518
       171  -9.0940    138.4883     21.5194   3.5811188626e+00   4.7267605799e+01    0.1491812    0.1257619 -80.15 0.0008086878    1.090    0.082
       172  -9.1834    208.9622     20.4598   3.5603089928e+02   2.9830555915e+01    0.1854682   0.08192415 -70.51 0.0008085097    2.477    0.596
       173  -9.2477     84.9544     20.4442   1.4576365020e+01   6.1769015015e+01    0.2225219    0.1317349  61.58 0.0005631471    1.531    0.347
       174 -10.3700     67.6543     19.4338   2.0107048310e+01   6.6167833186e+01     0.391156    0.2596525  23.40  0.001842501    1.830    0.454
       175  -9.1209     65.6862     16.3081   1.9149575020e+01   6.7040490482e+01    0.2307463    0.1378989  60.82 0.0002115243    1.638    0.390
       176  -9.6891    244.5406    198.5314   2.8973945127e+01  -1.3106839066e-01    0.1106631   0.08151759  -6.28 0.0001280246    1.003    0.003
       177  -9.8813     19.8509     15.8440   4.7153276791e+01   7.5703922680e+01    0.2264798    0.1743553  19.02 0.0006338459    1.220    0.180
       178 -10.2334    109.4250     18.6418   7.5741367351e+00   5.5494552463e+01    0.3246048    0.1996028 -61.86  0.001199615    1.910    0.477
       179  -9.2733     48.8675     19.5139   2.9013377306e+01   7.0286439336e+01    0.1988578    0.1264284  44.40 0.0003918677    1.450    0.310
       180  -9.3071      5.3264     19.3088   6.2430353711e+01   7.6336968144e+01    0.1380045   0.07788435 -30.98 0.0004024515    1.656    0.396
       181  -9.3675     30.7024    183.6524   7.5748138566e+01   3.2674933502e+01    0.1266628   0.09892344 -37.78 0.0007035114    1.679    0.405
       182  -9.9152     85.0906     15.6578   1.2163730487e+01   6.2301616620e+01    0.3951719    0.1616774  65.48  0.001488454    2.317    0.568
       183  -9.6691     73.7942     15.8949   1.5875831701e+01   6.5133160146e+01     0.221046    0.1772034  31.61 0.0006292146    1.270    0.213
       184  -9.6568      6.5378     15.5180   5.9512462940e+01   7.7062045524e+01     0.211133    0.1237021 -77.76 0.0009576038    2.419    0.587
       185 -10.7873    244.2549    180.3598   2.5958432107e+01   2.1203457334e+00    0.2131024    0.1571316 -54.67  0.001317418    2.503    0.600
       186  -9.5498      1.3513    181.2485   8.3731818929e+01   3.5815421435e+01    0.1699693   0.09782408  75.17 0.0003830264    1.545    0.353
       187  -9.9505    183.5012     15.4248   3.5668052148e+02   3.6284257192e+01    0.2695659    0.1722662 -67.89 0.0007782791    1.414    0.293
       188  -9.8889     20.9305    174.7245   7.7967443896e+01   3.5742368740e+01    0.1921383    0.1510095  47.46 0.0005451243    1.087    0.080
       189 -10.8795    224.1637    172.9016   2.7723356208e+01   5.7204611157e+00    0.2631285    0.1562035 -31.58  0.001549325    1.505    0.336
       190 -10.4345     21.6394    170.1163   7.7481771063e+01   3.6793928818e+01    0.2367541    0.1857554  23.30 0.0006293064    1.327    0.247
       191  -9.4141    157.2084     13.8081   3.5866825499e+02   4.3103904245e+01    0.1762268    0.1526456  54.94 0.0002373786    1.304    0.233
       192  -9.5544    112.0197     14.1344   5.1773885125e+00   5.5271068900e+01    0.4019887   0.09860916  71.68  0.001104108    4.237    0.764
       193  -9.6758     14.9985    161.0169   7.8933396280e+01   3.9615357414e+01    0.1625675    0.1376538  65.62 0.0003323312    1.025    0.025
       194 -11.1475      8.5490    156.4303   8.0674129061e+01   4.1263585215e+01    0.3798832    0.1923123 -63.12   0.00172321    2.051    0.512
       195  -9.9404     40.0435    148.5065   6.9867393971e+01   4.0386774014e+01    0.3176005    0.1992752 -75.19    0.0012893    1.603    0.376
       196  -9.5024      3.1690    156.5014   8.2335288359e+01   4.1626376858e+01     0.179959    0.1213974  25.32 0.0005521014    1.484    0.326
       197  -9.4880    151.3052     13.3604   3.5916980248e+02   4.4704214760e+01     0.140983    0.1001993  41.05 0.0007039178    1.729    0.422
       198 -10.9403    244.0974    148.6280   2.0250426559e+01   6.2559544866e+00     0.210811    0.1346987 -36.38  0.001318352    1.405    0.288
       199 -11.1810    239.8978    147.2253   2.0568045435e+01   7.0352192519e+00    0.2980796    0.1254552 -46.08  0.001336108    2.965    0.663
       200 -10.5409    249.3940    145.7740   1.9001009295e+01   5.9042643624e+00     0.171418   0.08982418 -24.73 0.0009567636    1.693    0.409
       201  -9.2113     25.2408    146.3447   7.4609222118e+01   4.2458636224e+01    0.2028087    0.1096193  35.75 0.0008747221    1.665    0.399
       202  -8.7060     75.5867    143.7414   5.7412691283e+01   3.6804832510e+01    0.1541264    0.1176805  -7.48 0.0006949402    1.746    0.427
       203  -9.5149      6.9881    143.0081   8.0476253601e+01   4.4776962944e+01    0.2106359    0.1803377  73.70 0.0008401595    1.030    0.029
       204 -11.9354    239.0110    141.3635   1.9567616090e+01   7.9640504853e+00    0.2620962    0.2039187   6.61  0.001756627    1.320    0.242
       205 -10.3257     21.7017    141.3255   7.5385261976e+01   4.4082561551e+01    0.2346401    0.2200576 -80.77 0.0002722364    1.125    0.111
       206 -11.1238    246.0099    137.7104   1.7918824465e+01   7.4471464524e+00    0.1621881    0.1386915  -9.81  0.001168571    1.108    0.097
       207 -10.9902     28.8348    136.5374   7.2452020487e+01   4.4692261975e+01    0.4871924    0.3584213  67.93  0.001350245    1.301    0.232
       208 -10.0985     16.7188    137.8613   7.6829481737e+01   4.5401462692e+01    0.2708113    0.1323318  34.62 0.0008335829    1.855    0.461
       209  -8.9303     43.0189    135.0015   6.7219745897e+01   4.3590744649e+01    0.1737214    0.1597494  65.67 0.0009648977    1.005    0.005
       210 -10.0123     11.1724    134.1397   7.8500611639e+01   4.6789910348e+01    0.1936181    0.1820199 -58.19 0.0007628322    1.182    0.154
       211 -10.6946     18.4086    132.5224   7.5799719963e+01   4.6672622293e+01    0.3832907    0.1849343  41.71  0.001258584    1.891    0.471
       212 -12.1755    235.9966    129.7227   1.7693961289e+01   1.0033516536e+01    0.4480799    0.1961759 -29.47  0.002156592    2.086    0.521
       213 -12.1993    249.8066    116.6384   1.3335421167e+01   9.7101719025e+00     0.636169    0.1695341 -30.54  0.002349648    3.722    0.731
       214 -11.9974    250.0275    128.6812   1.5664509473e+01   8.0739944016e+00    0.3080397    0.2416065 -22.01  0.002159359    1.052    0.049
       215 -12.1849    245.1673    120.1477   1.4592980189e+01   9.9429736829e+00    0.2403485    0.2156981 -34.14   0.00153004    1.165    0.141
       216  -9.9343    103.1289    122.0471   4.4184571086e+01   3.7248617935e+01    0.4534315    0.2121829 -49.09  0.001663784    2.231    0.552
       217  -8.8473     63.7359    122.3634   5.7665511286e+01   4.4163846877e+01    0.1606207    0.1127158  70.20 0.0006544263    1.643    0.391
