#   1 NUMBER                 Running object number                                     
#   2 MAG_AUTO               Kron-like elliptical aperture magnitude                    [mag]
#   3 X_IMAGE                Object position along x                                    [pixel]
#   4 Y_IMAGE                Object position along y                                    [pixel]
#   5 X_WORLD                Barycenter position along world x axis                     [deg]
#   6 Y_WORLD                Barycenter position along world y axis                     [deg]
#   7 A_WORLD                Profile RMS along major axis (world units)                 [deg]
#   8 B_WORLD                Profile RMS along minor axis (world units)                 [deg]
#   9 THETA_WORLD            Position angle (CCW/world-x)                               [deg]
#  10 FWHM_WORLD             FWHM assuming a gaussian core                              [deg]
#  11 ELONGATION             A_IMAGE/B_IMAGE                                           
#  12 ELLIPTICITY            1 - B_IMAGE/A_IMAGE                                       
         1 -12.9570    227.0557    110.2470   3.6360427455e+01   1.1968710914e+01     7.707631     2.305445 -50.69   0.01606733    6.776    0.852
         2 -12.7103    198.6130     94.8071   3.7587515598e+01   2.1447973476e+01     3.947051    0.8842141  46.03  0.009385352    5.550    0.820
         3 -13.4261    237.3980     39.2524   1.7675848113e+01   2.0866177516e+01      4.10407     2.150007 -25.26   0.01799153    2.323    0.570
         4 -11.7256    218.2294     31.7116   1.8035417629e+01   2.6570626600e+01     1.859486     1.040666 -18.30  0.007963775    2.521    0.603
         5  -9.0068    196.4830     32.2317   2.0992047347e+01   3.2056599000e+01    0.4616294    0.2404668 -14.38  0.001737264    3.102    0.678
         6 -13.4899    236.6206    105.3373   3.3633371204e+01   1.0687343863e+01      3.96521     2.075527 -59.99   0.01369744    2.918    0.657
         7 -11.6384    244.9633     16.8363   1.1729621165e+01   2.1998956985e+01      2.19648     0.661665 -56.68  0.007198396    4.168    0.760
         8  -8.2759    142.1055     15.4266   2.4719722756e+01   4.8148110315e+01     0.362188    0.1884646 -10.59  0.001496686    2.683    0.627
         9 -10.1814    119.4623      9.7257   2.7339005383e+01   5.4225007577e+01    0.5903082    0.3659863  41.81  0.002729183    1.493    0.330
        10  -7.7320     85.5399      4.0394   3.3756955643e+01   6.2127954483e+01    0.1746304    0.1176075 -19.22 0.0003587323    1.518    0.341
        11  -7.2891    210.2539      2.3753   1.1493137444e+01   3.2048936525e+01    0.1254152   0.09850153  37.39 0.0006963576    1.648    0.393
        12  -7.4597    244.6502    205.3008   5.3267124640e+01  -6.5013602948e+00    0.1096322   0.09971704  70.14 0.0007038217    1.692    0.409
        13  -7.5128    169.2269    250.6742   7.3985908216e+01  -1.1234033229e-01     0.166781   0.08796997  38.05  0.000451634    1.539    0.350
        14  -8.0043    142.1487    250.6192   7.8871150930e+01   4.3508212464e+00    0.1738288   0.09260953  36.89 0.0007535113    1.709    0.415
        15  -7.3950     65.6287    205.1053   8.8584052859e+01   2.4501017041e+01    0.1564167    0.1017087 -64.00  0.000771749    1.657    0.397
        16  -7.8560     40.9484    205.0621   9.3388352661e+01   2.7682561085e+01    0.1531391    0.1339398 -59.59 0.0004599915    1.622    0.384
        17  -9.1634    239.9123    198.4402   5.2839465520e+01  -4.7950062656e+00    0.3119744    0.2037097  61.60  0.001525775    2.615    0.618
        18  -7.1006     94.2805    194.7223   8.1535729869e+01   2.2377085725e+01    0.1332036    0.0867646  70.08 0.0002198182    1.504    0.335
        19  -7.6038    211.6577    191.6766   5.6736368456e+01   1.2095671669e+00     0.141182   0.09765203  11.48 0.0007050694    1.730    0.422
        20  -8.6562    212.5836    179.2894   5.4191630835e+01   3.0314370756e+00    0.2387063    0.1313722 -42.97 0.0008309572    1.975    0.494
        21  -9.5210    144.2873    178.7994   6.8224297265e+01   1.6721553033e+01    0.2479588    0.2313607  75.29 0.0003282091    1.067    0.062
        22  -8.0495    239.3327    177.6359   4.8962807355e+01  -1.6900449609e+00    0.1256157    0.1068577 -76.44 0.0007036395    1.816    0.449
        23  -7.9012    150.1128    176.1403   6.6470917167e+01   1.6110055012e+01    0.2605023    0.1800045  49.90 0.0007299669    1.326    0.246
        24  -8.6006     87.9098    168.5951   7.9419014406e+01   2.9086499541e+01    0.2121143    0.1757761 -59.19 0.0003048789    1.320    0.242
        25  -8.2286    189.3207    168.3168   5.6605843807e+01   9.6034397052e+00    0.1474937    0.1118434   9.83            0    1.661    0.398
        26  -9.1580    230.0264    166.5119   4.8377273908e+01   1.7626617199e+00    0.2499654    0.1867718 -48.87 0.0008931921    1.559    0.359
        27  -8.2093    184.3012    165.6764   5.7107331090e+01   1.1139848363e+01    0.1443716    0.1159746  86.51 0.0002380979    1.633    0.388
        28  -9.7651    234.3604    160.7350   4.6404022088e+01   1.8643885271e+00    0.3934425    0.2517913  59.85  0.001874283    2.071    0.517
        29  -9.6113    241.4124    159.5805   4.4929233781e+01   7.1197706852e-01    0.2860728    0.2359874 -46.71   0.00145189    1.370    0.270
        30  -9.4696    197.3253    159.8612   5.3234329183e+01   9.4914351369e+00    0.2748779    0.2012525  38.90 0.0004913194    1.319    0.242
        31  -9.1146    230.5382    153.4237   4.5539358361e+01   3.8058697669e+00    0.3750556    0.2900513 -46.94  0.001172236    1.407    0.289
        32  -8.5809    205.4820    155.5334   5.0692894800e+01   8.5657571426e+00    0.1441443    0.1370814  20.70 -2.203652e-05    1.002    0.002
        33 -11.2004    177.3947     89.7862   4.0452147821e+01   2.7657660041e+01      1.08234    0.4560831 -32.47   0.00128655    2.818    0.645
        34  -7.5258     59.2184    244.7957   9.3017687544e+01   1.7828699645e+01    0.1518868   0.07280704 -61.90 0.0008708045    2.490    0.598
        35 -10.2997    108.0718    242.2011   8.4158844762e+01   1.1185915770e+01    0.2186061    0.1866492  89.39  0.000440048    1.281    0.219
        36 -10.3564      2.7515    146.3268   9.6699442081e+01   4.3986327317e+01    0.7266771    0.2256143 -75.12  0.003420204    2.435    0.589
        37  -7.6928    133.6252    147.7454   6.4802826287e+01   2.5493794756e+01    0.2181505    0.1405699 -64.00 0.0009534142    1.733    0.423
        38  -9.5989     67.2515    143.9149   8.0759718164e+01   3.7868603804e+01    0.6032209    0.2929061  58.14   0.00258027    2.430    0.589
        39  -6.9509     27.6466    242.6938   9.8124393502e+01   2.2082390135e+01   0.08631641   0.07974615 -80.35 0.0007041901    1.714    0.417
        40  -7.7326     55.5134    144.5167   8.3825055111e+01   3.9263706086e+01    0.1320429    0.1118595 -85.52 0.0002567855    1.020    0.019
        41 -10.8042     32.9087    137.5845   8.8620404382e+01   4.3393224906e+01    0.4746835     0.399436  28.35  0.001595999    1.511    0.338
        42 -11.0370     48.5326    134.8811   8.4247708246e+01   4.2357349388e+01    0.7977755    0.4215313 -61.76  0.003057026    1.643    0.391
        43 -11.0454     41.2908    135.1008   8.6161278196e+01   4.3109386851e+01    0.7335437    0.5451273 -80.62   0.00314121    1.137    0.120
        44  -9.4803     41.2979    129.5274   8.5390207300e+01   4.4409535654e+01    0.2588336    0.2558459  46.09 0.0009986709    1.277    0.217
        45 -10.7263     66.2824    136.0792   7.9769205226e+01   3.9848683197e+01     1.236797    0.5948862  69.24   0.00439299    3.705    0.730
        46 -10.1378     61.0097    136.6575   8.1247467289e+01   4.0412614934e+01    0.6116832    0.2802144 -85.49  0.002156413    3.619    0.724
        47  -9.8304     62.2504    132.0031   8.0173381482e+01   4.1350151957e+01    0.2918955    0.1753745 -86.95  0.001387181    1.898    0.473
        48  -8.9168    155.9326    133.7723   5.6450996789e+01   2.3779631810e+01    0.3384366    0.2792731 -28.12 0.0009388904    1.404    0.288
        49 -10.2761     70.9773    130.7848   7.7620242863e+01   4.0450291437e+01    0.3871711    0.2833032  78.10  0.002067175    1.460    0.315
        50  -9.3320     76.3397    124.6357   7.5027921208e+01   4.1129438354e+01    0.2881711    0.2221404 -29.73 0.0008632659    1.692    0.409
        51  -7.5477     91.5215    122.5003   7.0406260066e+01   3.9233685713e+01     0.145245    0.1330564 -82.02 0.0001913967    1.015    0.015
        52 -12.1247    232.7366     86.6955   2.9777122631e+01   1.4692643821e+01     1.071765    0.6651304  66.62  0.003366685    1.790    0.441
        53 -10.1587     62.0782    114.3172   7.7090030792e+01   4.5547862748e+01    0.2326119    0.2091747 -61.87 0.0002891114    1.082    0.076
        54  -8.0361    134.3163    119.0392   5.8219895529e+01   3.1761171674e+01    0.2158524    0.1930128 -60.76 0.0003377829    1.115    0.103
        55  -8.4571    137.1804    113.1192   5.6029346016e+01   3.2442726833e+01    0.3277399     0.206247  43.55 0.0007980251    1.606    0.377
        56  -9.8851    205.4681    108.1106   3.9679364144e+01   1.7341108624e+01    0.6406336    0.3760489 -56.85  0.002375787    2.074    0.518
        57  -8.6628    149.9930    107.0093   5.1283828095e+01   3.0852146060e+01     0.242493     0.238289  45.11 0.0006437573    1.061    0.058
        58 -13.1819    246.7970     81.8283   2.6599810323e+01   1.2305879026e+01     1.672514     1.604496 -59.69   0.01019626    1.076    0.071
        59 -10.1176    161.3680    104.4428   4.7922029135e+01   2.8698476009e+01    0.5596873    0.2560056  50.35  0.002020111    2.156    0.536
        60  -8.6883    192.3852    153.8194   5.2951326805e+01   1.1666519339e+01    0.2051414    0.1406659 -29.56 0.0009447787    1.640    0.390
        61  -8.6178    134.8994    102.1283   5.3761635466e+01   3.5334959540e+01    0.2389213    0.2110947  83.66 0.0004584962    1.209    0.173
        62  -7.1526    112.9947    100.9571   5.9326845625e+01   4.0233613071e+01    0.1766966     0.166711 -60.15 0.0003493496    1.032    0.031
        63  -8.6249    143.6154     98.5268   5.0583725880e+01   3.4115988036e+01    0.2984432    0.2604564 -73.10  0.001204571    1.222    0.182
        64  -9.6762    159.4189     97.0975   4.6402103579e+01   3.0660610461e+01    0.3411985    0.2823285 -45.31 0.0008806352    1.220    0.181
        65  -7.6960     52.3598    153.9563   8.5859612254e+01   3.7457725443e+01     0.175457    0.1372955 -79.40 0.0003960276    1.104    0.094
        66 -10.0871    184.9870     78.7630   3.5896694770e+01   2.7770042253e+01     0.531843    0.3465483 -57.70  0.002273372    1.731    0.422
        67  -9.6038    194.9012     78.6560   3.4002699416e+01   2.5273748983e+01    0.5046403     0.337459 -69.06  0.002143472    1.881    0.468
        68  -9.1732    206.1466     74.6280   3.0959343258e+01   2.3134352650e+01     0.265399    0.2460528  48.08 0.0005835257    1.162    0.139
        69  -9.7173    198.8421     71.3715   3.1337168056e+01   2.5526612832e+01    0.7494703    0.1801358 -37.77  0.002136518    3.813    0.738
        70 -10.0908    199.3317     61.2103   2.8503038421e+01   2.7072091699e+01    0.5337778    0.3762104 -35.20  0.001522066    1.456    0.313
        71  -9.4664    197.3651     56.0905   2.7426760240e+01   2.8386531051e+01    0.3652489    0.2746988  68.07  0.001805967    1.290    0.225
        72  -8.3109    132.2217     75.1154   4.6740631987e+01   4.1474417963e+01    0.2184509    0.2032054   5.66 0.0003089682    1.162    0.140
        73  -7.5316    100.6319     75.5290   5.5761804998e+01   4.8084968755e+01    0.1431666    0.1342378 -42.93 7.372002e-05    1.042    0.040
        74 -10.9025    217.7294     72.3875   2.8510437746e+01   2.0634337338e+01    0.6873758    0.4532661  57.02   0.00184313    1.538    0.350
        75  -9.6956    205.6378     65.2479   2.8560565563e+01   2.4814933689e+01    0.3381416    0.2299065 -68.78  0.001380389    1.699    0.412
        76  -9.6503    218.2289     55.5352   2.4119760519e+01   2.3177326649e+01    0.5658118    0.2516695 -29.00  0.002078219    2.552    0.608
        77  -8.3784    102.9044     63.1038   5.1160801159e+01   5.0077863444e+01    0.2066492    0.1976765  -9.48 0.0003075967    1.010    0.010
        78  -7.5028    171.4177     55.4237   3.1834770769e+01   3.5225294889e+01    0.1513458    0.1418438  86.79 1.705465e-05    1.030    0.029
        79 -12.1624    249.4171     65.3449   2.2411728229e+01   1.4287722510e+01     1.325592     1.011459 -20.89  0.005695359    1.542    0.351
        80  -8.9814    198.8889     48.2917   2.5048431860e+01   2.9179371118e+01    0.2737398    0.2288635 -23.99  0.001433267    1.366    0.268
        81  -7.9225    163.2911     48.8320   3.1429607022e+01   3.8357939785e+01    0.3000558    0.1187393 -40.14  0.001068793    2.545    0.607
        82  -8.3676    203.6517     47.0043   2.3981451257e+01   2.8142392371e+01    0.2113368    0.1804291 -47.01 0.0007730939    1.170    0.145
        83  -8.9233    152.8707     46.8839   3.2951493180e+01   4.1323345036e+01    0.2325693    0.2047765  23.78 0.0009441482    1.253    0.202
        84  -7.3239     99.5973     47.5421   4.6844450762e+01   5.3503998175e+01    0.1380347      0.12889  -2.12 4.261953e-05    1.016    0.016
        85  -8.4638    150.9779     38.9472   3.0794901751e+01   4.2968678045e+01    0.2126665    0.2026775  84.57 0.0002936212    1.058    0.055
        86  -8.7505     59.1760    231.3534   9.2044366732e+01   2.0260104746e+01    0.1933437    0.1479364  80.20 0.0002824606    1.142    0.124
        87  -8.1594    237.9417    230.7246   5.8798038276e+01  -8.6435657162e+00    0.1642348    0.1274872  23.51  0.000376237    1.049    0.047
        88  -8.3824    134.9342     31.5477   3.1764920458e+01   4.7981090607e+01    0.3269005    0.1721843 -63.67   0.00108404    3.900    0.744
        89  -9.0502    231.1500     25.6080   1.5087302033e+01   2.4180302940e+01    0.3578042    0.1962178 -54.62  0.001708414    1.730    0.422
        90  -8.8805    132.4348    230.4048   7.8282898308e+01   9.2050695221e+00    0.2145265    0.1812045  41.76 0.0002639716    1.205    0.170
        91  -7.8427    117.8371    226.3395   8.0602066897e+01   1.2365044978e+01    0.2182838   0.09255105 -61.68  0.001002528    2.819    0.645
        92  -8.3366    187.1215     16.8418   1.7983674506e+01   3.6390988490e+01    0.2291877    0.1804356  61.54 0.0002430425    1.206    0.171
        93  -6.9689    162.7128    224.6394   7.1683408241e+01   4.8948218060e+00    0.1235891   0.09600057  10.75 0.0005800926    1.686    0.407
        94  -7.5280    238.6846    212.2985   5.5548553586e+01  -6.4563753923e+00    0.1073683   0.09796257  63.33 0.0007016741    1.609    0.379
        95  -8.2820     59.6427    207.4214   8.9977619389e+01   2.4842046272e+01    0.2115431    0.1596633 -66.91 0.0005704587    1.497    0.332
