#   1 NUMBER                 Running object number                                     
#   2 MAG_AUTO               Kron-like elliptical aperture magnitude                    [mag]
#   3 X_IMAGE                Object position along x                                    [pixel]
#   4 Y_IMAGE                Object position along y                                    [pixel]
#   5 X_WORLD                Barycenter position along world x axis                     [deg]
#   6 Y_WORLD                Barycenter position along world y axis                     [deg]
#   7 A_WORLD                Profile RMS along major axis (world units)                 [deg]
#   8 B_WORLD                Profile RMS along minor axis (world units)                 [deg]
#   9 THETA_WORLD            Position angle (CCW/world-x)                               [deg]
#  10 FWHM_WORLD             FWHM assuming a gaussian core                              [deg]
#  11 ELONGATION             A_IMAGE/B_IMAGE                                           
#  12 ELLIPTICITY            1 - B_IMAGE/A_IMAGE                                       
         1 -16.1208    182.9592     77.5914   4.3689525388e+01   2.9267616163e+01     1.820427     1.360575  28.95  0.009346179    1.807    0.447
         2 -15.7210    139.8380     65.4716   4.8922145017e+01   4.0995100277e+01     1.361128    0.9763075  41.52  0.006947607    1.402    0.287
         3 -15.0267    175.7638     70.1128   4.3095452075e+01   3.2076211106e+01       1.7175     0.602553 -32.52  0.005887717    3.568    0.720
         4 -15.6558    155.0411     61.5533   4.4679307621e+01   3.8119098239e+01     2.386815     1.725535  11.24   0.01151812    2.113    0.527
         5 -15.3530     65.5083     44.4842   6.3751283625e+01   5.9522680490e+01     1.046308     0.777751   4.64  0.006017631    1.319    0.242
         6 -14.5635     68.0109     30.7424   5.7616234809e+01   6.0992068178e+01    0.7283142    0.6162102  81.18  0.004329202    1.958    0.489
         7 -12.4736     52.0272     20.0819   5.9352564828e+01   6.5041063904e+01    0.5502378    0.2725062   0.19  0.002168713    3.849    0.740
         8 -14.1723     75.7759     13.5854   4.8307081107e+01   6.1424221007e+01    0.6902483    0.4334712  24.94  0.002435711    1.573    0.364
         9 -13.5984     83.2989     12.4053   4.5662727247e+01   6.0028054698e+01    0.7049579    0.4978946   9.80  0.003036547    1.555    0.357
        10 -11.1282    242.1769      9.9641   2.2825507887e+01   2.6087440880e+01    0.1707745    0.1057077 -64.67 0.0004503785    1.279    0.218
        11 -10.0289    185.2621      9.7365   2.7449917676e+01   3.7648228783e+01    0.1148011   0.07500171 -72.95 0.0001940155    1.452    0.311
        12 -11.7722     89.5053     12.9810   4.4204281033e+01   5.8695220658e+01     0.284921    0.2408612  19.41  0.001094221    1.189    0.159
        13 -10.3550    211.9890      1.2178   2.3346399848e+01   3.2858517008e+01    0.1340859   0.07503017  79.72            0    1.511    0.338
        14 -11.9024     89.7197      1.4234   3.9930824248e+01   5.9603332029e+01    0.2312581    0.1042151  63.87 0.0008355703    2.071    0.517
        15 -10.5598     72.9999      1.4381   4.4302655793e+01   6.3015864283e+01    0.1825847   0.09623878  52.74 0.0005429109    1.546    0.353
        16 -14.4924    148.4498    116.5023   6.0600805147e+01   2.9522353107e+01     1.117157     0.664387 -71.42  0.003759909    3.339    0.701
        17 -13.9865    144.9965    107.9971   5.9277026033e+01   3.2036753016e+01    0.6804919    0.4525952   2.83  0.002588922    2.682    0.627
        18 -11.7341    237.3033    115.8088   4.3654660440e+01   1.1894391661e+01    0.4727107    0.2822061 -69.88  0.002167033    2.575    0.612
        19 -10.8272    191.9677    106.2131   4.8875168545e+01   2.2304686784e+01    0.1873739    0.1160613  53.05 0.0008727399    1.716    0.417
        20 -13.8199    135.9816    102.8975   6.0197384655e+01   3.5027739828e+01    0.6388529    0.4788869  80.57  0.002859414    1.881    0.468
        21 -12.1587     42.9228     99.3558   8.9385285607e+01   5.1818258490e+01     0.296284    0.1879833 -46.81  0.001478068    1.388    0.280
        22 -13.9091    216.2849     93.4529   4.2034987378e+01   1.9626187002e+01    0.6629242    0.5588548 -28.44  0.003968867    1.327    0.246
        23 -11.7678    114.1535     96.9005   6.4504249362e+01   4.0863064973e+01    0.2373184    0.2185021  83.70  0.001248142    1.274    0.215
        24 -13.8857    187.9835     90.6354   4.5939196286e+01   2.5957425875e+01    0.7387194    0.5467561  86.52  0.003767148    1.623    0.384
        25 -11.7844    224.0090    200.2376   6.2584937201e+01  -1.1268970853e+00    0.1648324    0.1058289  29.26 0.0008872781    1.638    0.390
        26 -16.3250    161.4271     87.7914   5.0309152609e+01   3.2309332592e+01     2.081944      1.74661 -67.75   0.01111764    1.279    0.218
        27 -12.6854    246.2943    183.1555   5.5437451245e+01  -1.2544215781e+00    0.2619394    0.1666595 -32.17  0.001051844    1.292    0.226
        28 -11.6147    230.0290    181.5063   5.7924278424e+01   1.3233678376e+00    0.1832393    0.1288485  31.95 0.0007528407    1.578    0.366
        29 -13.4407    198.3259     80.5065   4.1873430873e+01   2.5463343074e+01    0.4241011     0.316287  39.72  0.002292662    1.648    0.393
        30 -13.8121     32.3363     88.6359   9.0921599129e+01   5.5364723865e+01    0.6543892    0.4126583  16.25  0.003413922    1.682    0.405
        31 -11.9547     39.7753     82.0514   8.6269907716e+01   5.6081195284e+01    0.4122066    0.2595153  -5.97  0.002034181    1.795    0.443
        32 -12.9745     28.3486     81.0958   9.0680455139e+01   5.7415377497e+01     0.287741    0.2109101  43.77  0.001597541    1.763    0.433
        33 -12.4742     19.0985     77.9878   9.3761688887e+01   5.8852200887e+01    0.2607236    0.1779371  29.26  0.001479727    1.688    0.408
        34 -14.0158    133.3235     53.7657   4.6994797168e+01   4.4253385083e+01    0.9205971    0.3858036  66.67  0.003080036    3.594    0.722
        35 -11.5371    202.7457    171.7289   6.1131793086e+01   7.4527331160e+00    0.2296191    0.1108184 -52.04 0.0009027596    2.412    0.585
        36 -13.1992    198.1746     87.7074   4.3544752762e+01   2.4293771108e+01    0.5830015    0.4150149   2.81   0.00266702    2.561    0.610
        37 -13.2242    115.7459     57.5067   5.2362209794e+01   4.7637539996e+01    0.4810247    0.3022987  32.53  0.002267028    1.737    0.424
        38 -13.6277    248.5608    154.1751   4.9560125560e+01   3.4077072825e+00    0.6796556      0.49892 -44.11  0.003635427    1.200    0.167
        39 -14.5094     55.0691     46.3226   6.8526445154e+01   6.0918171974e+01     0.625496    0.4413269  22.89  0.003071136    1.281    0.219
        40 -11.5415      9.1329     63.1714   9.4439708954e+01   6.2684877476e+01    0.3853591    0.1791691 -51.05  0.001767517    1.713    0.416
        41 -10.6413    103.0492     62.5225   5.7463300055e+01   4.9557553015e+01    0.2251745    0.1319576  46.51  0.001035923    1.604    0.377
        42 -12.9663     61.1249     69.5078   7.4065368748e+01   5.5913423580e+01    0.4755729    0.3189481 -14.10  0.002371264    1.651    0.394
        43 -11.8675     91.6231     54.3549   5.8248853042e+01   5.3184139170e+01    0.4898918    0.3152444 -54.98  0.002296616    2.237    0.553
        44 -13.9578    183.9396     50.1781   3.6949555791e+01   3.3189728203e+01    0.7384508    0.3890115 -34.14  0.003575915    2.060    0.514
        45 -14.6411     54.9368     55.7210   7.1938124571e+01   5.9363772654e+01    0.8811381    0.4644838 -40.16  0.004277172    1.869    0.465
        46 -14.5190     40.6690     46.4380   7.4713983403e+01   6.2913121669e+01     1.017044      0.39566 -37.02   0.00444015    2.491    0.599
        47 -13.2606    169.7627     61.9177   4.2078499228e+01   3.4697317953e+01    0.4517346    0.3390408 -57.88  0.001957632    1.372    0.271
        48 -13.0519    145.7170     50.4501   4.3457066833e+01   4.1877319643e+01     0.334272    0.2981181  55.86  0.001302498    1.059    0.055
        49 -12.1102    133.8995     48.1229   4.5213484379e+01   4.4913242934e+01    0.2067456    0.1776438  83.64 0.0004543333    1.244    0.196
        50 -13.1975    134.1981     40.6039   4.2943703761e+01   4.5832446186e+01    0.6165656    0.2969946  44.86  0.002738409    2.056    0.514
        51 -13.1625    130.4340     38.6739   4.3148661773e+01   4.6935442845e+01     1.125722    0.3819615 -24.68  0.003750314    4.576    0.781
        52 -11.8202      2.2419     46.3004   9.3129471605e+01   6.6442412544e+01    0.2572561    0.2108393 -54.84  0.001192058    1.387    0.279
        53 -11.8600    143.0697     44.6216   4.2336502243e+01   4.3274143327e+01    0.2277579    0.1860368 -54.89 0.0008225912    1.334    0.250
        54 -11.5156    197.1588     40.9289   3.3069637148e+01   3.1515291062e+01    0.1930058    0.1580311  81.88 0.0002962355    1.108    0.097
        55 -13.1730     48.7144     38.3185   6.8153097881e+01   6.3109863897e+01    0.3523163    0.2840428 -49.19  0.002149173    1.737    0.424
        56 -11.0760    217.0279     38.4773   3.0327255700e+01   2.7650452508e+01    0.2792739    0.1083831  68.20  0.001230427    2.498    0.600
        57 -13.0255     78.9222     31.7116   5.4267334076e+01   5.8831238528e+01     0.551241      0.41553 -83.35  0.002799188    2.617    0.618
        58 -12.4685    246.6241    145.2479   4.8125661996e+01   5.2491837800e+00     0.509752    0.4360375 -25.69  0.002907447    1.122    0.109
        59 -10.7205    241.8221     22.2429   2.5028373345e+01   2.4774830733e+01    0.1675746     0.114344 -71.40 0.0004599702    1.175    0.149
        60 -11.0651    138.3338    152.6737   7.1762556268e+01   2.3460946117e+01    0.1593132    0.1269214  80.49  0.000705144    1.715    0.417
        61 -12.4442     62.9371     17.4541   5.4107508442e+01   6.3456868236e+01    0.2409183    0.2008467  58.40  0.001557418    1.559    0.359
        62 -10.9259    200.3253    155.3391   5.8205786876e+01   1.1111180338e+01    0.1501353    0.1078594  -9.68 0.0007051369    1.726    0.421
        63 -12.0490     51.5095    141.1440   9.4934396400e+01   4.0465467518e+01    0.4912774    0.1817137 -59.70  0.001807302    2.372    0.578
        64 -11.6848      3.4290    140.1342   1.0965409750e+02   4.4899227747e+01    0.3301072    0.2183924 -65.67  0.001873869    1.237    0.192
        65 -11.6926    245.3295    130.2548   4.5382320623e+01   8.0540214716e+00    0.2140202    0.1597638  30.41  0.001111363    1.728    0.421
        66 -12.0475    122.3542    127.0976   7.0090752226e+01   3.2560042112e+01    0.3185402    0.2382114  45.84   0.00145052    1.386    0.278
        67 -11.2890     28.0038    126.6802   1.0009523346e+02   4.6543654125e+01    0.1913264    0.1779475 -43.28  0.001168784    1.080    0.074
        68 -13.9218    141.8844    124.6727   6.4272828760e+01   2.9138869043e+01    0.5562456    0.4563497 -37.52  0.002736096    1.209    0.173
