#   1 NUMBER                 Running object number                                     
#   2 MAG_AUTO               Kron-like elliptical aperture magnitude                    [mag]
#   3 X_IMAGE                Object position along x                                    [pixel]
#   4 Y_IMAGE                Object position along y                                    [pixel]
#   5 X_WORLD                Barycenter position along world x axis                     [deg]
#   6 Y_WORLD                Barycenter position along world y axis                     [deg]
#   7 A_WORLD                Profile RMS along major axis (world units)                 [deg]
#   8 B_WORLD                Profile RMS along minor axis (world units)                 [deg]
#   9 THETA_WORLD            Position angle (CCW/world-x)                               [deg]
#  10 FWHM_WORLD             FWHM assuming a gaussian core                              [deg]
#  11 ELONGATION             A_IMAGE/B_IMAGE                                           
#  12 ELLIPTICITY            1 - B_IMAGE/A_IMAGE                                       
         1  99.0000    136.4646    124.9904   3.7400063137e+01   2.9720326869e+01     20.54714     12.86034  61.98   0.08302843    2.122    0.529
         2 -14.9059    178.6225     94.8738   2.0458037308e+01   2.6370499854e+01     2.549548     1.052652 -28.69  0.005436724    3.069    0.674
         3 -15.3727    236.0982     40.2360   3.5980128977e+02   2.2077426296e+01     3.246205     1.970733 -83.20   0.01861297    1.854    0.461
         4 -15.6729    249.2296     43.2349   3.5948760880e+02   1.9249189542e+01     3.182235     1.527568 -17.53   0.01067904    3.024    0.669
         5 -15.3901    245.8394     27.2920   3.5629588939e+02   2.1692796810e+01      3.12495      0.89215 -52.74   0.01308029    3.117    0.679
         6 -16.9529    239.7942    100.4468   1.2696821931e+01   1.3529676827e+01     6.110075     1.896866  42.91    0.0168169    4.686    0.787
         7 -16.2337    237.7940     84.0518   9.3905978729e+00   1.6130062718e+01     2.198081     1.497831 -39.53   0.01332832    1.209    0.173
         8 -13.6297    146.2285     40.1363   1.0205183412e+01   4.3166803981e+01    0.9725944    0.6257276   2.60  0.003946734    2.612    0.617
         9 -16.5566    218.9416     98.3002   1.4902495997e+01   1.7554673375e+01     9.910148     2.719464 -47.54    0.0285487    5.326    0.812
        10  -9.4346    243.2756      7.3245   3.5215627737e+02   2.4278033673e+01   0.09659902   0.08817618   9.77 0.0002719226    1.583    0.368
        11  -9.7761    208.2806      1.3294   3.5246695107e+02   3.2143719740e+01    0.1096054   0.09421846  38.39 0.0003133774    1.603    0.376
        12 -10.2773    237.6596    196.7050   3.1463018185e+01   8.6260789523e-01    0.1176908   0.06945939   0.07  0.000703034    1.657    0.396
        13 -12.1127    249.4294    247.7315   3.7433906172e+01  -5.9594807245e+00    0.3367559    0.1640123 -23.28  0.002356377    1.781    0.439
        14 -11.4218    243.7704    250.3925   3.8665856964e+01  -5.6848028266e+00    0.2107943    0.1040234  14.03  0.001045395    1.637    0.389
        15 -13.5858    160.2248    100.4014   2.5538998206e+01   2.9493208052e+01     1.295993     0.638059 -47.40 0.0006433016    2.111    0.526
        16 -10.6827    194.9593    225.9511   4.3413410702e+01   2.3928970642e+00    0.2620063    0.1389532  36.09  0.001512786    1.825    0.452
        17 -12.8597     66.3144    143.6666   6.2325999084e+01   3.8003504209e+01    0.5758343    0.3976929  78.18  0.002044054    1.659    0.397
        18 -10.4800    218.8498    147.1844   2.5403435377e+01   1.0201394057e+01    0.1788149    0.1335841  -2.51  0.001067499    1.332    0.249
        19 -10.4078    240.6198    222.2636   3.5077325122e+01  -2.4482006486e+00   0.09012755   0.07682911  21.26 0.0006982786    1.679    0.404
        20 -15.0020    200.1406    101.0568   1.8325067870e+01   2.0789155609e+01     2.419778    0.6139985  48.25  0.007848012    4.192    0.761
        21 -10.1091    218.8391    141.8315   2.4323582728e+01   1.1003402874e+01    0.1661272    0.1390925 -42.52 0.0004837145    1.330    0.248
        22 -11.9376     24.2724    139.0952   7.5954728548e+01   4.4067928831e+01    0.3504316    0.1799935 -75.77  0.001583025    1.846    0.458
        23 -13.7613      9.8850    129.1101   8.0190124796e+01   4.7788338899e+01    0.8501914    0.3430324  83.65  0.003368715    2.524    0.604
        24 -12.7753      1.9077    135.0948   8.3266607100e+01   4.6714510172e+01    0.7674686    0.1969619 -84.29   0.00238049    3.562    0.719
        25 -10.8186    236.7589    218.5961   3.5122111730e+01  -1.6197767978e+00    0.1390396   0.08825479  31.03 0.0009516388    1.676    0.403
        26 -11.5563    247.8017    185.4488   2.8014946152e+01   1.0289498588e+00    0.1827273    0.1543936 -22.48 0.0006174674    1.410    0.291
        27 -13.5907     59.6964    124.7414   6.1526265969e+01   4.3890259722e+01     2.165299     1.112209  38.64  0.008892046    1.820    0.450
        28 -13.5658     45.9217    128.1216   6.7063264416e+01   4.4769840175e+01    0.7269341    0.4835468 -71.93  0.001790371    1.482    0.325
        29 -14.1633     38.5316    127.2388   6.9640757351e+01   4.5839426059e+01    0.9282593    0.7475406 -73.33  0.002792473    1.209    0.173
        30 -14.0014     30.4265    128.6494   7.2768304847e+01   4.6278354627e+01    0.7948649    0.5203664  12.59  0.001340423    1.745    0.427
        31 -13.3423    191.0377    153.6964   3.1614563231e+01   1.3756700911e+01    0.7014807    0.5499705 -32.80  0.003270029    1.239    0.193
        32 -12.7096    199.7076    164.3360   3.2093388537e+01   1.0612021997e+01    0.4118414    0.3516215 -31.06   0.00088388    1.241    0.194
        33 -11.8554    212.6295    130.0403   2.2861617913e+01   1.3843338692e+01    0.3683564    0.2905331   2.85  0.001275732    1.340    0.253
        34 -11.5676    218.1789    210.3680   3.6887813034e+01   1.5193160229e+00    0.2115991     0.173024  18.62 0.0004014427    1.327    0.247
        35 -10.8720    187.1809    210.1905   4.2488637731e+01   5.5448489170e+00    0.1547329    0.1331457  26.53 0.0004611858    1.332    0.249
        36 -13.1373    125.6409    105.6317   3.5404454892e+01   3.6259703098e+01     1.195019    0.7421244  72.30  0.004300608    2.667    0.625
        37 -12.6135    150.3169    109.3978   3.0106823585e+01   2.9966519686e+01     0.400588    0.3735411 -64.63 0.0008720779    1.130    0.115
        38  -9.9104     59.9703    148.0272   6.5027579647e+01   3.7763744102e+01    0.8354768    0.3416447 -45.89  0.002902744    3.172    0.685
        39 -11.9475    144.0345    100.6797   2.9294438566e+01   3.3132731750e+01    0.3607126    0.3099009 -78.88 0.0006908377    1.329    0.248
        40 -12.3302     69.8075    145.6163   6.1489429170e+01   3.6998982449e+01    0.5710293    0.3618739  37.38   0.00185363    1.450    0.310
        41 -10.1615    113.3097     95.0799   3.6039620375e+01   4.1353747254e+01    0.2218378    0.2039623 -54.77 0.0003767855    1.116    0.104
        42 -11.7977    248.7478    190.0071   2.8650550114e+01   3.6683027647e-01    0.2275067    0.1576182 -18.06  0.001624872    1.149    0.130
        43 -11.4360    185.1176    170.2495   3.6007780133e+01   1.2001006681e+01    0.4866439     0.243023 -54.61  0.001908298    3.531    0.717
        44 -12.8654    178.4740    168.1363   3.6943477973e+01   1.3443724060e+01    0.7258624    0.3959699 -32.44  0.003468157    1.894    0.472
        45  -9.8343    170.5959     79.7391   1.7886911384e+01   3.0798271226e+01    0.2031012    0.1310843 -46.37 0.0003802408    1.506    0.336
        46 -10.2523    220.4650     73.5004   8.9729380070e+00   2.0856497771e+01    0.2695864    0.1127677 -33.34 0.0009909533    2.077    0.518
        47 -11.9004    231.9290    206.9825   3.4060868312e+01   2.8984574088e-01     0.275747    0.2171821  -3.89  0.001511878    1.146    0.127
        48 -11.6942    193.2293     68.8007   1.1305987902e+01   2.7315240809e+01    0.3470967    0.2950333  80.14 0.0007651117    1.242    0.195
        49 -11.0158    149.5575     66.8723   1.8198205044e+01   3.8135584085e+01    0.4423001    0.2817394 -29.29  0.001930734    1.730    0.422
        50 -10.9505    242.0185    207.3567   3.2527587004e+01  -9.1188638384e-01     0.155804    0.1137373   3.82  0.000643548    1.085    0.079
        51 -14.8997    234.0368     95.7593   1.2384032062e+01   1.5176199321e+01    0.8366407     0.533687  45.51  0.004049446    1.864    0.464
        52  -9.9098    162.5928     61.1843   1.3993461794e+01   3.5791443949e+01    0.1966756    0.1441768 -21.08 0.0003355455    1.594    0.372
        53 -11.4159    214.6473     54.6864   5.1187442777e+00   2.4624200055e+01    0.6274455    0.2463876 -22.35  0.002250143    3.612    0.723
        54 -10.5214    185.6529     49.8002   7.2310893344e+00   3.1821869085e+01     0.218686     0.200367 -21.20 0.0006351766    1.237    0.192
        55  -9.5798    122.4862     46.4342   1.7305445912e+01   4.8540011145e+01    0.1543451    0.1436448  71.51  0.000171752    1.013    0.013
        56 -10.5721    238.8285    204.6560   3.2588008387e+01  -2.3269655736e-01    0.1775659    0.1100063   6.57 0.0005869326    1.419    0.295
        57 -13.8246    192.2501    163.8329   3.3392289524e+01   1.1890720998e+01    0.8228433    0.5019947 -44.59  0.001136147    1.805    0.446
        58 -10.7919    181.0165     35.0959   3.6777977560e+00   3.4891686871e+01    0.3376916    0.2062769 -15.37  0.001319476    2.138    0.532
        59 -12.4008    172.2914    150.0130   3.4618516328e+01   1.7707342410e+01    0.4112924    0.2682216  -8.77  0.001491937    2.073    0.518
        60 -10.1950    185.5389     27.3377   1.0018484609e+00   3.4727774921e+01    0.2165535    0.1337597 -11.21 0.0008753267    2.241    0.554
        61 -12.6199    203.6674    199.5731   3.7685217449e+01   4.8107789157e+00    0.4033438    0.2894965  30.45  0.002589041    1.379    0.275
        62  -9.8533    194.4695     26.0051   3.5978364401e+02   3.2741812562e+01    0.1821277    0.1236742 -31.09  0.000376239    1.463    0.316
        63 -10.8734    220.2013     22.6179   3.5688959782e+02   2.7348085910e+01    0.2153186    0.1855955 -15.66 0.0003139005    1.429    0.300
        64  -9.9702    219.7718     17.6352   3.5573441089e+02   2.7981714543e+01    0.2023382    0.1341265 -76.44   0.00120128    1.408    0.290
        65 -11.6259    168.8161     39.4422   6.4885052900e+00   3.7382862572e+01    0.3339357    0.2772565  47.51 0.0006250596    1.370    0.270
        66  -9.5909    223.4868     15.4932   3.5500010121e+02   2.7422428773e+01    0.1217015    0.1010323 -56.81 2.022924e-05    1.064    0.060
        67 -10.2650    189.6395     15.0409   3.5723998419e+02   3.5105022313e+01    0.1881631    0.1546031 -48.67 0.0009310592    1.132    0.116
        68 -12.4626    192.3615    194.7126   3.8973293978e+01   7.0749560179e+00    0.8362769    0.4601637 -58.48  0.003184069    5.068    0.803
