#   1 NUMBER                 Running object number                                     
#   2 MAG_AUTO               Kron-like elliptical aperture magnitude                    [mag]
#   3 X_IMAGE                Object position along x                                    [pixel]
#   4 Y_IMAGE                Object position along y                                    [pixel]
#   5 X_WORLD                Barycenter position along world x axis                     [deg]
#   6 Y_WORLD                Barycenter position along world y axis                     [deg]
#   7 A_WORLD                Profile RMS along major axis (world units)                 [deg]
#   8 B_WORLD                Profile RMS along minor axis (world units)                 [deg]
#   9 THETA_WORLD            Position angle (CCW/world-x)                               [deg]
#  10 FWHM_WORLD             FWHM assuming a gaussian core                              [deg]
#  11 ELONGATION             A_IMAGE/B_IMAGE                                           
#  12 ELLIPTICITY            1 - B_IMAGE/A_IMAGE                                       
         1 -13.2832    173.7040     54.5055   5.7713498367e+01   3.4751857228e+01     1.964886     1.153508  31.80  0.005516578    2.363    0.577
         2 -13.3326    188.4875     40.7748   5.1197592973e+01   3.2971304125e+01    0.9906128    0.9419312  71.77  0.003373044    1.060    0.057
         3 -12.3410    198.3263     22.9903   4.4888893690e+01   3.2739193521e+01    0.4759813    0.4348924 -60.61   0.00186677    1.083    0.076
         4 -13.9134    212.1161      9.6583   3.9911488279e+01   3.0831814525e+01     1.353177     1.009826  53.79  0.005200798    1.466    0.318
         5 -11.6815     57.3954      3.1850   6.8473477136e+01   6.7327364792e+01    0.4124505    0.2495575  44.82  0.002383104    1.675    0.403
         6 -11.1319    245.5855      2.1872   3.5435050198e+01   2.3896465312e+01    0.6342079    0.1957757  74.61  0.002634601    3.081    0.675
         7 -11.1067     39.1231    212.7157   1.2265027659e+02   2.5577648765e+01    0.1627142    0.1271301  78.21  0.000321299    1.058    0.055
         8 -13.1622    246.6779    240.7952   8.6439162779e+01  -1.0357246431e+01     1.441193    0.6625825 -25.09  0.007970776    2.279    0.561
         9 -18.0395     30.4726    240.2564   1.2596336918e+02   2.1297686621e+01     6.551564     5.310712  36.15   0.05078594    1.641    0.391
        10  -9.6181    184.2840    211.9900   9.3107420358e+01   3.2489103667e+00    0.1810299    0.1640371   7.96 0.0006342833    1.101    0.092
        11 -10.4205     55.3191    211.4758   1.1941273472e+02   2.3887620866e+01    0.3153427    0.1392294  52.72  0.001616272    1.955    0.488
        12 -11.1307     67.0863    205.9011   1.1652962262e+02   2.3502819163e+01    0.2102026    0.1979826   5.61  0.000300047    1.537    0.350
        13  -9.8170     72.2564    202.9478   1.1515767664e+02   2.3413215204e+01    0.2755955    0.1643266  72.58  0.001036505    1.734    0.423
        14 -10.1547    160.0781    205.3145   9.6905774915e+01   8.6403918281e+00    0.2038852    0.1631473  40.89  0.001176483    1.107    0.097
        15 -10.9733    193.0120    195.1052   8.8395429503e+01   4.4714941590e+00    0.9782407     0.551027 -65.46  0.003221984    5.244    0.809
        16 -10.4873     58.6000    202.2260   1.1791364402e+02   2.5378289274e+01    0.2592548     0.193087 -41.46  0.001071439    1.999    0.500
        17  -9.8210     75.5669    247.3531   1.1861359245e+02   1.4489890032e+01    0.3286983   0.07897074 -59.60  0.001371707    4.495    0.778
        18 -10.2555    204.7191    200.5683   8.7099104020e+01   1.5094459809e+00    0.2647985    0.1154882  36.44  0.001143666    2.129    0.530
        19 -11.4330     61.6343    194.9066   1.1655542899e+02   2.6539984320e+01    0.3535558    0.2422028 -40.70  0.001347625    2.199    0.545
        20  -9.5396     82.1906    195.0654   1.1215247385e+02   2.3667254848e+01    0.2156293    0.1719517  57.71 0.0008456382    1.114    0.102
        21 -11.7485    149.5881    188.3722   9.6282295035e+01   1.3716654489e+01    0.4260519    0.3337267  64.79  0.001627847    1.429    0.300
        22  -9.8086    238.5010    185.9988   7.8041128042e+01  -2.0318952058e+00    0.1753426    0.1089181 -53.34 0.0008106207    2.662    0.624
        23 -19.1458     18.5270    101.8504   1.1594517399e+02   5.2696204171e+01     16.93466    0.9420244 -68.53   0.02967117   14.214    0.930
        24 -11.1858    150.3358    178.8367   9.4407584478e+01   1.5473135534e+01    0.4391524    0.2906199 -68.29  0.001090951    2.038    0.509
        25 -12.1712    144.1639    178.7988   9.5784586782e+01   1.6649230769e+01    0.6828358     0.382151 -61.51  0.002905503    2.257    0.557
        26 -11.8926    140.2010    172.9360   9.5610827678e+01   1.8616321114e+01     0.505761    0.4530598 -54.26  0.002611904    1.176    0.149
        27 -10.3608    188.7131    176.7438   8.5737521601e+01   8.4719203647e+00    0.3842754    0.3428286 -57.44  0.002179022    1.337    0.252
        28  -8.6200     65.5198    175.5362   1.1351304916e+02   3.0315811796e+01    0.1312677    0.1129378  82.93 0.0008091718    1.018    0.018
        29  -8.5523    194.6419    172.2937   8.3620350456e+01   8.1293820690e+00     0.138427    0.1154528  79.02 0.0007030857    1.695    0.410
        30  -9.3306     48.9134    172.1271   1.1694276965e+02   3.3177960331e+01    0.2354606     0.177637  19.73  0.001359832    1.818    0.450
        31 -10.6206    240.0437    169.2818   7.4393216393e+01   2.3273905971e-01    0.1883618    0.1609914  12.21 0.0003954432    1.098    0.089
        32  -9.6607    229.7572    165.9896   7.5536322613e+01   2.5803893887e+00    0.1789905    0.1083353 -33.06  0.000531067    1.568    0.362
        33  -9.0024    188.0000    163.9624   8.3254033279e+01   1.0970031936e+01    0.2354384   0.08251997 -41.63 0.0007985543    2.916    0.657
        34  -9.1039      1.7596    161.7173   1.2657685491e+02   4.0042063626e+01    0.1369781   0.08954377  45.66 0.0005846626    1.594    0.373
        35 -11.0752     91.6964    157.4483   1.0455239428e+02   3.0686620442e+01    0.2767986    0.2579904  28.16 0.0002150272    1.242    0.195
        36  -9.9598    187.4560    151.8099   8.0726274334e+01   1.3394572186e+01    0.3445677    0.2628528 -77.38  0.001581586    1.962    0.490
        37 -11.2315    133.9217    145.9102   9.1705983881e+01   2.5737537237e+01     1.290509    0.3254837 -54.88  0.003007503    5.993    0.833
        38  -9.8894    113.8464    151.7522   9.7927993767e+01   2.8233319374e+01    0.4491998    0.2564996  73.15  0.001554348    3.300    0.697
        39 -11.8983     97.3909    150.9266   1.0196293905e+02   3.1293494673e+01    0.5854542    0.4861167 -16.38  0.003063931    1.612    0.380
        40  -9.4783    174.3684    149.1231   8.2942669138e+01   1.6668508805e+01    0.2672571    0.2068729  32.59 0.0005536897    1.314    0.239
        41 -10.7899      7.5493    214.8859   1.2856668517e+02   2.8420948468e+01    0.1316348   0.06483939  31.37 0.0005245706    2.422    0.587
        42 -11.0564    105.8552    131.0109   9.5742949844e+01   3.4545374530e+01    0.4741749    0.3462002 -50.08  0.001432679    1.334    0.250
        43 -10.4503    107.3014    145.4585   9.8365552874e+01   3.0875952656e+01    0.3100626    0.2300868  83.84 0.0006056639    1.637    0.389
        44 -11.8069    108.5165    137.6777   9.6458749556e+01   3.2489115940e+01    0.7335326    0.4601948 -49.57  0.003322296    1.569    0.363
        45 -11.8223     96.7823    136.9516   9.9445372324e+01   3.4717504967e+01    0.3133904    0.2862738 -75.66 0.0005020424    1.038    0.037
        46 -10.5303    115.3383    128.7386   9.2677828635e+01   3.3316900485e+01    0.3460821    0.2928939  -9.92  0.000613995    1.461    0.315
        47 -10.7633    135.5810    127.4911   8.7090491206e+01   2.9543422096e+01    0.6848981    0.1524098 -50.30  0.001637085    5.156    0.806
        48  -9.5066    160.8693    128.2839   8.1110410932e+01   2.3905698490e+01     0.288593    0.2138517 -54.89  0.001317367    1.449    0.310
        49 -10.6062    103.1341    124.3815   9.5013791344e+01   3.6604992443e+01    0.3086626    0.2686688 -14.93 0.0008105653    1.365    0.267
        50 -10.7055    120.6242    122.7661   8.9857644822e+01   3.3671892049e+01     0.458417    0.3005993 -15.15  0.001728414    2.666    0.625
        51  -9.5713    110.6315    118.1046   9.1455416986e+01   3.6694647272e+01     0.242276    0.2039088  56.30 0.0004420684    1.255    0.203
        52  -9.9531    231.2650    113.7005   6.3479135600e+01   1.1093784968e+01    0.2573929    0.2351786  -3.82 0.0007669724    1.120    0.107
        53  -9.5977    167.3746    112.3055   7.5546049307e+01   2.5756062597e+01     0.327349    0.2590683 -76.32  0.001039025    1.606    0.377
        54 -10.4553    135.0000    106.9805   8.2001158247e+01   3.4218615149e+01    0.6998326     0.188803 -49.26   0.00182259    4.253    0.765
        55 -11.6184    118.9579    110.4633   8.7228780240e+01   3.6819722197e+01    0.5493062    0.4334579  72.18  0.001914729    1.547    0.354
        56  -9.6593    205.4418    110.1643   6.7139011163e+01   1.7367949705e+01    0.3250036    0.2174813  41.20 0.0008979863    1.601    0.375
        57  -9.1213    128.3039     95.6735   8.0632962231e+01   3.8117624568e+01    0.1576326    0.1252321 -82.68 0.0007033487    1.645    0.392
        58  -9.2283     52.6512     90.7026   1.0264948063e+02   5.2150100324e+01    0.1407761   0.09433636 -29.86  0.000526562    1.682    0.405
        59  -9.0897    182.4079     82.8026   6.4277577490e+01   2.7831547234e+01    0.2166523    0.1492752 -23.78 0.0008892667    1.630    0.386
        60  -8.3308     71.3029     72.7210   9.1336331946e+01   5.3693921862e+01    0.1291701    0.1112101  86.50 0.0003010627    1.547    0.354
        61 -10.3273     71.8804    244.4582   1.1903987783e+02   1.5487769271e+01    0.1904366    0.1405381 -82.07  0.001118897    1.404    0.288
        62 -10.5011     58.8559    229.6304   1.2023511571e+02   1.9888542879e+01     0.180218    0.1313869  83.07 0.0003803819    1.208    0.172
        63 -12.7685    193.3753     34.5377   4.8720294070e+01   3.2560550414e+01      0.65161    0.5453491  81.41  0.001261308    1.144    0.126
        64  -9.8745     50.5015    224.8247   1.2141292622e+02   2.1847303909e+01     0.205727   0.09649814 -86.64  0.001078426    2.245    0.555
        65  -9.6378     64.9193    223.5685   1.1859532080e+02   2.0260418848e+01    0.1730964    0.1206702  84.15 0.0006058947    1.312    0.238
        66 -10.4997    189.7502     14.9769   4.3726341749e+01   3.5797832096e+01    0.2418224    0.1873644  76.09 0.0007512017    1.182    0.154
        67  -9.0903     43.9592    211.7750   1.2165246087e+02   2.5206969179e+01    0.2481738    0.1349706 -82.69  0.001049626    1.702    0.412
