#   1 NUMBER                 Running object number                                     
#   2 MAG_AUTO               Kron-like elliptical aperture magnitude                    [mag]
#   3 X_IMAGE                Object position along x                                    [pixel]
#   4 Y_IMAGE                Object position along y                                    [pixel]
#   5 X_WORLD                Barycenter position along world x axis                     [deg]
#   6 Y_WORLD                Barycenter position along world y axis                     [deg]
#   7 A_WORLD                Profile RMS along major axis (world units)                 [deg]
#   8 B_WORLD                Profile RMS along minor axis (world units)                 [deg]
#   9 THETA_WORLD            Position angle (CCW/world-x)                               [deg]
#  10 FWHM_WORLD             FWHM assuming a gaussian core                              [deg]
#  11 ELONGATION             A_IMAGE/B_IMAGE                                           
#  12 ELLIPTICITY            1 - B_IMAGE/A_IMAGE                                       
         1 -16.2960    186.1427    143.8885   5.8446724884e+01   1.5856486176e+01     14.99527     8.962794 -63.45   0.06004153    2.384    0.581
         2 -16.2255    248.2652     57.4714   3.0852371294e+01   1.9031531908e+01     4.334746     1.614781 -62.34   0.01686024    3.830    0.739
         3 -17.3562    246.3275     85.4378   3.6388100534e+01   1.5188023462e+01      5.41046     4.092046 -47.44   0.02235929    1.143    0.125
         4 -15.1065    218.4005     45.5289   3.1497322306e+01   2.6459824570e+01     2.193069     1.827136   5.35   0.01055267    2.019    0.505
         5 -15.8520    233.7592    101.4397   4.1142273930e+01   1.4830877635e+01     4.817049     1.149086 -51.56  0.007505276    6.990    0.857
         6 -10.4720    179.3081     24.0003   3.1170445573e+01   3.7545726900e+01    0.4408363    0.3184419  82.15  0.002717981    1.208    0.172
         7 -10.1906    152.6788     16.7072   3.2818807551e+01   4.4358827077e+01    0.2972046    0.1850815 -11.57  0.001466734    2.390    0.582
         8 -12.7844    249.5882     15.7274   2.3228321259e+01   2.4128720688e+01    0.2163306    0.1633188 -66.07 0.0006023257    1.086    0.079
         9  -9.2513    221.3164     14.3797   2.5019286549e+01   2.9685399821e+01     0.230941    0.1807891  61.14  0.001441525    1.547    0.354
        10 -11.5015    236.0819      6.8153   2.2553861517e+01   2.7628377079e+01    0.6802688    0.1812728  56.86  0.002691974    5.273    0.810
        11  -9.5890    224.7767      7.2367   2.3406396751e+01   2.9770196488e+01    0.7043803    0.2328788  50.88  0.002454198    6.827    0.854
        12 -11.5784    232.7488      3.4874   2.2177357975e+01   2.8615578043e+01    0.3969764    0.1825675  56.60  0.001763239    2.757    0.637
        13 -10.9399    118.8227      3.1758   3.4234525708e+01   5.3260001093e+01    0.4422785    0.2268884  76.55  0.002224758    1.997    0.499
        14 -10.1236    115.7692     12.4472   3.7696757985e+01   5.3170580819e+01    0.3081551    0.1715999  52.02  0.001157671    1.492    0.330
        15 -12.0108    120.2892      8.9695   3.5764502625e+01   5.2458354519e+01    0.6047699     0.422971 -87.74  0.001491554    1.646    0.393
        16 -10.9338    211.5070      6.6926   2.4296631371e+01   3.2491692693e+01    0.1911539    0.1554739  86.92 0.0003665468    1.161    0.139
        17 -10.7264    232.1789    186.1959   5.8357849418e+01  -1.5252480448e-01    0.3205115    0.2417585  59.07  0.001770351    2.111    0.526
        18  -9.3737    157.0610    247.0449   8.4418299823e+01  -2.2801085438e-01    0.1966949    0.1698572  13.31 0.0003414386    1.014    0.014
        19  -9.1647     95.1040    120.1975   7.6181315482e+01   3.9337350746e+01    0.2367715    0.2066281 -12.27 0.0004774449    1.212    0.175
        20  -9.5801    160.1058    165.0348   6.8868643924e+01   1.6265114267e+01    0.2260005    0.2109918 -22.28 0.0003632381    1.023    0.022
        21 -10.2392     74.6957    105.9961   7.9254263751e+01   4.6156793731e+01    0.2500675    0.2114432  23.29 0.0002270396    1.207    0.172
        22  -9.7033    158.9335    242.9604   8.3390431178e+01   2.3799388243e-01    0.2015826    0.1739329   8.35 0.0003602119    1.030    0.029
        23 -11.0833    156.8477     79.6804   4.8928080615e+01   3.4771161453e+01    0.3274579    0.2555233  74.93 0.0006852103    1.382    0.277
        24  -8.1571    159.7415    238.3159   8.2492256706e+01   9.7242350474e-01    0.1206491    0.1051191  63.18 0.0001867676    1.537    0.349
        25 -10.8934    210.7321    156.2635   5.6289755753e+01   8.8401393127e+00    0.3276545    0.2618673  42.77 0.0006610755    1.419    0.295
        26 -12.5231    205.0151    153.4705   5.6780649372e+01   1.0394600101e+01    0.7616146    0.4950988  69.82  0.001661716    2.751    0.636
        27 -10.7623    126.9816     82.6832   5.6672977003e+01   4.0964931941e+01    0.3811247    0.2090968 -47.72 0.0009485147    1.954    0.488
        28 -10.6420    170.5572     79.0074   4.6066459759e+01   3.1776179096e+01    0.3764995     0.287732 -53.35  0.001163434    1.294    0.227
        29  -9.3633    103.8809     74.1041   6.0521617905e+01   4.7487966924e+01    0.2142202    0.2018317  83.99  0.000539083    1.240    0.194
        30 -12.5790      3.4628    142.0977   1.0965268455e+02   4.4569018446e+01     2.468638    0.5720853 -77.54  0.007219667    4.777    0.791
        31  -8.9371    106.1426     68.6345   5.8158581202e+01   4.7987819479e+01    0.2811598   0.09814616 -41.06 0.0009781091    2.995    0.666
        32 -13.7474     16.2130    138.2915   1.0534886512e+02   4.4678059224e+01     1.233503     1.083717 -38.75  0.004182494    1.193    0.162
        33 -10.1738    126.9901    230.3054   8.8698417724e+01   7.5209023416e+00    0.2351484    0.2027939 -49.50 0.0004428192    1.265    0.210
        34  -9.6497    181.4128     61.6314   3.9899273486e+01   3.2123231546e+01    0.3597711     0.267184   6.01  0.001779296    2.289    0.563
        35 -11.2825    133.5076    143.5749   7.0756179997e+01   2.6402504936e+01     1.429498    0.3802229 -54.94   0.00318998    5.902    0.831
        36  -9.0562     89.9987     59.4503   6.0094240471e+01   5.2826190629e+01    0.1978928     0.178295 -10.74 0.0002901884    1.112    0.101
        37  -8.4423     72.6026     58.4773   6.5683054211e+01   5.6226321889e+01    0.1365372    0.1212485   3.86 9.230713e-05    1.022    0.021
        38  -9.7979    112.0602     52.1418   5.1305423817e+01   4.9350115618e+01    0.2582237    0.1765793  54.36 0.0007648197    1.386    0.278
        39 -11.8076     67.7689    143.8977   9.0066242240e+01   3.7717164524e+01     1.183765    0.7872693  64.22  0.003858338    1.984    0.496
        40 -14.3529     56.2775    129.3206   9.0890671287e+01   4.3013585360e+01     2.892004     1.469835  22.64  0.008274985    2.239    0.553
        41  -9.2452    205.3898     40.1754   3.1787508801e+01   2.9880026497e+01    0.3330864    0.1452388 -40.65  0.001614556    2.159    0.537
        42  -8.5352    202.4565     36.4472   3.1309114217e+01   3.0983781954e+01    0.1243484    0.1030706 -79.96 7.820329e-05    1.002    0.002
        43 -12.1261     44.4070    131.8085   9.5292878972e+01   4.3773476447e+01    0.5059202    0.4108157  10.57 0.0008604052    1.379    0.275
        44 -15.6332    228.0234     80.1367   3.7520886428e+01   1.9427039646e+01     2.134458     1.183011  59.41   0.01119975    1.974    0.493
        45 -10.0821    106.7258     37.6191   4.7948261681e+01   5.2491901621e+01    0.2279882    0.1649539  -8.73  0.001086827    1.684    0.406
        46  -8.9234    172.9368    187.9475   7.0604095260e+01   8.9412254976e+00    0.2107408    0.1813765  76.56 0.0005082372    1.595    0.373
        47  -8.7774     14.1279    188.1074   1.1123526962e+02   3.2189205230e+01    0.1807703       0.1545 -64.91 0.0003312698    1.198    0.165
        48  -8.8652    203.4723     30.0006   2.9812888609e+01   3.1565600293e+01    0.2440534    0.1249388  41.18  0.001047733    3.663    0.727
        49  -9.3074    182.3636     30.1230   3.2235057726e+01   3.6156428294e+01    0.3061464    0.1568786  67.19 0.0006268742    1.745    0.427
        50  -9.3116    198.6971     26.8291   2.9631097511e+01   3.2965258442e+01    0.3296711    0.1849388  64.20  0.001601453    1.672    0.402
        51  -8.9917    238.9107    223.3267   6.3950803512e+01  -7.2866298491e+00    0.1726084    0.1337973  -1.34 0.0007742532    1.127    0.112
        52  -9.0414    187.7712     23.4483   3.0065577033e+01   3.5731476158e+01    0.1773513    0.1466637   5.60 0.0007966012    1.867    0.464
        53 -10.0644    145.2262     23.0056   3.5638462917e+01   4.5424670934e+01    0.2252553    0.1656125 -52.98  0.001334299    1.485    0.327
        54  -9.3654    143.7223     19.3475   3.4865881896e+01   4.6149031010e+01    0.1962145    0.1166106 -30.26 0.0003054193    1.949    0.487
        55  -8.4462    103.8493    158.1768   8.2136177134e+01   2.8336564355e+01    0.2080112    0.1753103 -28.28            0    1.269    0.212
        56  -8.4118     78.4718    222.4047   9.9138477018e+01   1.6454898276e+01    0.1343567    0.1248715  50.25 0.0001670854    1.050    0.047
        57  -8.6200    150.4834    217.0505   8.1115712280e+01   6.5719337157e+00    0.1949974    0.1390801 -45.88  0.000384903    1.461    0.316
        58  -9.2883    158.1151     24.8499   3.4172455697e+01   4.2260083558e+01     0.168438    0.1365374  50.69 0.0003183493    1.297    0.229
        59  -9.9167    135.9993     16.2564   3.5235546419e+01   4.8226493695e+01      0.18513    0.1496421  67.49 0.0009412535    1.044    0.042
        60 -10.5039    239.3982    212.6258   6.1967859061e+01  -5.6306267501e+00    0.2517669    0.1925371 -40.70 0.0006965415    1.411    0.291
        61 -11.0320    234.2764    211.0990   6.2608155255e+01  -4.7290501532e+00    0.3780077    0.2168918 -35.80  0.002067835    1.494    0.331
        62  -8.8812    225.2126    205.8469   6.3310300770e+01  -2.6334967328e+00    0.1802509    0.1591424 -25.04 0.0003501606    1.200    0.166
        63  -9.4303     10.6916    203.6672   1.1328221063e+02   2.8718685983e+01    0.2008019    0.1633705 -67.22  0.001288512    1.256    0.204
        64 -12.0905    192.4355    194.1053   6.7570707601e+01   4.4301400554e+00     1.181414    0.6114179 -63.58    0.0036261    5.071    0.803
        65 -10.4997    190.9388    248.3730   7.7456415700e+01  -5.1878025888e+00     0.224409     0.192249   7.04 0.0002915677    1.115    0.103
        66 -12.0858    185.5029    166.1875   6.3405465872e+01   1.1308260094e+01    0.6496742    0.4222752 -49.86  0.002037778    1.545    0.353
        67 -11.7896    159.9325    143.1544   6.4060196276e+01   2.1207091250e+01    0.5230112    0.4206766  70.22  0.002034563    1.552    0.356
