#   1 NUMBER                 Running object number                                     
#   2 MAG_AUTO               Kron-like elliptical aperture magnitude                    [mag]
#   3 X_IMAGE                Object position along x                                    [pixel]
#   4 Y_IMAGE                Object position along y                                    [pixel]
#   5 X_WORLD                Barycenter position along world x axis                     [deg]
#   6 Y_WORLD                Barycenter position along world y axis                     [deg]
#   7 A_WORLD                Profile RMS along major axis (world units)                 [deg]
#   8 B_WORLD                Profile RMS along minor axis (world units)                 [deg]
#   9 THETA_WORLD            Position angle (CCW/world-x)                               [deg]
#  10 FWHM_WORLD             FWHM assuming a gaussian core                              [deg]
#  11 ELONGATION             A_IMAGE/B_IMAGE                                           
#  12 ELLIPTICITY            1 - B_IMAGE/A_IMAGE                                       
         1 -15.4696    192.5033    154.0635   5.3055301480e+01   1.4250358607e+01     10.04574     7.903469  89.19   0.05278049    2.065    0.516
         2 -16.0841    245.3313     45.0564   2.4779240707e+01   2.2570628753e+01     3.886576     2.240879 -71.56   0.02499261    1.665    0.400
         3 -16.6122    245.1071     89.2793   3.2733540630e+01   1.6671587524e+01     4.585401     3.499015  35.59   0.02217931    1.948    0.487
         4 -14.8204    171.7243     93.2972   4.3701799492e+01   2.9312168810e+01      3.34619     2.214864 -22.30  0.007521777    2.021    0.505
         5 -15.5684    227.0215     80.3043   3.2999621354e+01   2.0929079501e+01      2.36451     1.716341 -82.35   0.01198888    1.509    0.337
         6 -10.4845    238.0842     18.7960   2.0674863856e+01   2.6820744941e+01    0.2710474    0.1791614 -42.06  0.001145063    1.453    0.312
         7  -9.6469    189.0620     14.7445   2.3448803705e+01   3.6469619229e+01    0.2653499    0.1624555 -89.32  0.001229357    1.454    0.312
         8  -8.8857    154.5468     11.9263   2.6219431628e+01   4.4123149783e+01    0.1572815    0.1166362 -35.01  0.001011513    1.543    0.352
         9 -10.1836    232.7637      3.0813   1.8248660024e+01   2.9361428977e+01    0.4095614      0.17098 -65.86  0.002437747    2.092    0.522
        10 -14.3570    224.6213     93.0094   3.5751298553e+01   1.9436004129e+01    0.6919211    0.4875853 -57.82  0.004353549    1.298    0.230
        11  -8.9450    143.3233    250.0236   8.0394482615e+01   2.8697924232e+00    0.1774355    0.1475851   0.39 0.0005086183    1.056    0.053
        12 -11.3482    192.6745    194.3592   6.0706843969e+01   6.6765580929e+00     0.934316    0.4905098 -61.79  0.003240642    4.724    0.788
        13  -9.1557    237.6083    190.3354   5.1971614187e+01   1.7362139448e+00    0.1721528    0.1428875  34.14 0.0006895435    1.600    0.375
        14 -10.0432    110.0730    240.5745   8.6907295036e+01   8.7910548996e+00    0.2196764    0.1910806 -37.96 0.0004456025    1.264    0.209
        15  -9.4598    146.0582    176.9835   6.7741992554e+01   1.7147727379e+01     0.215308    0.1959076 -11.45            0    1.009    0.009
        16  -8.5269     61.3238    230.0322   9.7821868929e+01   1.6983848573e+01    0.1702909     0.166732  49.30 0.0003440965    1.091    0.083
        17 -11.1629    133.9927    145.0291   6.4191372158e+01   2.6350567802e+01     1.538703    0.4693836 -56.46  0.003596295    6.106    0.836
        18 -11.3349    144.7954    146.0896   6.1694286170e+01   2.4138280860e+01    0.5778564    0.4048611 -63.19  0.002631773    1.777    0.437
        19 -12.5496     35.7181    139.9752   9.4426545336e+01   4.2588240008e+01     1.070941    0.5431528 -54.25  0.003236441    1.789    0.441
        20 -10.4130     63.6200    113.1998   7.8922254794e+01   4.6183273006e+01    0.3269729    0.2794802  52.59 0.0002465886    1.336    0.252
        21 -11.9876     67.0617    143.3899   8.4102551933e+01   3.7957387100e+01     1.777377     1.016568  53.31  0.006558974    2.256    0.557
        22 -14.3170     50.9806    129.2891   8.7063608881e+01   4.3756737523e+01     3.012494     1.391808  17.17  0.007522899    2.470    0.595
        23 -11.8254     39.8278    131.0905   9.1492420684e+01   4.4542343566e+01      0.47575    0.3143765  16.69  0.001001302    1.579    0.367
        24 -13.8361      9.1166    137.4941   1.0349391542e+02   4.5356976855e+01     1.315234    0.9738576 -68.48  0.004402008    1.221    0.181
        25  -9.0675    134.2292    228.8214   7.9470522984e+01   7.9946936070e+00    0.1945152    0.1728186  19.56 0.0004727578    1.139    0.122
        26  -9.6946    239.7211    228.4262   5.7940761007e+01  -4.3212538395e+00    0.1853087   0.09932844  27.56  0.001006291    2.035    0.509
        27  -8.5141    110.8496    167.8771   7.5248730437e+01   2.5009994879e+01    0.1940507     0.181006  69.81 0.0003147803    1.245    0.197
        28  -8.6769     93.5157    119.9354   7.0105280771e+01   3.9641642046e+01    0.2266276    0.1530385 -49.55 0.0004457947    1.495    0.331
        29 -10.4534    112.8478    104.7374   6.0266196999e+01   3.9372804904e+01    0.3661022     0.285615 -51.86  0.001792481    1.353    0.261
        30 -10.7688    141.1731     99.8625   5.1609145640e+01   3.4480174146e+01    0.3955953    0.2949606  64.22  0.001133174    1.515    0.340
        31  -9.0279    141.4137     94.7528   5.0244311643e+01   3.5401137656e+01    0.2018425    0.1385568 -31.65 0.0009496014    1.610    0.379
        32 -14.3988    249.8719    101.7442   3.4480340162e+01   1.4123802707e+01     2.366019    0.6059124 -37.69 0.0009517908    3.698    0.730
        33  -9.8035    126.7886     82.8226   5.0546419486e+01   4.0759844050e+01    0.3066128    0.2153559 -49.34 0.0009718136    1.505    0.336
        34 -10.5052    170.9133     78.8840   4.0429129040e+01   3.1891831008e+01     0.336092    0.1922786 -35.00 0.0007796655    1.846    0.458
        35  -9.5488    243.2401    215.2169   5.5239257472e+01  -2.7145781028e+00    0.1459496    0.1211914 -29.47   0.00106794    1.361    0.265
        36  -8.7619    133.2424     73.4389   4.6415231348e+01   4.0976468649e+01    0.1921022    0.1328071  63.90 0.0004658757    1.507    0.336
        37  -9.0975    151.0185     71.5079   4.2184093798e+01   3.7356836843e+01    0.1936849    0.1727087  73.07 0.0005372798    1.079    0.073
        38  -9.8784    149.9062     66.4160   4.1069036444e+01   3.8402604558e+01    0.5032417    0.1928549 -37.01  0.001969626    2.730    0.634
        39  -8.9955    139.9536     68.5693   4.3619757361e+01   4.0278733434e+01    0.2053878    0.1811789 -46.62 0.0003372738    1.174    0.148
        40  -8.8272    106.0000     68.4931   5.1874392629e+01   4.7821666713e+01    0.3060291   0.08304387 -39.83 0.0009366029    3.950    0.747
        41  -9.5307    103.9371     61.9668   5.0426469509e+01   4.9362019937e+01    0.2159766    0.1958344  45.89 0.0002984623    1.020    0.019
        42  -8.3480     89.7571    167.1730   8.1274230322e+01   2.8503872705e+01    0.2009235     0.168159 -14.00 0.0003191519    1.263    0.208
        43 -10.8680    184.3290     54.3930   3.2710815414e+01   3.2728319686e+01     0.337956    0.2523439  70.67   0.00103257    1.305    0.234
        44 -11.5849    178.0381     51.4656   3.2866872230e+01   3.4440770351e+01    0.6456802     0.429509 -25.01  0.003547945    1.926    0.481
        45 -10.5346    179.8531     39.4467   2.9860280237e+01   3.5605814844e+01    0.3204893    0.2336656 -64.51 0.0003158844    1.269    0.212
        46 -10.2518    197.6246     36.9125   2.7355741370e+01   3.2264825300e+01    0.2672343     0.198311  64.12  0.000384208    1.427    0.299
        47 -11.8475    187.4806     44.7650   3.0159421189e+01   3.3347964046e+01    0.5865467    0.4906314 -13.63  0.001007275    1.666    0.400
        48 -10.3121    191.2884     37.4971   2.8136053648e+01   3.3472099259e+01    0.5836132    0.2819491 -74.61  0.002669981    2.783    0.641
        49 -10.4838    140.9995     51.5830   3.8763512753e+01   4.2580604620e+01    0.2766651     0.222115 -31.68 0.0005912984    1.405    0.288
        50  -9.8883    144.3169     49.6756   3.7636339873e+01   4.2091865409e+01    0.1949012    0.1295384  80.72  0.000728277    1.644    0.392
        51 -10.3846    137.3067     50.2183   3.9084318033e+01   4.3608401917e+01    0.3248106    0.2058808 -26.80  0.001632569    1.918    0.479
        52 -12.2268    137.6862     43.5702   3.7151714758e+01   4.4411686249e+01    0.5783854    0.4554447  47.67  0.002449537    1.302    0.232
        53  -9.0143    122.1702     48.4167   4.1672174446e+01   4.7310974522e+01    0.1870808      0.12264  68.90 0.0004248381    1.561    0.359
        54 -12.2132    146.5832     42.3821   3.5278500099e+01   4.2541131346e+01     0.559247    0.4028182 -65.30  0.003163919    1.482    0.325
        55 -10.7730    171.0306     40.3362   3.1167432447e+01   3.7379425234e+01    0.3313988    0.2381819  53.28  0.001357029    1.504    0.335
        56 -10.0237    152.0628     37.1839   3.3035700439e+01   4.1952037082e+01    0.2221545    0.1730839 -63.96 0.0003975246    1.281    0.219
        57 -10.5013    122.8634     34.0035   3.7177436294e+01   4.9004012745e+01    0.4522873    0.1931473 -27.55  0.001103114    2.912    0.657
        58 -11.3323    148.2268     34.2579   3.2847130767e+01   4.3167576511e+01    0.4346462     0.249483 -15.56  0.002043342    2.789    0.641
        59  -9.6586    182.9897     31.4926   2.7700485803e+01   3.5898650536e+01    0.2443398    0.1570396 -43.86 0.0006413262    1.507    0.336
        60 -10.5938    196.2389     27.1115   2.5424724387e+01   3.3686209388e+01    0.3142482    0.2368382 -14.29  0.001070301    2.015    0.504
        61 -10.4014    179.7020     23.9959   2.6361533938e+01   3.7433732061e+01     0.412511     0.296832 -81.49  0.002604864    1.230    0.187
        62  -9.0192    186.3481     24.8020   2.5871723463e+01   3.5958021552e+01    0.2623142    0.1595062 -86.61   0.00110672    1.573    0.364
        63  -9.8578    151.4897     26.4952   3.0333319591e+01   4.3316577846e+01    0.2221819    0.0920776  57.12  0.000889523    2.167    0.539
        64  -9.5130     37.8479    213.3006   1.0230923836e+02   2.3391404563e+01    0.2308834    0.1486042  44.41  0.001195185    1.440    0.306
        65  -9.0196      9.3233    205.3179   1.0913210723e+02   2.7869808376e+01    0.1298423   0.09165896 -40.54 0.0002561023    1.669    0.401
        66 -11.3590    249.9839    187.6785   4.9615524092e+01   7.7314467090e-01    0.7697107      0.15255 -38.68  0.002756853    4.070    0.754
        67 -10.5884    246.6340    185.3019   4.9712175115e+01   1.5113375236e+00    0.2679575    0.2294456 -54.12  0.001089867    1.614    0.380
