#   1 NUMBER                 Running object number                                     
#   2 MAG_AUTO               Kron-like elliptical aperture magnitude                    [mag]
#   3 X_IMAGE                Object position along x                                    [pixel]
#   4 Y_IMAGE                Object position along y                                    [pixel]
#   5 X_WORLD                Barycenter position along world x axis                     [deg]
#   6 Y_WORLD                Barycenter position along world y axis                     [deg]
#   7 A_WORLD                Profile RMS along major axis (world units)                 [deg]
#   8 B_WORLD                Profile RMS along minor axis (world units)                 [deg]
#   9 THETA_WORLD            Position angle (CCW/world-x)                               [deg]
#  10 FWHM_WORLD             FWHM assuming a gaussian core                              [deg]
#  11 ELONGATION             A_IMAGE/B_IMAGE                                           
#  12 ELLIPTICITY            1 - B_IMAGE/A_IMAGE                                       
         1 -12.3485    122.4633     36.8856   7.3328402933e+01   5.0306314976e+01    0.7380094     0.540616  67.58  0.003581932    1.590    0.371
         2 -11.1309     78.4838     21.9759   7.9920239151e+01   6.1849841794e+01    0.6460238    0.2403184 -28.62  0.002380207    2.950    0.661
         3 -11.5837     88.9609     13.9079   7.2725119267e+01   6.0969605083e+01    0.4967801     0.397514 -60.32  0.001921008    1.671    0.402
         4 -11.6783     40.3831      8.6733   8.8634320928e+01   6.9918557556e+01    0.4602075    0.2192231 -30.24  0.002293348    1.970    0.492
         5 -10.6035     22.3711      9.5446   9.8069277881e+01   7.1802027032e+01    0.3102698    0.2048415  -5.50  0.001774496    1.748    0.428
         6 -11.6441     35.1105     13.0339   9.3351728512e+01   6.9847392177e+01    0.3590706    0.2397665 -52.24  0.001361586    1.618    0.382
         7 -11.9524     30.1693      7.1384   9.2816916136e+01   7.1403210813e+01    0.3118055    0.2736213 -22.76  0.001054822    1.168    0.144
         8 -10.3940    155.4117     14.3229   5.7811446010e+01   4.4973256362e+01    0.3893681    0.2132085  32.27  0.001564362    2.219    0.549
         9 -10.6948    162.4118     13.1086   5.6251751201e+01   4.3244756045e+01    0.2654521    0.2242835  56.73 0.0002192522    1.148    0.129
        10 -10.3596     10.0179      1.9683   1.0122154808e+02   7.4199514278e+01    0.3040692    0.1654527 -28.17  0.001661504    1.726    0.421
        11 -10.2900      2.5151      2.7135   1.0607114714e+02   7.4593595060e+01    0.2356812     0.171504  30.49  0.001232638    1.826    0.452
        12 -10.9059      4.0260     10.0203   1.0832525464e+02   7.3144625943e+01    0.2454047    0.1505978 -42.70 0.0004839796    1.231    0.188
        13 -10.9331      2.5501      6.4702   1.0770595757e+02   7.3900460311e+01    0.2980146    0.1841433 -10.06  0.001753125    1.866    0.464
        14 -10.4957     15.0062      8.8242   1.0169128472e+02   7.2583673094e+01    0.2579789    0.1567553 -27.23 0.0008352118    1.551    0.355
        15 -11.1266     11.2675      6.6954   1.0278763751e+02   7.3264088052e+01    0.2708128    0.2445661 -57.59  0.001631898    1.371    0.271
        16  -9.5456    119.1404     12.1692   6.3971011540e+01   5.4434173113e+01    0.1811202    0.1655745 -67.78 0.0002519313    1.270    0.212
        17 -10.2953     56.7021     10.9123   8.2658663660e+01   6.7235404242e+01    0.1783653    0.1465947 -20.66 0.0007195633    1.042    0.041
        18 -11.0043    151.1245      7.0497   5.5781444773e+01   4.6859478837e+01     0.364321    0.2676761 -18.49 0.0008332196    1.399    0.285
        19 -10.9399    210.6134      7.4348   4.8460487676e+01   3.0998944563e+01    0.2592491    0.1367403  80.97  0.001063803    2.001    0.500
        20 -10.7583     93.0183      8.9242   6.9130613404e+01   6.0749509722e+01    0.3294138    0.2326814   0.27 0.0007810076    1.469    0.319
        21 -10.8741     71.3513      6.4882   7.4773042142e+01   6.5352703704e+01    0.3277096    0.2344944  28.77  0.001516433    1.399    0.285
        22  -9.4852     64.6400      6.8499   7.7405629678e+01   6.6502501570e+01    0.1819547    0.1045721 -36.98 0.0006957497    1.681    0.405
        23 -11.5397     56.8531      4.0516   7.8920890794e+01   6.8185460206e+01    0.5162643    0.3133384 -10.36  0.002728331    1.777    0.437
        24 -10.7977    235.5811      4.7136   4.5506687452e+01   2.4972915301e+01    0.2529727    0.1310089 -17.02   0.00112846    2.084    0.520
        25 -10.3539    194.3154      4.3507   4.9185296036e+01   3.5582191503e+01    0.1520775     0.101721  34.71 0.0007046926    1.731    0.422
        26 -10.8358    130.3053      3.6964   5.8053037535e+01   5.2564465511e+01    0.2780761    0.2207625  54.30  0.001149571    1.200    0.167
        27  -9.7102    120.9633      4.2392   6.0129990218e+01   5.4834555682e+01    0.1941443    0.1726724  38.94 0.0003775225    1.062    0.058
        28 -10.6124     20.0526      2.5794   9.5780688349e+01   7.3217477724e+01    0.2201098    0.1698469 -28.65 0.0006812533    1.018    0.018
        29 -10.1235    230.6221      3.2322   4.5500155316e+01   2.6335751061e+01    0.1869959    0.1281293  -9.76 0.0009500883    1.657    0.397
        30 -10.4113    174.8005      3.1394   5.1033761776e+01   4.0914610160e+01     0.456913    0.1499755  63.07  0.001625072    2.630    0.620
        31 -10.4289    145.0377      5.9255   5.6343347034e+01   4.8565836518e+01    0.2121475    0.2029094  38.16 0.0003281087    1.006    0.006
        32  -9.9069    244.4862      1.4866   4.3995242941e+01   2.3146182487e+01    0.1338869    0.1163212 -54.22 5.061888e-05    1.014    0.014
        33  -9.9746    204.0356      1.4653   4.7314945266e+01   3.3288614368e+01    0.2093397    0.1334897  74.97  0.000416581    1.532    0.347
        34 -11.5965     80.2660      1.7092   6.9298372494e+01   6.4214092194e+01    0.3514526    0.1798773  52.75   0.00100639    2.007    0.502
        35 -10.6131    161.6419      1.7542   5.2259543797e+01   4.4565524162e+01    0.2880467    0.1552245  56.27  0.001265432    1.715    0.417
        36  -9.3368     67.0404      1.5016   7.3620285653e+01   6.6759262115e+01    0.1710775    0.1214414  42.97 0.0003328827    1.469    0.319
        37 -10.0157     16.5630      3.4998   9.8220638883e+01   7.3387301338e+01     0.182717    0.1358383 -39.24 1.200461e-05    1.105    0.095
        38 -10.4249     90.6976      2.5390   6.6640557332e+01   6.1967412886e+01    0.3740391     0.249964  61.23  0.001378429    1.679    0.404
        39  -9.6685    214.7289    140.9793   8.3883699107e+01   1.1287586391e+01    0.1928893    0.1728369   0.23 0.0007286604    1.055    0.052
        40 -11.0068      1.6675    248.6947   1.3491312270e+02   2.5881440006e+01    0.2470783   0.08876771 -87.92  0.001692203    2.454    0.592
        41 -12.1201      3.2410    139.0881   1.3003179193e+02   4.5431903288e+01    0.4227017    0.1600138  56.62  0.002282498    2.405    0.584
        42 -10.4040    215.8513    135.8106   8.2552575433e+01   1.1825718073e+01    0.2345323    0.1909506  67.81 0.0005777598    1.563    0.360
        43 -11.5372      9.0765    135.4455   1.2846968512e+02   4.5758444350e+01     0.216037    0.1243521 -89.75 0.0005298752    1.352    0.260
        44 -11.2116      3.1049    133.4579   1.2968558800e+02   4.6626253223e+01    0.3045174    0.1341755  55.09  0.001768442    2.086    0.521
        45 -10.0923     35.2136    131.0498   1.2190703346e+02   4.4400230748e+01    0.1751505    0.1342576 -67.67 0.0005383068    1.267    0.211
        46 -11.8532     11.8074    129.7182   1.2738852675e+02   4.6771243507e+01     0.414683    0.1651601  57.23   0.00155386    2.475    0.596
        47 -10.3387     28.9473    128.2834   1.2313426750e+02   4.5614748449e+01    0.1597408    0.1292131  79.63 0.0003717438    1.093    0.085
        48 -11.9434     23.4578    121.4176   1.2377041573e+02   4.7624753894e+01       0.4447    0.2118872  75.95 0.0006510639    2.297    0.565
        49 -10.7336     65.5581    111.8720   1.1134773208e+02   4.5212417807e+01    0.3962138    0.1327042 -56.88  0.001585984    2.574    0.612
        50  -9.3064     43.0452    113.5197   1.1768984513e+02   4.7513173210e+01    0.1832957   0.07963395  55.91 0.0008093375    2.732    0.634
        51  -9.8689     20.4274    112.4995   1.2358251745e+02   4.9863255834e+01    0.1196794   0.09059258 -88.14 -0.001112592    1.048    0.046
        52 -10.1235     51.6566    109.6686   1.1476318039e+02   4.7434754030e+01    0.1272295   0.08980241 -40.74 0.0007050798    1.753    0.430
        53 -11.7793      3.9719    108.9809   1.2754701545e+02   5.1852290582e+01    0.3117119    0.1971308  21.34  0.001829448    2.146    0.534
        54 -10.9411     57.9686    108.0230   1.1274669345e+02   4.7056573067e+01    0.2064129     0.185959  26.39  0.001167314    1.400    0.286
        55 -10.9432     12.7493    108.0261   1.2513514023e+02   5.1455944067e+01    0.1780678     0.150198 -33.85  0.001290854    1.612    0.379
        56 -10.3165     89.9840    105.0000   1.0334298243e+02   4.3168316116e+01    0.2157333   0.07897609  40.21 0.0005089692    2.915    0.657
        57  -9.9239    113.4971    102.5020   9.6524125654e+01   3.9557136555e+01    0.1442012    0.1363304 -73.66  0.000810688    1.002    0.002
        58 -10.5590     57.3250    101.8961   1.1182785657e+02   4.8534906751e+01    0.2264757    0.1702513  57.29  0.001338689    1.415    0.293
        59 -10.3984     24.9190    101.8374   1.2105571579e+02   5.1888132967e+01    0.1729575    0.1355926 -65.12 0.0002728538    1.186    0.157
        60  -9.6520    195.4366     98.5383   7.7216094117e+01   2.2223548356e+01    0.2855075    0.1244805  42.50  0.001029566    2.485    0.598
        61 -10.0470     62.2993     98.6550   1.0977697893e+02   4.8649826538e+01    0.1361068   0.09365947  82.77 0.0007036419    1.677    0.404
        62  -9.2503    129.6555     97.6711   9.1202829026e+01   3.7342286238e+01    0.1514585    0.1198829   1.18 0.0007050654    1.750    0.428
        63 -11.3042     99.3784     95.3962   9.8527861808e+01   4.3698631285e+01    0.5717942    0.3061179  64.69  0.002135542    3.064    0.674
        64 -10.6006     78.8520     94.8425   1.0417538819e+02   4.7196641963e+01    0.1956888    0.1728141 -46.21 0.0002640221    1.184    0.156
        65 -11.4461     18.1873     94.7128   1.2204195920e+02   5.4038174691e+01    0.2579404    0.1930742  66.81  0.001107861    1.370    0.270
        66  -9.7432      3.4825     95.5390   1.2637531000e+02   5.4853846963e+01     0.115278   0.08621899 -81.83 0.0001633577    1.004    0.004
        67 -11.0129     10.5908     91.2794   1.2383383700e+02   5.5352173632e+01     0.408868      0.14554 -81.43  0.001813315    2.643    0.622
        68 -10.7706     11.3109     85.6834   1.2289727399e+02   5.6561332765e+01    0.3538006    0.1439165 -82.44  0.001679299    2.317    0.568
        69 -11.0240     57.8906     91.7104   1.0966909766e+02   5.0793685133e+01    0.2576326    0.2265336 -24.93 0.0009097307    1.413    0.292
        70 -11.0665     27.3026     90.8116   1.1876823782e+02   5.4189936070e+01    0.4815674    0.2084808  54.70   0.00222014    2.949    0.661
        71 -10.9419     76.4192     89.3030   1.0359139829e+02   4.8808835490e+01    0.2438795    0.2180661 -66.20 0.0004919618    1.007    0.007
        72 -10.5246      1.9000     89.8531   1.2622477089e+02   5.6210437387e+01    0.1865914    0.1205899 -75.29  0.001241875    1.158    0.136
        73 -10.4482    107.9821     88.9922   9.4514031560e+01   4.3503907890e+01    0.1765862    0.1688928 -68.59 0.0005080458    1.021    0.020
        74 -10.3682     91.5862     95.2759   1.0065866793e+02   4.5068981357e+01    0.2027821    0.1230724 -45.60 0.0009501356    1.628    0.386
        75  -9.6796     43.9711     89.4831   1.1345628772e+02   5.2902308562e+01    0.1751431    0.1237028  39.06  0.001037441    1.631    0.387
        76 -11.0426     18.1607     87.6996   1.2108073639e+02   5.5625552064e+01    0.3823799    0.2140537 -49.12  0.002208187    1.794    0.443
        77 -10.9584     54.8110     85.2324   1.0923823636e+02   5.2646816857e+01    0.3490382    0.2052679 -65.89 0.0008073171    1.515    0.340
        78  -9.5317     25.4390     84.8937   1.1839551599e+02   5.5692132349e+01    0.1836593   0.09775455 -71.28 0.0007506278    1.521    0.342
        79 -10.0209     78.1436     83.4193   1.0162212548e+02   4.9863728001e+01    0.3797528    0.1614016  48.52  0.001513954    2.786    0.641
        80 -10.3927      3.6230     83.0688   1.2492424594e+02   5.7621774401e+01     0.257777    0.1432039  77.41  0.001179831    1.848    0.459
        81 -11.4889     64.1464     80.0868   1.0511549324e+02   5.2622260108e+01    0.4545448    0.2952166 -66.16  0.001873386    1.462    0.316
        82 -10.2289     89.1961     80.6525   9.7577716927e+01   4.8689065236e+01    0.2468946    0.1816005 -63.25  0.000671765    1.361    0.265
        83  -9.2700     42.2531     81.6334   1.1245380223e+02   5.4873756570e+01    0.1452806    0.1227437   2.62 0.0003873994    1.568    0.362
        84  -9.8347    124.3084     78.9393   8.7302694726e+01   4.2288974703e+01    0.2406271    0.1773471 -62.06 0.0008095796    1.526    0.345
        85 -10.1550    177.0218     76.9430   7.4723740642e+01   3.0303797687e+01    0.2391771    0.2355724  -0.30 0.0009048158    1.015    0.015
        86  -9.8262    170.2820     76.4452   7.5923415150e+01   3.2050888936e+01    0.2664751    0.1796841 -54.58 0.0009440338    1.691    0.409
        87 -11.0621     15.6240     76.2632   1.2014282640e+02   5.8389592740e+01    0.2592353    0.2119578 -47.79  0.001489244    1.307    0.235
        88 -11.3019     56.4937     75.3516   1.0641439065e+02   5.4674631549e+01     0.437618    0.2907709  34.97  0.001963916    1.754    0.430
        89  -9.1857     74.5884     75.5244   1.0063766985e+02   5.2150272199e+01     0.137783    0.1206182 -59.07 -3.142587e-05    1.028    0.027
        90 -10.9816     36.4355     73.0078   1.1256716937e+02   5.7410227258e+01      0.44897    0.2344211 -61.47  0.001336814    1.538    0.350
        91  -9.6614     32.1950     73.1219   1.1402762865e+02   5.7779572590e+01     0.184157    0.1636669  69.06 0.0002490919    1.270    0.213
        92  -9.4628    136.6228     74.2218   8.2766541729e+01   4.0489948405e+01    0.2074966    0.1428301 -29.38 0.0003097916    1.545    0.353
        93 -11.3776      5.8018     74.5446   1.2310869284e+02   5.9398648614e+01    0.3736144    0.2219296  48.52  0.002329845    1.968    0.492
        94 -10.5821     81.0639     72.5704   9.7778410451e+01   5.1785647611e+01    0.2758469    0.1676584 -84.50  0.001026503    3.382    0.704
        95  -9.3974    216.9718     71.9979   6.6364727526e+01   2.1237768580e+01    0.1805324    0.1651725 -25.79 0.0005223084    1.034    0.033
        96 -10.6047    105.8509     71.8221   9.0147534785e+01   4.7515890690e+01    0.2680154    0.2300196  52.32 0.0004809625    1.247    0.198
        97  -9.8052     92.3954     72.2866   9.4222813109e+01   4.9929403215e+01    0.1993102    0.1274267 -56.35 0.0009356021    1.558    0.358
        98 -11.6305      4.8654     62.2427   1.2154221896e+02   6.2185437695e+01    0.5310794    0.2363857  56.73  0.002538276    3.224    0.690
        99 -11.1584      9.8830     60.1489   1.1935522188e+02   6.2360810583e+01    0.2583782     0.147403 -58.92 0.0003367399    1.344    0.256
       100 -10.5444     34.6647     64.7887   1.1133964675e+02   5.9421879707e+01      0.27667    0.1716358 -50.73 0.0007033541    1.375    0.273
       101 -10.8582     38.9448     62.8334   1.0933160622e+02   5.9439548096e+01    0.2538096    0.1789858 -19.44 0.0004175529    1.869    0.465
       102  -9.9695    130.8070     64.3744   8.1065154290e+01   4.3668243324e+01    0.3474585    0.1527703 -47.99  0.001231836    2.477    0.596
       103  -9.7343     75.9676     64.3371   9.6957953368e+01   5.4356959277e+01    0.1781674    0.1689768 -42.99 0.0004579208    1.069    0.065
       104 -10.4616     13.9835     63.5912   1.1850805061e+02   6.1338347213e+01    0.2224341    0.1354296 -81.87 0.0005459799    1.534    0.348
       105 -10.2118     72.8386     62.6481   9.7469391806e+01   5.5198198792e+01    0.3050162     0.189849 -28.33  0.001422345    2.034    0.508
       106  -9.8301     54.3727     56.2092   1.0190664225e+02   5.9138687424e+01    0.3501223    0.1207568 -57.06   0.00111925    2.754    0.637
       107 -10.7382     54.3948     61.3746   1.0342150943e+02   5.8023990094e+01    0.5309172    0.2687043  25.08  0.001586835    2.685    0.628
       108 -10.5213     60.4740     58.5119   1.0042943242e+02   5.7852770381e+01    0.1934493    0.1636964 -49.39 0.0006497036    1.017    0.017
       109 -10.9896     62.4935     62.4313   1.0090487994e+02   5.6739180665e+01     0.305834    0.2325559 -51.54  0.001523125    1.136    0.120
       110  -9.8673     66.9329     60.5144   9.8802696622e+01   5.6526348977e+01    0.2296507    0.1366252  30.28  0.001037455    2.043    0.511
       111 -10.0154    100.8499     61.7748   8.8373118499e+01   5.0516364407e+01    0.2518039    0.1778861 -67.16 0.0004057605    1.817    0.449
       112  -9.0741    127.2388     61.6863   8.1075887276e+01   4.4974931904e+01    0.1469871    0.1137968 -62.97            0    1.504    0.335
       113 -10.4240     24.5168     60.5250   1.1404474410e+02   6.1252686237e+01    0.2459857    0.1604046 -48.66   0.00103924    1.353    0.261
       114 -13.0038     20.4825     57.3850   1.1484842918e+02   6.2258393632e+01      0.45725     0.226301 -69.50   0.00242236    1.731    0.422
       115 -11.5656     88.4904     53.1595   8.9207704207e+01   5.4528413503e+01      0.41906    0.3123007  27.47 0.0008690885    1.557    0.358
       116  -9.2271     48.4942     58.4700   1.0470652905e+02   5.9363085086e+01    0.1298649    0.1096108 -55.31 0.0004894512    1.024    0.023
       117 -10.9945     83.7233     56.8842   9.2025988007e+01   5.4628217088e+01    0.3208186    0.2132938 -46.67 0.0008924451    1.368    0.269
       118 -10.3637    225.6747     54.2891   6.0213308087e+01   2.1609894688e+01    0.3642255    0.2263793  -9.21  0.001565536    1.937    0.484
       119  -9.1737    174.2867     55.6636   6.8726140880e+01   3.4463143704e+01    0.1604242     0.115628 -60.92 0.0002638694    1.630    0.387
       120 -11.5786    114.6943     53.9518   8.1728837117e+01   4.9167847736e+01    0.3288419    0.3115254 -21.28 0.0007770795    1.023    0.022
       121 -11.3070     17.5295     44.8492   1.1300857389e+02   6.5200646551e+01    0.5301126    0.3679678  60.39  0.003293945    1.949    0.487
       122 -13.0049      5.5076     51.1395   1.1928781438e+02   6.4589363347e+01    0.3773215    0.2049121 -44.34 0.0005371193    1.711    0.416
       123 -10.8672     11.9499     48.1147   1.1608263972e+02   6.4870584139e+01    0.4244552    0.1914059  42.65   0.00220363    2.910    0.656
       124  -9.7556    163.6528     54.3971   7.0367186351e+01   3.7388740997e+01    0.2981624    0.1539606  63.19  0.001137569    2.122    0.529
       125 -10.3234     34.1223     53.7424   1.0875799158e+02   6.1903821200e+01    0.2597091    0.1162528 -42.31  0.001224177    2.184    0.542
       126 -11.8930     66.1773     52.5924   9.6517325520e+01   5.8291749785e+01    0.4974533    0.2387952  35.08  0.001679139    2.440    0.590
       127  -9.8951    123.4688     52.0332   7.8709247810e+01   4.7567373995e+01    0.2481765    0.2075817  70.56 0.0006152064    1.371    0.271
       128 -10.8749     77.4877     48.5294   9.1172328706e+01   5.7341242092e+01    0.3604654    0.2732407   5.58   0.00190796    1.679    0.405
       129 -10.2133     78.7063     45.7144   8.9724900123e+01   5.7681348745e+01     0.229158    0.1918536  32.71  0.000189161    1.313    0.238
       130  -9.7302     53.9706     48.2515   9.9518674215e+01   6.0860523730e+01    0.1807712    0.1572185 -47.74 0.0007116881    1.046    0.044
       131  -9.5701    154.5637     47.5554   6.9914242679e+01   4.0778551057e+01    0.1506857    0.1477406 -12.39  6.48038e-05    1.004    0.004
       132 -10.7760    103.9551     46.8407   8.2175516017e+01   5.2720100486e+01     0.351041     0.258815  24.89  0.001737251    1.588    0.370
       133  -9.4015     47.3248     47.3135   1.0174567879e+02   6.1872105315e+01    0.1318834   0.08735512 -29.01 0.0005678905    1.663    0.399
       134  -9.3235    135.4956     46.3957   7.3713329954e+01   4.5699205362e+01    0.1476247    0.1446951 -58.93  0.000140392    1.067    0.063
       135 -11.4219     18.3002     32.5630   1.0915321868e+02   6.7725051056e+01    0.6657633     0.307725 -11.07  0.002694001    4.670    0.786
       136 -11.0238     25.9613     43.5754   1.0916558518e+02   6.4816063625e+01    0.2856082    0.2229005 -68.15  0.001098449    1.229    0.187
       137  -9.8964     25.6383     29.7832   1.0487289650e+02   6.7686969119e+01    0.1819695    0.1441528 -69.84 0.0005962786    1.414    0.293
       138 -10.4556     22.7746     38.5917   1.0903930289e+02   6.6127634480e+01     0.206301    0.1650238 -67.48 0.0003504685    1.226    0.184
       139 -11.4709     26.6328     35.1595   1.0627375818e+02   6.6511778950e+01    0.3426838    0.2014662 -36.77  0.001192077    1.599    0.375
       140 -10.3189    181.2350     41.3757   6.2903688318e+01   3.4749120416e+01    0.3817132    0.2973124   0.04  0.001683467    1.474    0.322
       141  -9.9697     95.1063     42.1972   8.3060455959e+01   5.5328044990e+01    0.2073909    0.1798115 -11.16 0.0006226851    1.160    0.138
       142  -9.9701     69.6051     41.6965   9.1392000343e+01   5.9936491201e+01    0.2629309    0.1894647 -12.37 0.0008830687    1.691    0.409
       143 -10.3589     35.8362     41.5000   1.0443958799e+02   6.4335823702e+01    0.2617351     0.184989 -16.61  0.001514865    1.707    0.414
       144 -10.4973      3.7821     41.4415   1.1794253143e+02   6.6774077498e+01    0.3743832    0.1594881 -37.72  0.001953603    2.461    0.594
       145 -10.7490    139.9984     40.7215   7.0619994965e+01   4.5490311803e+01    0.2996545    0.2553412 -84.71 0.0005378565    1.379    0.275
       146  -9.4407     42.9464     40.7694   1.0128516494e+02   6.3724552379e+01    0.1386749    0.1064292  23.43 0.0005258929    1.546    0.353
       147  -9.9311    133.2655     39.0106   7.1523408194e+01   4.7404136211e+01    0.4163853     0.266737 -80.02  0.001600088    2.729    0.634
       148 -11.3470    134.2586     34.3386   6.9531283964e+01   4.7859256971e+01    0.2618659    0.2328416  15.10 0.0003209534    1.154    0.133
       149  -9.8432    229.6780    248.1097   9.9750526768e+01  -3.8617963717e+00    0.1377111      0.10455  18.86 0.0008047189    1.142    0.124
       150  -9.0961     63.3305     34.6594   9.0944059634e+01   6.2226749884e+01    0.1281013    0.1031998 -74.88 0.0007051556    1.744    0.427
       151 -10.0755    145.0331     33.1151   6.6735771872e+01   4.5337033145e+01    0.2134741    0.2098688  -8.30 0.0003526557    1.017    0.017
       152 -10.4096    166.1866     31.3054   6.2074809899e+01   4.0080256558e+01    0.2743838    0.2063787 -32.93 0.0003724598    1.311    0.237
       153  -9.7176     86.8197     31.6298   8.1399842188e+01   5.8744982991e+01    0.2665661    0.1781581  -9.76  0.001271426    1.843    0.457
       154 -11.3162     38.6403     30.9691   9.9519554520e+01   6.6157785384e+01    0.2430361    0.1875868 -15.37 0.0003241876    1.387    0.279
       155 -11.5544     43.5552     29.3486   9.6761820673e+01   6.5902514798e+01    0.5078901    0.3384037 -25.66  0.002730133    1.537    0.349
       156 -11.2228      2.8847     34.6208   1.1671835411e+02   6.8265684115e+01    0.4137838    0.1634358 -54.21  0.002251483    1.773    0.436
       157  -9.6525     77.2019     31.1108   8.4416037220e+01   6.0593040401e+01     0.179114    0.1471836 -48.70 0.0003907513    1.305    0.234
       158  -9.7194    187.8046     30.0004   5.8205263047e+01   3.4503521367e+01    0.2577174    0.1691664  19.06  0.001097518    2.003    0.501
       159 -10.0240     91.4285     33.5624   8.0736596175e+01   5.7534080755e+01    0.3113982    0.1900331 -23.59 0.0008819386    1.735    0.424
       160 -10.4326     69.3555     27.1565   8.5511867755e+01   6.2605799264e+01    0.4369531    0.1064627 -43.43  0.001386642    3.960    0.747
       161  -9.5551     28.9336     27.8068   1.0264085564e+02   6.7774897711e+01    0.1406463    0.1277376 -66.10 0.0002510288    1.297    0.229
       162 -10.0654     74.7298     16.5818   7.8677002802e+01   6.3347049783e+01    0.2942276    0.1892857  -1.33 0.0006968028    1.930    0.482
       163 -12.0701     10.9309    244.7938   1.3348422744e+02   2.5596347023e+01    0.3327015    0.2688805 -14.82  0.002503833    3.644    0.726
       164 -10.8681     75.1359     21.5853   8.0903358200e+01   6.2517179677e+01    0.3687114    0.2271029 -31.99  0.001070095    1.469    0.319
       165  -9.8069    229.5897     26.2071   5.1922924006e+01   2.4154069841e+01    0.1992144    0.1331161  -8.67 0.0009448685    1.723    0.420
       166  -9.1694    146.7598     26.3126   6.3851772610e+01   4.5808954524e+01    0.1471681    0.1094428 -53.76 0.0001571897    1.504    0.335
       167  -8.9989     50.3289     33.6618   9.5654453728e+01   6.4235950640e+01    0.1222809    0.0991254 -79.40 0.0007051874    1.733    0.423
       168  -9.9998    100.7408     25.7053   7.4589756995e+01   5.6859849699e+01    0.1859471    0.1620159 -54.27  0.001035301    1.329    0.247
       169  -8.7429     18.4649     26.4332   1.0702944404e+02   6.8953428093e+01    0.1219082   0.08811504 -41.65 0.0002430872    1.128    0.114
       170  -9.5830    153.7897     25.5880   6.2249017922e+01   4.4076067548e+01    0.2076523    0.1451195  80.59 0.0008339937    1.657    0.396
       171 -10.7962    113.7648     24.2927   7.0449133102e+01   5.4171199535e+01    0.3097849    0.2195878 -12.66  0.001383298    1.480    0.324
       172 -10.3637     59.3301     24.1324   8.7996085988e+01   6.4708485529e+01    0.2552381    0.1885158   2.12  0.001331983    1.545    0.353
       173 -10.3755     43.3545     15.1760   9.0556663613e+01   6.8469957613e+01    0.2332043    0.1620172 -59.59  0.001302283    2.007    0.502
       174 -11.4458     38.9177     24.1493   9.6641545452e+01   6.7423217279e+01    0.4774786    0.1565543 -41.81  0.001785751    2.590    0.614
       175 -10.1706     42.4933     19.5309   9.3000950273e+01   6.7829810712e+01    0.2582459    0.1637281   3.20 0.0008346319    2.135    0.532
       176 -11.1691      2.1717     20.8117   1.1317721728e+02   7.1141704074e+01    0.2903589    0.2097316 -47.10  0.002094256    1.086    0.080
       177 -11.1920     13.4186     20.8253   1.0748198160e+02   7.0440391580e+01    0.2658055    0.2066373 -68.89  0.001125001    1.404    0.288
       178 -10.5062     20.1282     16.7944   1.0250130229e+02   7.0685997831e+01    0.1793614    0.1446333 -25.49  0.000395535    1.164    0.141
       179 -10.9119     14.0488     16.0083   1.0530729937e+02   7.1325297317e+01    0.3336091    0.1866801  24.09  0.001290693    2.176    0.541
       180  -9.8190     84.9509     21.0564   7.7339740474e+01   6.0766913146e+01    0.2174883    0.1526042  13.70 0.0006501836    1.651    0.394
       181  -9.8916     31.0439     20.3143   9.8636106775e+01   6.8994996143e+01    0.2149646    0.1270256 -39.27 0.0005839621    1.378    0.275
       182 -11.6935      8.0519     28.9555   1.1279215413e+02   6.9158094746e+01    0.2785237    0.2258278  70.19  0.001980056    1.648    0.393
       183 -10.3647    100.3218     19.1047   7.1801684856e+01   5.7883947492e+01    0.3476394    0.2236421 -49.51  0.001434832    1.891    0.471
       184  -9.3813     58.0000     17.9936   8.5668159818e+01   6.5933416874e+01    0.2169832   0.06437838 -39.11 0.0008045537    2.957    0.662
       185  -9.4370    199.6813     17.3132   5.2628408970e+01   3.2833352866e+01     0.156202    0.1016675 -58.74 0.0007037121    1.648    0.393
       186 -10.1884    108.4261     16.3834   6.8405199916e+01   5.6439477670e+01    0.2286241    0.1531236 -25.72 0.0003630912    1.440    0.306
       187  -9.4272    136.3854    245.7288   1.1408917143e+02   1.0039479347e+01     0.111081   0.06284185  59.12 0.0006992932    1.708    0.415
       188 -10.1274     26.7069     16.4135   9.9035069530e+01   7.0150450380e+01    0.1902293    0.1604121 -49.18 0.0007039983    1.238    0.192
       189 -10.0800     49.2015     16.0138   8.8382454473e+01   6.7543894949e+01    0.1849808    0.1544156 -43.96  0.000679338    1.295    0.228
       190  -9.0902     45.2776    244.3190   1.2837758185e+02   2.2109586509e+01    0.0771979   0.07039043  75.09 0.0002458664    1.576    0.365
       191 -11.0931      6.1849    241.3248   1.3405984940e+02   2.6569585716e+01    0.1468858    0.1035427 -70.05  0.001287662    1.935    0.483
       192  -9.9301     60.4615    241.1406   1.2586073533e+02   2.0836641608e+01    0.2282963   0.08720102  39.68  0.001331223    2.319    0.569
       193  -9.5429    202.5060    240.4631   1.0291807274e+02   8.0102517636e-01    0.1096619   0.08001041  33.47 0.0001568376    1.015    0.015
       194  -9.6228    224.7424    246.9570   1.0033993666e+02  -3.0634896940e+00    0.1116567   0.08407024 -12.33 0.0008316232    1.535    0.348
       195 -10.9547    231.8632     14.1061   4.8362764846e+01   2.4926586797e+01    0.2069952    0.1868829 -54.06 0.0004583883    1.013    0.013
       196  -9.9868    190.6450     13.9324   5.2651934015e+01   3.5596745579e+01    0.2061709    0.1810871 -39.94 0.0006318707    1.123    0.109
       197 -11.6038     26.4109    235.9343   1.3086202660e+02   2.5418961796e+01    0.2490931    0.1732889  78.89  0.001268767    1.199    0.166
       198  -9.2132      6.0342     14.1572   1.0883557494e+02   7.2230898992e+01    0.1613637    0.1106709 -48.83 0.0009805625    1.083    0.076
       199  -9.9648      9.0479     10.2231   1.0560250525e+02   7.2778899027e+01    0.1448438   0.09488204  -8.48 0.0005383817    1.751    0.429
       200  -8.9052    204.3375    235.3158   1.0195668451e+02   1.0601765646e+00    0.1126847   0.06858863  21.53 0.0007047892    1.698    0.411
       201 -11.6368      4.1208    232.5183   1.3409012930e+02   2.8123772876e+01     0.201718    0.1126388  57.54 0.0003297605    1.224    0.183
       202 -12.7683     10.0489    228.5350   1.3306645069e+02   2.8204266737e+01    0.4607651    0.2044418 -83.50  0.002172311    1.998    0.499
       203  -9.9199    249.2001    234.0906   9.4894215779e+01  -5.3827517363e+00    0.1582211    0.1048677  20.30 0.0004357575    1.163    0.140
       204  -9.1369     80.3428    231.7332   1.2203391196e+02   1.9798297153e+01    0.1109701   0.05766571  61.31 0.0003412061    1.604    0.377
       205 -11.5214      2.4523    226.8902   1.3416313605e+02   2.9170205033e+01    0.2483662    0.1798657  81.70  0.002251842    1.261    0.207
       206 -10.0669    140.1667    227.1896   1.1153669390e+02   1.1947603519e+01    0.1614018    0.1091595  58.88   0.00108003    1.363    0.266
       207 -10.1339     33.0043    225.0034   1.2933027943e+02   2.6473927578e+01    0.2499707    0.0668959  50.19  0.001371505    2.457    0.593
       208 -12.0396      8.1042    217.4220   1.3296584820e+02   3.0202157152e+01    0.2990835    0.1854969  78.60  0.002443754    1.184    0.155
       209 -10.9120     15.6694    212.9320   1.3157221006e+02   3.0244556182e+01    0.2079065    0.1646406 -57.26  0.001710151    2.008    0.502
       210 -10.4681     20.5516    209.8150   1.3062801088e+02   3.0302518922e+01    0.1968196   0.09772097  62.32 0.0005565898    1.475    0.322
       211  -9.3672    246.7124    207.6529   9.1187214073e+01  -2.5754390769e+00    0.1176663   0.07022679  13.82 0.0001957529    1.656    0.396
       212 -10.8798      3.1589    205.0390   1.3330182027e+02   3.2757008519e+01    0.1731061    0.1157166  53.65  0.001423476    1.309    0.236
       213 -11.5027      9.2991    203.6155   1.3222859619e+02   3.2452768444e+01     0.190983    0.1442528  59.22 0.0009583349    1.267    0.211
       214  -9.0007    181.3346    199.6735   1.0073747960e+02   9.0672543132e+00    0.1180923   0.09013246  69.23 0.0007051558    1.718    0.418
       215  -9.3408    123.4792    198.4904   1.1115198719e+02   1.8925321592e+01    0.1205969   0.09913233  56.21 0.0001914838    1.013    0.013
       216 -10.3696     22.9992    197.3033   1.2958173507e+02   3.2269806959e+01    0.1796223    0.1233007 -85.84 0.0004558496    1.309    0.236
       217 -12.4780     13.1983    194.7172   1.3116669636e+02   3.3679102754e+01    0.3115799    0.2301078  65.83  0.002560506    1.144    0.126
       218 -10.1518      8.8619    187.8079   1.3160522188e+02   3.5338193677e+01     0.181618   0.08287688  25.65  0.001015666    3.387    0.705
       219 -10.6539     15.3442    185.4345   1.3032013327e+02   3.5189854435e+01    0.1998137   0.09664126 -88.18  0.001276345    1.701    0.412
       220  -9.4763      1.3334    183.1823   1.3274146815e+02   3.6845965687e+01    0.1426387   0.06771213  84.48 0.0004845947    1.627    0.385
       221 -12.1804      5.2414    167.9910   1.3129943618e+02   3.9418912953e+01    0.3532144    0.1765436  70.68  0.001549436    1.583    0.368
       222 -11.4556     14.5528    163.8848   1.2923673328e+02   3.9432609420e+01    0.1899484    0.1522643 -67.69  0.001367412    1.489    0.328
       223  -9.4639    226.6428    163.7133   8.6534958778e+01   5.8268398386e+00     0.136055   0.08762413  18.12 0.0007022884    1.677    0.404
       224  -9.4395     41.3865    158.1603   1.2323537218e+02   3.7957602502e+01    0.1642498   0.08981581 -89.27 0.0009364386    1.660    0.398
       225 -11.3357      2.9630    153.9328   1.3099134550e+02   4.2398077603e+01    0.2418274    0.1212941  46.74  0.001577847    1.822    0.451
       226 -11.3083     24.1565    150.6524   1.2629899446e+02   4.1262406474e+01    0.2090775    0.1931021 -58.44 0.0009289105    1.498    0.332
       227 -10.9259     22.0821    143.1480   1.2614137021e+02   4.3032106466e+01    0.2092944    0.1330457 -81.86  0.001174114    1.261    0.207
