#   1 NUMBER                 Running object number                                     
#   2 MAG_AUTO               Kron-like elliptical aperture magnitude                    [mag]
#   3 X_IMAGE                Object position along x                                    [pixel]
#   4 Y_IMAGE                Object position along y                                    [pixel]
#   5 X_WORLD                Barycenter position along world x axis                     [deg]
#   6 Y_WORLD                Barycenter position along world y axis                     [deg]
#   7 A_WORLD                Profile RMS along major axis (world units)                 [deg]
#   8 B_WORLD                Profile RMS along minor axis (world units)                 [deg]
#   9 THETA_WORLD            Position angle (CCW/world-x)                               [deg]
#  10 FWHM_WORLD             FWHM assuming a gaussian core                              [deg]
#  11 ELONGATION             A_IMAGE/B_IMAGE                                           
#  12 ELLIPTICITY            1 - B_IMAGE/A_IMAGE                                       
         1  -9.0562     46.1408     20.9974   7.3664411175e+01   6.6253423942e+01    0.4684425    0.1970101 -31.06  0.002196871    2.278    0.561
         2 -11.7601     80.5616     23.2288   6.1783777815e+01   6.0046909977e+01    0.5364562    0.2445261  38.61 0.0001788509    2.039    0.510
         3  -9.5017     26.9665     22.0341   8.3041449592e+01   6.8571032907e+01    0.6757631      0.23829 -29.31  0.002745416    3.265    0.694
         4  -9.3041      8.5477     19.8608   9.1697775729e+01   7.0648442927e+01    0.3537441    0.2525819   1.79  0.002019299    1.304    0.233
         5  -9.1495     64.1843     14.1945   6.3384345825e+01   6.4151008247e+01     0.353139    0.1897073  25.02  0.001531004    1.918    0.479
         6  -9.0728    133.8471     13.4805   4.5225541402e+01   4.9257823715e+01    0.2364633    0.1886726  31.39 0.0002726457    1.298    0.230
         7  -9.8455     77.4719     13.0652   5.8429654979e+01   6.1774860126e+01    0.6547771    0.2089509  49.73  0.002670756    2.684    0.627
         8  -9.1040     71.6443      8.9305   5.8450638109e+01   6.3315987548e+01    0.2424877    0.2193287  19.06 0.0008163574    1.173    0.147
         9  -8.4256     76.9845      7.0000   5.5925346520e+01   6.2456621146e+01    0.3450704    0.1232872  47.12  0.001521993    2.274    0.560
        10  -8.5213     76.3680      3.7918   5.4690324775e+01   6.2862779918e+01    0.1826418     0.121329  28.13 0.0003775563    1.329    0.248
        11  -9.5855     32.1170     10.7494   7.5168257921e+01   6.9545323560e+01    0.4502074    0.2427139   6.26 0.0004324183    2.177    0.541
        12  -9.0362     32.0851      6.0274   7.2782184337e+01   7.0135220020e+01    0.2526926    0.1642884   5.99  0.000335723    1.353    0.261
        13  -8.5096     96.4576     12.2468   5.2735326360e+01   5.7929439134e+01    0.3108334    0.2093314  51.35  0.001362999    1.312    0.238
        14  -7.7951    155.8299     11.5906   4.1144208633e+01   4.4153532845e+01    0.2212278    0.1025544 -19.77 0.0008303584    2.628    0.620
        15  -8.7228    124.9878     10.3482   4.5785582387e+01   5.1638975558e+01    0.2255293    0.1836483  15.47  0.000544277    1.335    0.251
        16  -8.6279    108.2811     10.9251   4.9408897284e+01   5.5437952160e+01    0.3119518    0.1996478 -88.14  0.001470573    2.487    0.598
        17 -10.3414     13.3221      4.5346   8.1822247629e+01   7.2533806017e+01    0.3299146    0.2254712  14.13  0.002303354    1.331    0.249
        18  -8.5434     14.4094     10.7288   8.4331129757e+01   7.1558872565e+01    0.3414098    0.1433068  29.67  0.001185592    2.455    0.593
        19  -9.5898     20.5565      8.5273   7.9909737786e+01   7.1230612665e+01    0.2466261    0.1805326   6.99 0.0001711423    1.163    0.140
        20  -8.9225      3.6372      7.2049   8.8785559918e+01   7.3020003494e+01    0.4865814     0.178142 -24.26  0.002148204    3.284    0.696
        21  -8.2056      2.9540      1.4770   8.6324385977e+01   7.3905045637e+01    0.1576324    0.1129809  -7.61 0.0005183611    1.085    0.078
        22  -7.4158    142.6853      9.6899   4.2529906315e+01   4.7491489325e+01    0.1366143   0.08727952  39.26 0.0002015049    1.633    0.387
        23  -8.7614     41.1293      5.9117   6.8556134466e+01   6.8862896132e+01    0.3361082    0.1843303  -7.98  0.001347738    1.940    0.485
        24  -7.2806    156.3039      7.3081   3.9820794332e+01   4.4431120344e+01    0.1317673   0.08769614  41.35 0.0002155145    1.605    0.377
        25  -8.3194    119.6970      6.0427   4.5285034982e+01   5.3243187581e+01    0.2504963    0.1686384   8.50   0.00136743    1.768    0.434
        26  -9.1675     46.5572      6.1086   6.6331329087e+01   6.8004971905e+01    0.2362524    0.1857865   4.19 0.0004171506    1.061    0.057
        27  -7.8502    131.6369      5.7733   4.3062904634e+01   5.0463560849e+01    0.1702925    0.1158382 -34.98 0.0009472363    1.650    0.394
        28  -8.4855     92.1526      5.3637   5.1051775419e+01   5.9467512331e+01    0.3752933    0.1470311  38.87  0.001615805    2.413    0.586
        29  -9.6374     84.8297      5.4518   5.3007211996e+01   6.1001961486e+01    0.2314187     0.199089  -5.82  0.001524851    1.230    0.187
        30  -8.8221    109.9693      1.5297   4.5552594420e+01   5.5834924701e+01    0.2696595    0.1683107  65.67  0.001472857    1.487    0.328
        31  -8.3409    125.3870      3.7328   4.3448947768e+01   5.2102326637e+01    0.2333574    0.1892703  39.98 0.0006380546    1.169    0.145
        32  -9.0953     57.8834      3.2367   6.0497987643e+01   6.6392961087e+01    0.2604623    0.1780569   9.14 0.0005637687    1.337    0.252
        33  -7.3108    143.2897      2.3054   4.0137224047e+01   4.7973941727e+01    0.1304082   0.08478669  40.98 0.0002960027    1.572    0.364
        34  -8.0888    104.8876      1.8663   4.6726516298e+01   5.6955457185e+01    0.2141936    0.1410891  38.52  0.001217407    1.359    0.264
        35  -8.8093    159.7474      1.3741   3.7666411139e+01   4.4115845744e+01    0.2162222    0.1048075  68.52 0.0002008708    1.758    0.431
        36  -7.9405    133.8991    106.4656   7.4410098496e+01   3.4509072787e+01    0.3224919     0.204557 -25.60  0.001169315    1.926    0.481
        37  -9.2566    215.1633    248.1488   8.5916808547e+01  -7.1498731733e+00    0.2900396     0.239702  69.82  0.001744347    2.599    0.615
        38  -9.3612    199.0157    249.7333   8.9188741427e+01  -5.1268746537e+00    0.1960791    0.1646162 -46.94  0.001318234    1.690    0.408
        39  -7.8272    124.2583    106.9263   7.7118911181e+01   3.6449564911e+01    0.2654828    0.1808226 -13.96  0.001070155    2.068    0.516
        40  -7.8939    109.7439    106.3769   8.1070095107e+01   3.9495641189e+01    0.2153077    0.1463147  28.41 0.0005675741    1.637    0.389
        41  -8.9741     14.6380    105.3623   1.1160129146e+02   5.2276695214e+01    0.3647422    0.1349488 -38.75  0.001468272    3.050    0.672
        42  -7.8009     93.9081    103.6559   8.5090135152e+01   4.3059358549e+01    0.2407143    0.1884364   4.88  0.001158314    1.511    0.338
        43  -8.0521     66.5012    104.5422   9.4122389371e+01   4.7194377082e+01    0.1455136     0.130794 -40.34 0.0002050625    1.015    0.015
        44  -8.2659    249.5023    102.9962   5.1183361702e+01   1.0376726713e+01    0.1903728    0.1100499 -16.38 0.0008106866    2.605    0.616
        45  -8.3541    240.0000     96.0055   5.0933248922e+01   1.3313115493e+01    0.2345792   0.06818631 -36.81 0.0008086474    2.986    0.665
        46  -9.9700     12.2928     94.0832   1.1050611552e+02   5.5107485682e+01    0.4103316    0.2671902 -21.98  0.001845815    1.745    0.427
        47  -8.5124     43.6808     91.9737   9.8935978004e+01   5.2966559228e+01    0.2986172    0.1914848  -5.63  0.001457805    2.007    0.502
        48  -8.0183    109.2708     90.8495   7.6800236104e+01   4.2968996141e+01    0.2956183    0.1980152  12.44   0.00121906    2.099    0.524
        49  -9.4394     97.8118     88.4223   7.9550049871e+01   4.5710751452e+01    0.4551701    0.2863359 -24.52 0.0007752089    1.925    0.481
        50  -8.1178    249.5006     90.5248   4.8462006964e+01   1.2359354975e+01    0.1319738    0.1130172 -41.35 0.0006469344    1.038    0.037
        51 -10.3255     37.2256     81.1808   9.8650724698e+01   5.6106351038e+01    0.6970179    0.3593026  -9.39  0.002826287    3.146    0.682
        52  -8.6118     20.9178     84.5952   1.0556929613e+02   5.6732571969e+01    0.2187616    0.1411059 -49.17 0.0004067056    1.250    0.200
        53  -7.4724    125.8039     83.8354   7.0032005994e+01   4.0912742007e+01    0.2740231    0.1716755   5.47 0.0009598141    2.992    0.666
        54  -8.5605     66.1304     84.0241   8.8809015998e+01   5.1954026883e+01    0.2282637    0.1989058   6.85 0.0003298087    1.180    0.152
        55  -8.6304     88.2939     78.6705   7.9606199081e+01   4.9495150160e+01    0.4324088    0.2859231   8.81  0.001888411    2.048    0.512
        56  -8.8786     48.4109     77.7417   9.3498951152e+01   5.5658937297e+01     0.478803    0.2473397 -21.59  0.001902852    2.859    0.650
        57  -9.7550      7.9964     77.2598   1.0891323957e+02   5.9238943033e+01    0.5389608    0.2515389 -32.08  0.001964947    2.194    0.544
        58  -7.8514    184.3304     78.0469   5.5318106523e+01   2.8379992868e+01    0.2117328    0.1767781 -40.33   0.00052687    1.161    0.139
        59  -8.8180     23.5146     74.0428   1.0216004974e+02   5.8921374656e+01    0.3559737    0.1895994 -56.43  0.001168985    1.559    0.359
        60  -9.6056     26.6527     70.6831   1.0006029406e+02   5.9404724691e+01    0.6371464    0.2606397 -23.20  0.002207528    4.316    0.768
        61  -8.0162     23.4908     69.4811   1.0102125650e+02   5.9926102302e+01    0.1966488     0.165985  79.01 0.0005845308    1.636    0.389
        62  -7.2125    109.6682     75.6879   7.2018994640e+01   4.5935919410e+01     0.156075    0.1152894   5.00 0.0007043962    1.676    0.403
        63  -7.8614     74.9436     74.2753   8.2744287699e+01   5.2676972144e+01    0.1996252    0.1718186  13.08 0.0004154278    1.162    0.139
        64  -8.2223     48.9745     71.0178   9.1327174579e+01   5.7040154952e+01    0.2406986    0.1789098  19.91  0.001348586    1.435    0.303
        65  -8.2073    105.3919     68.2074   7.0848949683e+01   4.8219864560e+01    0.5313429    0.3195858   1.40  0.001902735    3.151    0.683
        66  -7.2487     79.9938     70.7378   7.9847942685e+01   5.2547631213e+01    0.1692074    0.1222547  33.03 0.0002837303    1.415    0.293
        67  -7.6920    129.9545     68.5281   6.4196763633e+01   4.2811041171e+01    0.2256981     0.118582  30.78 0.0008097609    2.624    0.619
        68  -8.9294     83.6840     64.2266   7.6404829738e+01   5.3152045605e+01    0.4213497    0.2548921  17.20  0.001815688    2.168    0.539
        69  -8.9718     18.2020     62.1122   1.0126718014e+02   6.1913282494e+01    0.4723063    0.1901883 -26.92  0.001916719    3.192    0.687
        70  -9.5070     62.1669     61.4234   8.3168560545e+01   5.7213012672e+01    0.4925663    0.2660295  21.28  0.001457294    2.198    0.545
        71  -8.8063     27.0429     60.0000   9.6928351226e+01   6.1644732122e+01    0.2363993    0.1400112   0.73 0.0007540787    1.963    0.491
        72  -7.4766    121.6681     61.6853   6.4123523808e+01   4.5852050588e+01    0.1545983    0.1117305  15.68 0.0007045823    1.682    0.406
        73  -8.6746     11.6897     60.8860   1.0370470290e+02   6.2615080784e+01    0.2094967    0.1515731 -70.64 0.0009692833    1.533    0.348
        74  -9.4428     37.3867     58.7857   9.2195712155e+01   6.0886293026e+01     0.371107    0.2096506 -10.24  0.001367553    2.288    0.563
        75  -7.5902    111.1889     57.8942   6.5696575567e+01   4.8790084751e+01     0.204066    0.1626876  17.54  0.000489037    1.318    0.241
        76  -8.0236     17.3021     57.3025   1.0033120835e+02   6.2988012412e+01    0.1317088   0.07360161 -32.58 0.0001909275    1.590    0.371
        77  -9.1242     99.7325     55.1861   6.8092462178e+01   5.1650880140e+01    0.3349483    0.2435444 -25.24 0.0008161719    1.388    0.280
        78  -9.8780     74.9891     50.3014   7.4450722565e+01   5.7168508775e+01    0.4593338    0.3081502  -1.98 0.0003530519    1.770    0.435
        79  -9.1649     44.3444     49.3866   8.6070298235e+01   6.1906473718e+01    0.5332865    0.3092104  -4.90   0.00252048    2.249    0.555
        80  -7.0990    163.6556     51.6421   5.1690812385e+01   3.7480135114e+01    0.1527854    0.1077443  25.35 0.0007034622    1.833    0.454
        81  -8.0929    118.5023     50.8268   6.1303639877e+01   4.8294747919e+01    0.2586811    0.1949205  49.01 0.0008611733    1.279    0.218
        82  -8.6119    106.2484     49.0180   6.3993998158e+01   5.1265333093e+01    0.4571443    0.2601716  14.23  0.001559033    3.033    0.670
        83  -9.0574     55.6964     43.4267   7.9141807611e+01   6.1427881147e+01    0.6087515     0.268018 -23.09  0.002206559    3.534    0.717
        84  -8.8530     10.5637     47.2473   1.0043253074e+02   6.5496571999e+01    0.2514116    0.1907738 -44.44 0.0008834378    1.115    0.103
        85  -9.1313     13.5255     45.5314   9.8529951194e+01   6.5634801131e+01    0.2446361    0.1829542 -26.44 0.0008500922    1.110    0.099
        86  -8.8756      3.9521     45.3444   1.0295463419e+02   6.6270678292e+01    0.3454322     0.280674  46.16  0.002354366    1.785    0.440
        87  -8.8900      3.6872     40.4560   1.0163498415e+02   6.7248468440e+01    0.3254668    0.0927164 -57.76  0.001378755    2.919    0.657
        88  -9.5911      6.2468     34.3161   9.8389972668e+01   6.8265308387e+01    0.3421843    0.2753479 -21.04  0.002186737    1.124    0.110
        89  -7.8022      2.7083     31.7167   9.9305027598e+01   6.8962558704e+01    0.1569384   0.08966679 -39.96 0.0001828767    1.306    0.234
        90  -8.9778      1.3238     29.2968   9.9190197603e+01   6.9487177896e+01    0.2361668   0.09605967 -43.42 0.0008490928    1.778    0.438
        91  -8.9771     93.6211     42.9425   6.5496809016e+01   5.4814542338e+01    0.6630846    0.2406481  38.49  0.002382123    2.952    0.661
        92 -11.0087     83.1931     40.1583   6.7756774412e+01   5.7279325156e+01    0.4622046    0.3044878  13.70            0    1.738    0.425
        93  -7.4334    172.1261     49.8561   4.9686936048e+01   3.5683055992e+01    0.1789396    0.1592097  30.87            0    1.249    0.199
        94  -7.5129     32.9609     43.0000   8.8707514282e+01   6.4391697454e+01    0.1920265   0.06815153  27.27 0.0008082931    2.983    0.665
        95  -7.9010    122.9007     40.8547   5.6784213474e+01   4.8721254535e+01    0.2887836    0.1738862   8.14  0.001176152    2.608    0.617
        96  -8.9581     18.1990     39.5508   9.4330710181e+01   6.6422286103e+01    0.2210473    0.1872083 -23.32  0.001539603    1.135    0.119
        97  -9.4860     19.5917     36.0718   9.2406396695e+01   6.6943434976e+01    0.5621243    0.2157841  30.51  0.002681332    2.878    0.653
        98  -9.2359     21.8861     32.0621   8.9759715059e+01   6.7447179236e+01    0.3648298    0.2034401  20.20 0.0002853457    1.847    0.459
        99  -8.3961    105.5602     37.2555   5.9923070720e+01   5.3100468577e+01    0.3214227     0.200077  18.01  0.001464387    2.035    0.509
       100  -9.1322     67.5647     37.7890   7.2301869287e+01   6.0454040625e+01    0.3782255    0.2006202 -31.31  0.001831257    1.836    0.455
       101  -8.8614     71.2503     35.3938   6.9983577788e+01   6.0172930734e+01    0.3834758     0.147424  43.56  0.001579768    2.549    0.608
       102  -8.5949     35.5554     37.7812   8.5553699060e+01   6.5031766660e+01    0.2400575    0.1639545 -38.97 0.0008186212    1.347    0.258
       103  -8.8172     38.9424     35.4811   8.3111214596e+01   6.5020417912e+01    0.2950911    0.1979392  14.39 0.0007899054    1.457    0.314
       104  -8.2241     92.6483     36.7595   6.3444578481e+01   5.5894775706e+01     0.368394    0.1743467  36.95  0.001043672    2.132    0.531
       105  -8.7809     96.3470     32.9499   6.0885237985e+01   5.5637706079e+01     0.290231    0.2093718  15.23 0.0003235227    1.463    0.316
       106  -9.0363     55.7688     35.5692   7.5968573066e+01   6.2692841662e+01     0.276039    0.1531053 -33.17  0.001056139    1.695    0.410
       107  -8.3548    158.9993     34.9397   4.7582608144e+01   4.0848647163e+01    0.2008338    0.1865237  76.23  0.001198439    1.024    0.024
       108  -7.1399     46.3208     35.2914   7.9793373119e+01   6.4097464028e+01    0.1319921   0.08574451  -5.51 0.0002193729    1.606    0.377
       109  -7.5313    133.5924     31.5338   5.1256319413e+01   4.7396499735e+01    0.1362651    0.1261741  44.73 8.979416e-05    1.018    0.017
       110  -7.0504     92.6655     31.2844   6.1316660189e+01   5.6618577994e+01    0.1245252    0.1090205 -83.65 0.0003852786    1.621    0.383
       111  -9.1339     42.2543     27.7904   7.8404062696e+01   6.5820533265e+01    0.3085547    0.2006647  -5.68 0.0006609495    1.527    0.345
       112  -8.9154    194.5834    249.2326   8.9955718934e+01  -4.4282138197e+00    0.1633437    0.1050102 -21.91 0.0008514093    1.687    0.407
       113  -7.2256    144.4703     27.5224   4.7854156573e+01   4.5253205434e+01    0.1384655    0.1225889  47.24 -2.582446e-05    1.081    0.075
       114  -7.9869    109.6447     26.6550   5.4947969541e+01   5.3516742728e+01    0.2142865    0.1399343  27.67 0.0006489416    1.623    0.384
       115  -9.1821    189.0192    249.5023   9.1063111351e+01  -3.6678323387e+00    0.1922124    0.1011438  33.52  0.001034518    1.595    0.373
       116  -9.0524     69.8527     26.1725   6.6641823108e+01   6.1692802019e+01    0.2435193    0.1937836  14.61 0.0007604202    1.092    0.084
       117  -9.0251     61.6978     26.9080   6.9969974382e+01   6.3010402360e+01    0.2953618     0.174109  14.97  0.001032755    1.936    0.483
       118  -8.9628    179.2572    249.6077   9.2967870129e+01  -2.2628975925e+00      0.17843    0.0981208  26.91 0.0009499468    1.614    0.380
       119  -7.6756    102.3209     25.3015   5.6305987287e+01   5.5292112285e+01    0.1422671   0.09172225  26.58 0.0004040989    1.627    0.386
       120  -7.9904    128.8976     22.4514   4.9161982481e+01   4.9536274687e+01    0.2445791    0.2040744  39.53  0.001379969    1.132    0.117
       121  -8.4586    232.1582     21.3641   3.5195506790e+01   2.5496051119e+01    0.1807721    0.1561243 -38.71  0.000516841    1.281    0.219
       122  -9.0701     92.5100     20.4094   5.7052809365e+01   5.7941393286e+01    0.2997731     0.216953   5.95 0.0009758543    1.448    0.309
       123  -8.7112    163.8605    249.6865   9.5997781559e+01   3.8665710318e-03    0.2578414   0.09677169  30.67  0.001082506    2.574    0.612
       124  -8.9714     14.0452     17.9997   8.7912791822e+01   7.0491563108e+01    0.3619961    0.1673392   9.92  0.000961876    2.497    0.600
       125  -8.2389    140.1865     19.9912   4.6221191398e+01   4.7100619450e+01    0.1978645    0.1761625  48.87 0.0005506171    1.060    0.057
       126  -7.4222    146.9303     19.0230   4.4761820545e+01   4.5574843821e+01    0.1609831    0.1381072  64.62   0.00039546    1.050    0.048
       127  -8.8611    244.1462     16.2647   3.3166829178e+01   2.3593452160e+01    0.1824516    0.1487413 -39.40 0.0005520135    1.312    0.238
       128  -7.9818    127.6561     16.9168   4.7525091458e+01   5.0396140575e+01    0.1746957    0.1633665  29.60 0.0003770403    1.094    0.086
       129  -8.8877     94.6402    246.2980   1.0939959415e+02   1.0792622379e+01    0.2189661    0.1696061  75.47 0.0007237933    1.345    0.256
       130  -7.4112    189.5147     15.5378   3.7991568594e+01   3.5708463527e+01    0.1289894    0.1118849 -85.62 0.0008092071    1.020    0.019
       131  -8.1510    120.6237     14.9829   4.8253039289e+01   5.2231874827e+01    0.1790719    0.1662358  27.36 0.0004847066    1.093    0.085
       132  -6.9985    146.7028     14.3054   4.3334850244e+01   4.6097206502e+01    0.1312348   0.09576085 -69.52 0.0007002255    1.586    0.370
       133  -8.3355    173.3256    243.9939   9.3305037353e+01  -5.3980670965e-01    0.1728378    0.1068539 -70.94 0.0007050957    4.326    0.769
       134  -8.9820    206.8605    242.0311   8.6493413430e+01  -5.1664711677e+00    0.1968486    0.1455323  20.90 0.0003701576    1.120    0.107
       135  -8.4057    245.0813    236.4700   7.8606974821e+01  -9.5646436346e+00    0.1653992    0.0977213  26.02 0.0003825795    1.512    0.339
       136  -9.3558    188.2205    233.5716   8.8738771241e+01  -1.1857313193e+00    0.2904924    0.1831293 -34.67  0.001603786    1.698    0.411
       137  -8.7952    205.3818    224.3263   8.3829613659e+01  -2.3617317021e+00    0.2364295    0.2238864 -69.09 0.0007950259    1.630    0.386
       138 -10.3724    225.5191    218.2126   7.8935010727e+01  -4.4166034295e+00    0.2252898    0.1948162  10.87 0.0002863899    1.200    0.167
       139  -8.8778    195.0236    214.2197   8.4102932436e+01   8.4549299607e-01     0.202831    0.1713971 -14.90 0.0002923346    1.138    0.122
       140  -7.3619    105.3262     13.6847   5.1126898490e+01   5.5845347754e+01    0.1251403    0.1011501 -72.17  0.000704376    1.670    0.401
       141  -7.8331    217.6794    206.9532   7.8349689117e+01  -1.5350391110e+00    0.1787498    0.1465464 -15.12 0.0004545785    1.110    0.099
       142  -8.2117     87.9069     13.0912   5.5359132372e+01   5.9661749143e+01    0.2299216    0.1655292  47.34 0.0009214559    1.245    0.197
       143  -8.2326     11.6833    207.3292   1.2270746796e+02   2.8564481279e+01    0.1254522    0.0663674  66.08 0.0007046126    1.681    0.405
       144 -10.2496    162.9070    204.1387   8.9025895565e+01   7.9585902250e+00    0.2473365     0.236116  -8.04 0.0003352089    1.100    0.091
       145  -8.2348    115.0266    201.2280   9.9314055328e+01   1.6629348815e+01     0.190702    0.1773539  19.06 0.0003423898    1.141    0.123
       146  -6.9536    139.2556    199.2551   9.3439884731e+01   1.2985217100e+01    0.1298888    0.1058504  -2.49 0.0006774401    1.430    0.301
       147  -7.6724    132.8227    199.1861   9.4895824315e+01   1.4098142401e+01    0.1775159    0.1562309  -2.71            0    1.256    0.204
       148  -8.7529    184.9812    189.2002   8.1508957931e+01   6.9184452273e+00      0.21233    0.1900937 -19.88 0.0002663737    1.096    0.088
       149  -7.3729    223.0706    187.9785   7.3688223043e+01   6.8263672247e-01    0.1546901    0.1296044 -10.77            0    1.023    0.023
       150  -7.3485    112.6280    178.2151   9.6123644814e+01   2.2115013444e+01    0.1947982    0.1309468 -44.28 0.0003380337    1.577    0.366
       151  -7.6618    152.0018    164.5237   8.3869235356e+01   1.8005962837e+01    0.2202865    0.1316993  15.90 0.0008096618    2.608    0.617
       152  -7.7756    133.4057    147.8129   8.4817011617e+01   2.5339681452e+01     0.232801    0.1408697 -37.89 0.0009592148    1.753    0.430
       153  -7.0976     99.3415    145.6988   9.3424396317e+01   3.2082044941e+01    0.1548239    0.1165765  73.52  0.000281268    1.673    0.402
       154  -8.6595     67.1310    144.3316   1.0220133914e+02   3.7328721775e+01    0.4462178    0.2610638  58.02  0.001945374    2.142    0.533
       155  -7.8367     55.0631    135.4452   1.0412331430e+02   4.1083586603e+01    0.1919309    0.1194049 -11.72  0.000808054    2.622    0.619
       156  -8.4676    194.6433    133.2616   6.7338659366e+01   1.5870772118e+01    0.3253098    0.2118268  10.07  0.001307031    2.406    0.584
       157  -8.1402     67.4022    127.8274   9.9005689140e+01   4.1398257979e+01    0.2168898    0.1188884 -49.00   0.00080361    1.685    0.407
       158  -7.5961    153.5074    124.4711   7.4227123138e+01   2.6412961426e+01    0.1562528    0.1512026 -21.59 0.0008099304    1.005    0.005
       159  -7.9358    132.2482    124.6247   7.9618890208e+01   3.0858968595e+01    0.2187717    0.1485139  30.81 0.0009383958    1.620    0.383
       160  -9.3100     13.7694    119.4876   1.1396230284e+02   4.8923824606e+01    0.3888414    0.1459307 -33.39  0.001396108    4.274    0.766
       161  -7.7304    118.9926    118.8524   8.1732602340e+01   3.4847661455e+01    0.2564984    0.1789769  12.00  0.001064638    1.972    0.493
       162  -7.9901    100.8475    118.6482   8.6870785710e+01   3.8331251449e+01    0.2990968    0.1468155  28.49  0.001077922    2.551    0.608
       163  -8.4319      1.6680    110.4848   1.1645450792e+02   5.1824642394e+01    0.2563429   0.08682425 -50.61  0.001137617    2.391    0.582
