#   1 NUMBER                 Running object number                                     
#   2 MAG_AUTO               Kron-like elliptical aperture magnitude                    [mag]
#   3 X_IMAGE                Object position along x                                    [pixel]
#   4 Y_IMAGE                Object position along y                                    [pixel]
#   5 X_WORLD                Barycenter position along world x axis                     [deg]
#   6 Y_WORLD                Barycenter position along world y axis                     [deg]
#   7 A_WORLD                Profile RMS along major axis (world units)                 [deg]
#   8 B_WORLD                Profile RMS along minor axis (world units)                 [deg]
#   9 THETA_WORLD            Position angle (CCW/world-x)                               [deg]
#  10 FWHM_WORLD             FWHM assuming a gaussian core                              [deg]
#  11 ELONGATION             A_IMAGE/B_IMAGE                                           
#  12 ELLIPTICITY            1 - B_IMAGE/A_IMAGE                                       
         1 -14.1700    204.8762     22.8678   5.8174771860e+01   3.1145899201e+01      2.25227      1.37615  29.11   0.01009085    3.017    0.669
         2 -10.8910      2.1112      3.9126   1.1003482500e+02   7.4919009817e+01    0.3483878    0.1405955 -41.96  0.001970544    2.050    0.512
         3 -10.0595    229.2101      1.4231   5.1253014894e+01   2.7880954568e+01    0.3400534   0.09847778  74.48  0.001411479    3.038    0.671
         4  -9.7214    249.3373    247.6737   9.9520889656e+01  -1.1874400230e+01   0.09506394   0.08735753  27.77 0.0007051605    1.724    0.420
         5 -12.7738    165.1350    249.4072   1.1546251062e+02  -6.9763845885e-02     1.288933    0.2337082  35.56  0.003613902    5.579    0.821
         6 -12.5915    140.9021    249.0492   1.2027272108e+02   3.8050327509e+00    0.7597533    0.3235792  40.34  0.003610604    1.871    0.466
         7 -12.8643    126.1397    246.9311   1.2300725521e+02   6.4879253763e+00    0.5943185    0.5575775  82.30  0.004153675    1.239    0.193
         8 -11.4396     90.3752    246.3776   1.3020786393e+02   1.2042633909e+01    0.2725811    0.1877658  67.12  0.001309411    1.401    0.286
         9 -12.1167    105.6978    242.8997   1.2672948029e+02   1.0381745196e+01    0.5237857    0.2934607 -70.94  0.002177686    2.266    0.559
        10 -11.5769    101.6226    245.0364   1.2779381792e+02   1.0613445482e+01    0.5564237    0.2210741 -58.97  0.002582659    2.935    0.659
        11 -10.7702     87.1729    249.8640   1.3118037932e+02   1.1871474336e+01    0.2304257    0.1343279  47.85  0.001286315    1.348    0.258
        12 -10.0928     63.1034    250.3822   1.3592885970e+02   1.5110491202e+01    0.2031471    0.1220197  39.60 0.0006415765    1.473    0.321
        13 -12.8306     23.0546    194.1722   1.3988014872e+02   3.1566638583e+01    0.8774144    0.5000422 -60.11 0.0005184556    1.855    0.461
        14 -14.7171     34.7615    246.7016   1.4103029794e+02   1.9337107494e+01      11.6822     3.999741  25.29   0.03439029    8.588    0.884
        15 -12.2729     95.4701    247.4883   1.2929241100e+02   1.1089447870e+01    0.5359073    0.2877151  50.46   0.00291013    1.543    0.352
        16 -11.0490    224.4541    198.3653   9.5353266516e+01  -1.6576096506e+00    0.3092135    0.2289859 -51.15 0.0009975682    1.810    0.448
        17 -10.1521    192.9113    194.8704   1.0084453477e+02   4.2896746883e+00    0.8479099    0.4068097 -61.72  0.001876407   10.512    0.905
        18 -11.8204     62.8010    191.0561   1.3038665987e+02   2.7569349070e+01    0.4027424    0.3330345 -37.66  0.001873446    1.612    0.380
        19 -11.7834     68.6065    184.0705   1.2812238966e+02   2.8397647775e+01    0.2922823    0.2584107 -45.78 0.0007684514    1.372    0.271
        20 -11.1020     78.2223    172.7258   1.2411442546e+02   2.9698600328e+01    0.2651635    0.2423098 -65.76 0.0004232923    1.156    0.135
        21 -13.2822     65.3723    169.7939   1.2704559924e+02   3.2276681648e+01    0.5330467    0.2910303 -45.68  0.001831478    2.230    0.551
        22 -12.0677     53.9584    118.1173   1.2183152356e+02   4.6642492890e+01     1.612734    0.3810221 -66.79  0.003549934    7.512    0.867
        23 -12.2370     85.3572    164.5964   1.2095553824e+02   3.0560564362e+01     1.019412    0.5705053  54.13  0.004397819    1.905    0.475
        24 -13.2924     67.5027    144.5330   1.2254017734e+02   3.8236667455e+01     1.397493    0.7858223  81.36  0.002921711    2.803    0.643
        25 -12.1513     57.2860    130.8125   1.2317221191e+02   4.3059625399e+01     0.680487    0.3300017 -73.40  0.002708806    2.342    0.573
        26 -12.8699     36.4817    222.9226   1.3914436573e+02   2.3859150963e+01    0.3860336    0.3538574  33.51   0.00086354    1.456    0.313
        27 -14.8670     43.9216    213.2799   1.3685391191e+02   2.5015858163e+01     1.942164     1.558668  43.78  0.008189085    1.292    0.226
        28  -9.9151     98.7959    148.8643   1.1442146768e+02   3.2145603009e+01    0.3120328    0.2787992 -30.33 0.0008379405    1.275    0.216
        29  -9.4103    101.5280    145.1974   1.1291793393e+02   3.2551352396e+01    0.2683241    0.2085706 -21.47 0.0008386754    1.690    0.408
        30 -12.0249     87.0339    147.9116   1.1754254135e+02   3.4394643204e+01    0.2975059    0.2613748 -44.19 0.0004391584    1.223    0.183
        31 -10.3937     46.8087    231.4856   1.3768911680e+02   2.0864151822e+01    0.2119787    0.1754247  71.73   0.00044955    1.105    0.095
        32 -10.5624     97.2202    131.9322   1.1131681652e+02   3.6573080898e+01    0.3069134    0.2422431 -31.16  0.000497672    1.465    0.318
        33  -9.5470     44.3172    130.3371   1.2708279406e+02   4.4734976555e+01    0.1432399   0.09547463 -39.11 0.0004722101    1.701    0.412
        34  -9.6540    109.7386    135.2547   1.0846098336e+02   3.3424189871e+01    0.3024051    0.2208453 -13.95  0.000859103    2.017    0.504
        35  -9.3742    106.9927    122.5059   1.0625558076e+02   3.7008519723e+01    0.2172651    0.2029577 -55.51  0.001129155    1.059    0.056
        36 -10.6482    167.7443    112.8909   8.8019263829e+01   2.5730540001e+01    0.3859979    0.3015406 -79.58 0.0009767856    1.605    0.377
        37  -9.3119     40.6399    114.3042   1.2548644086e+02   4.9109506680e+01     0.140272   0.09795234  67.74 0.0007038683    1.726    0.421
        38  -9.6562    204.7414    110.9190   8.0113168001e+01   1.7585067872e+01    0.3804208    0.1808868  36.83   0.00134449    3.002    0.667
        39 -10.7985     42.3254    231.3717   1.3857528861e+02   2.1435880495e+01    0.2361787    0.1595637  65.96 0.0007065072    1.190    0.159
        40 -15.8807      9.2320    207.1912   1.4366510514e+02   3.0057010645e+01     9.977669      1.57209 -76.32   0.02146914    5.198    0.808
        41 -10.9073      1.7874     89.6797   1.3482097398e+02   5.7957652585e+01    0.3498316    0.1254612 -67.76  0.001608472    2.136    0.532
        42  -9.2965    158.3047     78.3217   8.0609671742e+01   3.4691073556e+01    0.1548206    0.1220532  18.09 0.0005740334    1.636    0.389
        43 -14.2783      8.5300    244.4729   1.4565145305e+02   2.2610743446e+01     1.846159     1.339652 -72.60   0.01374807    1.592    0.372
        44  -9.3626    131.4916     39.5315   7.4353910459e+01   4.7512027278e+01    0.1443243    0.1321284  57.23 3.877183e-05    1.008    0.008
        45 -11.7033    149.8660    229.0599   1.1569232797e+02   5.7370874648e+00    0.4186236    0.2238327  32.24  0.002010167    1.729    0.422
        46 -10.3518    189.6585     15.3831   5.7912649877e+01   3.5684284985e+01    0.2126262     0.132307 -67.87 0.0008191071    1.605    0.377
        47 -11.9793     55.3278    239.5160   1.3660583507e+02   1.8193795108e+01      0.49176    0.2591802 -84.93  0.001090132    2.017    0.504
