#   1 NUMBER                 Running object number                                     
#   2 MAG_AUTO               Kron-like elliptical aperture magnitude                    [mag]
#   3 X_IMAGE                Object position along x                                    [pixel]
#   4 Y_IMAGE                Object position along y                                    [pixel]
#   5 X_WORLD                Barycenter position along world x axis                     [deg]
#   6 Y_WORLD                Barycenter position along world y axis                     [deg]
#   7 A_WORLD                Profile RMS along major axis (world units)                 [deg]
#   8 B_WORLD                Profile RMS along minor axis (world units)                 [deg]
#   9 THETA_WORLD            Position angle (CCW/world-x)                               [deg]
#  10 FWHM_WORLD             FWHM assuming a gaussian core                              [deg]
#  11 ELONGATION             A_IMAGE/B_IMAGE                                           
#  12 ELLIPTICITY            1 - B_IMAGE/A_IMAGE                                       
         1 -13.7484    173.3321     42.8892   3.1603701888e+01   3.6077640279e+01     3.779644     1.525938  41.29   0.01279359    3.029    0.670
         2 -13.6610    142.9229     58.7075   4.2858803042e+01   4.1170535710e+01     1.770539     1.503743  -1.87  0.009251428    1.263    0.208
         3 -12.9979    131.1447     45.5415   4.1332625884e+01   4.5975278514e+01     1.374494     1.076231  82.67  0.005684501    1.709    0.415
         4 -13.6641    159.6710     38.4826   3.2792672823e+01   4.0122280143e+01     1.284011    0.7046841  48.78  0.003182868    1.726    0.421
         5 -12.4612     76.0406     23.5563   4.8716295015e+01   6.0205169846e+01     1.180529    0.6200106  34.33  0.004634018    1.930    0.482
         6 -10.5642     46.7228     19.9594   5.7824170548e+01   6.5058742892e+01     1.522348    0.5214757  36.42  0.006849101    3.153    0.683
         7 -13.0457     58.4619     61.6939   6.8224051288e+01   5.6280535377e+01     1.849753    0.9815586 -69.76  0.006711023    4.318    0.768
         8 -14.1744      4.0007     54.4220   8.5384220673e+01   6.2550896623e+01     3.276486    0.9374854 -60.24   0.01555689    2.422    0.587
         9 -15.1453     39.5658     72.7904   7.7468755153e+01   5.6126673630e+01      1.99499     1.543645 -77.47   0.01051838    1.479    0.324
        10 -14.1612      8.9674     67.1980   8.6311077938e+01   5.9676214971e+01     2.244975    0.9489022 -31.69   0.01100602    2.991    0.666
        11 -13.1564     26.4839     36.0482   7.1911816424e+01   6.4525248999e+01    0.7838178    0.2555707 -44.07 0.0007521948    2.349    0.574
        12 -12.3706     42.4663     28.1575   6.2769508106e+01   6.4282690232e+01     1.668073    0.6085811  34.61  0.007765115    3.044    0.672
        13 -13.9490     52.1177     45.1157   6.5207998084e+01   6.0206983493e+01     1.467721    0.7421944 -18.67  0.005990813    3.360    0.702
        14 -14.1154     78.8595     42.2550   5.4983730519e+01   5.6876277434e+01      1.09369    0.9028225 -35.08  0.004120573    1.193    0.162
        15 -13.6544     59.6378     35.5585   5.9107264674e+01   6.0891102353e+01     1.161312    0.7292454  30.12  0.002772711    1.695    0.410
        16 -13.2711     12.0237     40.1125   7.8862024433e+01   6.4866718677e+01    0.7996437    0.2841353 -49.33  0.004159158    1.981    0.495
        17 -12.5438     18.0018     33.5134   7.4504879722e+01   6.5671410912e+01    0.7721186    0.2310189 -47.66  0.002378394    2.381    0.580
        18 -13.7124    200.2472     50.6624   2.9312432014e+01   2.8155129134e+01     1.611736    0.5022553 -43.95   0.00304479    3.449    0.710
        19 -13.5705    153.4980     59.9723   4.0861969714e+01   3.8443671892e+01     1.201586    0.6226145 -24.57  0.002408799    2.270    0.560
        20 -13.5590     80.7265     59.3342   6.0218504189e+01   5.3550421875e+01     1.728345     1.035457 -25.03  0.008191776    1.914    0.478
        21 -14.5280    206.5748     61.0005   3.1150326841e+01   2.5061223889e+01     2.997262     1.505514  69.62   0.01158129    2.397    0.583
        22 -11.2147    149.0214     25.3471   3.0575869280e+01   4.4436592353e+01    0.5220785    0.4699439  22.45  0.001939477    1.108    0.097
        23 -11.2763    136.0510     22.5446   3.2249355640e+01   4.7909365262e+01    0.4783753    0.2402617  60.89  0.002060773    1.977    0.494
        24 -11.0201     30.7121     19.4575   6.4152965548e+01   6.6956498261e+01    0.3181892    0.2513325 -36.65  0.002262151    1.250    0.200
        25 -10.1171     64.5767      8.3575   4.6099055989e+01   6.4059766646e+01    0.2891575    0.2105278 -36.39  0.001789584    1.576    0.366
        26 -11.3224     61.5073     14.7465   5.0018336857e+01   6.3734857891e+01    0.4720634    0.3143269 -47.98  0.002638576    2.107    0.525
        27 -11.3689     65.6012     13.7613   4.8135697346e+01   6.3226047997e+01    0.3054736    0.2515128 -50.02   0.00192203    1.751    0.429
        28 -11.2463     71.4712     15.9559   4.7068643445e+01   6.1988986574e+01    0.3269383    0.2675071  -2.27  0.001162623    1.032    0.031
        29 -10.6751    138.8470     16.3704   2.9512792978e+01   4.7932117923e+01     0.441126    0.2671589  87.88 0.0009394519    2.592    0.614
        30 -10.7472    150.3198     12.7585   2.6122034184e+01   4.5506068746e+01     0.267609    0.1870819 -63.83 0.0001455456    1.833    0.455
        31 -10.9571    147.6014     10.7794   2.5940426543e+01   4.6376035799e+01    0.2551712    0.2259226 -80.05 0.0005935033    1.278    0.217
        32 -11.2627    123.2549     13.1354   3.1619473027e+01   5.1941803322e+01    0.2222093     0.211055  -9.57 0.0002776274    1.140    0.123
        33 -14.5888    191.7611     69.6710   3.6076738010e+01   2.7406860133e+01     3.783211     1.519214 -40.68   0.01357958    2.458    0.593
        34 -11.2989     88.9631     12.0542   3.9921750101e+01   5.9319959491e+01    0.2201846    0.1809523  10.58 0.0004056536    1.064    0.060
        35 -10.3644     85.5575      9.5262   3.9854294098e+01   6.0251962789e+01    0.2882563    0.1133085 -29.79 0.0009083436    2.469    0.595
        36 -10.0582    173.8880     11.8292   2.2030056572e+01   3.9668384660e+01    0.2201351    0.1682568  41.11  0.001183469    1.327    0.247
        37 -10.9106    139.9283     11.1660   2.7486519810e+01   4.8210675055e+01    0.3034351    0.2173733  83.01   0.00116342    1.676    0.403
        38 -11.1487    116.2859     10.2233   3.2092840065e+01   5.3818673071e+01    0.2728643    0.2298358   1.77 0.0004882957    1.171    0.146
        39  -9.6208     95.4768     12.1155   3.8099624577e+01   5.8034853051e+01    0.1895551    0.1215481 -18.92 0.0008717812    1.544    0.352
        40  -9.6229    129.9912     11.0656   2.9420286329e+01   5.0590858382e+01    0.1607911    0.1468805  20.35 0.0005151957    1.064    0.060
        41 -10.7402     71.6480      9.8808   4.4372114462e+01   6.2709492622e+01    0.2112683    0.1690392  16.79 0.0003598402    1.094    0.086
        42 -10.0266     73.9747      4.9751   4.1432508773e+01   6.2862495922e+01    0.3285621    0.2065907  -1.00  0.001113501    1.615    0.381
        43 -10.1488     71.0254      2.1892   4.1123236252e+01   6.3674201786e+01    0.2039348    0.1512122 -10.59 0.0008147478    1.220    0.180
        44  -9.5183     47.4630      9.1548   5.2828158408e+01   6.6486763513e+01    0.2984676    0.1611833   3.14  0.001458165    2.556    0.609
        45  -8.9047    194.6972      8.6250   1.8321657592e+01   3.4701689548e+01    0.1436405   0.09651113  34.82 0.0007029076    1.761    0.432
        46  -9.1691    168.3130      8.6661   2.1882135955e+01   4.1398696965e+01    0.1430034    0.1002326 -64.60  0.000704537    1.683    0.406
        47 -10.6050     99.7643      6.9742   3.4842710366e+01   5.7705031409e+01    0.2092762     0.168762  43.24 0.0007419311    1.175    0.149
        48 -10.2833      3.2122      6.6524   7.1475046683e+01   7.1270269376e+01    0.2210744    0.1448415  15.74  0.001536593    1.719    0.418
        49 -10.4374    145.7659      4.3041   2.4069217317e+01   4.7440137489e+01    0.2418307    0.1842476  86.56 0.0004790332    1.485    0.327
        50  -9.4677    119.5254      4.9694   2.9367144968e+01   5.3598908775e+01    0.1867148    0.1008022  16.19 0.0004871843    2.373    0.579
        51  -9.6891     50.8823      5.4746   4.9798369056e+01   6.6483793350e+01    0.1627261    0.1059467  32.17  0.001007868    1.520    0.342
        52 -10.4691     55.4997      3.3880   4.7075982703e+01   6.6058292183e+01    0.2993577    0.1698398  -2.82  0.001591298    1.963    0.491
        53 -10.1042     95.7446      2.4709   3.4024264841e+01   5.8970304926e+01    0.1705395    0.1265567  -1.95 0.0001414252    1.304    0.233
        54  -9.6034     67.2600      3.6376   4.3032335075e+01   6.4160397388e+01    0.1593826   0.09813257  32.57 0.0003830286    1.493    0.330
        55 -10.3050    155.1445      1.9386   2.1749550226e+01   4.5331426755e+01    0.3598406    0.1897042  75.07  0.001353605    1.994    0.499
        56  -9.4576    126.5470      1.4395   2.6595468567e+01   5.2297831337e+01      0.13099    0.1193508  45.32 0.0006390217    1.065    0.061
        57  -9.9736     44.8941      1.4967   5.0264316971e+01   6.7800176202e+01    0.1591015    0.1052807  34.39  0.001017181    1.576    0.366
        58 -12.3367    162.0750     58.9842   3.8721305937e+01   3.6507485163e+01    0.6683868    0.3670467 -28.49  0.002755132    1.936    0.483
        59 -10.5462    228.9382    249.5982   6.7427467806e+01  -7.6074014371e+00    0.1751371    0.1309032   5.99 0.0005106764    1.296    0.228
        60 -13.6709    178.9790    240.4703   7.4615421171e+01   1.3926662894e+00      0.85936    0.6203807  13.63  0.005449613    1.692    0.409
        61 -11.1802    110.4618    240.8964   8.6591245643e+01   1.2270830577e+01    0.2125028    0.1569739 -81.44 0.0009173269    1.512    0.338
        62 -11.8554    104.7268    249.5619   8.8395525332e+01   1.1778590079e+01     0.328667    0.1549635  42.59  0.001885706    1.770    0.435
        63 -12.6600    110.4309    249.0161   8.7396080420e+01   1.1024765558e+01    0.6015787    0.2286825  51.89  0.003012337    2.165    0.538
        64 -11.8470    113.3986    245.2088   8.6524253026e+01   1.1161860604e+01    0.2539383    0.1759689  87.80  0.001527218    1.653    0.395
        65 -13.3630     15.5593    238.5922   1.0171929698e+02   2.4658146435e+01    0.6472333    0.3505462  40.30  0.003611682    1.947    0.487
        66 -12.3619      3.4625    248.3857   1.0389365439e+02   2.4253884954e+01    0.8648571    0.2259663 -85.08  0.004396753    3.847    0.740
        67 -12.6312    171.8449     55.7311   3.5769926513e+01   3.4582787886e+01     1.212416    0.5864067  65.88   0.00256722    2.444    0.591
        68 -11.7801    148.7523     43.4973   3.6640498512e+01   4.2117184072e+01     1.013903    0.6166363 -44.68   0.00450281    1.809    0.447
        69 -10.8216    214.5253    246.9747   6.9440892954e+01  -5.1140151154e+00    0.1456579    0.1104246 -24.27 0.0005119385    1.572    0.364
        70 -11.9493    124.0062     95.2570   5.8447603029e+01   3.8533871157e+01    0.3063828    0.2657458 -24.25  0.000654819    1.204    0.170
        71 -13.5663    106.6961     91.3488   6.1999838181e+01   4.2705968971e+01     1.019182    0.5281382 -56.21  0.004125879    2.223    0.550
        72 -12.6599     39.4681     87.6580   8.0802381317e+01   5.2970795318e+01    0.6027151    0.2757715 -63.91  0.002914463    1.969    0.492
        73 -12.9607     87.4532     73.8659   6.2603958465e+01   4.9643755004e+01    0.9922811    0.6200843   3.94   0.00336214    2.827    0.646
        74 -11.5555     40.5985     39.5790   6.7603122439e+01   6.2523826449e+01    0.5465392    0.2372936 -50.92   0.00241718    2.166    0.538
        75 -10.1215    148.3107    245.3061   8.0558057041e+01   5.7181390040e+00     0.109243   0.08223985  22.95 0.0002528123    1.616    0.381
        76 -11.0611    226.8985    242.1504   6.6652841580e+01  -6.5017658407e+00     0.171554    0.1340169  37.61 0.0007224085    1.249    0.199
        77 -13.7358    100.0240     72.6987   5.8550193828e+01   4.7691929766e+01     1.722863     1.173858 -30.91  0.005369166    1.490    0.329
        78 -11.1931    219.7639    240.3059   6.7573057076e+01  -5.1842802125e+00    0.2593014    0.2299132  22.76  0.001952798    1.223    0.182
        79 -13.0795    164.1324    248.8101   7.8262667185e+01   2.7028706969e+00    0.7810716    0.2810445  43.05  0.003792634    2.141    0.533
        80 -12.1256     64.4537     46.0980   6.1187643717e+01   5.8410213063e+01    0.7476392    0.6046473 -83.02    0.0042306    2.072    0.517
        81 -12.1912     88.6916    238.0943   9.0029110031e+01   1.5889661229e+01    0.2561871    0.1788753  29.05  0.001642216    2.012    0.503
        82 -13.7778     53.6648     72.0746   7.2700830909e+01   5.4766143248e+01     1.094168    0.6464023 -63.20  0.005622182    1.822    0.451
        83 -13.9881     36.7858    248.7583   9.9092457224e+01   2.0723960530e+01     1.051233    0.3591953  40.95  0.006004435    2.618    0.618
        84 -12.7659     49.3154    234.2117   9.6234013336e+01   2.1677166750e+01    0.3893886     0.152961  60.58   0.00214449    2.265    0.559
        85 -12.2781     11.2255    248.7476   1.0281738092e+02   2.3438123470e+01    0.4036828    0.2451558 -79.43  0.003301861    1.575    0.365
        86 -12.2224     53.4145     55.4240   6.8057553280e+01   5.8122778270e+01    0.6758114    0.4015157  -8.78  0.003219814    2.552    0.608
        87 -11.9127    153.4691    249.4761   8.0165556805e+01   4.3170577702e+00    0.5029375    0.2099669  34.15  0.002356589    2.655    0.623
        88 -11.3937    159.9755    219.6005   7.5123107957e+01   7.5815222661e+00    0.1879322     0.182647 -72.41 0.0002906884    1.229    0.187
        89  -9.2159    175.3610    119.7366   5.2711609388e+01   2.2424281910e+01    0.1515755    0.1211571  86.07  0.000698354    1.636    0.389
        90  -9.7930    203.9333    116.4212   4.6116008690e+01   1.6521680685e+01    0.2058725    0.1353888  78.66 0.0008049655    2.527    0.604
        91 -10.4601    181.9859    115.9158   5.0366142974e+01   2.1635435360e+01    0.2340291     0.227485  40.45 0.0009241721    1.034    0.032
        92  -9.3556    250.7849     95.0616   3.3047118358e+01   9.6000957590e+00    0.1779326    0.1039453 -33.88 0.0003099236    1.560    0.359
        93 -11.0053    207.9474     94.3262   3.9787547135e+01   1.9394046958e+01    0.2668249    0.2426312 -35.75  0.000204474    1.081    0.075
        94 -13.3502    139.3929     83.0526   5.1131268817e+01   3.7655996358e+01     1.901195    0.4453499 -37.87  0.005007387    4.536    0.780
        95  -9.7724    166.2247     95.2325   4.8338537421e+01   2.9179952738e+01    0.1995226    0.1774765 -74.16 0.0002711838    1.273    0.215
        96 -10.2606    157.5059     95.5143   5.0364004752e+01   3.1159234123e+01    0.2736038    0.1385581  39.45  0.001023369    2.176    0.540
        97 -11.0413     68.8697     94.9034   7.3652196818e+01   4.7997393887e+01    0.2460702    0.1860099  41.31 0.0004366553    1.481    0.325
        98  -9.8167    243.2552     91.9080   3.3398770189e+01   1.1701313221e+01    0.2944041    0.2147328  58.73  0.001526702    1.495    0.331
        99 -12.3324    128.1445     89.9471   5.5920393774e+01   3.8750332001e+01    0.4551794    0.3569625 -25.15  0.001817994    1.373    0.272
       100 -11.9534     95.1877     89.7332   6.4775515628e+01   4.5090402256e+01    0.4903142    0.3275129  51.76  0.002405572    1.721    0.419
       101  -9.8620      9.6315     92.7397   9.0466472869e+01   5.4250275493e+01    0.1131105   0.06969564 -42.53 0.0006977885    1.646    0.393
       102 -11.9861    175.5115     90.2063   4.4974878871e+01   2.7894125937e+01    0.4902709    0.2733372  49.41 0.0009226188    1.772    0.436
       103 -11.6835    176.3489     85.2774   4.3438085579e+01   2.8571790189e+01    0.4693286    0.3219315  22.12  0.001997042    1.924    0.480
       104  -9.7735    166.0350     89.7112   4.6860876579e+01   3.0248687904e+01    0.2172159    0.1959244  51.93 0.0004086445    1.113    0.101
       105 -11.3766     24.0764     89.3769   8.5738440988e+01   5.3947018187e+01    0.2414377    0.1901474   0.60  0.001555309    1.644    0.392
       106 -11.8541    213.6355     89.2022   3.7462869706e+01   1.8898334351e+01    0.3995907    0.1838748  52.66  0.001554457    2.180    0.541
       107 -12.0488    236.7106     86.5378   3.3069921606e+01   1.3979776249e+01    0.5669644    0.2960964  57.61  0.002461883    2.044    0.511
       108 -11.2513    206.8809     86.4830   3.7930949659e+01   2.0957260635e+01    0.3969415    0.2574369   8.42   0.00148315    2.478    0.597
       109 -11.4158    147.7447     85.5769   4.9849160715e+01   3.5291057682e+01    0.5209859    0.3297276  66.00  0.001738229    2.049    0.512
       110 -11.6976    148.5984     81.2853   4.8409191018e+01   3.5895688679e+01    0.7013465    0.4114689 -53.39  0.002842969    2.052    0.513
       111 -13.2385    113.8286     81.6339   5.7327576325e+01   4.3317052394e+01     1.036863    0.3190976 -45.62  0.003338279    3.217    0.689
       112 -11.0955     70.5735     87.2281   7.1309347452e+01   4.9422888490e+01    0.3831043    0.2951201 -56.86  0.001733667    1.207    0.172
       113 -12.5387     68.0454     82.0519   7.0765115008e+01   5.0868001030e+01    0.5614657    0.3178606 -40.71   0.00200918    1.684    0.406
       114 -11.8972     63.8112     80.6230   7.1701244290e+01   5.1730434697e+01    0.2896932     0.224795 -44.84 0.0006431964    1.132    0.116
       115 -10.6075    224.1557     87.1613   3.5186468720e+01   1.6757888458e+01    0.2150346    0.1947569  13.20 0.0003441281    1.178    0.151
       116 -10.7029     33.0620     85.6906   8.2346204478e+01   5.3990213376e+01    0.1596828    0.1451573 -48.44  0.000419209    1.133    0.117
       117 -11.6588      5.5386     84.2516   9.0356826593e+01   5.6307635161e+01    0.3283889   0.09069938 -69.09 0.0009530357    2.915    0.657
       118 -11.7440    208.2715     80.5248   3.6115023222e+01   2.1596997621e+01    0.3729449    0.2959507 -67.40  0.001507601    1.467    0.319
       119 -11.7368    217.8856     83.8610   3.5367022758e+01   1.8756707494e+01    0.3079487    0.2149347  75.80 0.0007376877    1.775    0.437
       120 -12.7662    213.9261     78.2747   3.4567971794e+01   2.0592884632e+01    0.5410888    0.4784098 -12.74 0.0006496204    1.190    0.160
       121 -11.6836    219.8040     75.3959   3.2865886396e+01   1.9635153606e+01    0.2818941    0.2311409  51.31 0.0006173666    1.252    0.201
       122 -12.2157     93.8587     60.1631   5.6436478673e+01   5.1174911612e+01    0.4319371    0.3088281 -54.85 0.0008309931    1.632    0.387
       123 -10.7105     18.9974     81.0339   8.5753453888e+01   5.6117538614e+01     0.180453    0.1430203 -61.25 0.0003580757    1.022    0.021
       124 -12.2756    224.5164     78.1300   3.2829901677e+01   1.8092667598e+01    0.3546302    0.2650726 -12.08 0.0009718278    1.543    0.352
       125  -9.2794    245.2796     85.2878   3.1504541520e+01   1.2263385289e+01    0.1351579     0.106848  11.59 0.0002555241    1.520    0.342
       126 -11.3164    156.5414     76.8260   4.5280841027e+01   3.4841300606e+01    0.4279301    0.2640156  46.22 0.0003934685    1.608    0.378
       127 -11.8185    132.3645    111.2168   6.0484626863e+01   3.3523545139e+01    0.4799851    0.2617443  47.54  0.001192108    1.866    0.464
       128 -10.8972     78.1605     70.9430   6.4587367410e+01   5.1701205793e+01    0.2925067    0.2072053 -58.52 0.0006982615    1.545    0.353
       129  -9.6377    240.7849     71.5729   2.8794016047e+01   1.5314224437e+01    0.1801694    0.1359799  82.18  0.000469518    1.552    0.356
       130 -10.1910    242.2891     66.6961   2.7391965837e+01   1.5683830262e+01    0.4080715    0.3008213  15.08  0.002038073    1.824    0.452
       131  -9.5068    250.0154     69.0390   2.6943792951e+01   1.3612521837e+01    0.1665995     0.144776 -37.95  0.000301617    1.063    0.059
       132 -10.5433    118.5102    110.4801   6.3785060379e+01   3.6439478963e+01    0.1447071    0.1408981 -50.23 0.0001562527    1.015    0.015
       133 -10.8797    240.9101     59.9187   2.5908908468e+01   1.6969448436e+01    0.5068365    0.2379851 -47.82  0.002103826    2.177    0.541
       134 -11.8807    232.7390     57.0204   2.6265098947e+01   1.9284998240e+01     0.522085     0.324614  68.36  0.002492616    1.719    0.418
       135 -10.7305    229.9931     51.9940   2.5358915923e+01   2.0641922956e+01    0.4537364    0.3429834  77.59 0.0003644444    1.401    0.286
       136 -11.0514    230.3087     47.8396   2.4263530178e+01   2.1137500886e+01    0.4060936    0.3232192 -19.32  0.001580514    1.375    0.273
       137 -10.8930    226.4967     46.4547   2.4405152486e+01   2.2241821570e+01    0.3302533    0.2338902 -58.13 0.0007352924    1.467    0.318
       138 -11.7634    101.0833     53.6263   5.2123950361e+01   5.1004020100e+01    0.4912814    0.2867032  31.99  0.001063325    1.905    0.475
       139  -9.9218    238.0520     51.7239   2.4250991047e+01   1.8775783800e+01    0.1920524    0.1715133  80.59 0.0006660587    1.141    0.123
       140 -11.4487    209.7898     51.5921   2.8098904707e+01   2.5632377359e+01    0.3467261    0.2360297  87.87  0.001388198    1.786    0.440
       141  -9.3464    111.3195     52.3050   4.8772708794e+01   4.9204027359e+01    0.1469207    0.1070689   9.49 0.0007029308    1.632    0.387
       142 -11.3110    101.1591     45.9708   4.9449622567e+01   5.2269748204e+01    0.5786312    0.3165162  39.81  0.002665879    1.853    0.460
       143 -10.0218    101.6450     40.5669   4.7373365419e+01   5.3028655133e+01    0.3504178    0.1994995 -12.34  0.001378199    2.419    0.587
       144 -11.1208    208.7829     45.8047   2.6679140794e+01   2.6690103463e+01    0.4965617     0.270105  64.22  0.001786037    1.831    0.454
       145 -11.1402    207.1254     41.2025   2.5665990711e+01   2.7727137393e+01    0.5377551    0.2176667 -51.01  0.001854196    3.124    0.680
       146 -10.5841    214.0625     42.3175   2.4992274179e+01   2.5846100404e+01    0.2945668    0.2039585 -61.15  0.001435331    1.578    0.366
       147  -9.7639    216.8158    108.1481   4.1699966641e+01   1.5010968706e+01    0.2011699    0.1703255   7.30 0.0005114707    1.279    0.218
       148 -10.8735    221.6720     39.5404   2.3247129408e+01   2.4336354552e+01    0.4003542    0.3171111 -12.75  0.002145548    1.465    0.318
       149 -10.8093    113.0895     38.7275   4.3538050783e+01   5.0967506953e+01    0.2367766    0.2242458  25.89 0.0004123623    1.094    0.086
       150  -9.6804    109.0850     39.4998   4.4898598421e+01   5.1690190333e+01     0.222999    0.1812368   5.19 0.0005550585    1.241    0.194
       151  -9.4183    236.6775     38.7393   2.1205966821e+01   2.0830714948e+01    0.1313464    0.1023636  35.78 0.0002472718    1.553    0.356
       152 -10.2016     36.1167     42.9712   7.0417649025e+01   6.2365644276e+01     0.169337    0.1460699 -49.41 0.0005168411    1.249    0.199
       153 -13.7995    204.9648     70.6072   3.4022518404e+01   2.3986313273e+01     1.065807    0.7391543  70.10  0.004975202    1.601    0.376
       154 -11.5074    215.9695     32.6450   2.2173827476e+01   2.6624829571e+01    0.4928966    0.1834106 -32.15  0.001704792    2.557    0.609
       155 -10.9571    218.3001     28.4136   2.0774835321e+01   2.6570829774e+01    0.4144335    0.1828952 -53.72  0.001592104    2.699    0.629
       156 -10.9612    132.1082     33.7558   3.7048552086e+01   4.7432080970e+01    0.3245874    0.2274095  54.55  0.001055247    1.397    0.284
       157 -10.7292    111.9588     32.9850   4.1749814114e+01   5.2027342344e+01    0.2972457    0.2137818 -36.05 0.0008369712    1.446    0.309
       158 -10.4664    112.5659     28.2864   3.9850571245e+01   5.2531862131e+01    0.2814915    0.2148579  48.14  0.001132292    1.290    0.225
       159 -10.8629     92.1939     33.8887   4.7679669285e+01   5.5849315703e+01    0.3836978    0.2474013 -17.58  0.001955576    1.615    0.381
       160 -10.0399    206.1125     31.9197   2.3274154634e+01   2.9179283808e+01    0.2195156    0.1783818 -65.74 0.0004485973    1.262    0.208
       161  -9.6045    235.6211    107.2618   3.8288680149e+01   1.0970708205e+01     0.140708    0.1120142 -76.19 0.0006979709    1.672    0.402
       162 -10.8026     85.4368     29.0571   4.7894315137e+01   5.7790945687e+01    0.4986876    0.3001397  58.75  0.002372399    2.400    0.583
       163  -9.8596    154.6508     27.8137   3.0309414644e+01   4.2745913699e+01    0.2457086    0.1638777 -46.28 0.0004033984    1.682    0.406
       164 -11.7171    141.2387     29.3322   3.3504204605e+01   4.5844343081e+01    0.4253585    0.3005821  51.08 0.0005024272    1.319    0.242
       165  -9.9510    195.4189    107.2624   4.5466428043e+01   2.0101978965e+01    0.2191254    0.1397748 -45.75 0.0009538101    1.633    0.388
       166 -11.0689    104.6929     27.4749   4.1640175218e+01   5.4293143428e+01    0.4223172    0.3034127   7.16  0.001507698    1.497    0.332
       167 -10.3883    102.6013     23.1907   4.0563424921e+01   5.5277470667e+01    0.2827522    0.1325245 -21.00  0.001194929    2.366    0.577
       168  -9.3448    233.2975     27.3923   1.8786962415e+01   2.3053578415e+01    0.1366922    0.1018023  26.25 0.0007009212    1.794    0.443
       169 -10.2144    175.4604     24.3484   2.5593824169e+01   3.7900450558e+01    0.3403255      0.13095 -30.09  0.001291234    2.606    0.616
       170 -10.4008    132.3307     24.8313   3.3859281615e+01   4.8517036719e+01    0.2909953    0.2273655  55.32 0.0007998424    1.242    0.195
       171 -10.1043    183.8946    105.7578   4.7386914851e+01   2.3071562158e+01     0.232526    0.2081397  18.13 0.0005550415    1.172    0.147
       172 -11.0169    119.0725     22.3261   3.6003884639e+01   5.1855700604e+01      0.33215    0.2055033  57.71  0.001235794    1.644    0.392
       173 -10.7399     98.0664     22.2729   4.1463516429e+01   5.6310095253e+01    0.2343998     0.200458 -15.47 0.0006439897    1.144    0.126
       174  -9.3262    224.5554     22.5036   1.8529553479e+01   2.5742488266e+01    0.1375321    0.1211029 -70.69 0.0003164809    1.060    0.057
       175 -10.0168    181.3078     21.9721   2.3976573571e+01   3.6680868107e+01    0.2527093    0.1767743 -21.46 0.0008271716    1.570    0.363
       176 -10.3970     89.7779     21.8363   4.3697175803e+01   5.7975991830e+01    0.2525693    0.1761055   8.07   0.00137134    1.503    0.335
       177 -10.3253    201.4447     20.2980   2.0706496490e+01   3.1742488236e+01    0.3266977    0.2176891  55.89 0.0005287585    1.443    0.307
       178 -10.3531    126.8986     20.5184   3.3520084153e+01   5.0291002727e+01    0.2594327    0.2166223 -83.07  0.001049133    1.554    0.356
       179  -9.6232    122.8293     19.3532   3.4018384100e+01   5.1357539656e+01    0.2030023    0.1093933  45.74 0.0005305415    1.691    0.409
       180 -11.0396    165.3737    102.3088   5.0427732553e+01   2.8041776873e+01    0.5381033    0.2714476 -46.03  0.002076548    2.070    0.517
       181 -10.1055     33.5148     15.1373   6.1187862679e+01   6.7332009132e+01    0.1996475    0.1514992  12.53  0.001395809    1.325    0.245
       182 -11.3769    162.5209     22.2369   2.7081530678e+01   4.1430398124e+01     0.424302    0.3396561  48.73  0.002303247    1.171    0.146
       183 -12.1228    110.5488    102.7312   6.3933727787e+01   3.9596872338e+01    0.4667993    0.2974117 -19.56  0.000941889    2.497    0.600
       184 -11.4558     69.8194    101.8364   7.4938704538e+01   4.6349284735e+01    0.2028326    0.1659451 -41.72 0.0003899683    1.204    0.169
       185 -12.2904     53.2797     99.8483   7.9228253645e+01   4.8848907404e+01    0.3449544    0.2513935 -27.32  0.001281275    1.667    0.400
       186 -12.3771     49.4313     95.0765   7.9368085070e+01   5.0328197645e+01    0.3664558    0.2618308  59.82 0.0009033544    1.739    0.425
       187 -11.6622     48.1661     85.7933   7.7757298615e+01   5.2483370759e+01     0.264919    0.2410895  76.50 0.0008116792    1.275    0.216
       188 -10.3071     77.9199     17.1928   4.5468884048e+01   6.0730131821e+01    0.1721311    0.1640595   4.20 0.0004912096    1.268    0.211
       189 -10.2896    166.3525     15.1601   2.4207672756e+01   4.1237460146e+01    0.2164976    0.1698633  23.83 0.0007085001    1.410    0.291
       190  -9.7982    102.7899     14.9843   3.7284184116e+01   5.6221607234e+01    0.1602095    0.1021191 -21.30 0.0003400329    1.572    0.364
       191 -13.2099     52.9355     89.9423   7.7235280458e+01   5.1056938725e+01     0.561818    0.3588825 -41.91  0.002200281    1.498    0.332
       192 -10.8619     52.8381     86.1821   7.6419364109e+01   5.1881048709e+01    0.1989989      0.14873 -39.71 0.0002360499    1.275    0.215
       193  -9.3650    234.4197    101.4904   3.7088139229e+01   1.2149985981e+01    0.1431317    0.1329547 -31.21 0.0001245606    1.038    0.037
       194 -10.6857    218.4318    100.2123   3.9438845556e+01   1.5963884123e+01    0.2932711    0.2247623  17.47  0.001019053    1.548    0.354
       195 -10.0594    241.1535    100.1263   3.5697000814e+01   1.0890526719e+01    0.1997858    0.1806861  -3.06 0.0002811774    1.115    0.103
       196 -10.2076     85.3970     12.5332   4.1177281092e+01   5.9941831313e+01     0.186983    0.1413452  25.95 0.0001403109    1.192    0.161
       197 -10.7942    153.5156    100.0167   5.2500453259e+01   3.1203152273e+01    0.2383506    0.1504393 -39.94 0.0008705318    1.585    0.369
       198 -11.5310    139.1963     97.9163   5.5345463341e+01   3.4798098215e+01    0.2863721    0.2494856  29.43 0.0002347102    1.201    0.168
       199 -12.4586    127.9171     99.8558   5.8677165786e+01   3.6791153764e+01    0.4059287    0.2503504  35.30 0.0004868855    1.800    0.444
       200 -12.5531    131.4659     97.2622   5.7087148132e+01   3.6581915785e+01    0.4964723    0.2993919 -43.73  0.002178222    1.632    0.387
       201 -11.5898     87.0476     97.6469   6.9097534719e+01   4.4740281735e+01    0.3456671    0.3151731 -14.99 0.0009984556    1.197    0.165
       202 -11.8387     81.3024     99.0711   7.1060994166e+01   4.5317146322e+01    0.2943543    0.2664015 -35.17  0.001688213    1.120    0.107
       203 -10.8194    190.9646     99.2564   4.4270395738e+01   2.2575548907e+01    0.2350482    0.2006143  17.77 0.0003820063    1.282    0.220
       204 -11.2441    170.5020     97.8327   4.8112133107e+01   2.7687837988e+01    0.4344283    0.3118991  22.11  0.001920918    1.749    0.428
       205 -11.7408    200.4879     96.7888   4.1795317047e+01   2.0743793511e+01    0.3641087    0.2641536 -49.96  0.001288929    1.474    0.322
       206 -11.2804     32.6436     97.4509   8.4683422538e+01   5.1472479587e+01    0.2198661    0.1797615  85.77  0.001228203    1.308    0.236
       207 -10.5674    150.9904     96.5780   5.2158559521e+01   3.2444663502e+01    0.2966471    0.2169188 -20.25 0.0009902682    1.615    0.381
       208 -12.8519     61.8393     94.3869   7.5586573215e+01   4.9023676857e+01    0.5591914    0.3043704 -54.50  0.002010022    1.588    0.370
       209 -10.2948     11.5164     97.5148   9.0639777108e+01   5.3101512298e+01    0.1158259   0.08968221 -69.76 -3.113755e-05    1.015    0.015
       210 -13.6815    188.9467     86.6128   4.1286674341e+01   2.5277223206e+01     1.390162     1.109529  24.43  0.006779999    1.417    0.294
       211 -11.9991    162.2120     83.8320   4.6045461304e+01   3.2231905897e+01    0.5023224    0.4222736  61.25  0.001509962    1.247    0.198
       212 -12.5080    135.5453    248.8578   8.3148391145e+01   7.2282924738e+00    0.4767728    0.2288169  49.76  0.002699333    1.655    0.396
       213 -13.2850    168.9565     79.7504   4.3422415443e+01   3.1339301782e+01      1.28409    0.9006944 -44.30  0.004942731    1.461    0.315
       214 -14.0416    124.1076     83.1907   5.5040169529e+01   4.0928495017e+01     2.162047     1.278841  -5.72  0.006758421    4.261    0.765
       215 -13.7208    118.5189     62.8245   5.0295837901e+01   4.5903985001e+01     1.256372     1.100839 -37.00  0.004198212    1.140    0.123
       216 -11.5352     94.7973    247.6071   8.9859006176e+01   1.3506239970e+01    0.2087152    0.1420445  68.89 0.0006371248    1.281    0.220
       217 -13.5503     39.9465    243.0859   9.8282166405e+01   2.1287868796e+01    0.5037334    0.3734501  79.87  0.004162786    1.145    0.127
       218 -12.3858    162.9476     66.3341   4.0764720844e+01   3.5099659412e+01    0.8669901    0.4708419  40.19   0.00340609    2.004    0.501
