#   1 NUMBER                 Running object number                                     
#   2 MAG_AUTO               Kron-like elliptical aperture magnitude                    [mag]
#   3 X_IMAGE                Object position along x                                    [pixel]
#   4 Y_IMAGE                Object position along y                                    [pixel]
#   5 X_WORLD                Barycenter position along world x axis                     [deg]
#   6 Y_WORLD                Barycenter position along world y axis                     [deg]
#   7 A_WORLD                Profile RMS along major axis (world units)                 [deg]
#   8 B_WORLD                Profile RMS along minor axis (world units)                 [deg]
#   9 THETA_WORLD            Position angle (CCW/world-x)                               [deg]
#  10 FWHM_WORLD             FWHM assuming a gaussian core                              [deg]
#  11 ELONGATION             A_IMAGE/B_IMAGE                                           
#  12 ELLIPTICITY            1 - B_IMAGE/A_IMAGE                                       
         1 -11.1380      9.3810     16.0387   1.1119754017e+02   7.0031723014e+01    0.3433368    0.1771847  -7.11  0.001664216    1.981    0.495
         2 -11.9847      8.9279     26.6394   1.1545067931e+02   6.8512888571e+01    0.9701526    0.3005514 -34.93  0.004633596    2.769    0.639
         3 -11.8339      3.6605     21.1603   1.1594063157e+02   6.9709306102e+01    0.5177749    0.2337958 -40.78  0.003194219    1.731    0.422
         4 -11.9999    129.0673     23.1754   7.3311648143e+01   4.9486521326e+01    0.3272625    0.2442444 -33.41 0.0003666203    1.538    0.350
         5  -9.7401     34.9845     15.3754   9.9195048863e+01   6.7542492210e+01    0.3137551    0.1746582  -5.65 0.0008999136    1.921    0.480
         6 -10.5181     23.6871     21.1777   1.0657478146e+02   6.8042437511e+01    0.3884863     0.161327 -45.44  0.001992305    2.763    0.638
         7 -10.9738     18.9450     17.0855   1.0708194557e+02   6.9058124112e+01     0.331115    0.2115816 -15.86  0.001110832    1.260    0.206
         8  -9.9280     15.4660     13.4899   1.0722370909e+02   6.9858508880e+01     0.164495    0.1335547  12.41 0.0009503319    1.403    0.287
         9 -10.9931     76.1957     16.3304   8.4388624482e+01   6.1161820929e+01    0.6012436    0.2994199   2.15  0.002588126    3.277    0.695
        10 -11.9823     81.2404      6.1836   7.8939982125e+01   6.1170675817e+01    0.2994385    0.2046406  -0.12 0.0002530213    1.538    0.350
        11 -11.6051     75.1429      5.8373   8.0576010288e+01   6.2334816526e+01    0.4903173    0.3118494 -37.28  0.002030962    2.043    0.510
        12 -10.5027    216.9839     16.5945   5.8843324906e+01   2.9328160096e+01    0.4181609     0.112208  59.44  0.001618059    3.269    0.694
        13 -11.1435    132.0053     13.4496   6.9714547468e+01   4.9765845983e+01    0.3772454    0.2089621   1.29  0.001734921    2.863    0.651
        14 -10.0792     70.6996     14.4022   8.5375477596e+01   6.2331535529e+01    0.2037689    0.1484069 -14.85 0.0006032391    1.393    0.282
        15 -10.4999    115.3328     12.7568   7.2857049582e+01   5.3590648524e+01    0.3265172    0.2401446  75.17  0.001912859    1.516    0.340
        16 -10.5883     99.7038     13.1420   7.6621571548e+01   5.6897597248e+01    0.2441056    0.2224142 -34.20  0.001256665    1.354    0.261
        17 -11.5870     25.9093     13.7684   1.0249429442e+02   6.8782709196e+01     0.221429    0.1446839   5.91 0.0004385909    1.291    0.225
        18  -9.8513     30.5032     13.0089   1.0012173969e+02   6.8360839433e+01    0.1964992    0.1176404 -20.71  0.001259275    1.459    0.315
        19 -12.2043     62.0629     11.7388   8.7183870693e+01   6.4059135507e+01    0.2905694    0.2340335  57.48 0.0005716579    1.753    0.430
        20 -10.0297      4.3252     11.4116   1.1180458422e+02   7.1055972296e+01    0.1440991    0.1109765 -41.63 0.0002057769    1.648    0.393
        21  -9.8113    175.5986     12.2060   6.2536587217e+01   3.9543609279e+01    0.1528506    0.1277135  -1.58 0.0007848349    1.639    0.390
        22 -11.2236     23.2621      9.0471   1.0164737102e+02   6.9642885891e+01    0.4123973    0.1624972 -32.45  0.001968003    2.300    0.565
        23 -12.1945     26.5318      3.5239   9.7665434470e+01   6.9904865576e+01    0.2094661    0.1566337  12.17 0.0007199831    1.157    0.136
        24 -12.7817     31.0374      2.1527   9.5038121803e+01   6.9506711387e+01    0.3213913    0.1723728  35.05  0.001367836    1.758    0.431
        25  -9.2560    122.2828      8.6749   7.0092200820e+01   5.2401642547e+01    0.1182105   0.09362571 -75.21 0.0006260377    1.598    0.374
        26 -10.7736    116.9918      8.0371   7.0952105803e+01   5.3634675678e+01    0.2047334    0.1840691 -53.45 0.0006795769    1.373    0.272
        27 -10.1884    115.2977      4.1764   7.0031634834e+01   5.4321644960e+01    0.2510514    0.1815278  23.16  0.001540342    1.479    0.324
        28  -9.6342     92.4264      8.2029   7.6680531711e+01   5.8816787920e+01    0.1541538    0.1106239 -34.40 0.0009446417    1.705    0.413
        29 -11.9788     16.4108      5.1637   1.0313662195e+02   7.0808172585e+01    0.4475449     0.232199  13.52  0.002829028    1.807    0.447
        30 -10.3482      9.5125      7.9516   1.0775054836e+02   7.1099652908e+01    0.2527481    0.1292076  -6.10  0.001479685    1.997    0.499
        31 -11.4496     11.5876      2.5349   1.0429884747e+02   7.1579580671e+01    0.4772409     0.235287   3.43  0.002399295    2.187    0.543
        32  -9.2840    155.6667      6.2885   6.3730106945e+01   4.4858859350e+01    0.1282898   0.08782411 -79.07 0.0003165223    1.627    0.385
        33 -10.2195    132.6936      4.9582   6.7004536607e+01   5.0344924220e+01    0.1679454    0.1511072  51.80 0.0004743591    1.109    0.098
        34 -10.0376    139.2026      1.7982   6.4979023185e+01   4.9097439788e+01    0.1769252    0.1197824  49.59 0.0004987933    1.303    0.232
        35  -9.5683    134.3055      1.2749   6.5625357657e+01   5.0268160809e+01    0.1276602   0.07700169  43.94   0.00021493    1.545    0.353
        36 -10.2002    180.7000    224.4869   1.1155892033e+02  -1.0013448892e-01     0.225185    0.1261103 -44.82 0.0006620692    1.975    0.494
        37 -10.5952    247.3195    250.0981   1.0297743399e+02  -1.4632783515e+01    0.3309595    0.1669556  27.83  0.001761104    1.783    0.439
        38 -11.0653    250.4474    245.2905   1.0159093394e+02  -1.4426346651e+01    0.5572358    0.1561238 -36.97  0.002300743    3.564    0.719
        39 -10.1297     72.6055    250.1496   1.3731599017e+02   1.3274884338e+01    0.1806367    0.1691969  20.33  0.001245549    1.574    0.365
        40 -11.7770     27.7770    246.5556   1.4519480568e+02   1.9877874491e+01    0.4934086    0.2149864 -84.54  0.002637716    2.166    0.538
        41 -12.0748     15.6236    238.2709   1.4677000473e+02   2.2894602155e+01    0.8658461    0.2806392  39.36   0.00433834    2.788    0.641
        42 -12.5966     20.9748    248.7735   1.4650706754e+02   2.0227535339e+01    0.8970441    0.2490561  40.84  0.004286811    2.967    0.663
        43 -11.3305     14.3301    244.5947   1.4737861923e+02   2.1780163493e+01    0.4377592    0.1486681 -76.77  0.002210152    2.574    0.612
        44 -12.2648      6.8381    243.8735   1.4859287193e+02   2.2714991946e+01    0.5948487    0.3811716  86.63  0.004228603    1.196    0.164
        45  -9.8920     81.1390    224.4487   1.3292132112e+02   1.7265628454e+01    0.2672986    0.1589789  89.96  0.001313666    1.926    0.481
        46 -10.5616    141.3783    221.4038   1.1948329498e+02   7.6613259268e+00     0.311681    0.2429389  12.10  0.001373808    1.648    0.393
        47 -10.8609    123.1124    221.4976   1.2349427289e+02   1.0929044541e+01    0.3486317    0.2436033  54.05  0.001312201    1.322    0.243
        48 -10.3718     13.1812    221.9222   1.4613722649e+02   2.6508520526e+01    0.1800028     0.140465  67.83 0.0005146822    1.161    0.139
        49 -10.2395    174.4018    219.6238   1.1204449223e+02   1.9329056744e+00    0.2696249    0.1853491   3.36  0.001058785    2.077    0.518
        50  -9.9920     21.9723    220.4694   1.4439830987e+02   2.5885618102e+01    0.1581356    0.1030202  46.47 0.0004590044    1.510    0.338
        51  -9.7051    250.4810    219.1117   9.6901460493e+01  -1.0752518015e+01    0.1786497    0.1101444 -30.90 0.0005306505    1.502    0.334
        52 -11.0451     10.0264    217.0607   1.4638750975e+02   2.7852399745e+01     0.273688     0.160014  64.96  0.000719914    1.437    0.304
        53  -9.8293    191.5001    217.0536   1.0798620742e+02  -7.0837565803e-01    0.1957778    0.1797789  -1.66 0.0007589525    1.080    0.074
        54  -9.7674    194.5274    215.4810   1.0707143232e+02  -9.7120762384e-01     0.139208    0.1250346  18.01 -3.964459e-05    1.002    0.002
        55 -11.3749    235.1576    215.1559   9.8976956315e+01  -7.8152651190e+00    0.3839447    0.2064233 -26.72   0.00125993    1.948    0.487
        56  -9.9081    201.5423    215.5436   1.0564092637e+02  -2.2332280345e+00    0.1391748    0.1214309  11.45 0.0006185159    1.054    0.051
        57  -9.4843    137.1994    215.6310   1.1948276596e+02   9.6038284326e+00    0.2064087    0.1269793  32.19 0.0009425877    1.705    0.413
        58  -9.8165    170.4656    213.4527   1.1180230673e+02   3.8337670159e+00    0.1426065    0.1300528  35.51 0.0004093871    1.017    0.017
        59  -9.4942    142.8111    213.4014   1.1787164317e+02   9.0268746965e+00    0.1996322    0.1296188  31.49  0.000627805    1.607    0.378
        60 -11.0335     20.6391    211.7754   1.4398762500e+02   2.7899196502e+01    0.3170666    0.1610352  74.54 0.0008936795    1.869    0.465
        61 -10.2964    208.9751    212.0784   1.0348936111e+02  -2.9364425103e+00    0.2084648    0.1848518   9.56 0.0004580143    1.010    0.010
        62  -9.2796      2.3045    212.3150   1.4749847263e+02   2.9598499012e+01    0.1040673    0.0759465 -60.63 0.0003410805    1.621    0.383
        63 -11.9541      4.3576    207.3142   1.4678325916e+02   3.0476647475e+01    0.4459457    0.2581963  87.74  0.002784633    1.372    0.271
        64 -10.1550     31.1236    215.8412   1.4226692140e+02   2.5858851533e+01    0.1993179    0.1336301  72.90  0.001234682    1.248    0.199
        65  -9.4524    184.3965    208.7944   1.0796422547e+02   2.1172329997e+00    0.1916145    0.1319429 -30.09 0.0006537798    1.623    0.384
        66  -9.3881    218.4024    206.7608   1.0060325142e+02  -3.6560821200e+00    0.1922445    0.1204995 -26.48 0.0007953761    1.681    0.405
        67 -10.7790     19.5235    202.5221   1.4346399180e+02   3.0048544259e+01    0.3262668     0.177608  88.06  0.001815799    1.626    0.385
        68  -9.5829    223.5670    201.7729   9.8630112215e+01  -3.6865844441e+00    0.1784861    0.1261651 -49.00 0.0006116539    1.643    0.391
        69  -9.8986    175.2229    202.4227   1.0874952494e+02   5.0912885826e+00    0.2051435    0.1309771  50.11 0.0006001557    1.614    0.380
        70  -9.7401    218.2696    201.3654   9.9585713640e+01  -2.6943928446e+00    0.1423513    0.1000975  -6.55 0.0006996369    1.658    0.397
        71  -9.5025     34.6672    200.9944   1.4021147445e+02   2.8749786826e+01    0.1725858     0.133886 -89.38 0.0003826944    1.057    0.054
        72  -9.9058    227.0300    196.9743   9.7022090036e+01  -3.4528063762e+00    0.2114785    0.1838471  -2.77 0.0006779275    1.050    0.048
        73 -10.6605    215.5226    194.6799   9.8812243441e+01  -1.0125356400e+00    0.2533566    0.1310246 -35.80 0.0006971154    1.949    0.487
        74 -10.0357    192.7046    194.3529   1.0342834089e+02   3.3110268269e+00    0.1416879    0.1174792  89.80 0.0005696085    1.687    0.407
        75  -9.5639    203.0151    195.9936   1.0160145102e+02   1.0454318006e+00    0.1732326    0.1598498   9.30 0.0005834926    1.007    0.007
        76  -9.5240    246.3307    190.3226   9.2131260238e+01  -5.5551947525e+00    0.1384903   0.09479848  -3.19 0.0005507647    1.698    0.411
        77  -9.2411    205.5034    190.4651   9.9987688943e+01   1.6179213221e+00    0.1433278    0.1328303   3.61 0.0001051707    1.007    0.007
        78  -9.4411     61.6358    184.8138   1.3234264905e+02   2.9147269058e+01    0.1983434    0.1166419 -79.30 0.0009474356    1.701    0.412
        79 -11.4558     16.0397    182.8354   1.4247689228e+02   3.4834119249e+01    0.4221049    0.2124664  87.68  0.002159429    1.918    0.479
        80 -10.5009    247.5652    183.3913   9.0532614344e+01  -4.5893569257e+00     0.418325    0.2108544  13.55  0.001221103    6.003    0.833
        81 -10.0706    167.0036    183.3176   1.0685835691e+02   1.0658674571e+01    0.2225188    0.1946067  43.27  0.001025533    1.105    0.095
        82  -9.5183      8.0417    184.0000   1.4428388967e+02   3.5291944727e+01    0.1620905   0.06674864  29.17  0.000717809    2.901    0.655
        83 -10.8507    187.3118    190.1837   1.0374910850e+02   5.1767663156e+00    0.2960713    0.1281026 -37.42 0.0007989192    2.599    0.615
        84  -9.5121     23.5378    180.4950   1.4060707814e+02   3.4651120755e+01     0.126267    0.1002082 -87.91 5.048146e-05    1.003    0.003
        85 -10.1399      2.0094    180.2882   1.4524522685e+02   3.6636221367e+01    0.1597701    0.1283525  83.28 0.0005786687    1.099    0.090
        86 -10.8907    244.5874    178.1596   9.0005056763e+01  -3.1925744520e+00    0.2774105    0.1544516 -26.02  0.001272628    1.937    0.484
        87 -10.9783    224.3575    178.2316   9.3747352073e+01   3.8077422242e-01    0.2707279    0.2572186 -12.42 0.0004675109    1.067    0.063
        88  -9.3804     36.0336    178.5049   1.3755677923e+02   3.3808157475e+01    0.1638814    0.1240765  41.45 0.0004436102    1.455    0.313
        89 -10.5214    200.2947    176.5905   9.8207785193e+01   5.3142016406e+00    0.2540406    0.1764793 -20.56 0.0008261661    1.717    0.417
        90  -9.5549     70.0547    177.5631   1.2930004319e+02   2.9708902982e+01     0.189327    0.1356989  37.95 0.0005432447    1.492    0.330
        91  -9.3945     24.4848    174.5376   1.3977900150e+02   3.5946902879e+01    0.1266271    0.1020759 -84.93 8.981313e-05    1.013    0.012
        92  -9.5970     59.6147    171.8176   1.3103977716e+02   3.2549487468e+01    0.2024788    0.1190231 -79.13 0.0009476171    1.736    0.424
        93  -9.8011     74.7155    171.2709   1.2717881521e+02   3.0555165323e+01    0.1826756    0.1611641 -40.16 0.0008368765    1.331    0.249
        94 -11.1145     12.8629    170.7577   1.4203762319e+02   3.7901457580e+01    0.2560644    0.1267062  79.57  0.001245557    2.210    0.547
        95  -9.7776    209.8450    166.3798   9.4086653626e+01   5.4253004031e+00     0.203844    0.1357275  32.04 0.0005215754    1.644    0.392
        96  -9.6663     67.1763    165.1402   1.2812733638e+02   3.3145053530e+01    0.1997079    0.1533823  75.85 0.0005980009    1.341    0.254
        97 -10.5883     51.3811    164.6295   1.3207088397e+02   3.5350027318e+01     0.405502     0.200743 -37.63  0.001569909    3.300    0.697
        98 -10.5076      4.5124    169.0438   1.4374613329e+02   3.8986097451e+01    0.2884494   0.07683217 -67.45  0.001219649    2.686    0.628
        99 -10.5837     44.8652    163.0800   1.3349413037e+02   3.6503654247e+01    0.3432569    0.1720447 -78.44  0.001529309    2.065    0.516
       100 -10.2084    246.5011    162.5090   8.6462039032e+01  -7.7243365233e-01    0.1368611     0.121945 -31.63 0.0008103147    1.039    0.038
       101  -9.5329    200.2237    162.6436   9.5233020528e+01   8.1259764836e+00    0.2018273    0.1391688  35.61 0.0004632564    1.526    0.345
       102 -11.3617     37.1047    158.8752   1.3487839337e+02   3.8380825876e+01    0.4195746    0.1910423 -65.12            0    1.835    0.455
       103  -9.4254     48.3332    159.3063   1.3208119943e+02   3.7012551217e+01    0.1340508   0.09678464 -38.88 0.0003423821    1.666    0.400
       104 -10.5836    247.4737    158.4895   8.5462415081e+01  -2.2921445388e-01    0.1371453    0.1217031 -33.53 0.0001537052    1.034    0.033
       105 -10.0020    238.5013    158.4993   8.7012694622e+01   1.3951974900e+00    0.1413445    0.1253976 -20.97 -0.0001784472    1.070    0.066
       106  -9.1400      8.3315    158.2879   1.4183960252e+02   4.1163032073e+01    0.1183505   0.07823996 -49.13 0.0007015496    1.622    0.383
       107 -11.1601     22.6580    155.6554   1.3808283743e+02   4.0573165123e+01    0.3904507    0.3100988 -71.39  0.002516299    1.069    0.064
       108  -9.2409    147.5336    156.5161   1.0579427348e+02   2.0695753353e+01    0.1581982    0.1519001  79.55 4.473274e-05    1.043    0.041
       109  -9.6236    216.7578    154.7987   9.0215521477e+01   6.3032229322e+00    0.2270469    0.1153147  55.53 0.0008268679    2.450    0.592
       110 -10.0552    205.4760    152.5080   9.1924028411e+01   9.0796582622e+00    0.2751249    0.1396495 -31.90  0.001031472    2.303    0.566
       111  -9.9389    197.0079    153.7567   9.3933189860e+01   1.0614836027e+01     0.205261    0.1291778  45.90 0.0007662536    1.624    0.384
       112  -9.4277    151.5318    153.0553   1.0404751886e+02   2.0633745060e+01    0.2206007    0.1400155 -73.22 0.0007540263    2.411    0.585
       113 -10.3170     11.5544    153.2941   1.4053832059e+02   4.2070831351e+01    0.2676852    0.1453382  30.40  0.001493002    2.176    0.541
       114 -10.4399    178.0904    151.4556   9.7488704835e+01   1.5193240269e+01    0.3069448    0.2671787  78.14  0.001522841    1.301    0.231
       115  -9.9947     26.5946    149.2455   1.3628255279e+02   4.1735203146e+01     0.248663    0.1080841 -72.17 0.0006362167    2.019    0.505
       116  -9.2853    233.5441    146.5153   8.5324674314e+01   4.5533062918e+00     0.142668    0.1299346 -34.75 3.357713e-05    1.010    0.010
       117 -10.4617    206.8794    146.0737   9.0201092985e+01   1.0076828768e+01     0.250304    0.2225989  43.62 0.0007840995    1.169    0.145
       118 -11.4192      9.4255    145.9557   1.4024155784e+02   4.3944315689e+01    0.4099545    0.1138257  39.36  0.001716763    3.706    0.730
       119  -9.8333    212.3356    141.9802   8.8214829552e+01   9.7368379055e+00    0.2466417    0.1210318 -22.95 0.0006279572    4.315    0.768
       120 -12.5271      9.7308    136.7332   1.3906720385e+02   4.6065624747e+01     0.376908    0.3175101  72.50 0.0007123003    1.268    0.212
       121 -11.4883      3.3574    136.7078   1.4071905387e+02   4.6508737169e+01    0.4866268    0.1510558 -55.21  0.001848613    2.505    0.601
       122 -10.1257    236.5363    138.9528   8.3170696298e+01   5.3786925845e+00    0.1980524     0.192289  49.36 0.0004783954    1.135    0.119
       123 -10.7751     55.0960    136.4197   1.2654005798e+02   4.1767002735e+01    0.6036574    0.3106355  67.48   0.00214724    3.751    0.733
       124 -10.9243     21.8441    135.3541   1.3565060897e+02   4.5448137190e+01    0.3985394    0.2535946 -70.29  0.001963003    1.302    0.232
       125  -9.7858    137.8696    135.3929   1.0335278761e+02   2.7642987092e+01    0.2327564    0.1505644  32.82 0.0009509833    1.748    0.428
       126  -9.5830     40.7180    135.6423   1.3047217683e+02   4.3597997504e+01    0.1627868    0.1213936  42.61 0.0009256137    1.504    0.335
       127 -10.4406    106.8700    133.2197   1.1113928312e+02   3.4448143797e+01    0.2651088    0.2485536 -57.43 0.0009406478    1.037    0.036
       128 -11.6345     36.4094    130.4224   1.3083028374e+02   4.5286512808e+01    0.3898764    0.3523162 -71.60  0.002524664    1.070    0.065
       129 -10.1804     74.0249    129.3475   1.1968118643e+02   4.0914367568e+01    0.2498692    0.1858205 -46.23  0.000759445    1.287    0.223
       130  -9.4324    243.0202    128.4857   7.9840763456e+01   6.0336805503e+00    0.1871556    0.1403213  52.80 0.0004703913    1.489    0.328
       131 -10.7560      1.6673    125.9019   1.3986759855e+02   4.9087596469e+01    0.2844086    0.1294247 -68.82 0.0006022508    1.676    0.403
       132 -10.1448    226.2217    124.3869   8.1721448133e+01   1.0208315543e+01    0.1956065    0.1393389  66.51 0.0007815841    1.641    0.391
       133  -9.6791    219.5304    124.5304   8.2923443424e+01   1.1604971952e+01    0.1473072    0.1372936 -53.14 0.0002353815    1.003    0.003
       134 -11.1735     10.3097    122.6188   1.3704817861e+02   4.9285061180e+01    0.2439113     0.193476  80.21 0.0009698009    1.355    0.262
       135 -12.0973     17.3084    117.3869   1.3425537757e+02   4.9989778994e+01    0.5636061    0.3417279 -33.47  0.003147418    1.847    0.459
       136 -10.1638     20.1191    121.6316   1.3410117145e+02   4.8796593263e+01    0.2134721    0.1474113 -12.09  0.001234806    1.906    0.475
       137  -9.7428    249.7015    118.3350   7.6640439072e+01   6.5551423139e+00    0.1415976   0.09828351 -66.28 0.0004162651    1.652    0.395
       138 -10.3337     86.1083    116.6341   1.1321866641e+02   4.2033023616e+01    0.2417204    0.1907911 -60.88  0.000612146    1.279    0.218
       139  -9.4057    179.4689    116.5287   8.8835131562e+01   2.2279599219e+01    0.1552308    0.1515318 -79.56 8.227169e-05    1.010    0.010
       140  -9.7020     72.2500    115.7471   1.1721100992e+02   4.4396770778e+01    0.2161498     0.123566  17.67  0.000892829    2.443    0.591
       141 -11.7827     35.4569    110.4630   1.2752379194e+02   5.0050376346e+01    0.5741363    0.3893494 -73.85  0.002570287    1.522    0.343
       142 -10.0411    248.7858    112.3836   7.5510924207e+01   7.7885395621e+00    0.1720304    0.1296079  44.61 0.0004603324    1.570    0.363
       143  -8.8081    212.5527    112.4845   8.1385563446e+01   1.5441620755e+01    0.1479001    0.1395334 -56.54 0.0002645445    1.031    0.030
       144  -9.3917    107.6393    112.2096   1.0577090438e+02   3.9172634946e+01    0.2030709    0.1385097 -39.20  0.000228176    1.492    0.330
       145 -10.6116     43.9858    109.8703   1.2472553282e+02   4.9326296211e+01    0.3514724    0.1984095 -36.76 0.0008487034    1.868    0.465
       146 -12.2093     16.3361    109.1669   1.3320829593e+02   5.1932961448e+01    0.4634477    0.2925768  12.81  0.002274752    1.986    0.497
       147 -11.7469     23.1977    107.2223   1.3074680681e+02   5.1856518746e+01    0.3392984     0.236512  51.17  0.001573352    1.808    0.447
       148 -10.2353      3.0290    105.1479   1.3661136431e+02   5.3675158054e+01    0.1851888    0.1380639 -56.00 0.0004508697    1.072    0.067
       149 -11.0189      3.5326    100.2534   1.3568886738e+02   5.4725362929e+01    0.3002402    0.2218291 -87.95  0.001058944    1.471    0.320
       150  -9.2173    167.3291    109.2908   8.9657566086e+01   2.6626442085e+01    0.1569477    0.1260294  13.97 0.0003130015    1.623    0.384
       151 -10.3041     56.1778    109.6017   1.2081607835e+02   4.7985461866e+01    0.1837651    0.1310756   8.23 0.0008594797    1.728    0.421
       152  -9.4837    133.4554    107.5125   9.7418208688e+01   3.4821975743e+01      0.15474    0.1520181   7.26 0.0001093383    1.040    0.039
       153 -11.0253    243.3783    104.3721   7.4583243377e+01   1.0289778317e+01     0.194233    0.1654952  -1.65 0.0005682766    1.590    0.371
       154 -10.1103    223.4679    104.0155   7.7569175541e+01   1.4591846562e+01    0.2100638    0.1929556 -89.02 0.0004861693    1.087    0.080
       155 -11.2051     70.2943    102.4064   1.1461182783e+02   4.7721214268e+01    0.3814163    0.2522407   3.84  0.001486841    2.101    0.524
       156 -11.0595      5.6825    107.4034   1.3615670029e+02   5.3022087124e+01    0.3357507    0.1660122 -43.44  0.001826121    1.845    0.458
       157 -10.7751    247.8601    102.1647   7.3468910994e+01   9.7632500602e+00    0.2184485    0.1720117 -67.00 0.0007714643    1.243    0.195
       158 -10.5380     35.6770    101.4110   1.2561866258e+02   5.2080277790e+01    0.2411276    0.1990383  24.13  0.001515429    1.396    0.284
       159 -11.0459     27.5386    101.0914   1.2819795136e+02   5.2879565207e+01    0.2265134    0.1749378 -34.63 4.926189e-05    1.244    0.196
       160  -9.8505      9.7157    102.5262   1.3413652283e+02   5.3861209283e+01    0.1864178    0.1189573   2.56 0.0009490077    1.993    0.498
       161  -9.8129    119.8026    101.3989   9.9436983533e+01   3.9068339233e+01    0.2217494    0.1427639  32.42 0.0009431777    1.721    0.419
       162  -9.6857     84.5420     99.9745   1.0947458342e+02   4.6044297200e+01    0.2206252    0.1355414 -47.61 0.0006026604    1.548    0.354
       163  -9.9767     50.2643     99.4600   1.2040063571e+02   5.0982089224e+01    0.2372012      0.13916 -43.15   0.00118808    1.534    0.348
       164 -11.7703     20.4758     97.5744   1.2980393449e+02   5.4219252733e+01    0.3213079    0.2208065 -75.01 8.809094e-05    1.519    0.341
       165 -10.5547     63.1474     98.7343   1.1599822187e+02   4.9531931657e+01    0.3855684    0.1918282  20.39  0.001586472    2.687    0.628
       166 -10.1121     94.7224     96.9300   1.0550409007e+02   4.4934591404e+01    0.2012717    0.1831575 -36.88 0.0003345982    1.065    0.061
       167 -10.6506      1.7496     92.8735   1.3503347757e+02   5.6423148512e+01    0.4239067    0.1048091 -61.28  0.001808152    2.660    0.624
       168  -9.8564     66.8799     93.5899   1.1344978721e+02   5.0136239586e+01    0.1813811    0.1690771  10.97 0.0007714407    1.125    0.111
       169  -9.8425     31.1937     92.8859   1.2526945599e+02   5.4371802925e+01    0.1864764    0.1573771 -68.34 0.0005029369    1.249    0.199
       170 -11.8252     11.5521     91.1507   1.3151050998e+02   5.6232018793e+01    0.3660505    0.2153923   8.22  0.002136384    2.093    0.522
       171 -10.4283     26.1894     91.1135   1.2657813504e+02   5.5182373073e+01    0.2850897    0.1750795 -37.47  0.001614129    1.489    0.328
       172  -9.5930    171.2480     91.0227   8.4034941033e+01   2.9268565429e+01    0.2062526      0.13115 -40.16 0.0008923451    1.610    0.379
       173 -10.6543     96.1350     90.3673   1.0322633173e+02   4.6045509988e+01    0.4235408    0.2709028   2.89  0.001686716    2.607    0.616
       174  -9.5631    158.2436     89.9943   8.6589133763e+01   3.2602716083e+01    0.2046037    0.1311898 -40.74  0.000884734    1.602    0.376
       175 -12.2374     48.5482     85.6691   1.1757623988e+02   5.4157470517e+01    0.4055475    0.3492219  39.34  0.002531048    1.378    0.274
       176  -9.4326    103.5124     88.5320   1.0047422715e+02   4.5019925093e+01    0.1458277    0.1403606  -1.21 0.0003476016    1.012    0.012
       177 -10.1913     22.9588     86.7861   1.2674495742e+02   5.6367263481e+01    0.2688101   0.09317772 -42.84 0.0009048834    2.509    0.601
       178 -10.5745    112.6375     85.7574   9.7007449405e+01   4.3738982013e+01    0.2938395    0.2429035  70.58  0.001485316    1.479    0.324
       179 -10.6006     67.1373     85.6046   1.1119582510e+02   5.1779505988e+01    0.2874504    0.1831651 -40.60   0.00145741    1.447    0.309
       180 -10.2012      3.5691     85.9251   1.3320092744e+02   5.7809046329e+01    0.1901149    0.1724459  12.55 0.0007400768    1.369    0.270
       181 -11.0190    118.1510     82.6850   9.4553203051e+01   4.3172717495e+01    0.4204038    0.2027989 -36.15  0.001635976    2.226    0.551
       182 -11.2958     39.4852     81.0221   1.1955940455e+02   5.6102149478e+01    0.2311205     0.205837 -12.67 0.0003877459    1.130    0.115
       183  -9.3127     29.9629     81.9660   1.2318173595e+02   5.6805450976e+01    0.1516781    0.1218982 -41.92 0.0004258621    1.025    0.024
       184 -11.3860     19.4660     81.1242   1.2671272226e+02   5.7821493195e+01    0.3202128    0.2327052  86.65 0.0008600833    2.019    0.505
       185 -11.2612     23.4397     80.0063   1.2504139370e+02   5.7753236502e+01    0.4151497    0.2280263 -68.70    0.0014052    2.110    0.526
       186 -10.6333     74.8131     80.9828   1.0730299649e+02   5.1568605655e+01    0.2970111    0.1762833 -32.14  0.001395775    1.745    0.427
       187 -10.7784     71.2943     79.1342   1.0793821329e+02   5.2474029006e+01    0.2685023    0.2421381 -18.73 0.0006507466    1.011    0.011
       188  -9.9685      2.1520     72.3713   1.3102281565e+02   6.0682195999e+01    0.2549779    0.1133767 -43.21 0.0007541603    1.742    0.426
       189 -11.3329      3.1048     77.8997   1.3181517882e+02   5.9506874883e+01     0.275085    0.2179689 -52.43 0.0008252498    1.064    0.060
       190 -11.5361      7.4160     74.1669   1.2949713286e+02   6.0035140716e+01    0.3738664    0.2455584  -2.34  0.002410163    1.727    0.421
       191  -9.4708     81.3135     78.9804   1.0456710887e+02   5.0915983505e+01    0.1880947    0.1638916 -25.26 0.0003182052    1.076    0.071
       192 -11.4077     58.9870     75.7509   1.1118521305e+02   5.4885023568e+01    0.4355485     0.363048 -80.84  0.002121229    1.742    0.426
       193 -10.4561     54.5392     72.5095   1.1181325244e+02   5.6093566105e+01    0.2581408    0.1635569 -52.73  0.001360942    1.638    0.389
       194 -10.8512     65.4307     73.5564   1.0828224679e+02   5.4421933515e+01    0.2649183      0.20701   5.50 0.0001104503    1.311    0.237
       195 -11.2874     62.4466     71.5524   1.0871866936e+02   5.5226399509e+01    0.3782234    0.2187693 -32.13   0.00178354    1.712    0.416
       196 -10.6189    150.0842     77.5429   8.4986119571e+01   3.6838705150e+01    0.2693688    0.2204137 -40.94 0.0005142012    1.276    0.216
       197 -10.3991     92.2101     77.8009   1.0072843713e+02   4.9244486495e+01    0.2712496    0.2093368  20.45  0.001422052    1.350    0.259
       198  -9.4435     35.4213     77.2312   1.2003802173e+02   5.7279530320e+01    0.1625541    0.1115948 -61.73 0.0003967619    1.561    0.359
       199  -9.2861    187.6259     75.8121   7.6892278102e+01   2.7992259104e+01    0.1902853    0.1327854 -51.21 0.0002761733    1.444    0.308
       200  -9.4944    130.4561     82.0207   9.1061069578e+01   4.0597496338e+01    0.2164021    0.1489843 -38.66 0.0004508765    1.503    0.335
       201 -10.6041     88.5217     76.1915   1.0139944138e+02   5.0212086330e+01      0.27109    0.1761204   1.21  0.001179598    2.251    0.556
       202 -11.1010     37.4738     67.3838   1.1659330930e+02   5.9024995038e+01    0.3603509    0.2345387 -39.62 0.0006893747    1.295    0.228
       203 -11.0519     44.8523     75.0706   1.1603885779e+02   5.6739598339e+01    0.2398973    0.1887339  24.49 0.0003066435    1.386    0.278
       204 -10.5154     40.2810     71.9871   1.1684917385e+02   5.7841481259e+01    0.3221688    0.2205569 -52.48  0.001877024    1.413    0.292
       205 -10.8852    108.8781     73.4154   9.4372966232e+01   4.6822803067e+01    0.4051193    0.2201004 -40.07  0.001765833    1.885    0.469
       206 -11.1352     16.9474     72.5999   1.2564966214e+02   5.9746639511e+01    0.3599728    0.2178976 -75.59   0.00086423    2.275    0.560
       207 -10.3745     16.6788     67.9255   1.2460820474e+02   6.0695974309e+01    0.2078246    0.1934815 -75.34  0.001354176    1.385    0.278
       208 -10.9329     21.1533     65.9179   1.2239059267e+02   6.0759769178e+01    0.3579022    0.1951312  27.46   0.00161852    2.091    0.522
       209 -11.4337    152.4297     72.2466   8.2958192519e+01   3.7192786752e+01     0.293164    0.2710359 -40.47 0.0007899576    1.144    0.126
       210 -10.9398    102.5876     73.0355   9.6095484232e+01   4.8156670271e+01    0.2607985    0.2022026  37.97 0.0003330881    1.252    0.201
       211  -9.6509    245.2991     72.6807   6.7562194353e+01   1.5221555414e+01    0.1405528    0.0890514 -68.09 0.0004098269    1.619    0.382
       212 -10.1025    174.8717     71.8341   7.8220638958e+01   3.1785118239e+01    0.2060819    0.1680134 -75.52 0.0004044422    1.308    0.236
       213 -11.0144     78.0512     71.9724   1.0350261556e+02   5.2786139426e+01    0.2982636    0.1900965  41.72 0.0003505211    1.660    0.397
       214 -11.3545     27.3324     70.4310   1.2123919236e+02   5.9374802084e+01    0.2707111    0.1937566 -51.00 0.0002207862    1.257    0.205
       215 -10.8250     31.0642     66.2325   1.1869243199e+02   5.9864269839e+01    0.3331596    0.1826853 -52.89  0.001165934    1.674    0.403
       216 -10.9769    140.1741     69.5708   8.4995479048e+01   4.0562639009e+01    0.3432427     0.209574 -42.97 0.0008894964    1.735    0.424
       217 -11.6345     95.4316     67.3403   9.6467317724e+01   5.0551362064e+01     0.568381      0.40658 -17.42  0.002635557    1.555    0.357
       218 -11.9870     49.7488     69.6355   1.1269736285e+02   5.7237027571e+01     0.434668    0.3029711 -22.52  0.002488766    1.389    0.280
       219 -10.8326    129.7203     65.9759   8.6472571093e+01   4.3579159890e+01    0.5987547    0.2276143 -34.02  0.001974026    2.943    0.660
       220 -10.7925     68.7676     67.4313   1.0523401437e+02   5.5079529833e+01    0.2874342    0.2292256 -28.18  0.001060162    1.154    0.134
       221 -11.6552      5.1422     65.9130   1.2849195847e+02   6.1811120635e+01    0.3607464    0.3137437  57.56  0.001952445    1.632    0.387
       222 -10.3197      1.2410     61.9917   1.2907195240e+02   6.2779653750e+01    0.1975047   0.09730933 -61.27 0.0005847458    1.776    0.437
       223 -10.0394    147.3506     66.3860   8.2411561617e+01   3.9387658618e+01    0.3757793     0.240604  83.97  0.001434858    2.405    0.584
       224 -10.4397     77.0199     65.0605   1.0165859483e+02   5.4208751022e+01     0.242396    0.1927895 -35.25 0.0009679825    1.235    0.190
       225 -11.7831     82.5965     61.7113   9.8717124349e+01   5.3849591416e+01    0.6268207    0.3639612  29.63  0.001620533    1.783    0.439
       226  -9.4899    189.1406     64.1713   7.3672145959e+01   2.9528631193e+01    0.1943908    0.1555671 -81.88 0.0002544953    1.268    0.211
       227  -9.7974    173.9245     63.9043   7.6289846195e+01   3.3306481303e+01     0.216107    0.1890456  44.91 0.0004743058    1.215    0.177
       228  -9.9537    120.6738     64.6768   8.8404482746e+01   4.5817281168e+01    0.1505698    0.1092444  16.39 0.0005920714    1.689    0.408
       229  -9.9377     41.2521     64.1989   1.1423672725e+02   5.9234404724e+01    0.1498569    0.1407066 -44.64 0.0003865318    1.298    0.230
       230 -10.9256     56.2073     62.3955   1.0810989150e+02   5.7769331587e+01    0.2267193    0.1603478 -37.74 0.0003918644    1.298    0.229
       231 -10.8584     51.8099     62.3404   1.0971070492e+02   5.8345890751e+01    0.2609268    0.1758232 -21.83 0.0005932532    1.444    0.307
       232 -12.0149     10.1082     62.0225   1.2564885104e+02   6.2278598053e+01    0.4669462    0.2902111  55.47  0.000883216    3.032    0.670
       233  -9.0753    202.6552     62.6781   7.1142238849e+01   2.6488887935e+01    0.1401831    0.1099336  31.43 0.0007050021    1.732    0.423
       234  -9.7022    160.6901     61.1131   7.8082356797e+01   3.6994320898e+01    0.1958314     0.191317 -39.86 0.0009346258    1.122    0.109
       235 -11.1401     64.7142     60.1147   1.0430320190e+02   5.6986646096e+01     0.342423     0.186602  31.88  0.001704464    1.849    0.459
       236 -10.6046     69.7803     58.2274   1.0189472768e+02   5.6546199167e+01     0.363916    0.3278265 -74.39  0.002222904    1.616    0.381
       237 -11.5416     29.7866     60.7252   1.1761297657e+02   6.1025027376e+01    0.6508527    0.2449855  15.06  0.002650492    3.738    0.733
       238  -9.9699     17.8295     59.5969   1.2198675379e+02   6.2219215309e+01    0.2102038    0.1342194  35.31  0.001282937    2.012    0.503
       239 -10.1659    136.8494     57.8241   8.2282238469e+01   4.3225129186e+01    0.1872804    0.1668584 -80.52 0.0002766498    1.274    0.215
       240 -10.7073     44.4121     57.5689   1.1098516067e+02   6.0093459307e+01    0.2913335    0.2151872  27.73  0.001623862    1.455    0.313
       241  -9.7175     38.7513     58.2364   1.1337661833e+02   6.0599646006e+01    0.1760851    0.1200787 -19.70 0.0007307087    1.372    0.271
       242 -11.0106    123.1806     56.4993   8.5201251029e+01   4.6556802850e+01    0.2579387    0.2268021 -75.49 0.0008826532    1.385    0.278
       243 -10.4658    114.4068     57.2527   8.7739877785e+01   4.8364567501e+01    0.3096225    0.1778266  40.86  0.001018568    1.659    0.397
       244  -9.9539    146.4778     56.0078   7.9582225127e+01   4.1217373901e+01    0.2041889    0.1444311 -34.93 0.0004916713    1.534    0.348
       245 -10.7482    101.5450     55.8674   9.0904735241e+01   5.1252640743e+01    0.5520295    0.1868118  48.36  0.001997102    2.876    0.652
       246  -9.9438     75.6237     56.1799   9.9197900139e+01   5.5952781938e+01    0.2120121    0.1732317  43.78  0.001240361    1.388    0.279
       247  -9.7877     58.4404     56.4874   1.0536909718e+02   5.8505631642e+01    0.1289019    0.1095135 -11.32 6.965303e-05    1.009    0.009
       248 -12.2684    128.1337     51.2455   8.2331053957e+01   4.6216142860e+01    0.4966612    0.3481124 -18.38 0.0005676225    1.690    0.408
       249 -12.4422     37.9066     51.5162   1.1156448012e+02   6.1877052129e+01    0.5200335     0.360052 -19.66 0.0009630009    1.292    0.226
       250 -10.4506     44.8992     51.4951   1.0881245177e+02   6.1092468350e+01    0.2856144    0.1767499 -20.73 0.0006357129    1.598    0.374
       251 -11.3339      5.1419     52.3997   1.2513567729e+02   6.4384501922e+01    0.3928727    0.1718668 -24.50  0.002049158    2.408    0.585
       252  -9.2066     56.5093     53.4693   1.0506839388e+02   5.9281742608e+01    0.1271399    0.1087419  -9.19 0.0002379704    1.033    0.032
       253 -11.2123     13.2056     51.3948   1.2155133715e+02   6.4062946088e+01    0.3015243    0.1894036 -53.57 0.0009769875    1.499    0.333
       254 -10.4963    121.7383     51.5268   8.3997213353e+01   4.7618483459e+01    0.3048937    0.1877465  28.75  0.001384913    1.924    0.480
       255 -10.4809     86.9115     52.3519   9.4186268367e+01   5.4601987455e+01    0.2261721    0.1521564  43.38  0.001090195    1.469    0.319
       256 -10.5039     71.4461     50.9072   9.8824660652e+01   5.7481596442e+01    0.3473996    0.2263544  41.95  0.001270533    1.617    0.381
       257 -10.2610     76.9039     50.5044   9.6822206182e+01   5.6646040145e+01    0.2292688    0.1516663  29.34 0.0008029554    1.445    0.308
       258  -9.3538     50.0426     51.9954   1.0700157181e+02   6.0378402542e+01    0.1732648    0.1253187  -7.95 0.0003593194    1.318    0.241
       259 -10.6610     51.2940     48.4285   1.0530352674e+02   6.0807989159e+01    0.2380626    0.1922019 -84.14 0.0009019345    2.546    0.607
       260 -11.2419    114.2190     49.9432   8.5431259815e+01   4.9497757823e+01    0.3889832    0.2650729 -44.25  0.001965736    1.679    0.405
       261 -10.6286    196.9473     48.1568   6.8474643453e+01   3.0024773063e+01    0.2116548    0.1850024 -64.95 0.0002440171    1.123    0.110
       262 -11.0888    153.7363     48.1010   7.5791424913e+01   4.0604435926e+01    0.3647813    0.2438354 -72.75  0.001177597    2.028    0.507
       263 -10.7980    101.2152     48.3966   8.8508638726e+01   5.2440332281e+01    0.2349689    0.1829651 -79.12  0.001196668    2.092    0.522
       264  -9.2724    104.3151     46.3232   8.6930140564e+01   5.2103326862e+01    0.2870907    0.1532869  18.28 0.0007021359    3.371    0.703
       265 -10.6363     62.6556     47.2679   1.0066576373e+02   5.9410681758e+01    0.2299509     0.178296  -1.94 0.0003514053    1.180    0.152
       266 -10.5296    142.7001     45.8722   7.7396961186e+01   4.3565333503e+01    0.2744444    0.2370216 -67.43 0.0007012738    1.309    0.236
       267 -10.1892     96.2207     47.0146   8.9498790118e+01   5.3633842508e+01    0.1899692     0.123532 -17.51 0.0009190126    1.741    0.425
       268  -9.8716     19.0903     47.0807   1.1781836874e+02   6.4395503678e+01    0.1596593     0.144672  82.95    0.0011352    1.813    0.448
       269 -10.7413      4.8016     47.3477   1.2389404021e+02   6.5321663820e+01    0.2394705    0.1331255 -36.12  0.001504564    1.386    0.278
       270 -11.1910     11.3418     43.7963   1.2007897266e+02   6.5536728322e+01    0.2815257    0.1996138 -21.54   0.00116294    1.161    0.139
       271 -11.1812      7.0040     41.3861   1.2120992189e+02   6.6236857698e+01    0.3153886    0.1292522 -51.37 0.0008001518    2.028    0.507
       272  -9.0742    233.3241     45.2928   6.3196302907e+01   2.1953654659e+01    0.1186574    0.1001754  43.40 0.0004159032    1.616    0.381
       273 -10.0576    122.6148     44.6994   8.1604202329e+01   4.8379760018e+01    0.2634366    0.2003575  15.73 0.0007670467    1.507    0.336
       274 -10.0232     91.8414     45.0805   9.0147454500e+01   5.4758358640e+01    0.1820518    0.1753142  -0.15 0.0002821997    1.182    0.154
       275 -10.6561     89.9890     39.9952   8.8928522499e+01   5.5814265911e+01     0.373124    0.1707368 -39.56  0.001673697    2.440    0.590
       276 -10.0275     85.8259     45.0865   9.2015587866e+01   5.5884233906e+01    0.1814959    0.1732108  17.72  0.000344879    1.193    0.162
       277  -9.1440    167.2947     44.7307   7.2326324916e+01   3.7753308859e+01    0.1379659    0.1022609 -80.58 0.0001927655    1.515    0.340
       278  -9.9951    156.1031     44.1630   7.4211802357e+01   4.0566260989e+01    0.1891988    0.1566394 -81.16            0    1.311    0.237
       279 -11.4710     51.6656     41.9129   1.0285107543e+02   6.1786805819e+01    0.3596687    0.1636641 -31.35  0.001738062    2.165    0.538
       280 -10.6074     80.7112     41.8373   9.2503936196e+01   5.7268111239e+01    0.2679361    0.2363971 -84.53  0.001611902    1.776    0.437
       281 -10.4441     64.1294     41.4659   9.8049820174e+01   6.0065691862e+01    0.2441056    0.1793608 -27.84   0.00103442    1.314    0.239
       282  -9.9697     68.5140     38.9926   9.5587072654e+01   5.9731871909e+01    0.2609016    0.1492653 -14.44  0.001287797    2.088    0.521
       283 -10.1983    163.0714     42.3500   7.2422274152e+01   3.9106656212e+01    0.2016397    0.1593284  65.55  0.000361945    1.132    0.116
       284 -10.2026    110.8426     41.9642   8.3697126753e+01   5.1327628187e+01    0.2248782    0.1870144  59.31 0.0003279591    1.270    0.213
       285 -10.5124     25.1978     41.4381   1.1341151844e+02   6.4833664231e+01    0.4590442    0.1969316  16.93  0.002297094    2.645    0.622
       286 -11.0168     20.5941     37.7617   1.1412825214e+02   6.5840038469e+01    0.2364229    0.1781019 -30.02 0.0008462092    1.122    0.108
       287 -11.7023     24.8665     35.6247   1.1153146491e+02   6.5799853914e+01    0.3052044    0.2253702  29.53  0.001147056    1.633    0.388
       288 -10.4499    101.0059     28.7623   8.1805355794e+01   5.5023394285e+01    0.1974178    0.1775958   2.47 0.0003885739    1.147    0.129
       289 -10.3962     96.4450     32.7226   8.4457378076e+01   5.5482934073e+01    0.4067072    0.1888054  28.37   0.00162132    2.916    0.657
       290 -10.7628     96.5461     40.6920   8.7222633742e+01   5.4446333805e+01    0.3323539    0.2379605  59.87  0.001373769    1.652    0.395
       291  -9.8963     97.0126     37.0080   8.5803150659e+01   5.4835332492e+01    0.1921755    0.1779384  41.06 0.0004779189    1.170    0.145
       292  -9.9811    226.3460     40.1174   6.2875427421e+01   2.4237385740e+01    0.1814437     0.143623 -65.23 0.0004399384    1.122    0.109
       293 -10.8582    135.4753     39.7420   7.7091723846e+01   4.6078191257e+01     0.251145    0.1961844 -40.52 0.0005832866    1.430    0.301
       294  -9.7348     44.2641     39.4443   1.0484949697e+02   6.3112602873e+01    0.2135534   0.09368467 -40.34 0.0009998821    2.146    0.534
       295  -9.7881     85.0548     38.7280   9.0000911130e+01   5.6908876365e+01     0.183601    0.1462202  32.71 0.0004828316    1.134    0.118
       296  -9.2994    234.7393     38.3043   6.1582094953e+01   2.2605355848e+01    0.1310879   0.08107355 -67.78 0.0001619126    1.519    0.342
       297 -10.1949    149.2161     37.9991   7.3761985891e+01   4.3033090702e+01    0.1991938    0.1753083 -80.34 0.0003780226    1.223    0.182
       298 -10.9135    101.6404     36.9540   8.4481834932e+01   5.3905416722e+01    0.2372926    0.1735221  43.90 0.0003828733    1.224    0.183
       299 -10.5695    105.8750     34.7995   8.2593984145e+01   5.3295222624e+01    0.3069193    0.2451231 -61.70  0.001737108    1.736    0.424
       300 -10.9871     80.6424     36.8955   9.0740710224e+01   5.7954879843e+01    0.3005149    0.2132119   9.69  0.001710046    1.448    0.309
       301  -9.9830     84.8463     35.3250   8.8837829016e+01   5.7394325894e+01    0.2831518    0.1037813  42.56  0.001021248    2.448    0.591
       302  -9.2556    154.6919     36.2821   7.2239764266e+01   4.1924446304e+01    0.1360057     0.101297 -80.85 0.0002024312    1.563    0.360
       303  -9.8326     56.8335     35.8225   9.8638049719e+01   6.1963099072e+01    0.1518426    0.1374442 -18.10 0.0005210151    1.298    0.230
       304 -12.3733    226.7910    246.0638   1.0608421497e+02  -1.1166544988e+01    0.6804515    0.4568308   6.84   0.00400102    1.490    0.329
       305  -9.5925    115.5089    244.5101   1.2823266772e+02   7.6466796069e+00    0.1329205    0.1111343  55.12 3.763513e-05    1.011    0.011
       306 -10.3234      8.1326     21.1739   1.1380375762e+02   6.9392509444e+01    0.1775985    0.1250789 -29.73 0.0003453407    1.166    0.142
       307 -10.2829     72.0501    243.7005   1.3680558693e+02   1.4628783086e+01    0.2415579     0.186667  53.82 0.0009960757    1.158    0.137
       308 -10.3116    110.9639     34.8642   8.1291087747e+01   5.2205725056e+01    0.1975594    0.1837204   4.24 0.0002858254    1.129    0.114
       309 -10.1728     70.9637     35.3454   9.3387026249e+01   5.9831969146e+01    0.1766683    0.1431718  16.88 0.0005183364    1.058    0.055
       310 -10.1522    150.8009     34.3465   7.2405131247e+01   4.3101624026e+01    0.2007472    0.1075636  53.26 0.0003687211    1.630    0.387
       311 -10.0293     31.6112     34.0639   1.0807630988e+02   6.5372149241e+01    0.1789552    0.1376468  18.95 0.0006217146    1.342    0.255
       312  -9.3405    129.6263     33.2111   7.6340169117e+01   4.8239307020e+01    0.1703214    0.1296419  -8.04 0.0005516465    1.571    0.363
       313 -10.2577    178.6768     31.6790   6.7043351280e+01   3.6641651629e+01    0.2334717    0.1867299 -81.30 0.0003959368    1.223    0.183
       314  -9.0583    118.5595     32.5500   7.8651603410e+01   5.0822366666e+01     0.131439    0.1198312  57.76 0.0002767671    1.126    0.112
       315 -10.3965     18.6117     31.6200   1.1283918858e+02   6.6982662046e+01    0.1961799    0.1919373  55.93  0.001531337    1.738    0.425
       316 -10.2278      4.7319     17.6309   1.1408593049e+02   7.0154325623e+01    0.2008643    0.1000529 -36.74 0.0005757097    1.571    0.364
       317  -9.9938     73.9338     31.0547   9.0774111332e+01   5.9887006021e+01    0.1883753    0.1515449  12.33 0.0003426354    1.071    0.066
       318 -10.2163     56.1291     30.9064   9.7027513016e+01   6.2740530695e+01    0.1730958    0.1516701   0.52 0.0005285203    1.179    0.152
       319  -9.9071     83.1192     30.2714   8.7524629360e+01   5.8345220877e+01    0.1887427    0.1502865  75.17  0.001072531    1.987    0.497
       320 -10.6167    212.9824     28.9801   6.1954461832e+01   2.8765781064e+01    0.1886827    0.1453379  47.94 0.0004746765    1.604    0.376
       321 -10.0771    162.9556     29.0268   6.8789704683e+01   4.0787182116e+01    0.1988501    0.1751415  70.52   0.00120937    1.024    0.023
       322  -9.6598    191.4909     28.9570   6.4575541183e+01   3.3865330980e+01    0.1704138    0.1299843 -40.83 1.418604e-05    1.438    0.305
       323 -10.3224    154.7097     27.3837   6.9720414779e+01   4.2972289466e+01     0.210817    0.1596497  19.10 0.0007374636    1.709    0.415
       324 -10.2339    124.8948     27.8765   7.5689620984e+01   4.9933325155e+01    0.1957939    0.1529793  38.06  0.001136084    1.197    0.165
       325 -11.5072     71.0219     26.1925   8.9895931417e+01   6.0980595009e+01    0.4451164    0.2427082  32.86  0.002266461    1.663    0.399
       326 -10.0806     50.2894     27.8805   9.8078390767e+01   6.3972577802e+01     0.215389    0.1340488 -13.59 0.0008998028    1.576    0.366
       327  -9.9764     24.9689     26.8394   1.0822982243e+02   6.7116949467e+01    0.2009427    0.1268989  -0.85  0.000885051    1.463    0.316
       328 -11.9321     74.0254    238.1900   1.3586983585e+02   1.5454120671e+01    0.6027317    0.3733159  54.00  0.003427753    1.362    0.266
       329  -9.2215     90.5296     26.5412   8.3931918607e+01   5.7376058428e+01    0.1271265     0.109741  29.04 1.066322e-05    1.051    0.049
       330 -11.5748     61.4444     24.0796   9.2399182359e+01   6.2800638145e+01    0.3486997    0.3200512 -42.13  0.002435561    1.585    0.369
       331 -10.2728     65.3424     20.8533   8.9743294078e+01   6.2549943231e+01    0.2536054    0.1573641  47.91  0.000756185    1.747    0.428
       332 -10.0128     16.6073     25.8519   1.1161774543e+02   6.8027995673e+01    0.2039907   0.08271549 -39.66  0.001112867    2.038    0.509
       333  -9.6716    221.0039     24.4919   6.0113214621e+01   2.7474237550e+01    0.1925831    0.1090526  72.15  0.000495245    1.562    0.360
       334  -9.9594    174.4601     24.4767   6.5811648676e+01   3.8512149007e+01    0.1345653    0.1142481  78.39 7.728147e-06    1.011    0.011
       335  -9.8841     97.4920     24.4786   8.1239145720e+01   5.6219322969e+01    0.1286618    0.1101688  33.82 0.0004669905    1.031    0.030
       336 -10.7751    103.5337     19.3172   7.7842329414e+01   5.5508941113e+01    0.3476774     0.136545  38.18  0.001443406    2.598    0.615
       337 -10.7302     54.0309     23.3380   9.4835272704e+01   6.4017340744e+01    0.2012351    0.1729063  14.15  0.000326839    1.202    0.168
       338  -9.6450    245.9949     23.0261   5.7454711175e+01   2.2154317935e+01    0.1441102     0.111373 -77.39 0.0009468999    1.004    0.004
       339 -10.8228     35.6261     21.8876   1.0163343278e+02   6.6644554253e+01    0.2885808    0.1682395 -29.95  0.001797331    1.558    0.358
       340 -11.2656     73.9850    233.0096   1.3534108675e+02   1.6529234137e+01    0.3487472    0.1801574  48.22  0.001783959    1.665    0.399
       341 -11.9652     35.3786    241.5828   1.4349625237e+02   1.9959764375e+01    0.6671956    0.2555685  48.83  0.003427853    2.122    0.529
       342 -10.9554     28.3791     18.9999   1.0358936489e+02   6.7846263635e+01    0.3440184    0.1928767   4.86  0.002039976    1.841    0.457
       343  -9.6976     31.5010    237.0701   1.4386579243e+02   2.1339466489e+01    0.1950089    0.1566209 -86.28 0.0006477531    1.234    0.190
       344 -10.4604     29.2269    233.1588   1.4399269984e+02   2.2408475744e+01    0.3249611    0.1693444  67.14  0.001647812    1.680    0.405
       345 -10.0547    124.2650     22.0337   7.3958038707e+01   5.0700804594e+01    0.1730146    0.1586416  47.17   0.00111086    1.075    0.070
       346 -11.0874     84.9740     20.5715   8.3348150597e+01   5.9097224606e+01     0.380258    0.2374327  16.62  0.002080783    1.739    0.425
       347  -9.6041     89.5472     21.5062   8.2369286474e+01   5.8118682650e+01    0.1255587    0.1071064  29.74 4.233705e-05    1.045    0.043
       348  -9.7084    136.8597     20.1507   7.0838355098e+01   4.7991017908e+01    0.1814773    0.1334462  42.66  0.000254113    1.289    0.224
       349  -9.3461     45.4860     20.4880   9.6996923776e+01   6.5570856563e+01    0.1186778   0.09132728   3.61 0.0008103536    1.016    0.016
       350  -9.6077    157.4742     19.0234   6.6934941826e+01   4.3208598358e+01    0.1638085    0.1320538 -33.40 1.759136e-05    1.446    0.308
       351 -10.1846    108.3827     17.2126   7.5933128693e+01   5.4686439285e+01    0.2040928    0.1759572 -73.39 0.0006598607    1.533    0.348
       352 -10.0438     88.7223    241.3826   1.3328164231e+02   1.2584476688e+01    0.2041956    0.1504487 -47.39  0.001178644    1.816    0.449
       353 -10.8693    156.1697    240.5712   1.1929488207e+02   1.3775103688e+00     0.252724    0.1832014 -77.01  0.001329027    1.979    0.495
       354  -9.3978     50.2942    240.3290   1.4064936903e+02   1.8325169465e+01    0.1047772   0.09233236 -53.24 0.0003695351    1.630    0.386
       355 -10.0895    195.8482    238.2666   1.1079911684e+02  -5.0785113646e+00    0.2535556    0.1603252  22.46  0.001313284    1.606    0.377
       356 -11.3074    177.2206    235.4678   1.1412997518e+02  -1.4170215340e+00    0.4268834    0.2622344 -15.72  0.001884317    2.641    0.621
       357 -10.5400    166.3705     15.0589   6.4527524376e+01   4.1473003870e+01    0.3962782    0.1952172  78.79  0.001788288    2.110    0.526
       358  -9.6216     56.7136     16.3665   9.0996859751e+01   6.4424766415e+01     0.176985    0.1597493  -7.20 0.0006086727    1.340    0.254
       359 -10.6320     55.4848     13.4594   9.0240140810e+01   6.4928030041e+01    0.1488294    0.1439391  26.95 0.0006055709    1.544    0.352
       360  -8.9466    119.5162    247.4913   1.2779221696e+02   6.4148862729e+00    0.1321431    0.1103319  53.01 2.807181e-05    1.016    0.016
       361  -9.5013     50.0027     15.2313   9.3040725675e+01   6.5554801389e+01    0.1519965   0.08313071  36.06 0.0008817929    1.650    0.394
       362 -12.1407    232.9241    246.1988   1.0495581308e+02  -1.2088497950e+01    0.4224396    0.3045754 -16.47  0.002677359    1.329    0.248
       363  -9.3661    104.4126     14.4440   7.5925658606e+01   5.5793157136e+01    0.1229739    0.1077971  46.40 0.0007995873    1.098    0.089
       364 -10.5919      1.4318    245.0059   1.4954268038e+02   2.3046094482e+01    0.1569105    0.0819308 -83.82 0.0004826222    1.554    0.356
       365 -10.1788    159.8945    235.8727   1.1779828477e+02   1.5647759209e+00    0.2086999    0.1724752  20.51 0.0005632184    1.253    0.202
       366 -10.2277    109.7048    242.8142   1.2920560336e+02   8.9357847962e+00    0.2745214    0.1497019  51.38  0.000974867    1.601    0.375
       367  -9.3269    139.6722     13.3592   6.8293051004e+01   4.7992607642e+01    0.1319379    0.0928494 -73.48 0.0007042889    1.787    0.440
       368 -10.1384    166.9528    233.6541   1.1596990679e+02   7.1186424269e-01    0.2152713    0.1871295 -19.06 0.0008122358    1.305    0.234
       369 -10.7468    153.4345    233.6417   1.1880922488e+02   3.1211028028e+00    0.2529701    0.2054273 -18.59   0.00142333    1.551    0.355
       370  -9.5966    108.1693     10.4068   7.3652685782e+01   5.5355668917e+01    0.1715965    0.1093408  67.10 0.0007430844    1.630    0.386
       371  -9.6341     24.3610    232.2498   1.4481518374e+02   2.3153515065e+01    0.1611113   0.08739125  89.96 0.0007196533    1.592    0.372
       372  -9.9371     79.7140    231.5263   1.3401823653e+02   1.5983201388e+01    0.2193114    0.1177481  38.73 0.0005870237    1.814    0.449
       373 -10.0065    137.0067    247.6867   1.2426044544e+02   3.4197354310e+00    0.1887611    0.1483956  44.22 0.0004199377    1.074    0.069
       374  -9.3435     58.3425    230.3006   1.3819429396e+02   1.9321764534e+01    0.1095703   0.09942138 -34.84 0.0004684004    1.674    0.403
       375 -10.1519    133.3765     17.2647   7.0623611882e+01   4.9087958031e+01     0.175778    0.1692585  41.33 0.0005225236    1.144    0.126
       376 -10.2857    190.4983    227.1001   1.0997858039e+02  -2.2986492602e+00    0.3584475    0.1325937 -42.19  0.001403697    2.960    0.662
       377  -9.7194    249.4609    227.4270   9.8608121533e+01  -1.1823296488e+01    0.1251036   0.09976283   0.21 0.0002262839    1.034    0.033
       378  -9.7059    127.3448    233.3433   1.2428883196e+02   7.7916751166e+00    0.1332433    0.1071482   1.18 0.0007046225    1.791    0.442
       379  -9.4664    140.1666    227.3703   1.2067337006e+02   6.6955881208e+00    0.2076922    0.1128618  48.89 0.0009420511    1.703    0.413
       380 -10.2256    129.9543    226.9405   1.2280979530e+02   8.6047263475e+00    0.3400662    0.1599673  57.46  0.001311408    2.675    0.626
       381 -10.1664     88.1451    227.1308   1.3176675386e+02   1.5607544062e+01    0.1907662    0.1803285  72.72  0.001229459    1.211    0.174
       382 -10.3837     66.4101    226.5654   1.3620130566e+02   1.8988275878e+01     0.282454    0.1569009  45.08 0.0009147326    1.622    0.384
       383 -10.3950      5.4337    226.3220   1.4781328100e+02   2.6374845794e+01     0.310718   0.09207693  60.78  0.001325747    3.415    0.707
       384  -9.6497    144.2930    226.6501   1.1967391452e+02   6.0933166639e+00    0.1408014    0.1034722  72.61  0.000703033    1.674    0.403
       385 -10.5232    115.8470    225.8173   1.2569245245e+02   1.1303903551e+01    0.1998292    0.1486381  69.28 0.0006316155    1.373    0.272
