#   1 NUMBER                 Running object number                                     
#   2 MAG_AUTO               Kron-like elliptical aperture magnitude                    [mag]
#   3 X_IMAGE                Object position along x                                    [pixel]
#   4 Y_IMAGE                Object position along y                                    [pixel]
#   5 X_WORLD                Barycenter position along world x axis                     [deg]
#   6 Y_WORLD                Barycenter position along world y axis                     [deg]
#   7 A_WORLD                Profile RMS along major axis (world units)                 [deg]
#   8 B_WORLD                Profile RMS along minor axis (world units)                 [deg]
#   9 THETA_WORLD            Position angle (CCW/world-x)                               [deg]
#  10 FWHM_WORLD             FWHM assuming a gaussian core                              [deg]
#  11 ELONGATION             A_IMAGE/B_IMAGE                                           
#  12 ELLIPTICITY            1 - B_IMAGE/A_IMAGE                                       
         1 -15.3435    244.7933    149.1603   1.0805739800e+01   8.6197622548e+00     4.122355     1.874601 -38.77   0.02356326    1.671    0.402
         2 -11.1884    246.3868      4.6221   3.4335423936e+02   2.7247687919e+01    0.7420022    0.3544988 -61.60  0.004917268    1.597    0.374
         3 -14.2350    245.9171    122.1763   5.8153121342e+00   1.2378251931e+01     3.157307     1.452236 -55.11  0.009324905    3.009    0.668
         4  -8.5682    240.0797    218.2677   2.2705087872e+01  -4.1976505994e-01    0.1371566    0.1050971  -5.55 0.0004569338    1.166    0.142
         5 -13.8314    186.9715    235.1417   3.3897894293e+01   2.3799608490e+00     2.938149     1.941602  18.89   0.01986805    1.347    0.258
         6 -12.9208     14.0386    239.8887   7.2750034242e+01   1.9951091741e+01     2.757396     1.155303  49.41   0.01414873    1.891    0.471
         7  -8.6221    211.4663    203.9229   2.4957812165e+01   4.3708987901e+00    0.1764584    0.1538934  29.83 0.0009009532    1.547    0.354
         8 -10.2288    248.3030    201.3761   1.8970587813e+01   1.0175813765e+00    0.2615052     0.250964   5.07  0.001342618    1.715    0.417
         9  -9.0963    241.0415    198.6366   1.9566472956e+01   2.0735803610e+00    0.3200414    0.2619233  83.65  0.001955243    3.652    0.726
        10  -7.5175    205.3305    200.2477   2.5399303164e+01   5.5984398205e+00    0.1156585   0.07472341  -7.10  0.000654547    1.547    0.354
        11  -9.9914    192.6996    193.4777   2.6500929718e+01   8.1442338912e+00    0.7410064    0.3070444 -53.03  0.002986919    3.759    0.734
        12  -9.1583    171.3568    194.5938   3.0721496146e+01   1.0644241258e+01    0.3766118    0.2039431 -59.41  0.001679753    2.988    0.665
        13  -8.3282     69.0699    195.9896   5.5565354551e+01   2.4050061967e+01    0.2255487     0.159701 -22.98  0.001086964    1.791    0.442
        14 -12.4747    229.7731    170.6407   1.6588836623e+01   7.2515989071e+00     1.212068    0.6794577 -20.67  0.006563921    1.848    0.459
        15 -12.5926    241.1814    165.1809   1.4056544115e+01   6.7329484330e+00    0.8276992    0.3826257 -48.42  0.003394451    2.431    0.589
        16  -9.4347     45.3082    236.4370   6.5185695063e+01   1.7772719583e+01    0.2108721    0.1901277  27.52  0.001436858    1.132    0.117
        17  -8.1138    185.4364    182.4756   2.5962744455e+01   1.0900743527e+01    0.1818895    0.1540144  24.04 0.0001515121    1.272    0.214
        18  -9.5656    181.7200    180.3779   2.6293420465e+01   1.1759045223e+01     0.337164    0.2477712 -28.69  0.001282913    1.210    0.174
        19  -9.8046    182.5546    173.5050   2.4915842180e+01   1.2850423331e+01    0.4357789     0.291679  17.66  0.002439892    1.649    0.394
        20 -10.8720    174.5854    177.0230   2.7073838022e+01   1.3335078989e+01    0.7191271    0.3053032 -41.65   0.00263974    2.166    0.538
        21 -10.4386    179.9174    168.0213   2.4415065098e+01   1.4200102928e+01     0.539526    0.2814709  26.34  0.002565045    2.267    0.559
        22  -8.5207    153.6423    178.3292   3.1627107808e+01   1.6091241350e+01    0.1307124    0.1076402  72.32 0.0002438056    1.787    0.440
        23  -8.8622    204.5516    168.0794   2.0051756128e+01   1.0789244415e+01    0.2416392    0.1927505 -80.71  0.001413054    2.273    0.560
        24 -11.1035    134.2055    178.9405   3.6143966479e+01   1.8840947218e+01    0.3854529    0.2558609  -1.57  0.001811159    1.964    0.491
        25  -8.1670    218.0046    166.2558   1.7578771777e+01   9.3476020738e+00    0.1542653    0.1268503 -17.97 0.0001850205    1.074    0.069
        26 -11.4813      1.8945    159.1972   7.2616083879e+01   4.0032183251e+01    0.8329251    0.2622368 -86.17  0.002928623    3.105    0.678
        27 -13.0063    128.4140    154.0754   3.2994453069e+01   2.5119732277e+01     1.734931    0.8806369  20.91  0.006326807    2.936    0.659
        28 -11.1966    135.1112    155.3349   3.1596481044e+01   2.3723612916e+01       0.3889    0.3260165   7.65  0.001032841    1.282    0.220
        29  -8.1702    180.4375    145.6801   2.0020818806e+01   1.8188421021e+01    0.2489593    0.1170496 -46.48  0.001100037    1.977    0.494
        30 -12.2513    120.4260    139.0425   3.1979465206e+01   2.9905197099e+01    0.8416452    0.3618833 -47.25  0.003050833    2.281    0.562
        31 -10.0318    208.9130    135.2179   1.3169310597e+01   1.5598348098e+01    0.3916273    0.2210653 -58.53  0.001886738    2.462    0.594
        32  -8.2017    180.9373    134.6715   1.7680933305e+01   2.0126403159e+01    0.1754987    0.1668041 -30.38 0.0004687441    1.085    0.078
        33  -9.7856    197.9409    133.1385   1.4465455255e+01   1.7635757985e+01    0.6009665    0.2297654 -44.87  0.002326109    2.302    0.566
        34 -10.9633    203.6071    131.1373   1.3168927619e+01   1.7087486542e+01    0.7482969    0.4876428 -26.51  0.002383385    1.559    0.358
        35 -12.0122      2.1571    128.6220   7.0692631828e+01   4.8343805002e+01     1.080255    0.3157569 -88.22  0.003390701    3.632    0.725
        36  -8.0575     65.1693    132.0210   4.7540297913e+01   4.0935645283e+01    0.2029546    0.1936211 -79.61 -0.0006383859    1.038    0.037
        37  -9.0549    191.8741    127.8777   1.4376352742e+01   1.9527981062e+01    0.3608223    0.2677778 -80.27   0.00146479    2.027    0.507
        38  -8.5649    185.9194    125.5218   1.4882053072e+01   2.0943319895e+01    0.2453654    0.1326952  53.51 0.0008489923    2.286    0.563
        39  -8.5470    154.3176    126.3286   2.1090575932e+01   2.6427636424e+01     0.144396     0.110707  -9.75 0.0007046468    1.681    0.405
        40  -8.7945    108.5050    126.5490   3.2512482650e+01   3.5005548954e+01    0.1502562    0.1491525 -66.08 2.770222e-05    1.012    0.012
        41  -8.9731    171.8492    122.4624   1.6733720146e+01   2.3971446001e+01    0.2445762    0.1367964  52.37 0.0008413258    2.086    0.521
        42  -8.1309    177.1780    123.8703   1.6063262429e+01   2.2758739684e+01    0.1969133     0.170643 -63.78 0.0004339225    1.238    0.192
        43 -10.4332    153.9958    115.3473   1.8639034112e+01   2.8688204546e+01    0.5478072    0.2878114 -61.08  0.002100303    2.665    0.625
        44 -11.9321    243.1658    133.4272   8.1947203580e+00   1.1106138555e+01    0.4164004    0.2892247 -27.73  0.000930645    1.242    0.195
        45 -10.0266    167.9858    116.5735   1.6141770993e+01   2.5790268893e+01    0.3084937     0.264255 -60.60 0.0006723184    1.181    0.153
        46  -9.2187    205.4825    125.0065   1.1646251645e+01   1.7818240583e+01    0.2373011    0.1551959 -28.78 0.0008078633    1.492    0.330
        47  -7.7344    191.0000    139.0191   1.6804134420e+01   1.7709275580e+01    0.2211288   0.06523333 -42.34 0.0008022083    2.941    0.660
        48  -8.2993    204.4928    110.0009   8.6875091029e+00   2.0460872287e+01    0.1962876    0.1666684 -14.82 0.0006545807    1.339    0.253
        49  -9.7674    208.4480    108.8336   7.8890618984e+00   1.9992033102e+01      0.33149    0.2298171  -3.74  0.001101348    2.327    0.570
        50  -9.5922    139.1560    109.6324   2.0517562704e+01   3.2786588817e+01    0.2541625    0.1965014 -57.15 0.0006271998    1.289    0.224
        51  -9.4776    132.8227    108.8093   2.1806385514e+01   3.4243019535e+01    0.2096315    0.1755231 -79.25 0.0006507949    1.334    0.250
        52  -8.4732     42.8257    109.2603   5.1725943885e+01   5.0168563681e+01    0.2173619    0.1957893  60.97 0.0003558366    1.126    0.112
        53  -8.8690     95.8859    104.9568   3.1060791583e+01   4.2564221726e+01    0.2284944    0.2246486  63.53 0.0005878643    1.029    0.028
        54  -9.2564     61.9475    100.2577   4.1942528152e+01   4.9848287695e+01    0.3305863    0.2161951 -55.11 0.0009300876    1.503    0.335
        55 -12.2843    240.5750    126.6896   7.2713410341e+00   1.2433170447e+01    0.4289855    0.4050217  28.17 0.0004304623    1.368    0.269
        56  -8.8646    137.0947     96.9774   1.7771363012e+01   3.5797778883e+01    0.2187088    0.2070314 -63.25 0.0003359187    1.013    0.012
        57 -10.2301     52.8800     93.5211   4.3996876590e+01   5.2998230824e+01    0.4228359     0.264645  43.50  0.001590132    1.626    0.385
        58  -9.2696     45.5285     92.5850   4.6969479513e+01   5.4294366554e+01    0.3485162    0.2398226  44.34 0.0009999526    1.495    0.331
        59 -11.0772     14.2876     87.9077   6.0862307430e+01   5.8844599716e+01    0.5932509    0.3516229  71.42  0.002600785    2.043    0.511
        60  -9.6216    250.1922     86.1406   3.5864985265e+02   1.6849209364e+01    0.2779766    0.1064268 -42.54  0.001479123    1.874    0.466
        61  -8.7516    224.0134     81.8928   3.8136569054e-01   2.1530663495e+01    0.1794796     0.142842 -47.51 0.0003097753    1.022    0.021
        62 -12.5796    208.4491    180.9155   2.1661837098e+01   8.2308217513e+00     0.654094     0.464725  15.56  0.002223234    1.480    0.325
        63  -8.0898    181.4743     76.4391   4.4054852933e+00   3.0211059723e+01    0.2034933    0.1460365 -50.36 0.0001255416    1.211    0.174
        64 -12.8374      4.1845    202.4358   7.3816472768e+01   2.8974523440e+01     1.725208     1.020472  82.87  0.009263547    1.631    0.387
        65  -8.0852    184.2955     78.3320   4.4591497742e+00   2.9342526820e+01    0.1944721    0.1794813 -42.02  0.001041557    1.163    0.140
        66  -9.7278    246.9173     59.1598   3.5376968369e+02   2.0909371202e+01    0.1947285    0.1720615  58.07 0.0006396711    1.579    0.367
        67  -9.4221     70.2951     47.0184   2.1205514909e+01   6.0286753271e+01       0.1945    0.1900298 -51.12 0.0002753383    1.078    0.073
        68  -8.1423     93.0961     39.1571   1.0455687508e+01   5.6410124672e+01    0.1910671    0.1582699 -86.02  0.001027512    1.282    0.220
        69  -9.4850     77.4789     36.5424   1.4187320520e+01   6.0465301101e+01    0.2435257    0.2327053  57.48 0.0005912969    1.035    0.034
        70  -7.8669    208.1883     36.1873   3.5200504205e+02   3.0595371352e+01    0.1621121    0.1066016 -58.60 0.0003791621    1.233    0.189
        71  -7.5601     93.5858     22.5334   3.6039108014e+00   5.8570746702e+01    0.1366646    0.1225621  84.63 7.130436e-05    1.048    0.046
        72  -9.0515    206.2067     18.6967   3.4822110272e+02   3.3031539840e+01    0.1916004    0.1155223 -69.61 0.0005388751    1.434    0.303
        73 -12.3872    215.4522    230.2338   2.8278779534e+01   2.7192895845e-01     1.452009    0.7274808 -16.70  0.008463107    2.043    0.511
