#   1 NUMBER                 Running object number                                     
#   2 MAG_AUTO               Kron-like elliptical aperture magnitude                    [mag]
#   3 X_IMAGE                Object position along x                                    [pixel]
#   4 Y_IMAGE                Object position along y                                    [pixel]
#   5 X_WORLD                Barycenter position along world x axis                     [deg]
#   6 Y_WORLD                Barycenter position along world y axis                     [deg]
#   7 A_WORLD                Profile RMS along major axis (world units)                 [deg]
#   8 B_WORLD                Profile RMS along minor axis (world units)                 [deg]
#   9 THETA_WORLD            Position angle (CCW/world-x)                               [deg]
#  10 FWHM_WORLD             FWHM assuming a gaussian core                              [deg]
#  11 ELONGATION             A_IMAGE/B_IMAGE                                           
#  12 ELLIPTICITY            1 - B_IMAGE/A_IMAGE                                       
         1 -16.2558     31.1479    132.0122   1.2164934514e+02   4.4570049417e+01     4.453558     3.159353  41.55    0.0293272    1.515    0.340
         2 -12.7877    186.1595     33.5772   5.7497561488e+01   3.4112591171e+01     2.174735     1.268373   1.84  0.008489243    2.522    0.603
         3 -11.2023     28.0612      7.3439   9.2537762570e+01   7.1305300126e+01    0.6480622    0.4232734 -67.35  0.003209131    3.292    0.696
         4  -8.9511    211.8563      7.5367   4.6502230942e+01   3.0274536020e+01    0.2315279    0.1711401 -53.41 0.0004876011    1.320    0.242
         5 -10.3371    209.5793      2.5801   4.5309986616e+01   3.1330479489e+01    0.6049763     0.353155  37.75   0.00277658    2.091    0.522
         6 -12.0932      7.3345      4.9737   1.0290135414e+02   7.3564652119e+01    0.7947342    0.7308687  -9.86   0.00639361    1.311    0.237
         7  -9.1465     38.7270      3.5839   8.5177872233e+01   7.0603427497e+01    0.1504539    0.1133042  40.91 0.0009565188    1.669    0.401
         8  -9.5218      1.6773    206.5699   1.3255699245e+02   3.2525048004e+01    0.3644577   0.08810876 -88.63  0.001629367    4.266    0.766
         9 -13.8612    242.8862    226.3952   9.2355643288e+01  -4.0418324530e+00     3.268016     1.174581 -27.63   0.01688442    3.192    0.687
        10 -14.3758     79.8678    235.1478   1.2098319662e+02   1.9238761277e+01    0.5455855    0.3171944  46.11  0.003776039    1.341    0.254
        11 -13.6446     89.6607    247.2152   1.2026588400e+02   1.6173368687e+01    0.7212465    0.1803911  52.36  0.003157623    3.537    0.717
        12  99.0000     51.8613    216.4520   1.2446538991e+02   2.5723783473e+01     1.073306    0.3395647  56.59  0.005278022    2.799    0.643
        13 -15.1998     72.6288    245.9102   1.2293652841e+02   1.8537030488e+01    0.8242263    0.3620652  56.58  0.005195761    1.788    0.441
        14 -17.2260     53.4469    247.2044   1.2606800243e+02   2.0639932749e+01     3.663913     0.579111  47.73   0.01701126    3.411    0.707
        15 -15.8226     62.5864    233.7894   1.2378290141e+02   2.1613639593e+01       1.0386    0.6554044  83.34  0.007683873    1.510    0.338
        16 -11.0952     17.4275    209.6799   1.3003301851e+02   3.0550502848e+01    0.1027311   0.06445291  63.35 0.0007738356    1.149    0.129
        17 -10.4531     54.1885    208.1418   1.2347240157e+02   2.6885083198e+01    0.1242993   0.08760498  69.69 0.0002765457    1.113    0.102
        18 -12.8730     40.8474    204.5950   1.2564255559e+02   2.9036509263e+01    0.3632893    0.1599623 -78.25  0.002151952    2.192    0.544
        19 -11.0177     38.7752    197.1428   1.2553048703e+02   3.0608374135e+01    0.2497506    0.0860696 -82.89 0.0008803486    3.193    0.687
        20 -11.4570     76.9168    205.3009   1.1904793879e+02   2.4528991188e+01    0.1635271    0.1311645  75.61 0.0002994551    1.111    0.100
        21 -11.2357     48.8378    204.5934   1.2419180804e+02   2.8137299464e+01     0.137033   0.09969442  55.37 0.0005211094    1.159    0.137
        22  99.0000      6.6995    203.2970   1.3158035036e+02   3.2656930443e+01    0.2413169    0.1356943 -79.14  0.001774285    1.628    0.386
        23 -11.7740     62.2904    202.6329   1.2155717291e+02   2.6879721027e+01    0.1736924    0.1304039  64.26 0.0003664067    1.026    0.025
        24 -11.9756     58.6689    199.2642   1.2196397380e+02   2.7931335664e+01    0.2466556    0.1592613  30.76  0.000887166    1.917    0.478
        25 -10.0649     17.6711    201.8111   1.2961257949e+02   3.1911130581e+01    0.1978475   0.06569441  79.89 0.0009222224    3.436    0.709
        26 -11.3365     44.8820    198.4186   1.2448400601e+02   2.9700477144e+01    0.2718003     0.133607 -74.63  0.001660968    1.957    0.489
        27 -10.9746     49.9458    197.1219   1.2344106138e+02   2.9358872819e+01    0.3061035    0.2433797  66.97  0.002239775    1.083    0.077
        28  -9.1020     90.0348    196.8153   1.1570810543e+02   2.4227113843e+01    0.1659865    0.1314746  61.78 0.0004207243    1.019    0.018
        29  99.0000     26.1564    195.0627   1.2772644752e+02   3.2304322663e+01    0.3206338    0.2182656 -63.59  0.002336124    1.758    0.431
        30 -10.5555     20.3941    197.2061   1.2889204784e+02   3.2478759461e+01    0.1130462   0.08244293 -80.98 0.0008720546    1.364    0.267
        31 -11.3506     20.5581    193.7231   1.2867398026e+02   3.3098962065e+01    0.1241141   0.08373614  88.29 0.0009226686    1.231    0.188
        32 -11.0387     57.8326    193.6837   1.2166488102e+02   2.9056356664e+01    0.1553952    0.1166246  70.40 0.0004139584    1.055    0.052
        33 -10.3486      2.1860    192.9917   1.3193511364e+02   3.4889049972e+01    0.1765277   0.05080762  49.27 0.0005833273    2.439    0.590
        34  -9.6935     46.7606    190.9934   1.2358141745e+02   3.0860133765e+01      0.30012    0.2154045  27.58  0.002030484    1.867    0.464
        35 -11.4648     49.5068    189.4534   1.2293042903e+02   3.0834392823e+01    0.1717251    0.1331297  59.37 9.437568e-05    1.129    0.114
        36  -5.8383     40.2539    191.6232   1.2487200624e+02   3.1467721486e+01    0.1059742   0.07281132  76.97 0.0002250672    1.172    0.147
        37 -10.5925     11.5533    191.1626   1.3017786462e+02   3.4407194511e+01   0.09905129    0.0545639  52.52 0.0003703881    1.457    0.314
        38 -10.4947     35.0410    189.4835   1.2571455142e+02   3.2428019895e+01    0.2185822   0.09972268  37.78 0.0007784297    2.099    0.524
        39  99.0000    120.3926    233.1517   1.1386515938e+02   1.3931895834e+01     14.92083     2.165628  44.03   0.05122977    4.685    0.787
        40  -9.9946     13.9387    185.2954   1.2943895921e+02   3.5282745148e+01    0.1078991   0.08750909  80.59 0.0002155143    1.186    0.157
        41 -10.4024     16.1220    182.5160   1.2887606044e+02   3.5608901253e+01    0.1012275   0.07789542  88.47 0.0002197624    1.176    0.149
        42 -11.7009     43.4493    183.1826   1.2362140355e+02   3.2715529466e+01    0.1630912    0.1270456  62.52 0.0003401151    1.111    0.100
        43 -11.3601     32.9770    183.8632   1.2572481981e+02   3.3708820432e+01    0.3285029    0.1441108  41.28  0.001918874    2.019    0.505
        44 -11.1036     28.0195    183.4865   1.2665909608e+02   3.4285227583e+01    0.1401341    0.1052647  65.66 0.0003692524    1.089    0.082
        45 -10.2441      6.2811    183.8008   1.3078533752e+02   3.6235760307e+01   0.09258249   0.05910973  62.40 0.0001682311    1.210    0.173
        46  -9.0686    232.9342    180.8398   8.6295639017e+01   2.4166246144e+00    0.2783208    0.1403483  36.27 0.0009345944    1.738    0.425
        47  -9.2315     50.6184    180.3565   1.2195483071e+02   3.2446628197e+01    0.1108135   0.08739447  71.39 0.0001650381    1.018    0.017
        48 -10.2301     19.4208    179.7851   1.2808581892e+02   3.5825350413e+01    0.1009654   0.07530285  65.36 0.0002241038    1.109    0.099
        49  99.0000     84.4294    177.2800   1.1466211322e+02   2.8668868650e+01    0.3063022    0.2035349  71.28   0.00150241    1.486    0.327
        50  -9.8145     87.5039    171.7071   1.1333221571e+02   2.9314399523e+01    0.2588251    0.2024748 -52.20 0.0007487671    1.526    0.345
        51 -10.1703    233.6139    176.0030   8.5278332849e+01   2.8883748683e+00    0.2617064    0.2009623  34.97 0.0006563163    1.210    0.173
        52  -9.4684    175.4232    172.2021   9.5119995926e+01   1.4075715783e+01    0.2895372     0.248543  47.20 0.0008415487    1.123    0.109
        53  -7.8580    154.6396    171.7006   9.9172193037e+01   1.8037563286e+01     0.232568    0.1587956 -74.98  0.001048048    2.264    0.558
        54  -9.0197     40.4037    172.5268   1.2337652459e+02   3.5134774510e+01    0.3127432    0.1167445  56.72  0.001512894    2.560    0.609
        55  -7.8790    196.4135    170.2884   9.0763479817e+01   1.0412703678e+01    0.1593626    0.1268315 -44.67 0.0006562956    1.506    0.336
        56  -9.4618    201.6096    168.2005   8.9405008493e+01   9.7386619573e+00    0.2352705    0.2020262  39.20 0.0003934453    1.138    0.121
        57  -9.2529     96.7153    164.6801   1.1039445691e+02   2.9323306406e+01    0.2122497    0.1671439  69.32 0.0005314752    1.180    0.153
        58  -9.8547     93.7122    163.0025   1.1082303452e+02   3.0120886370e+01    0.3013168     0.247116 -69.33 0.0009821707    1.249    0.199
        59 -10.3381     81.8033    223.2442   1.1971067847e+02   2.0859590364e+01    0.1394256    0.1045216  58.06  0.000232478    1.024    0.024
        60  -8.8851    100.0604    140.0309   1.0575999201e+02   3.3865458789e+01     0.224609    0.1765894  50.88 0.0004687801    1.219    0.180
        61  -8.2531    105.3403    154.1663   1.0688170113e+02   3.0063879771e+01    0.2194656    0.1684415  39.30 0.0007133519    1.328    0.247
        62  -8.7081    182.7816    138.5279   8.6942832173e+01   1.8157491011e+01    0.2587142    0.1298902  42.55 0.0006193127    1.887    0.470
        63  -7.4800     71.5028    163.5313   1.1581363197e+02   3.3198501326e+01    0.1228087    0.1038381  75.10 -9.295005e-06    1.014    0.014
        64  -8.1803    104.3283    133.0878   1.0346295463e+02   3.4624794240e+01     0.179905    0.1607548 -81.28 0.0006177881    1.086    0.079
        65  -8.6502    161.1138    127.8624   8.9081733820e+01   2.4634416356e+01    0.3255346    0.2270264 -89.42  0.001369382    2.444    0.591
        66  -7.9281    169.3049    118.2760   8.5062818880e+01   2.4620754833e+01    0.1473546     0.113875  15.21 0.0001773957    1.546    0.353
        67  -8.3290    165.9517    115.7901   8.5176794461e+01   2.5817315643e+01    0.2247622    0.1312704  37.94  0.000481308    1.797    0.444
        68  -7.8757    134.1471    145.4065   9.8782836592e+01   2.6708703781e+01    0.2237536    0.1631428 -56.74 0.0008768257    1.476    0.323
        69  -7.6816    161.8690    111.8741   8.5098133293e+01   2.7450073926e+01    0.1946943    0.1744973 -88.30  0.001019425    1.286    0.222
        70  -9.0147    196.9304    107.0429   7.6714151273e+01   2.0327932700e+01    0.3023575     0.236386  46.93 0.0007410207    1.267    0.211
        71  -7.1357    125.2711    107.2801   9.2605066042e+01   3.6186970676e+01    0.1384435    0.1163097  -3.15 0.0006896296    1.493    0.330
        72  -7.6002    137.6283    101.7636   8.8134097917e+01   3.4733829987e+01    0.1495958    0.1149859  19.68 0.0004290543    1.610    0.379
        73  -8.5033    220.4583     96.9251   6.9996200676e+01   1.6552260577e+01    0.2506681    0.1860538  31.65 0.0002984002    1.414    0.293
        74  -8.0074    122.9582     95.9611   9.0302988829e+01   3.8997262096e+01    0.2338829    0.1828215 -89.42  0.001114103    1.653    0.395
        75  -7.7738    112.9269     88.6784   9.1008356374e+01   4.2527314855e+01    0.1946315    0.1876591  46.99 0.0005963175    1.066    0.062
        76  -7.9601    105.1292     82.3466   9.1413154091e+01   4.5363675246e+01     0.253849    0.1882009 -36.19 0.0007599661    1.376    0.273
        77  -8.0263     80.5047     78.5145   9.7719701609e+01   5.0502367909e+01    0.3232022    0.2069973 -18.72  0.001144898    2.533    0.605
        78  -8.6027    160.1084     77.0235   7.5932357347e+01   3.4229696486e+01    0.2632032    0.2251738  32.60 0.0004013286    1.205    0.170
        79  -8.3628    163.3403     75.6751   7.4831375057e+01   3.3675521857e+01    0.5389408    0.2414414  69.29  0.001459877    4.694    0.787
        80  -8.1357    119.3559     66.0688   8.2447984420e+01   4.5698923977e+01    0.2098588    0.1793008 -36.69 0.0003380347    1.142    0.124
        81  -9.1224    122.5786     62.0784   8.0265438527e+01   4.5731563593e+01    0.3490148    0.2342987 -52.61  0.001576346    1.670    0.401
        82 -11.7838    171.5301     49.3773   6.4998888215e+01   3.5811774861e+01    0.7468514    0.7068803 -37.35  0.002289906    1.066    0.062
        83 -12.3525     75.2499    219.8717   1.2059359691e+02   2.2269087548e+01     0.256745    0.2152056 -37.54  0.001446484    1.984    0.496
        84  -7.9416    162.2938     37.2857   6.2727490374e+01   3.9923430400e+01    0.1535389    0.1119106  28.24 0.0001803489    1.542    0.352
        85  -7.2880     40.6121     26.2766   9.5140513975e+01   6.6593251975e+01    0.1119178   0.09791037  81.89 0.0006998437    1.727    0.421
        86 -11.0581     68.2978    213.6907   1.2134292329e+02   2.4196236100e+01    0.1527506    0.1171231 -88.56 0.0002449783    1.290    0.225
        87 -11.3949     69.8885    208.5254   1.2063339642e+02   2.4882842419e+01    0.1565381    0.1286029  79.43 0.0003056458    1.156    0.135
        88 -12.1303     59.8183    210.1364   1.2259997795e+02   2.5860718832e+01    0.2828071    0.2224974 -31.08  0.001914479    2.418    0.586
        89  -8.3513     84.9325    211.5233   1.1812544863e+02   2.2377365930e+01    0.1354651   0.09073745  48.85 0.0006605433    1.221    0.181
