#   1 NUMBER                 Running object number                                     
#   2 MAG_AUTO               Kron-like elliptical aperture magnitude                    [mag]
#   3 X_IMAGE                Object position along x                                    [pixel]
#   4 Y_IMAGE                Object position along y                                    [pixel]
#   5 X_WORLD                Barycenter position along world x axis                     [deg]
#   6 Y_WORLD                Barycenter position along world y axis                     [deg]
#   7 A_WORLD                Profile RMS along major axis (world units)                 [deg]
#   8 B_WORLD                Profile RMS along minor axis (world units)                 [deg]
#   9 THETA_WORLD            Position angle (CCW/world-x)                               [deg]
#  10 FWHM_WORLD             FWHM assuming a gaussian core                              [deg]
#  11 ELONGATION             A_IMAGE/B_IMAGE                                           
#  12 ELLIPTICITY            1 - B_IMAGE/A_IMAGE                                       
         1 -15.4733      9.2157     25.8606   1.0449683798e+02   6.9195695627e+01     2.689156     1.000513 -48.67   0.01413735    1.893    0.472
         2 -13.3910     30.6473     10.6913   8.7537785011e+01   6.9906211749e+01     1.767441    0.4904674 -39.74  0.007451756    3.032    0.670
         3 -14.3708     25.0603     48.8125   1.0496173216e+02   6.3586023825e+01     2.985802     1.276292 -27.82   0.01286983    3.133    0.681
         4 -15.7044     57.8868     70.6527   9.9016858164e+01   5.5619486761e+01     2.997496     1.642567  45.34   0.01424054    2.327    0.570
         5 -15.1461     70.7937     57.1117   9.0164384748e+01   5.6636325497e+01     3.031892     2.197186 -86.36   0.01384233    2.754    0.637
         6 -14.5304     79.4792     70.2897   9.1553687916e+01   5.2613818355e+01     2.663221     1.451635 -21.31  0.009958345    3.067    0.674
         7 -11.7814     73.2000      1.5313   6.5510564258e+01   6.4603935429e+01    0.2906024     0.143453  50.05 0.0005674902    1.985    0.496
         8 -13.0327     83.2181     22.4803   7.2072698206e+01   6.0297504593e+01    0.6204224    0.5049573  48.52  0.002689127    1.407    0.290
         9 -13.2541    121.7886     10.6833   5.6652709833e+01   5.3304605755e+01     1.298227     0.382384  52.02  0.001729933    2.732    0.634
        10 -12.7169    110.5143      5.0866   5.6887142721e+01   5.6463531788e+01    0.8956759    0.5438561  38.50  0.004576953    1.498    0.333
        11 -14.6347     85.3022      7.6929   6.4689230643e+01   6.1642418764e+01     2.056396    0.9667487  46.93  0.009788962    1.933    0.483
        12 -11.8188     64.4576     17.9366   7.6590261494e+01   6.4221061820e+01    0.4292202    0.2849947  22.02  0.001399568    1.481    0.325
        13 -12.4241     75.7134     13.4029   7.0429546619e+01   6.2846240416e+01     0.374497    0.3094842 -25.81   0.00084663    1.291    0.225
        14 -11.2028    175.0953     14.1360   4.8572312820e+01   3.9483712926e+01    0.3338991    0.2105512  -5.15  0.001543796    2.004    0.501
        15 -12.6142    186.2536     11.8705   4.6404640838e+01   3.6818081265e+01    0.5514246    0.3650193  71.75  0.002270567    1.415    0.293
        16 -10.8294    150.2930      8.6678   5.0525653769e+01   4.6433085009e+01    0.3276412    0.2358119  65.41 0.0009748809    1.291    0.225
        17 -12.2552    192.9108      6.2980   4.3991487646e+01   3.5657720083e+01     0.501614    0.3946181 -46.65  0.002201984    1.280    0.219
        18 -10.3868     49.1452      4.3114   7.5887319760e+01   6.8357552089e+01    0.2216367    0.1558025 -24.37 0.0008320079    1.313    0.239
        19 -12.2615    138.2649      4.5844   5.1107870742e+01   4.9838966025e+01    0.7602191    0.3588569  53.65  0.002534463    1.811    0.448
        20 -10.1938    186.1324      1.3152   4.3309313490e+01   3.7864292555e+01    0.1911653    0.1152551  85.19  0.000334796    1.660    0.398
        21 -11.7769     51.5595    142.2109   1.1550532295e+02   3.9771644790e+01    0.6343722    0.2458176 -67.37  0.002741832    2.260    0.557
        22 -12.8056     47.0415    142.0001   1.1659450669e+02   4.0333827321e+01    0.4810388    0.4437833 -38.35  0.003065701    1.379    0.275
        23  -9.9579     90.3655    145.8081   1.0639158246e+02   3.3622477725e+01     0.205235    0.1184598 -51.02 0.0009512764    1.724    0.420
        24 -10.0970    139.0004    152.2819   9.5866964327e+01   2.3449742969e+01    0.2135453    0.1917138  47.98 0.0009031791    1.085    0.078
        25 -12.1106    213.9067    142.2298   7.7613029459e+01   9.6813477022e+00    0.8874947    0.3848236  51.58  0.003347023    2.571    0.611
        26 -12.3643     76.0899    138.2612   1.0868331519e+02   3.7527421423e+01    0.7394572    0.2182446 -59.77    0.0025907    3.054    0.673
        27 -11.7886    194.1610    136.9433   8.0250220095e+01   1.4858074848e+01    0.6547019    0.5436683  16.92  0.003344618    1.269    0.212
        28 -12.4046    199.3528    129.0771   7.7304635317e+01   1.5166236508e+01    0.8042215    0.3757305 -38.60    0.0030981    2.089    0.521
        29 -13.4054    204.5387    124.5690   7.5174958903e+01   1.4831679135e+01    0.9780024    0.7245899 -42.35  0.004736426    1.358    0.263
        30 -11.0277     33.6538    135.9197   1.1912752355e+02   4.3133978382e+01    0.2232573    0.1715689  57.21  0.001091822    1.362    0.266
        31 -11.3153    223.6857    133.4214   7.3736387402e+01   9.1349120543e+00    0.4750123     0.435658 -75.86   0.00264591    1.382    0.276
        32 -13.4346    219.4233    121.4048   7.1605160438e+01   1.2096177453e+01    0.9255155    0.6744235  61.63  0.004468711    1.649    0.394
        33 -10.8847     82.5088    134.4829   1.0634526284e+02   3.7474039724e+01    0.3034494    0.1270285 -58.49  0.001218081    2.192    0.544
        34 -10.1565     21.5123    133.5081   1.2185039281e+02   4.4782238880e+01    0.1225102   0.09536126 -81.52  0.000810513    1.002    0.002
        35 -11.1674    122.2287    127.2086   9.4494809373e+01   3.2272520500e+01    0.3823976    0.3352278  49.63  0.001318985    1.162    0.139
        36 -10.4849    244.6613    249.6810   9.2585372630e+01  -1.0348877760e+01    0.1183086   0.06606897  14.65 0.0007049513    1.709    0.415
        37 -10.9352    187.9982    197.2686   9.4037273622e+01   5.5213762399e+00    0.1848028    0.1049953  41.15 0.0009028404    1.562    0.360
        38  -9.4611    178.6420    184.7074   9.3607912982e+01   9.3643799903e+00    0.1432883    0.1029132  13.29 0.0007029781    1.692    0.409
        39 -14.8117     96.7000     71.4052   8.6403033765e+01   4.9410433565e+01     1.542238     1.130138  17.63  0.002259207    1.629    0.386
        40 -14.4575     37.4937     85.1861   1.0964091428e+02   5.4600088350e+01     1.748963     1.012223 -47.50  0.009449494    1.489    0.329
        41  -9.5013    246.4698    183.4868   8.0606739874e+01  -2.8491127704e+00    0.1312606    0.1075686   4.41  0.000809765    1.004    0.004
        42 -13.7150     42.5796     42.3708   9.5650250206e+01   6.3189814322e+01    0.9949181    0.5533394   5.38  0.003900502    2.576    0.612
        43 -10.3672    144.4836    181.4828   1.0015802589e+02   1.6435039132e+01     0.139296    0.1267041  54.73 0.0004225168    1.028    0.027
        44 -12.0718    141.6915     96.6914   8.1595094895e+01   3.4820505777e+01    0.5397111    0.3788253 -20.95   0.00152735    1.729    0.422
        45 -11.2427    135.4617     98.1730   8.3598390845e+01   3.5902196805e+01    0.5228807    0.3433782  24.34  0.001834787    2.034    0.508
        46 -10.5701     34.2166    177.2998   1.2333987519e+02   3.3818093051e+01    0.1913398    0.1566915   7.32  0.001273364    1.985    0.496
        47 -11.1555    114.1886     97.3319   8.9057102134e+01   4.0546345222e+01    0.3332996    0.2656582 -59.37  0.001069893    1.313    0.238
        48 -13.4986     42.3290     47.6970   9.7620194872e+01   6.2185947173e+01    0.6572286     0.500232  11.95  0.001196166    1.459    0.314
        49 -10.6771    188.2723     94.0695   7.0372355906e+01   2.4224393947e+01    0.4613431    0.2937051 -55.07  0.001898499    1.868    0.465
        50 -13.2507      6.1119     82.6419   1.1939628217e+02   5.7485575236e+01     1.013362    0.3792973 -53.98  0.004658373    1.977    0.494
        51 -12.9746      2.7453     70.5291   1.1848592965e+02   6.0348931133e+01     1.102966    0.2723295 -69.53  0.004317175    3.281    0.695
        52 -12.5020      8.2778     65.4304   1.1556866482e+02   6.1178579215e+01    0.4401942     0.268759 -58.81  0.001879668    1.209    0.173
        53 -12.5938    128.2104     81.5206   8.0564104545e+01   4.0935525999e+01     0.451358    0.3694796 -36.35   0.00223636    1.184    0.155
        54 -13.0746    119.3719     73.5654   8.0450857789e+01   4.4437789190e+01    0.5807796    0.3595488  35.01  0.001479724    1.783    0.439
        55 -13.2882    120.3924     80.7920   8.2459509775e+01   4.2776535447e+01    0.6316874    0.4657641  50.67  0.002796773    1.450    0.310
        56  -9.8424    250.1722     86.3892   5.8022025376e+01   1.1102568764e+01    0.1850401    0.1375268  78.26 0.0009474744    1.702    0.412
        57 -12.4511    144.0041     75.3421   7.4591660763e+01   3.8508889983e+01    0.5239896    0.3679129 -31.90  0.001327133    1.428    0.300
        58  -9.5289    148.6455     80.7321   7.5144749713e+01   3.6383228419e+01    0.1614588    0.1215955  18.40 0.0003072681    1.631    0.387
        59 -11.4120    153.3445     72.4939   7.1477368431e+01   3.6777320203e+01    0.3829193    0.2651702  38.00 -0.0003529724    1.534    0.348
        60  -9.7435    182.6427     72.0011   6.5142895736e+01   2.9521050615e+01    0.2108443    0.1932047 -33.68  0.000451416    1.074    0.069
        61 -10.8736    162.0588     71.8291   6.9315334390e+01   3.4740075853e+01    0.2417733    0.2197634 -29.68 0.0002959906    1.090    0.083
        62 -13.2497    117.9095     66.8260   7.8636567265e+01   4.6048267017e+01    0.7061457    0.3958879 -32.22  0.002939736    1.815    0.449
        63 -10.7384    146.6276     66.1551   7.1016879910e+01   3.9548628150e+01    0.3648067     0.245718 -18.00  0.001563296    1.735    0.424
        64 -10.5562    214.4384     61.2777   5.6653044453e+01   2.3230699883e+01    0.3899256    0.2417748 -23.16    0.0017231    1.738    0.425
        65 -10.6605    169.2125     63.0676   6.5081981365e+01   3.4430298873e+01    0.4266252    0.2056425  54.97  0.001615836    2.047    0.512
        66 -12.4724    124.6759     57.4552   7.3580430127e+01   4.6245268987e+01    0.3650529    0.3174387  36.52 0.0006583299    1.146    0.127
        67  -9.6993    181.9507     58.1795   6.1127224601e+01   3.1947349851e+01    0.2011063    0.1894785  61.95 0.0003248222    1.064    0.061
        68 -12.0224     58.7565     57.0891   9.4491512414e+01   5.8343684700e+01    0.2839458    0.2402593  30.92  0.001568408    1.360    0.265
        69  -9.6572    227.6219     57.2769   5.3710269999e+01   2.0610819801e+01     0.152328    0.1037661 -67.56 0.0007004954    1.704    0.413
        70 -11.3190    174.6261     56.4426   6.1956333371e+01   3.4104741745e+01    0.2702313     0.257903 -71.74 0.0004267262    1.079    0.074
        71 -10.4697    137.7570     55.2526   6.9497465027e+01   4.3556421765e+01    0.3968392    0.2155958  40.65  0.001322618    1.939    0.484
        72 -11.5658    133.1697     53.7488   7.0104024225e+01   4.4899204329e+01    0.3837965    0.2660813  45.47 0.0008330034    1.425    0.298
        73 -10.6404    154.1871     52.6678   6.4871368677e+01   3.9917209034e+01    0.4626301    0.2129144  41.69   0.00155968    2.407    0.585
        74 -11.7341     93.0598     52.8160   8.1131607209e+01   5.3661130599e+01    0.2563691    0.2000011 -16.68 0.0006497314    1.269    0.212
        75 -11.5483    100.9061     49.6623   7.7520743664e+01   5.2688687700e+01    0.3036943    0.2627872  22.11  0.001183111    1.141    0.124
        76 -10.7387    119.3100     49.0735   7.2027266206e+01   4.8865009063e+01    0.2091921    0.1865146 -19.38 0.0005445719    1.086    0.079
        77 -11.2905    145.4783     50.4444   6.6041588248e+01   4.2442342324e+01    0.3039609    0.2820998 -28.44 0.0006429106    1.087    0.080
        78 -10.1317    175.8540     46.3991   5.8595614972e+01   3.5292414992e+01    0.3659347    0.2113046  18.90  0.001150664    2.986    0.665
        79 -11.1776    157.0943     43.8315   6.1322359176e+01   4.0505506248e+01    0.3116209    0.2552341  42.44 0.0005140707    1.206    0.171
        80 -10.5628    139.8178     43.6240   6.4961767040e+01   4.4874048112e+01    0.4329119    0.2383831  65.56  0.001732373    2.149    0.535
        81 -10.5360    122.3493     43.6296   6.9224144249e+01   4.9034110643e+01    0.2722144    0.2284444  21.10 0.0007919857    1.189    0.159
        82 -10.1066    196.8523     41.5354   5.3699210530e+01   3.0526037489e+01    0.3355858    0.2236031 -18.19  0.001543642    1.704    0.413
        83 -10.4781    181.8221     43.3835   5.6627413456e+01   3.4167843492e+01    0.2596434    0.1774983  53.73 0.0005623474    1.430    0.301
        84 -10.5872    137.2613     48.1772   6.7159907128e+01   4.4808945145e+01    0.2724677    0.2378621 -64.94 0.0006640932    1.341    0.255
        85 -12.0620    216.6855     38.8660   5.0222986046e+01   2.5849742236e+01    0.5875458    0.2855734  57.57  0.002501157    2.036    0.509
        86  -9.4026     90.2998     40.6731   7.7387017059e+01   5.6262881508e+01     0.132231    0.1116379 -64.16 0.0007028994    1.637    0.389
        87 -10.4777    204.6600     37.0307   5.1294422960e+01   2.9124407858e+01    0.2860327    0.2075228  60.46  0.001120894    1.365    0.268
        88 -10.3434    159.9787     36.3237   5.8251863775e+01   4.0803704564e+01    0.2054734    0.1770073  56.36 0.0002292623    1.119    0.107
        89 -12.0820     82.2077     33.8173   7.7274527544e+01   5.8852018169e+01    0.4676021    0.3125538  19.77  0.001391998    1.624    0.384
        90 -12.7254     79.2762     31.2637   7.7201337798e+01   5.9770666064e+01    0.5525031    0.4517733 -14.95  0.002419418    1.087    0.080
        91  -9.3283    240.3614     34.3020   4.6316845316e+01   2.0722148122e+01    0.1348959     0.102306  32.59 0.0007036896    1.724    0.420
        92 -10.9516    176.6623     33.3598   5.4366395581e+01   3.6852944653e+01    0.2654774    0.2489191  57.09  0.000626506    1.044    0.042
        93  -9.8719     96.9666     33.6989   7.2497125508e+01   5.6029438001e+01     0.196512    0.1710193  25.94 0.0005713378    1.107    0.097
        94 -12.0409    203.6745    171.8546   8.6086012828e+01   6.7119930309e+00    0.4658546    0.3283667 -14.18  0.002353914    1.603    0.376
        95 -10.3871      2.4893    171.4990   1.2925807683e+02   3.7972924384e+01    0.1126997   0.07998355  83.43 0.0008103969    1.031    0.030
        96 -11.4442    197.6252    167.9084   8.6460448987e+01   8.5696681193e+00    0.2886587    0.2056621  47.40  0.001157258    1.420    0.296
        97 -10.7715    185.6783    167.1332   8.8714352623e+01   1.1094847437e+01    0.2211533    0.1877071 -60.37 0.0009798098    1.432    0.302
        98 -12.4384    215.3344    161.9048   8.1745022264e+01   6.0747599533e+00    0.9109411    0.4955338  -1.24  0.002936108    4.271    0.766
        99 -11.3559    241.9576     22.8331   4.3348970051e+01   2.1763732923e+01    0.3559696    0.2482238 -60.80  0.001056182    1.340    0.254
       100 -11.0236    149.9129     21.2112   5.4966099350e+01   4.5242231509e+01    0.4165758    0.2366612  33.04  0.001716356    2.034    0.508
       101 -10.4219    153.7995     21.3807   5.4322103713e+01   4.4228100832e+01    0.2848299    0.2002544  60.37 0.0005805792    1.331    0.249
       102 -10.3126    139.4883     20.8664   5.6841681751e+01   4.7914448726e+01    0.2561011    0.1895996  56.86 0.0006031728    1.269    0.212
       103 -10.5834    208.7099     18.8832   4.5735043125e+01   3.0306503314e+01    0.3127529    0.2210748 -48.78  0.001132839    1.371    0.271
       104 -11.1586    240.1817    157.2984   7.6234998411e+01   2.0382976228e+00     0.497171    0.2197374 -39.54  0.002102109    2.292    0.564
       105 -12.5297    233.4967    153.8516   7.6652134112e+01   3.8341039461e+00    0.5316154    0.3379843  31.50  0.002638012    1.604    0.376
       106 -12.6922    199.6894    154.3407   8.3131844528e+01   1.0522114589e+01    0.5404356     0.414497 -30.45  0.002790906    1.307    0.235
       107 -11.2285    190.6651    154.1307   8.4910535135e+01   1.2433161817e+01    0.4324583    0.3379822 -83.14  0.002049954    1.959    0.490
       108 -11.2098     29.1619    154.0606   1.2223500896e+02   3.9425370933e+01     0.219141     0.176798   9.57  0.001446413    1.863    0.463
       109 -11.6659     19.3358    153.7803   1.2440496477e+02   4.0389836551e+01    0.1886972    0.1642003  75.55  0.001391978    1.205    0.170
       110 -12.7625    248.1393    143.8650   7.1915417380e+01   2.5929677137e+00     1.294268    0.4845798 -33.19  0.005099316    2.439    0.590
       111 -11.5095     58.1651    144.3433   1.1417142806e+02   3.8485323096e+01    0.7593029    0.3764617  55.91  0.003505507    2.291    0.563
