#   1 NUMBER                 Running object number                                     
#   2 MAG_AUTO               Kron-like elliptical aperture magnitude                    [mag]
#   3 X_IMAGE                Object position along x                                    [pixel]
#   4 Y_IMAGE                Object position along y                                    [pixel]
#   5 X_WORLD                Barycenter position along world x axis                     [deg]
#   6 Y_WORLD                Barycenter position along world y axis                     [deg]
#   7 A_WORLD                Profile RMS along major axis (world units)                 [deg]
#   8 B_WORLD                Profile RMS along minor axis (world units)                 [deg]
#   9 THETA_WORLD            Position angle (CCW/world-x)                               [deg]
#  10 FWHM_WORLD             FWHM assuming a gaussian core                              [deg]
#  11 ELONGATION             A_IMAGE/B_IMAGE                                           
#  12 ELLIPTICITY            1 - B_IMAGE/A_IMAGE                                       
         1 -14.4941    156.5485     53.0250   8.4337838360e+01   3.9289485673e+01     1.492592     1.178181   9.88  0.003664692    1.322    0.244
         2 -14.6366    168.3481     37.2108   7.6392034735e+01   3.8541574769e+01     1.356901     1.021694   1.93  0.004329096    1.391    0.281
         3 -11.5325    189.3881     14.8936   6.5261463475e+01   3.5501370710e+01     0.282305    0.2535206 -81.19 0.0007587067    1.231    0.188
         4 -14.2209    183.4287      5.7454   6.2989790271e+01   3.7950164854e+01     1.069307    0.8618295  61.23  0.004156894    1.198    0.166
         5 -10.7696     21.5676    234.3338   1.4419488274e+02   2.6358694940e+01   0.09559932   0.07122109  88.71 0.0008917073    1.372    0.271
         6 -18.8584     74.8513    238.8003   1.3617902727e+02   2.0267730921e+01     6.493782     4.814204  53.87   0.05608767    1.058    0.055
         7 -12.5187    180.1220    192.5291   1.1258793434e+02   1.1776415582e+01    0.2946855    0.2565606  74.23 0.0005126616    1.653    0.395
         8 -12.5208    176.3438    188.2948   1.1262662825e+02   1.2977452635e+01      0.31848    0.2215578 -45.02  0.001445141    1.823    0.451
         9 -10.0962     12.5987    212.7232   1.4479665649e+02   3.0406105641e+01   0.07388839   0.06998815 -44.96 0.0006985764    1.762    0.432
        10 -10.3844      7.4524    197.3725   1.4507243586e+02   3.3311129036e+01   0.09416804   0.06517925  65.98 0.0002299887    1.040    0.039
        11 -19.2092     58.5620    104.6987   1.2578875575e+02   4.6854413401e+01     16.40168     0.939086 -62.83   0.02709463   16.354    0.939
        12 -11.9993    109.9936    208.2684   1.2766836829e+02   2.0301169124e+01    0.2593466    0.2172342  32.66  0.001835337    1.280    0.219
        13 -13.1787    167.2818    191.1161   1.1476948644e+02   1.4098041139e+01    0.3808258    0.3107243  30.63  0.002186366    1.041    0.039
        14 -13.0315    163.6961    204.6480   1.1738453316e+02   1.2830100614e+01    0.4340587    0.2710648 -59.69  0.002509071    2.535    0.605
        15 -11.1304    158.9904    205.5423   1.1836425422e+02   1.3449461423e+01    0.2676615    0.1787412  47.94  0.001552692    1.338    0.253
        16 -13.8726    206.4340    180.0562   1.0567520003e+02   8.9056223827e+00    0.7919638     0.439279  33.43  0.003124571    1.504    0.335
        17 -13.1481    197.0191    173.0494   1.0614828015e+02   1.1459064810e+01    0.6746251    0.4000331 -45.69  0.002501046    2.302    0.566
        18 -11.1807     25.8948    231.5179   1.4343819310e+02   2.6374761837e+01    0.1448202    0.1040277  89.25  0.001067901    1.372    0.271
        19  -9.6776     38.6552    185.8276   1.3899417432e+02   3.2527603041e+01   0.08321405   0.07145996  30.02 0.0001773674    1.516    0.340
        20 -11.4582    118.7848    181.8792   1.2292997102e+02   2.3252391962e+01    0.5234969    0.2490417  62.95   0.00211012    3.736    0.732
        21 -10.8218    112.8096    176.9927   1.2350364402e+02   2.4977506409e+01    0.2494483    0.1641653  73.98  0.001397155    1.952    0.488
        22 -12.2862    178.0209    171.7879   1.0954982070e+02   1.5014925128e+01    0.4125798    0.2155493 -49.12  0.001961125    2.625    0.619
        23 -11.2946    140.6906    174.3003   1.1742063745e+02   2.1054008356e+01    0.1987695    0.1650768  58.04 0.0006559775    1.233    0.189
        24 -12.7044    137.6757    170.7769   1.1749635790e+02   2.2134136731e+01    0.5131714    0.2952541  41.24  0.002640289    1.510    0.338
        25 -12.3196    144.4422    168.3653   1.1571703392e+02   2.1403884615e+01    0.4267209    0.3047291  75.01  0.001962965    2.056    0.514
        26 -11.4906    125.7829    172.0250   1.2014492128e+02   2.3844773065e+01    0.2535228    0.2132803 -77.29  0.001164874    1.380    0.275
        27 -12.2162    112.9086    169.6440   1.2249619498e+02   2.6252248994e+01    0.3296781    0.3061509  -4.56   0.00108367    1.320    0.242
        28 -10.8620    202.1285    166.2193   1.0392280582e+02   1.1453676061e+01    0.2200976    0.1769954 -63.01  0.001235365    2.106    0.525
        29 -10.6719     22.6706    166.4730   1.4083674702e+02   3.7513266890e+01    0.2849716    0.1744206   7.82  0.001301619    3.060    0.673
        30 -11.1765    223.9832    164.4349   9.9604486259e+01   7.7437014593e+00    0.2111986    0.1741395 -32.30 0.0005751669    1.532    0.347
        31 -10.4633    140.7217    199.6625   1.2097448268e+02   1.7112629934e+01     0.179637    0.1216565  41.72 0.0004258013    1.192    0.161
        32 -10.6654    137.2210    198.0591   1.2142820073e+02   1.7886449527e+01    0.3010819    0.1794913  71.82  0.001475466    3.014    0.668
        33 -11.4234    237.2353    159.1941   9.6261061962e+01   6.0132643743e+00    0.1628604    0.1509221  15.46  0.001074483    1.378    0.275
        34 -12.2450    163.7979    156.2469   1.0958865278e+02   1.9972509340e+01    0.2807192    0.2758316   6.88 0.0009278382    1.165    0.141
        35 -13.5761    135.9187    126.7173   1.0987983113e+02   3.0384720332e+01     1.544209    0.2788104 -49.10   0.00370098    7.010    0.857
        36 -12.2552    128.9534    143.5203   1.1480808346e+02   2.8448939159e+01    0.3546588    0.2341557  51.97  0.001157344    1.528    0.346
        37 -11.7040     14.5400    151.4279   1.4156128154e+02   4.1046536023e+01    0.2002271    0.1628758 -39.42    0.0015521    1.761    0.432
        38 -11.1129    151.0095    149.5868   1.1104258813e+02   2.3429710340e+01    0.2672417    0.1968825 -67.85  0.001091767    1.898    0.473
        39 -10.7337     20.7883    219.3816   1.4375340941e+02   2.8659352806e+01   0.09719393   0.06455243  57.46 0.0008265526    1.103    0.093
        40 -11.6152    174.0998    148.8961   1.0603423103e+02   1.9224421971e+01    0.3228424    0.2398581  43.27  0.001091752    1.259    0.206
        41 -12.8450    144.4925    145.6932   1.1172820334e+02   2.5298753470e+01    0.4433911    0.3553682  64.99  0.002495452    1.457    0.314
        42 -12.4788    143.5148    139.9696   1.1083851077e+02   2.6507491218e+01    0.3741808    0.2632061  13.27  0.001716881    1.858    0.462
        43 -12.2900      9.5467    146.0522   1.4228185816e+02   4.2469126723e+01    0.3117409     0.145188 -89.22    0.0017783    1.815    0.449
        44 -13.2405      5.3233    139.4932   1.4279756897e+02   4.4060503762e+01    0.4363768    0.3741948  79.45  0.002316474    1.166    0.142
        45 -13.1318      2.9473    126.1433   1.4251853738e+02   4.6912746883e+01     0.954005    0.2164095 -82.47  0.003792153    4.014    0.751
        46 -12.1260      3.5495    112.3872   1.4143662860e+02   4.9742061071e+01    0.2756658    0.2437348 -45.80  0.001647113    1.427    0.299
        47 -11.7453     21.1528    141.0466   1.3944288568e+02   4.2592677321e+01    0.1754029    0.1409247  55.83 0.0007455538    1.235    0.190
        48  -9.8885    173.3104    139.6378   1.0428933236e+02   2.0871594210e+01    0.1343607    0.1133896  89.81 0.0007040504    1.748    0.428
        49 -11.6698    160.9316    127.3399   1.0427862789e+02   2.5418184437e+01      0.32354    0.2596851 -29.10  0.001745279    1.302    0.232
        50 -12.0983     10.9535    110.8708   1.3945208115e+02   4.9616525161e+01    0.3469401    0.1772673   8.04  0.001925952    3.095    0.677
        51 -13.2176    113.8900    117.9371   1.1342411735e+02   3.6076959075e+01     0.427755    0.3593504  11.40  0.001556211    1.386    0.278
        52 -13.1548     27.8696    118.1343   1.3583608714e+02   4.6839813049e+01    0.3026052    0.2548972 -51.44  0.001431769    1.355    0.262
        53 -12.5204     31.6080    112.7589   1.3428582765e+02   4.7697041456e+01    0.2705556    0.1910375 -64.13 0.0009902872    1.268    0.211
        54 -13.7161    133.5741    144.8592   1.1400705246e+02   2.7396634192e+01     1.086538    0.3517971 -54.52   0.00364178    4.221    0.763
        55 -10.9342    167.9918    113.1792   9.9377315789e+01   2.6435963480e+01    0.4091529    0.2886398 -75.18  0.001690674    2.683    0.627
        56 -11.9301    113.9179    110.3700   1.1177654658e+02   3.7627375919e+01    0.2424717    0.2008861 -49.88  0.000504802    1.205    0.170
        57 -12.5121    117.7301    108.5566   1.1037362531e+02   3.7323553208e+01    0.3197072     0.248009 -19.83  0.001649737    1.545    0.353
        58 -10.4462    145.5540    108.0277   1.0327592563e+02   3.2063248277e+01    0.2364376    0.1872984  39.65 0.0003650893    1.226    0.184
        59 -10.3604     25.6300    108.7214   1.3541232536e+02   4.9055575587e+01    0.1127575   0.07719498 -43.98 0.0007010229    1.688    0.408
        60 -10.8910    205.4561    110.1700   9.0921164032e+01   1.8798434185e+01    0.3298707    0.1946453  37.46  0.001040079    1.619    0.383
        61 -10.0109    146.2714     79.3788   9.5260894851e+01   3.7255563364e+01    0.1603413    0.1162912   1.46 0.0006996553    1.693    0.409
        62 -10.3784    117.9250     67.1161   9.8973729904e+01   4.5640427881e+01    0.2157359    0.2017613 -66.73 0.0003392799    1.251    0.201
        63 -11.2169    140.4979    249.0128   1.2644161203e+02   1.0693350347e+01    0.1791145    0.1636415  39.10 0.0006639741    1.292    0.226
        64 -11.5295     13.4680    244.9908   1.4571942534e+02   2.5566325580e+01    0.2020388   0.05789335 -72.15  0.001286777    3.584    0.721
        65 -12.7697    172.0323     30.0106   7.3186854939e+01   3.8478803468e+01    0.4447287    0.3347356  -4.90 0.0008930886    1.359    0.264
        66 -10.2621     13.6350     59.8855   1.3244386110e+02   6.0723687635e+01     0.169082    0.1166823 -70.30 0.0004454192    1.152    0.132
        67 -10.3775    126.0366    248.2870   1.2869719036e+02   1.2703541526e+01    0.1933374    0.1382265 -76.23  0.001321743    1.970    0.492
        68 -10.6180    138.3237     31.6015   8.0758186887e+01   4.6962551557e+01    0.3388729    0.1953656  63.78 0.0009078086    2.049    0.512
        69 -13.0176    175.2281    194.1007   1.1373646042e+02   1.2377890651e+01    0.3162536    0.3102818  15.85  0.001409576    1.292    0.226
