#   1 NUMBER                 Running object number                                     
#   2 MAG_AUTO               Kron-like elliptical aperture magnitude                    [mag]
#   3 X_IMAGE                Object position along x                                    [pixel]
#   4 Y_IMAGE                Object position along y                                    [pixel]
#   5 X_WORLD                Barycenter position along world x axis                     [deg]
#   6 Y_WORLD                Barycenter position along world y axis                     [deg]
#   7 A_WORLD                Profile RMS along major axis (world units)                 [deg]
#   8 B_WORLD                Profile RMS along minor axis (world units)                 [deg]
#   9 THETA_WORLD            Position angle (CCW/world-x)                               [deg]
#  10 FWHM_WORLD             FWHM assuming a gaussian core                              [deg]
#  11 ELONGATION             A_IMAGE/B_IMAGE                                           
#  12 ELLIPTICITY            1 - B_IMAGE/A_IMAGE                                       
         1 -16.3368    189.9745    124.0822   2.4512969178e+01   1.8418959717e+01     3.437989     1.188021 -40.91   0.01251796    2.703    0.630
         2 -16.2756    198.5986     67.0378   9.8782810984e+00   2.6306304181e+01     2.093102    0.9160408 -50.02  0.008943588    2.196    0.545
         3 -15.2703    188.1098     39.2469   4.3968709961e+00   3.2627838553e+01     1.006886    0.6675136  56.20  0.005446356    1.652    0.395
         4 -14.6580      4.6656     57.0025   7.1199369443e+01   6.6313484045e+01    0.7419171    0.5189504 -75.11  0.003311908    1.463    0.317
         5 -15.6902    195.9519     44.1877   4.7157010403e+00   3.0179407327e+01     1.087181    0.5802153 -53.51  0.004691968    1.733    0.423
         6 -14.6871      3.0741     29.8941   6.5009886606e+01   7.2419792056e+01    0.7674801    0.3575861 -70.42  0.003599313    2.571    0.611
         7 -14.8837    198.7991     22.4622   3.5922981265e+02   3.2273062493e+01     1.138859    0.5070078 -86.91  0.004998352    2.594    0.615
         8 -14.2629    214.3684     12.2491   3.5571069560e+02   3.0032528833e+01    0.7148093    0.5171927 -18.40  0.004425391    1.915    0.478
         9 -14.3749    222.8869      3.6159   3.5335306760e+02   2.9178239680e+01    0.7103684    0.4134833 -74.88  0.004397586    1.442    0.307
        10 -13.3475    213.4613      3.0603   3.5377446914e+02   3.1193573151e+01    0.5758351     0.312519  77.19  0.003369209    1.722    0.419
        11 -12.6868    155.0889      5.4426   3.5900445072e+02   4.4503144193e+01    0.3587909    0.2145336 -85.69  0.001866624    1.541    0.351
        12 -14.1608      8.1061      3.0071   4.8451656709e+01   7.7022702151e+01    0.7068109    0.3079188  23.38  0.003270849    2.132    0.531
        13 -13.9912     43.5417      2.1646   2.3824625634e+01   7.1702470843e+01     1.018757    0.2120867  52.32  0.003214361    4.557    0.781
        14 -13.4231    247.5382    207.2700   3.0604463582e+01  -3.5104842061e+00    0.5365029     0.272593 -33.21  0.003105932    1.676    0.403
        15 -14.6372    234.7517    243.4784   3.8286996738e+01  -6.6972359676e+00    0.7266386    0.4812716   5.12  0.003055837    1.168    0.144
        16 -16.3578      7.3516    186.4474   8.3596682032e+01   3.3348187825e+01     3.474315     1.711012  16.82   0.01662545    2.327    0.570
        17 -15.6555     18.4578    246.6096   8.3698573420e+01   1.9285946390e+01      2.70413    0.2670531  31.22  0.009497058    4.269    0.766
        18 -16.2843     10.4720    229.1766   8.4738614520e+01   2.3540509123e+01     1.374032     1.085473  62.52  0.004730595    1.075    0.070
        19 -15.6016     18.8143    210.3312   8.1938803268e+01   2.6796879464e+01      1.16664    0.6840408  51.07   0.00422299    1.389    0.280
        20 -14.4067     11.8089    210.6644   8.3646180137e+01   2.7382367389e+01    0.5755484    0.3358269  69.62  0.001723504    1.522    0.343
        21 -14.4643    103.2682    194.6170   5.8565798297e+01   1.9535458419e+01    0.8376166    0.7256506  -1.58  0.003864494    1.295    0.228
        22 -13.2482    207.6800    198.6727   3.5876970292e+01   2.6341031373e+00    0.2746862    0.2581206 -49.53  0.001708672    1.526    0.345
        23 -14.7208     69.9190    194.9214   6.7453643048e+01   2.4381055791e+01    0.9982331    0.4982547 -78.74   0.00415682    2.536    0.606
        24 -15.4485     61.7359    184.5882   6.8514949213e+01   2.7943707988e+01     1.210441    0.9929644  60.29  0.004922159    1.138    0.121
        25 -15.3516    199.2667    159.5364   3.0220962703e+01   1.0373373564e+01     1.403273    0.9683187  31.51   0.00767658    1.512    0.339
        26 -14.5859    208.0686    183.1380   3.3065290664e+01   5.0359747732e+00    0.5175172    0.3889493  32.95   0.00227579    1.397    0.284
        27 -15.8502    196.7931    178.8385   3.4375865504e+01   7.4375869973e+00      1.87141     1.435102  38.91  0.008217838    1.420    0.296
        28 -14.8500    210.1501    152.9527   2.6971489041e+01   9.7183796709e+00    0.8268867    0.6906902 -44.50  0.003500902    1.245    0.197
        29 -14.7120    210.3497    139.9239   2.4315949078e+01   1.1896959687e+01    0.9481058    0.7465737 -32.11  0.003698139    1.137    0.121
        30 -13.7493    118.4758    169.0736   5.0417528650e+01   2.2757258982e+01    0.9523557    0.4834938  46.05  0.003810074    1.982    0.495
        31 -13.5490      3.1639    170.1764   8.3892057854e+01   3.7625593812e+01    0.5041795    0.3184597  63.94  0.002533758    1.401    0.286
        32 -12.8586     36.8180    159.4209   7.3059447954e+01   3.7321460185e+01    0.5348232    0.2937444  56.50  0.002386083    1.848    0.459
        33 -13.1792    102.8475    153.1703   5.1812449790e+01   2.9281454843e+01      0.60008    0.4473386  69.33  0.002755833    1.618    0.382
        34 -12.2388     66.2404    248.8251   7.3393339930e+01   1.3538526118e+01    0.2981128    0.2479748  36.55  0.002024612    1.110    0.099
        35 -13.9295    108.3561    144.2241   4.8441298421e+01   3.0443915441e+01    0.5572781    0.4126573  45.44  0.002607503    1.307    0.235
        36 -11.8224     15.1365    144.3917   7.8499129888e+01   4.3284943978e+01    0.2825907    0.1867469  87.80  0.001455094    1.433    0.302
        37 -12.6370     37.4070    136.7765   7.0145856392e+01   4.3223932654e+01    0.4219522    0.3894058 -64.14  0.002157471    1.099    0.090
        38 -13.2805     34.0898    129.4149   7.0313523834e+01   4.5538153010e+01    0.6138153    0.4522674  84.09  0.002943522    1.400    0.286
        39 -13.6279     58.4981    133.0222   6.2232762219e+01   4.1614554462e+01    0.6831799    0.5764138 -75.26  0.002470509    1.188    0.158
        40 -14.1592     49.7030    130.0660   6.4822439801e+01   4.3568788846e+01    0.9544486     0.680389  83.30   0.00386292    1.574    0.365
        41 -14.8378    114.7643    127.8077   4.2989919899e+01   3.3124388211e+01     1.542419    0.9825066  74.89  0.005609805    2.683    0.627
        42 -14.7317     99.8405    118.4429   4.5281773816e+01   3.8346730740e+01     1.621732    0.9216072 -62.06  0.006300314    2.057    0.514
        43 -12.7342     88.1987    128.5437   5.1322479335e+01   3.8031122024e+01    0.4597749    0.3623049  37.58  0.002201504    1.233    0.189
        44 -14.1459      3.8706    122.1737   8.0426427270e+01   4.9874570666e+01    0.6848828    0.4349773 -65.48  0.002713005    1.421    0.296
        45 -13.8603     50.5822    111.0718   6.1043406807e+01   4.8482262488e+01    0.8049703    0.4450427 -45.28  0.003372752    1.897    0.473
        46 -13.7289     45.2360    106.2653   6.2185368828e+01   5.0423819686e+01    0.8047785     0.648219 -14.82  0.003205734    1.416    0.294
        47 -11.7328     12.9998    130.3107   7.7926992464e+01   4.7146181782e+01    0.1907687    0.1780278  54.45 0.0008231743    1.102    0.092
        48 -14.4966      5.3409    106.8940   7.8401213088e+01   5.3784014341e+01    0.9206643    0.5080168 -78.07  0.004468153    1.648    0.393
        49 -12.4561     63.9896    109.4832   5.5580013546e+01   4.6971357081e+01    0.3257302    0.2417537 -60.24  0.001376455    1.351    0.260
        50 -14.3085     23.4020     88.5992   6.8035527238e+01   5.7286454256e+01     1.033046    0.4561802 -48.66  0.004321299    2.094    0.522
        51 -13.1867      1.8133     91.6431   7.8149406573e+01   5.7898494429e+01    0.4682898    0.1647629 -74.43  0.001863875    2.489    0.598
        52 -13.8182      2.9458     83.6328   7.6621118099e+01   5.9882158435e+01    0.8064741    0.3088093 -66.56  0.003272818    2.147    0.534
        53 -13.1088     58.8803     90.6509   5.3020591059e+01   5.2508408800e+01    0.6102356    0.4278734 -34.48  0.002620966    1.574    0.365
        54 -13.1163     50.4325     85.4322   5.5221025780e+01   5.5036501365e+01    0.6843849    0.3361175 -51.22  0.002809628    1.952    0.488
        55 -15.2548    216.2972     71.0396   8.5766821384e+00   2.2000651312e+01     1.320148    0.6212159 -48.15  0.004733118    1.876    0.467
        56 -11.9085    205.4794    241.0004   4.3014948605e+01  -3.1901363633e+00    0.2330359    0.1321312  12.54  0.001384359    1.609    0.379
        57 -12.0963    223.5714    237.5974   3.9299539690e+01  -4.7909371050e+00    0.2885424    0.1409599  20.02   0.00167249    1.870    0.465
        58 -14.8271     87.6760    225.4346   6.6304171192e+01   1.5300826182e+01     1.163303    0.7288125  52.22  0.006160946    1.551    0.355
        59 -13.4305    108.3554     58.0832   2.4965718978e+01   4.9418196828e+01    0.5029079    0.4232899 -54.74  0.002614763    1.277    0.217
        60 -13.2015      4.2570     69.1973   7.3759514369e+01   6.3409559104e+01    0.5412217    0.2317567 -52.91   0.00236912    1.923    0.480
        61 -13.7000    102.3818     47.5034   2.2952674586e+01   5.2635758321e+01    0.6809165    0.5999737  61.82  0.003401204    1.067    0.063
        62 -13.3197    241.2929    229.7555   3.5154773839e+01  -5.7038212476e+00    0.4442752    0.2646096  14.67  0.002264813    1.485    0.327
        63 -12.5818    235.4940     36.1849   3.5924832942e+02   2.2954088556e+01    0.2805191    0.1739035 -42.16  0.001725982    1.370    0.270
        64 -12.4530     24.4353     34.8442   5.2317459132e+01   6.9596275999e+01    0.2652735    0.1487709 -15.84  0.001211691    2.265    0.559
        65 -12.6019    198.6321    230.8531   4.2771241051e+01  -9.7415157290e-01    0.3858294    0.2283521  25.25  0.001736694    1.463    0.316
        66 -13.7965     19.1037     25.4483   5.1792256944e+01   7.1986460670e+01    0.4485221    0.2299591 -19.79  0.002008269    2.533    0.605
        67 -13.1935     44.0810    221.4995   7.6507300001e+01   2.1663984110e+01    0.6510416    0.2610018  51.17  0.002906412    2.190    0.543
        68 -12.3270     70.1372     20.1269   2.2128457083e+01   6.4071487225e+01    0.2250755    0.1734463  29.92  0.001258307    1.270    0.212
        69 -13.8226    205.5546    219.8617   3.9772643417e+01  -2.6315087310e-01    0.7604311    0.4311041  37.73  0.003852928    1.903    0.475
        70 -12.9101      2.2379    211.2653   8.5937317556e+01   2.8092440362e+01    0.3940912    0.2014949 -77.99  0.001642034    1.943    0.485
        71 -14.4655     60.6455    212.7881   7.1708014646e+01   2.1554409029e+01    0.4368834    0.3166591  26.36  0.002446195    1.340    0.254
        72 -14.3867    221.8163    208.3473   3.4993021840e+01  -6.4281001990e-01    0.6936507     0.488569  24.19  0.004215548    1.372    0.271
        73 -15.0711    221.5609    194.4967   3.2693544634e+01   1.4092942362e+00     0.911372     0.535805 -32.87  0.004313624    1.523    0.344
