#   1 NUMBER                 Running object number                                     
#   2 MAG_AUTO               Kron-like elliptical aperture magnitude                    [mag]
#   3 X_IMAGE                Object position along x                                    [pixel]
#   4 Y_IMAGE                Object position along y                                    [pixel]
#   5 X_WORLD                Barycenter position along world x axis                     [deg]
#   6 Y_WORLD                Barycenter position along world y axis                     [deg]
#   7 A_WORLD                Profile RMS along major axis (world units)                 [deg]
#   8 B_WORLD                Profile RMS along minor axis (world units)                 [deg]
#   9 THETA_WORLD            Position angle (CCW/world-x)                               [deg]
#  10 FWHM_WORLD             FWHM assuming a gaussian core                              [deg]
#  11 ELONGATION             A_IMAGE/B_IMAGE                                           
#  12 ELLIPTICITY            1 - B_IMAGE/A_IMAGE                                       
         1 -13.4436    206.6624     19.8587   5.2990355125e+01   3.2206979095e+01     1.046399    0.8536471  21.30  0.006384984    1.835    0.455
         2 -13.6207    195.4679     33.2447   5.7520825788e+01   3.3139477659e+01     1.613687      1.26649  21.11  0.007852471    1.858    0.462
         3 -10.3183    164.1489     15.0660   5.7757110356e+01   4.2490182636e+01    0.6052053    0.1130132 -26.40  0.001589719    8.548    0.883
         4  -9.9156     40.9934      2.0268   8.4174068714e+01   6.6594595254e+01    0.1765203    0.1017887   6.87  0.001134017    1.673    0.402
         5  -9.1394    100.7939    234.7335   1.2054978151e+02   1.2136818751e+01     0.180929    0.1288597  71.92 0.0005700852    1.326    0.246
         6  -8.3650    164.2836    250.3372   1.1019585980e+02  -1.5059029770e+00    0.1225948   0.09754454   5.62 0.0007012325    1.625    0.385
         7 -15.2673     73.6183    152.7343   1.1475160282e+02   3.4801542838e+01     16.30808     8.252763  88.25    0.0120606    5.290    0.811
         8  -9.2261    164.3881    206.9633   1.0324783644e+02   6.5681548168e+00    0.3185239    0.1383633 -49.60  0.001256224    2.448    0.591
         9  -9.1281     95.0068    200.0174   1.1718140008e+02   2.0504224902e+01    0.2320904    0.1496045  74.42  0.001124437    1.750    0.428
        10 -10.9010    193.6823    193.9707   9.4662029251e+01   3.5490071439e+00    0.7695026    0.5138735 -65.74  0.003486952    2.062    0.515
        11 -16.8124      9.3791    235.0734   1.3699837572e+02   2.4093199113e+01      4.47539     2.642277 -83.65   0.03073928    1.322    0.243
        12 -14.3205      2.0235    196.1005   1.3553545263e+02   3.2782158750e+01     2.074955    0.1770959 -72.22  0.003534106    7.115    0.859
        13 -11.2492     72.0947    180.4688   1.1946136642e+02   2.8465992633e+01    0.4159227    0.2740167 -41.15  0.001287417    1.958    0.489
        14 -11.0559     76.2240    175.1900   1.1774230572e+02   2.9115778229e+01    0.3089766    0.2559939 -41.28 0.0005925369    1.450    0.310
        15  -9.7872    210.7535    179.8157   8.8364326548e+01   3.0266903222e+00    0.3580355    0.2463959 -13.24  0.001620312    1.990    0.497
        16 -15.2596     53.8093    204.5293   1.2638115012e+02   2.5428094901e+01     5.024828     3.020687  83.90   0.02723381    1.655    0.396
        17 -10.5459    115.0306    173.5054   1.0834956204e+02   2.3227413971e+01     0.287248    0.2260025  73.59  0.001464528    1.348    0.258
        18 -10.8205    129.5181    173.5115   1.0493966717e+02   2.0558441976e+01    0.4150629    0.1949966  33.20  0.001512042    2.647    0.622
        19  -9.5668    195.5907    169.9029   8.9417802879e+01   8.0377642646e+00    0.3022493    0.2816009 -25.33  0.001079994    1.094    0.086
        20  -9.1188    193.2846    164.2858   8.8716652538e+01   9.6782900462e+00    0.3160782    0.1827837 -64.82  0.001180689    2.598    0.615
        21  -8.5885    139.9580    156.5177   9.9075988849e+01   2.2454897216e+01    0.2227376     0.149281  46.26 0.0005190608    1.497    0.332
        22  -9.6023    189.4060    154.4764   8.7421800695e+01   1.2557270893e+01    0.3493537    0.2845637   8.66  0.001690306    1.552    0.356
        23 -10.4347    133.8121    145.1216   9.8127173800e+01   2.6312916954e+01     1.079657    0.2493651 -54.08  0.002524603    5.630    0.822
        24  -9.2434    174.8597    149.0841   8.9388723781e+01   1.6830298032e+01    0.2405294     0.210095 -84.80 0.0006769709    1.256    0.204
        25  -9.9459     84.2960    233.6135   1.2361090692e+02   1.4927566573e+01    0.2681042    0.2040756 -89.30  0.000856168    1.200    0.166
        26  -9.6916    105.5023    139.9991   1.0416896152e+02   3.2811287615e+01    0.3897803    0.2408802 -35.23   0.00167899    1.982    0.495
        27 -11.5116     91.7098    142.4005   1.0822883107e+02   3.4546939253e+01    0.2834938    0.2443518 -46.33  0.000329003    1.166    0.142
        28 -10.1659    103.4420    143.5043   1.0542736901e+02   3.2344477071e+01     0.324028    0.2579056 -63.51  0.001086617    1.209    0.173
        29  -9.6684    112.6408    131.6128   1.0049525127e+02   3.3485980247e+01    0.3212225    0.2535448  11.14 0.0007714925    1.645    0.392
        30  -9.6076    105.8379    130.7422   1.0208348060e+02   3.4905292009e+01    0.3105772    0.2668963 -76.43  0.001210352    1.220    0.180
        31 -10.8978    161.7644    127.9412   8.7495102795e+01   2.4299192762e+01    0.5234863    0.4882057 -37.85  0.002753038    1.109    0.098
        32  -9.9251    135.0000    120.0186   9.2039282367e+01   3.1748711476e+01    0.3258121     0.154334 -51.60  0.001026478    2.174    0.540
        33 -10.9746    118.4468    126.0224   9.7707538600e+01   3.3682348779e+01    0.7280812    0.3517955 -40.54  0.002777176    2.251    0.556
        34 -10.2795    100.0541    128.0409   1.0301949197e+02   3.6524955351e+01    0.2998867    0.2400657 -26.98 0.0007434426    1.435    0.303
        35  -9.6908    126.1641    127.4287   9.6046204692e+01   3.1874888739e+01    0.3637919    0.2285218 -84.37  0.001295376    3.030    0.670
        36 -10.3640    135.7586    127.7681   9.3703859871e+01   2.9873947493e+01    0.4800466    0.1433743 -51.73  0.001375618    3.665    0.727
        37  -9.1081    108.5836    120.0418   9.8910906702e+01   3.6852336530e+01    0.2047738    0.1941148  39.77  0.000172678    1.104    0.095
        38  -8.8909    108.0067    113.8567   9.7589229003e+01   3.8329733523e+01    0.4125602    0.2538552  75.14  0.001282857    3.377    0.704
        39  -9.7802    167.7126    112.3806   8.2376523817e+01   2.6273804188e+01    0.3297955    0.2460522 -79.99 0.0008542671    1.719    0.418
        40 -10.7048    120.3869    110.1251   9.3360025232e+01   3.6824364649e+01     0.376803    0.2784039 -40.92  0.001845971    1.344    0.256
        41 -10.2467    115.1821    110.3748   9.4803753406e+01   3.7766221987e+01    0.3517099     0.216083 -22.92  0.001346345    2.468    0.595
        42  -9.2079    205.5202    110.1885   7.4087151281e+01   1.8107473666e+01    0.2705927    0.2088025  55.06 0.0007296276    1.324    0.245
        43 -17.0024      8.4054    121.4523   1.2642471380e+02   4.8625816785e+01     8.524374     1.134732 -67.45   0.02440592    6.101    0.836
        44  -9.9673    134.5229    103.6958   8.8073379706e+01   3.5332765848e+01    0.5372156    0.1458144 -45.73  0.001571794    3.681    0.728
        45 -10.5273    241.9731    100.1599   6.5677068199e+01   1.2013266059e+01     0.320232    0.2094292 -15.26  0.001347172    2.784    0.641
        46  -8.8001     67.3518    104.2957   1.0681102434e+02   4.6748019265e+01    0.1377439   0.09623961 -22.60 0.0007033358    1.685    0.406
        47  -8.8377     86.4783     99.4766   1.0007215323e+02   4.5044282790e+01    0.2145406    0.1281969  48.41 0.0002475991    1.968    0.492
        48  -9.8281    164.3386     92.8875   7.8215248303e+01   3.0924934523e+01    0.3108878    0.1306435 -47.91  0.001104676    2.523    0.604
        49 -14.4292     28.0521    150.9843   1.2558637512e+02   4.0474285927e+01     2.501028    0.8240847 -58.36  0.009141859    2.339    0.573
        50 -10.9913    183.0739    215.2311   1.0079136238e+02   1.4463579547e+00    0.3640677      0.27856  55.46  0.001955332    1.379    0.275
        51  -8.2484    156.4972     79.5100   7.6446645483e+01   3.5189306088e+01    0.1456349    0.1405784  61.11 6.911706e-05    1.009    0.008
        52  -8.9507    183.4887     77.4554   7.0348827908e+01   2.9283639957e+01    0.3169538    0.2050191  39.05  0.001433252    1.821    0.451
        53  -9.8537     62.0793     68.8579   9.9398378572e+01   5.4502911732e+01    0.2313741    0.2033914  42.00 0.0008611031    1.403    0.287
        54 -10.0905    157.0947     59.2449   7.0860260185e+01   3.8430663097e+01    0.3054199    0.2328803  78.73 0.0005495799    1.490    0.329
        55 -10.0026    159.3767     53.0315   6.8710727534e+01   3.8844395785e+01    0.2690072    0.1956751  60.75 0.0006143795    1.295    0.228
        56  -9.2381    174.1607    248.6658   1.0802765604e+02  -2.9158164872e+00      0.20009    0.1817777 -85.27 0.0008248302    1.321    0.243
        57 -12.4474    186.5620     39.8985   6.0459503179e+01   3.4345426662e+01    0.6538249    0.5033991  44.68  0.001003227    1.421    0.296
        58  -8.3785    168.2680    247.6613   1.0902815891e+02  -1.7357974177e+00     0.124076   0.09610611  73.30 0.0002632672    1.598    0.374
        59 -15.9817     17.1185     97.2671   1.2017991536e+02   5.3209617541e+01     4.025961      1.84207 -79.99    0.0144398    3.810    0.738
        60 -10.7158    163.7800    240.9151   1.0890571874e+02   2.1449815352e-01    0.2440499    0.2184346 -38.19   0.00153782    1.291    0.226
        61 -10.3005     32.8747     29.7790   9.7526847693e+01   6.4108920944e+01    0.3742366   0.04767296 -41.49  0.001190603    6.174    0.838
        62  -9.2354    161.3305     12.3248   5.7492672094e+01   4.3408402607e+01    0.1309476   0.08407474  39.29 0.0007050461    1.703    0.413
