#   1 NUMBER                 Running object number                                     
#   2 MAG_AUTO               Kron-like elliptical aperture magnitude                    [mag]
#   3 X_IMAGE                Object position along x                                    [pixel]
#   4 Y_IMAGE                Object position along y                                    [pixel]
#   5 X_WORLD                Barycenter position along world x axis                     [deg]
#   6 Y_WORLD                Barycenter position along world y axis                     [deg]
#   7 A_WORLD                Profile RMS along major axis (world units)                 [deg]
#   8 B_WORLD                Profile RMS along minor axis (world units)                 [deg]
#   9 THETA_WORLD            Position angle (CCW/world-x)                               [deg]
#  10 FWHM_WORLD             FWHM assuming a gaussian core                              [deg]
#  11 ELONGATION             A_IMAGE/B_IMAGE                                           
#  12 ELLIPTICITY            1 - B_IMAGE/A_IMAGE                                       
         1 -12.7531    150.7713     57.5590   4.2405368354e+01   3.9884600640e+01    0.5337986    0.3149329 -50.62 0.0002926754    1.751    0.429
         2 -11.2516     85.0125     47.9074   5.5387898785e+01   5.6353682980e+01     1.017689    0.4730203 -31.00  0.004123441    2.414    0.586
         3 -12.0982     90.8005     42.7374   5.1580063671e+01   5.5925735305e+01    0.7111585    0.3465506 -43.38  0.001045592    2.262    0.558
         4 -12.5534    140.6393     38.2112   3.8391574951e+01   4.5012660568e+01     0.701533    0.5194044  80.06 0.0006017093    1.375    0.273
         5 -11.2900     62.5814     37.6251   5.9303097766e+01   6.2428202326e+01    0.9426509    0.6153678  31.95  0.004897947    1.491    0.329
         6 -10.7325     39.8721     16.6768   5.9344073692e+01   6.9451447154e+01     1.034661    0.5219041  24.81  0.004623366    2.286    0.563
         7 -12.1379     46.0150      9.1761   5.2448181504e+01   6.9291263268e+01    0.2763903    0.2334028  20.87 0.0003366341    1.024    0.024
         8  -9.9471     48.2893      2.6406   4.7891709353e+01   6.9535088121e+01    0.2263549    0.2000313   7.02 0.0006669601    1.143    0.125
         9 -11.0615     15.0285      3.4719   6.5928078575e+01   7.4876174348e+01     1.010778    0.4873047  44.05  0.005101513    2.685    0.628
        10 -11.1611     15.2881     26.2251   7.8090396685e+01   7.1296013917e+01    0.6642826    0.5221863  29.09  0.004291666    1.452    0.311
        11 -10.8489      7.1602     22.0143   8.1453044472e+01   7.2816068253e+01    0.3900183    0.2817195 -18.13  0.001560734    1.161    0.139
        12 -11.4498     36.4328      2.4904   5.3034808348e+01   7.1716985767e+01    0.9258839    0.3318979  40.45  0.004207356    2.426    0.588
        13 -12.4845     15.4312     13.8418   7.1772976591e+01   7.3340156793e+01    0.7302684    0.2994977  21.52 0.0009393449    2.732    0.634
        14 -10.3389     24.4415     12.8625   6.5594473451e+01   7.2329856961e+01    0.2465907    0.1911098 -19.04 0.0005424316    1.195    0.163
        15 -11.5701     28.1631     18.5832   6.6554305312e+01   7.0980152905e+01    0.9309486    0.5068629 -10.20  0.004210102    2.579    0.612
        16 -11.4460     33.3475     10.6913   5.9378406286e+01   7.1287292897e+01    0.9443509    0.3618406  37.45  0.004309746    2.401    0.584
        17 -10.9856      8.1347      8.9375   7.4032632915e+01   7.4903789054e+01    0.2807323    0.1830799 -24.94 0.0003948275    1.333    0.250
        18 -11.8249      3.5503      3.9041   7.4469659904e+01   7.6134894483e+01    0.4359952    0.3911687   2.00  0.003285167    1.361    0.265
        19 -13.0591     30.6246     31.2032   7.1403355773e+01   6.8619329005e+01    0.4485776    0.2986496 -40.44 0.0004883947    1.479    0.324
        20 -10.7100     45.8017     29.0946   6.2709813259e+01   6.6696325173e+01    0.5948694    0.4007411  17.53     0.003252    1.523    0.344
        21 -11.5188    236.5655     29.3221   2.5223541472e+01   2.5290113487e+01    0.3921934    0.3223711 -24.67  0.002776524    1.532    0.347
        22 -12.0537    239.3932     19.5986   2.3076992956e+01   2.5883498681e+01    0.7609943    0.5238047 -71.55  0.002235989    1.238    0.192
        23 -10.3748    223.5096     21.7685   2.4591815827e+01   2.8659621889e+01    0.4632488     0.248941 -61.98  0.002679341    1.649    0.393
        24 -10.7659    226.9664     17.8961   2.3536813227e+01   2.8419330350e+01    0.3402607    0.2729842  23.23  0.001785985    2.080    0.519
        25 -11.6238    132.2032     29.7322   3.7184219435e+01   4.8072624094e+01    0.3984639    0.3037116 -52.11            0    1.367    0.269
        26 -10.7533     81.0675     19.3296   4.4900863286e+01   6.1097846585e+01     0.369837    0.2084737 -32.09  0.001867957    1.908    0.476
        27 -10.8779     81.7461     26.5244   4.7783826102e+01   6.0106758873e+01    0.4953068    0.4579527  81.65  0.002222621    1.262    0.208
        28 -10.4944     74.8108     20.1615   4.7171080200e+01   6.2350599333e+01    0.3802949    0.2676693 -45.30 0.0009616091    1.720    0.418
        29 -10.8194    179.7391     21.4935   2.8310220561e+01   3.7910228019e+01    0.4963265    0.3090011 -69.02   0.00225537    1.582    0.368
        30 -10.5972    164.6076     22.0411   3.0134280845e+01   4.1297248132e+01    0.3625406    0.3104119  40.86   0.00158399    1.407    0.289
        31 -12.0201     56.0295     18.9318   5.3311791901e+01   6.6282723682e+01    0.6055237    0.3152365  26.78  0.002268413    2.280    0.561
        32 -11.4720     58.3098     12.7761   4.9360296224e+01   6.6557536393e+01    0.6900284    0.2870291  50.51  0.002359412    2.145    0.534
        33 -10.4710     86.6710     15.7918   4.1832198518e+01   6.0234911729e+01    0.6753349    0.3521033 -51.18  0.002220746    2.756    0.637
        34 -11.1525    105.2133      5.0962   3.3423939721e+01   5.6948329889e+01    0.5636632    0.5041776 -24.91  0.001661049    1.269    0.212
        35 -11.2237    100.8639     15.8260   3.8429559549e+01   5.6991987879e+01    0.8560464    0.4165211  64.32  0.003984016    1.904    0.475
        36 -11.6129     89.7795      3.2678   3.5795907322e+01   6.0667683481e+01    0.4598936     0.304096  68.80 0.0009564235    1.412    0.292
        37 -12.0429    111.1132     19.3709   3.7604745943e+01   5.4233784377e+01    0.4704936    0.3580642  21.57    0.0021015    1.543    0.352
        38 -10.7197    193.0483     17.2656   2.5995526618e+01   3.5440201395e+01     0.295761    0.2277188  51.45  0.001880855    1.588    0.370
        39 -11.3108    151.6188     17.7261   3.0513762164e+01   4.4788047424e+01    0.5660132    0.3315735  48.35  0.002917761    1.864    0.464
        40  -9.6493    149.5973     11.7260   2.9002171342e+01   4.5860205352e+01    0.2330878    0.1777227  53.89  0.001408077    1.355    0.262
        41 -10.5454    156.6174      9.8108   2.7632941800e+01   4.4400628916e+01    0.3521916    0.2228988 -26.43   0.00185732    1.764    0.433
        42 -10.8774    153.0429      9.6818   2.7998757057e+01   4.5246306936e+01    0.2923275    0.2053395 -80.18  0.000829721    1.366    0.268
        43  -9.1945    176.3965     12.2581   2.6266434520e+01   3.9633692111e+01    0.2348778    0.1706635 -67.18 0.0001991449    1.238    0.192
        44 -12.5333    187.1107     13.6799   2.5645445141e+01   3.7110411326e+01     0.312871    0.3050436  31.35 0.0003808228    1.343    0.255
        45 -12.0436    182.3611     12.7331   2.5834301646e+01   3.8254410683e+01    0.5298318    0.3659609  41.13  0.001523106    1.952    0.488
        46  -9.0864    126.2807     14.9316   3.3294794425e+01   5.1082034043e+01    0.2319452    0.1762596 -33.08 0.0007481858    1.428    0.300
        47 -10.3495    131.3925     13.3878   3.1984895001e+01   5.0013725693e+01    0.3172338    0.2176944  77.73  0.001082104    1.358    0.264
        48 -10.3912    138.0491      1.7384   2.7380893586e+01   4.9465245835e+01    0.5410182    0.1841453  72.61  0.002254907    2.585    0.613
        49 -11.8541    122.8912     11.0352   3.2522349312e+01   5.2256643964e+01    0.5764869    0.2847303  47.58  0.002744979    2.020    0.505
        50 -12.2314    127.7963      4.5517   2.9607991243e+01   5.1658122496e+01    0.4829855    0.3698803  74.66  0.001225897    1.146    0.127
        51  -9.6324    247.1952     13.7516   2.1478854292e+01   2.5109579431e+01    0.1849309    0.1517528 -55.29 0.0006626326    1.176    0.150
        52  -9.5442    143.3428     12.4620   3.0013371758e+01   4.7264734713e+01    0.3439305    0.3138298  -5.98  0.002260258    1.324    0.245
        53  -8.7622     72.2350      8.1776   4.2466822862e+01   6.4143799308e+01    0.3755283    0.2356392 -80.08  0.001681656    3.126    0.680
        54 -10.4421    200.7985     12.0969   2.4145218557e+01   3.4332050797e+01    0.2865134    0.1489811 -41.67 0.0006361076    1.679    0.404
        55 -11.3218    208.7146     10.3089   2.3160488533e+01   3.2870525843e+01    0.5609208    0.4117256  27.38  0.001011648    2.280    0.561
        56 -10.8117    216.2949      7.5764   2.2058824792e+01   3.1614622619e+01    0.2793626    0.2406459  43.37  0.001124365    1.653    0.395
        57 -10.6455    218.1585      3.0783   2.0991097072e+01   3.1694781373e+01    0.2814139    0.2144288 -75.67  0.000808837    1.092    0.085
        58 -10.2945     91.4826      9.8551   3.8155553723e+01   5.9718752395e+01    0.4209269    0.3177075  45.40   0.00196747    1.193    0.162
        59 -10.0668    116.7440      8.6627   3.2706333271e+01   5.3928270063e+01    0.2501785    0.1874391 -85.75 0.0004739252    1.396    0.284
        60 -10.1181    238.2675      7.1132   2.0680673807e+01   2.7434879566e+01    0.3020038    0.1414348 -61.85  0.001088811    1.789    0.441
        61 -10.7693    167.9827      5.9716   2.5417165405e+01   4.2143776812e+01    0.3674123    0.2710138 -34.68  0.001285271    1.435    0.303
        62 -10.1062     76.2234     13.1739   4.3591373417e+01   6.2801087286e+01    0.2648392    0.2019641   3.92 0.0007815898    1.432    0.302
        63  -9.4690     97.8856      7.7390   3.5886878703e+01   5.8433538219e+01    0.3069965    0.2048088  34.86    0.0014951    1.565    0.361
        64  -9.6517     77.9180      5.9927   3.9860287525e+01   6.3103461449e+01    0.2795606    0.2237418 -82.85  0.001687336    1.589    0.371
        65  -8.8360    225.2951      6.6280   2.1310343017e+01   2.9939766255e+01    0.1256213   0.05998334 -58.25 0.0007026934    1.733    0.423
        66 -10.6497    201.2208      4.7918   2.2444881890e+01   3.4978593532e+01    0.6265095    0.3050999  83.18  0.002983747    1.934    0.483
        67  -8.9938    195.4838      1.4755   2.2081161315e+01   3.6505587103e+01    0.2135072    0.1007758  84.35 0.0006892541    1.982    0.495
        68  -9.5877    191.7401      1.5702   2.2365778120e+01   3.7295531988e+01     0.255726    0.1477624 -88.56 0.0008159338    1.572    0.364
        69  -9.4403    176.4484      4.1397   2.4184147996e+01   4.0405061446e+01    0.3610959    0.1947788 -54.89  0.001983581    1.717    0.418
        70  -8.2360    185.2954      4.3340   2.3510275845e+01   3.8432102536e+01    0.1107628   0.08759267  43.89 0.0007027937    1.643    0.391
        71  -9.3358    153.4460      3.2011   2.6094721017e+01   4.5736681950e+01    0.2469092    0.1676173  52.78  0.001309067    1.548    0.354
        72 -10.4042    245.8752      1.7848   1.9277075802e+01   2.6594542338e+01     0.378888    0.1380456  80.34  0.002044267    2.756    0.637
        73  -9.3555    230.0166      2.0730   2.0123492571e+01   2.9492780465e+01    0.1686286    0.1236501 -63.51 0.0004006526    1.028    0.027
        74  -9.1441    119.1884      1.5200   2.9819762622e+01   5.3940679278e+01     0.314788    0.1428168  78.76  0.001421342    2.221    0.550
        75  -9.5762     64.3782      1.6447   4.1681328004e+01   6.6386108693e+01    0.1998516    0.1525345  46.09 0.0005172523    1.109    0.098
        76  -8.9216    237.7816      1.3854   1.9590885707e+01   2.8106609622e+01    0.1347833    0.0887995  74.58 0.0004058506    1.617    0.381
        77  -8.5425     21.9763      1.0000   5.9928894194e+01   7.4216767770e+01    0.1849167   0.05889755  41.06 0.0007949795    2.891    0.654
        78  -8.5166    152.2166    106.2274   5.5653861094e+01   3.0814841630e+01    0.1990877    0.1711786 -72.48 0.0003674706    1.296    0.228
        79  -9.5527    127.0370    105.9545   6.1685682170e+01   3.6194707561e+01    0.2315498    0.2184118 -47.31 0.0002985217    1.034    0.033
        80 -11.5398    108.0469    103.1187   6.6197728209e+01   4.0713213413e+01    0.3110065    0.2835484  58.81            0    1.176    0.149
        81 -10.0224    112.5007    101.4432   6.4437658344e+01   4.0187997273e+01    0.2674406    0.2412277  29.48   0.00048219    1.150    0.130
        82 -11.7331     80.8671    103.1672   7.4857970537e+01   4.5784161594e+01    0.3227823    0.2867239  -5.40 0.0003679973    1.202    0.168
        83  -8.3427     67.4750    104.4755   7.9890776411e+01   4.7640768594e+01    0.1521535    0.1411068 -35.73 3.515166e-05    1.033    0.031
        84  -9.5397     25.0355    116.2329   9.7988943639e+01   4.9634220576e+01    0.1889168     0.179302  89.73 0.0004314908    1.101    0.092
        85  -9.0418    131.7063    104.4448   6.0070461239e+01   3.5537438856e+01     0.213203    0.1474016  32.53 0.0009436723    1.641    0.391
        86 -10.3260     61.1168    101.6468   8.1498122014e+01   4.9290131118e+01    0.3669255    0.3230503 -60.98   0.00101864    1.132    0.117
        87 -10.3858    121.5340     95.7432   6.0317937620e+01   3.9535871633e+01    0.4111342    0.2612442 -34.76  0.001777658    1.661    0.398
        88  -8.7858     93.8946    102.5220   7.0379463185e+01   4.3594238789e+01      0.23019    0.1533976  35.78  0.001017104    1.558    0.358
        89 -10.7006    117.2981     97.6583   6.2019790821e+01   4.0021897200e+01    0.4629818    0.2865731 -52.40  0.001461697    1.684    0.406
        90  -9.3352     67.9806     99.4998   7.8422322215e+01   4.8788128303e+01    0.2201245    0.1987072 -44.43 0.0003699813    1.048    0.046
        91 -10.3302    108.8254     96.1701   6.4011162503e+01   4.2097466262e+01    0.4901842    0.2653521  46.49   0.00155822    1.915    0.478
        92 -12.3058    101.5846     97.8839   6.6672085074e+01   4.3174347288e+01    0.3353864     0.308646 -28.21 0.0002878369    1.080    0.075
        93 -10.3345     97.3026     96.9333   6.7730863349e+01   4.4226529276e+01    0.5231822    0.2482629 -40.41  0.001145149    2.185    0.542
        94  -9.4392     38.9946     98.5293   8.9271876274e+01   5.2892415966e+01    0.2630017    0.1365042  29.75 0.0004362564    2.033    0.508
        95  -9.1084     35.5991     95.8058   9.0025641905e+01   5.3946515012e+01    0.2904971    0.1998431 -79.41  0.001404593    1.663    0.399
        96 -10.2626     25.9348     96.8804   9.4180205930e+01   5.4600133184e+01    0.5187954    0.2435135  18.92  0.001114443    2.384    0.581
        97 -10.0895     16.7111     96.1001   9.7796060687e+01   5.5536391444e+01    0.4173144    0.2294392 -78.65  0.001903714    1.904    0.475
        98  -8.8795     51.1566     97.2001   8.4169514792e+01   5.1768488927e+01    0.2136897     0.180511 -35.22 0.0004565933    1.136    0.120
        99  -9.0983     78.3854     94.4519   7.3315204115e+01   4.8281432816e+01     0.302175    0.2415405 -40.75 0.0009915869    1.207    0.171
       100  -9.9176     61.4721     95.7391   7.9837540391e+01   5.0693775657e+01    0.2666932      0.23726 -28.66 0.0002029286    1.094    0.086
       101 -10.2194    137.3051     94.0859   5.5834056743e+01   3.6471652488e+01    0.3467323    0.2632205 -26.56 0.0005449033    1.452    0.311
       102  -8.5899     69.2489     95.4238   7.6861258160e+01   4.9573757216e+01    0.2002417    0.1405319  44.92 0.0009299947    1.556    0.357
       103  -9.7017     87.3803     92.6199   6.9704022930e+01   4.7087962867e+01    0.4817406    0.4068322 -43.66  0.001581827    1.149    0.129
       104  -9.7796     85.2970     86.6785   6.8638194210e+01   4.8806478962e+01     0.388768    0.2658765  34.16   0.00122932    1.513    0.339
       105  -8.5050      4.9717     93.9792   1.0225148817e+02   5.6813194632e+01    0.1520308    0.1394363 -37.50 0.0005108669    1.135    0.119
       106  -8.4416      1.4127     94.4833   1.0377797645e+02   5.6864122454e+01    0.1339612    0.1109232 -63.32 6.807531e-05    1.016    0.016
       107 -10.1824    126.4600     91.3212   5.7751898301e+01   3.9392051047e+01    0.4126312    0.3265511  57.66  0.001623805    1.348    0.258
       108 -11.5469    131.3110     86.0566   5.5002945148e+01   3.9376034248e+01    0.2776263    0.2630165 -36.60 0.0002410721    1.048    0.045
       109 -10.0035     48.6671     89.3422   8.3145287114e+01   5.4027724123e+01    0.6484828    0.2651753  43.95   0.00233352    3.033    0.670
       110  -8.8792     57.0177     89.2555   7.9794103866e+01   5.2909010412e+01     0.263881    0.1918772  41.01 0.0006709767    1.495    0.331
       111  -8.9977     53.6982     88.6875   8.0949967866e+01   5.3513006689e+01    0.3333199    0.1614268 -38.11 0.0007928379    2.251    0.556
       112  -9.9027     42.4522     91.1080   8.6125733856e+01   5.4362119616e+01    0.4109659    0.2542594  24.08  0.001307989    1.737    0.424
       113  -8.5642     20.9806     92.2618   9.5302852221e+01   5.6190615175e+01    0.1859061    0.1667895 -38.53  0.000425636    1.075    0.069
       114  -9.0306     67.0883     90.2575   7.6214792526e+01   5.1145487647e+01     0.287448    0.2058755 -26.92 0.0009403438    1.541    0.351
       115  -8.1109     70.6914     88.3394   7.4321049047e+01   5.1007772665e+01    0.1488936    0.1199208  81.64 1.979856e-05    1.686    0.407
       116 -12.5263     34.8325     89.4540   8.8876454920e+01   5.5620043967e+01    0.3476108    0.3022454 -69.09  0.001978989    1.184    0.155
       117 -10.8908     28.9628     84.9672   9.0310562649e+01   5.7317748794e+01    0.2624666    0.2432637  69.84 0.0003172278    1.263    0.208
       118 -10.9367    112.5348     81.7729   5.8659953593e+01   4.4329500638e+01    0.7015792    0.3687917  38.92  0.002299463    2.063    0.515
       119  -9.9718    101.0043     89.0719   6.4275529681e+01   4.5225737946e+01    0.3928337    0.2839811 -10.26  0.001290228    1.892    0.471
       120 -10.4625    102.9662     84.2059   6.2199278972e+01   4.5853394287e+01    0.4451204    0.3243887 -44.82  0.001664713    1.358    0.264
       121 -11.5842    103.7387     78.7308   6.0259082042e+01   4.6809723166e+01    0.7499946    0.6359764 -40.77  0.002856231    1.171    0.146
       122  -9.5175      9.6423     89.1659   9.9507459559e+01   5.7768893208e+01    0.3433174     0.145763 -57.25  0.001170556    1.854    0.461
       123  -9.5510     12.9912     88.2517   9.7911393186e+01   5.7786905628e+01    0.2014702    0.1714157 -55.09 0.0002050957    1.012    0.012
       124 -10.1653    138.9178     87.3490   5.3551763510e+01   3.7438634522e+01    0.4187279    0.2284836 -49.67  0.000519507    1.897    0.473
       125 -10.3692    120.3674     87.3644   5.8198616340e+01   4.1515054731e+01    0.4068585      0.32868 -52.23  0.001117114    1.260    0.207
       126 -10.1201    124.2638     85.4486   5.6604598342e+01   4.1048667293e+01    0.3172899    0.2803445  71.39 0.0007230383    1.231    0.188
       127 -10.5096    120.8504     82.4700   5.6607004258e+01   4.2383978468e+01    0.2789248     0.268755  79.64 0.0002937051    1.077    0.072
       128  -9.9376    110.4036     87.9111   6.1129509680e+01   4.3531581435e+01    0.2753308    0.2400416  32.68 0.0003615506    1.184    0.155
       129  -9.8729     75.7948     84.3751   7.1270153800e+01   5.1039572243e+01    0.6967087    0.3972442 -50.60  0.002998926    1.739    0.425
       130 -10.5385     79.9174     81.0168   6.8754755639e+01   5.1041075144e+01    0.2937881    0.2407214  -1.43 0.0002861467    1.372    0.271
       131 -10.6658    157.4953     85.0447   4.8879870491e+01   3.3733772701e+01    0.3875959    0.2915896  24.27  0.001872661    1.751    0.429
       132  -9.0203     59.5562     84.0449   7.7311066642e+01   5.3765324896e+01    0.2272116    0.1380265 -52.31  0.001022499    1.581    0.367
       133  -9.5866     46.1224     80.9469   8.1898672039e+01   5.6366908974e+01    0.4141124    0.2790395 -45.99  0.001306233    1.355    0.262
       134  -9.2816     19.9859     82.4642   9.3674736681e+01   5.8720208992e+01    0.3431344    0.1754878 -54.83  0.001101584    1.628    0.386
       135  -9.2203      1.9623     83.0794   1.0177685731e+02   5.9709866456e+01    0.1967149    0.1693898 -62.74 0.0005102453    1.061    0.057
       136 -10.9922     53.9201     80.9702   7.8667848088e+01   5.5304415320e+01    0.2724825    0.2265538 -54.66 0.0003037477    1.207    0.171
       137  -8.6495     86.2275     80.7714   6.6491460020e+01   4.9913014080e+01    0.2042937     0.170989  -4.75 0.0005872021    1.328    0.247
       138 -11.8980    152.2089     72.9644   4.6575914759e+01   3.7054043762e+01    0.9176891     0.501357 -24.73  0.000505872    2.425    0.588
       139 -12.4332    164.4649     70.5387   4.3596213506e+01   3.4678076918e+01    0.9783733    0.8298099  -6.20   0.00479118    1.465    0.317
       140 -12.0952    136.2399     73.8654   5.0235464734e+01   4.0542905253e+01    0.8784235    0.5627745  55.00  0.002378771    1.584    0.369
       141 -12.1054    139.8597     71.4468   4.8708135957e+01   4.0141030505e+01     1.572887    0.7723144 -60.51  0.005231451    3.506    0.715
       142 -11.1057    146.9328     61.8389   4.4393974811e+01   4.0108391945e+01     0.496338    0.3430872  39.87 0.0005214727    1.660    0.398
       143  -8.8747    106.9502    246.3592   9.2547570155e+01   8.5504193287e+00    0.1924369    0.1697199  81.79  0.001136105    1.372    0.271
       144  -9.5763    121.3575     77.7734   5.5043982231e+01   4.3178234862e+01    0.2602534    0.1903588 -29.24  0.000703043    1.474    0.322
       145  -8.4745     40.5470     78.5027   8.3595834219e+01   5.7634349158e+01    0.1404403    0.1292029 -38.35 0.0008083277    1.048    0.046
       146  -9.3950    187.8968     76.3395   4.1253293146e+01   2.8584416745e+01    0.2288009    0.1712356 -52.63 0.0005033234    1.231    0.188
       147  -8.8550     36.2092     77.1808   8.5131619799e+01   5.8447839839e+01    0.2233438    0.1655571 -33.79  0.001184071    1.271    0.213
       148 -10.5261     76.3132     75.0769   6.8140264618e+01   5.2969500582e+01    0.6425735    0.4510982  27.70  0.002040271    1.508    0.337
       149 -10.1363     83.3348     73.6441   6.5176036026e+01   5.1956034691e+01    0.3972741    0.3462002 -65.75  0.002110885    1.331    0.249
       150 -11.3224     60.7519     58.0956   6.8247276899e+01   5.9145753603e+01    0.5296555    0.4737912 -29.55  0.001146973    1.096    0.088
       151  -9.4751     57.1179     72.1128   7.4611861895e+01   5.6827751278e+01    0.2850023     0.218777 -23.09 0.0004498773    1.338    0.252
       152 -10.1309     64.1645     70.3069   7.1168687617e+01   5.6091470858e+01    0.5071429    0.4005359   8.13  0.002648075    1.368    0.269
       153  -9.3859     59.3607     66.3331   7.1757380599e+01   5.7711369983e+01    0.4508499    0.2488299  32.56 0.0008518561    1.855    0.461
       154 -11.3465     46.3902     73.2054   7.9497001160e+01   5.8120679800e+01     0.524069    0.4170404  73.70 0.0007825607    1.791    0.442
       155 -10.2824     51.0733     70.1060   7.6498967865e+01   5.8163845868e+01    0.3943732    0.2830035 -71.43  0.001181173    1.884    0.469
       156 -11.1418      8.5219     74.4064   9.7163748969e+01   6.1489289988e+01    0.3315433    0.2942083  -0.64  0.002109152    1.234    0.190
       157  -9.1319      3.5713     72.8122   9.9168654296e+01   6.2149379115e+01    0.2070238    0.1781815  -4.55 0.0005760125    1.266    0.210
       158  -9.2620     96.9398     71.7246   6.0065490202e+01   4.9614267557e+01    0.3185782    0.2753167  79.38 0.0009919264    1.401    0.286
       159  -9.5124     88.5754     74.7615   6.3764712332e+01   5.0707918091e+01    0.3101777     0.231924  39.09 0.0009444919    1.343    0.255
       160  -9.1815     93.0239     72.9852   6.1722460359e+01   5.0172671487e+01     0.255702    0.2128924 -16.66 0.0003105512    1.298    0.229
       161 -10.4437     17.6193     71.0683   9.2088279210e+01   6.1663011682e+01    0.3556764    0.2497424 -61.08  0.001048485    1.318    0.241
       162 -10.1343    121.2174     72.8575   5.3556290483e+01   4.4127229515e+01    0.6293199    0.2043479  53.30  0.001998652    3.290    0.696
       163  -9.7603     30.5443     71.1701   8.6019412071e+01   6.0465017042e+01    0.2293166    0.1881725  20.54 4.177729e-05    1.299    0.230
       164  -8.4713     27.9939     68.5129   8.6459343782e+01   6.1338302335e+01    0.1956483     0.126835   1.28 0.0009756897    1.739    0.425
       165  -8.3317     24.1630     71.6248   8.9129067183e+01   6.0978998995e+01    0.1862944    0.1229796  -1.59 0.0009462081    1.690    0.408
       166 -12.2120    110.7522     65.2403   5.3874689784e+01   4.7840822957e+01    0.5766787    0.4168585 -45.98  0.002842913    1.425    0.298
       167 -10.8309    104.4392     58.3855   5.3307347420e+01   5.0431530534e+01    0.3520235    0.2756029  27.56  0.001806471    1.395    0.283
       168  -9.0260     27.5086     56.4416   8.2975341522e+01   6.4078143367e+01    0.4116929    0.1540197 -45.48  0.001691533    2.315    0.568
       169 -11.3052     30.6681     53.2058   8.0269930321e+01   6.4416727981e+01    0.4862612    0.3669674 -70.29  0.001562872    1.757    0.431
       170  -9.5132     35.1869     51.3996   7.7351013172e+01   6.4247227941e+01    0.2458005    0.1895803 -61.39  0.001007257    1.573    0.364
       171 -11.2566     34.5044     67.2937   8.3032276389e+01   6.0922057541e+01    0.3236423    0.2872848  84.71 0.0007585009    1.457    0.314
       172 -10.4182     33.9725     63.0253   8.1947184878e+01   6.1933486829e+01    0.3757662    0.2478055 -12.53 0.0003948702    1.718    0.418
       173  -9.8998    101.7765     67.5171   5.7191406569e+01   4.9390048368e+01    0.2856379    0.1905751 -57.49 0.0008088282    1.828    0.453
       174  -9.9607     14.1943     66.3344   9.2559751048e+01   6.3035159199e+01    0.4057993    0.2185143 -27.66  0.001930785    1.936    0.484
       175  -9.6830      9.2585     65.9563   9.4912386030e+01   6.3459429137e+01    0.1900913    0.1841308 -37.09 0.0003048156    1.170    0.145
       176 -10.3742    180.8349     63.8818   3.9154960466e+01   3.2077454807e+01    0.4462756    0.2631814 -30.00  0.001447485    1.813    0.448
       177 -10.3981    176.9748     63.9720   3.9764133380e+01   3.2917685436e+01    0.2771742    0.2178831 -52.02 0.0003118397    1.176    0.150
       178  -9.5847     71.5267     66.4781   6.7010090657e+01   5.5607669075e+01    0.4649621    0.2832352  36.63  0.002151235    1.651    0.394
       179  -7.9949    231.6832     66.2772   3.3387478661e+01   2.1377826043e+01    0.1254954   0.07906873 -62.65 0.0002582481    1.571    0.363
       180 -11.0494    211.4877     49.3420   3.1747124884e+01   2.7653677293e+01    0.3500758    0.2657039  71.16  0.000628756    1.406    0.289
       181 -10.1284    192.5203     61.2721   3.6843397971e+01   2.9931262646e+01    0.5624127    0.2025406  56.98  0.002276026    2.862    0.651
       182 -11.1691    199.7735     55.5345   3.4521343763e+01   2.9221689623e+01    0.9554112    0.6509696   4.10  0.004490687    2.833    0.647
       183  -9.7128     88.9990     64.9057   6.0292062545e+01   5.2553094972e+01    0.5028544    0.2486863 -45.28  0.002053836    2.089    0.521
       184 -10.4235     93.5001     57.0618   5.6079008970e+01   5.3032717327e+01    0.7256389    0.3798326  36.36  0.003000582    2.118    0.528
       185  -8.9795     41.5648     66.4901   7.9524927055e+01   6.0249493795e+01    0.2231135     0.194336 -28.84 0.0007279956    1.030    0.029
       186 -10.8046     43.0363     61.8767   7.7323091741e+01   6.1056430510e+01    0.4150491    0.3502288  47.33  0.002366702    1.435    0.303
       187 -10.0892    161.2886     64.6663   4.2538188554e+01   3.6347810638e+01    0.2780015    0.2392434 -65.64 0.0004639427    1.134    0.118
       188  -8.4943     26.4860     65.5440   8.6321465694e+01   6.2166661163e+01    0.1359124    0.1189845 -32.89 0.0002024911    1.015    0.015
       189  -9.3865      2.4274     64.3095   9.7949848053e+01   6.4233261205e+01    0.2296867    0.1974115  25.20  0.001473508    1.374    0.272
       190 -10.1974    203.7611     63.0246   3.5820340157e+01   2.7310603496e+01    0.2102539    0.1802553 -89.54 0.0003015879    1.188    0.158
       191  -9.4190    172.0984     62.8650   4.0234821306e+01   3.4178270215e+01    0.3222873    0.2171312 -72.33  0.001052549    1.747    0.428
       192  -9.7127    167.9017     61.5319   4.0552065622e+01   3.5331323091e+01    0.3173729    0.2257804 -14.97  0.001008169    1.870    0.465
       193 -11.3552     21.9385     61.0733   8.7243461165e+01   6.3606604047e+01     0.334839    0.2172595 -17.35 0.0003422028    1.625    0.385
       194 -10.2480    218.8269     59.2839   3.3216597223e+01   2.4817342073e+01    0.2594025    0.2158616 -59.73 0.0004639957    1.033    0.032
       195  -9.4973    222.2398     55.4104   3.1999150549e+01   2.4690332142e+01    0.2277521    0.1581819 -47.59 0.0002851049    1.190    0.160
       196  -9.3625    115.2645     60.7406   5.1184284028e+01   4.7606537849e+01    0.2654503    0.1913853 -27.61 0.0006025216    1.507    0.336
       197 -11.1323    184.2075     54.7533   3.6324552458e+01   3.2687125896e+01    0.7132913    0.4926218 -47.73   0.00228692    1.317    0.241
       198 -10.8131    174.3671     53.8770   3.7486424921e+01   3.5007789877e+01    0.3920313    0.2432351 -48.18  0.001003513    1.514    0.340
       199 -10.4495      7.7943     58.2085   9.3722560044e+01   6.5342047497e+01    0.5459562    0.3033726 -19.49  0.002547862    1.905    0.475
       200 -10.4269     77.9881     55.4962   6.0665389131e+01   5.6482447825e+01    0.4970958    0.4633109  11.98  0.001562464    1.010    0.010
       201  -9.6367     79.3159     44.7622   5.6068470725e+01   5.8033906037e+01    0.3376931     0.237719  35.92  0.001383496    1.379    0.275
       202  -8.2161    116.6920    237.2937   8.9351990029e+01   8.9536586551e+00    0.1255615    0.0901181  53.83 0.0002640359    1.585    0.369
       203 -10.1731     69.4732    217.5040   9.7943327946e+01   1.9120764797e+01    0.6298433    0.3371767  70.32  0.002747345    2.599    0.615
       204  -9.4470    213.6655     57.2627   3.3322626721e+01   2.6124456343e+01    0.2237981    0.1327711 -42.22 0.0006158996    1.436    0.304
       205 -10.9983    161.1505     56.3723   4.0241099308e+01   3.7658051543e+01    0.4262647    0.3292194  89.16  0.001917838    1.380    0.275
       206  -9.4685    162.0864     52.4583   3.8988109162e+01   3.8017925762e+01    0.2494869     0.211419  58.92 0.0003875588    1.216    0.178
       207  -8.7432    245.9029     55.7159   2.9845076713e+01   2.0267406778e+01    0.1536523    0.1228871 -61.20 0.0002928267    1.090    0.082
       208  -9.0988    239.0882     56.0403   3.0514302026e+01   2.1441227805e+01     0.189222    0.1414517 -52.66   0.00110763    1.055    0.052
       209 -10.8739    128.1196     53.1949   4.5635363396e+01   4.5854600188e+01    0.5320413    0.4218375  29.39 0.0004648877    1.459    0.314
       210 -12.8577    137.8699     47.1989   4.1709796062e+01   4.4446472909e+01    0.6328771    0.5002971  84.78 0.0007563549    1.339    0.253
       211 -11.6446     76.9382    219.9601   9.6430277474e+01   1.7650625515e+01    0.7143778    0.5517179   5.72  0.004071742    1.545    0.353
       212 -11.2833    116.8826     51.8471   4.7796072135e+01   4.8674740481e+01     1.231877     0.573779  61.63  0.004430114    2.375    0.579
       213 -11.6833    122.4017     49.6475   4.5755814885e+01   4.7727842635e+01    0.4724461    0.4226153 -21.91  0.002703009    1.203    0.168
       214  -9.3243     68.8021     54.5849   6.3723738844e+01   5.8391774708e+01    0.2961222    0.2315119 -43.39    0.0011739    1.333    0.250
       215  -9.7924     65.0253     51.9350   6.4183620249e+01   5.9560956970e+01    0.2417292    0.2147311 -42.32 0.0004281068    1.220    0.180
       216  -8.8670     62.5639     48.5611   6.3844314772e+01   6.0605766524e+01    0.2342662    0.1898036 -19.42 0.0006753541    1.219    0.180
       217  -9.3119     57.0320     75.7562   7.5809633952e+01   5.6035448791e+01    0.3318572    0.1805491  38.10 0.0007505194    1.921    0.480
       218  -9.4123     44.7672     52.1485   7.3017112452e+01   6.2809223370e+01    0.2726641    0.1699709 -44.66 0.0008867208    1.550    0.355
       219 -10.5065     25.5206     48.7869   8.1358089592e+01   6.5899370343e+01    0.6361595     0.295173 -26.61  0.002587291    2.773    0.639
       220 -10.0600     18.8057     42.9027   8.2875520853e+01   6.7776652030e+01     0.288506    0.2234849  46.10  0.001680008    1.732    0.423
       221  -9.8115     10.5221     51.5324   9.0385684427e+01   6.6649408375e+01    0.4221699    0.2757923  57.79  0.002144336    2.434    0.589
       222 -11.5216     18.2433     48.6115   8.5215333909e+01   6.6651822141e+01    0.5492551     0.333371 -19.91 0.0005843683    1.705    0.413
       223 -10.0046      1.8525     50.9962   9.5028590018e+01   6.7307650355e+01    0.2642167     0.143817 -49.01 0.0004432435    1.462    0.316
       224  -9.9538      7.2649     46.6572   9.0724670487e+01   6.7931663707e+01     0.803733    0.1939483 -44.89  0.003015617    3.088    0.676
       225 -11.0086     81.5633     64.9801   6.2838095052e+01   5.4020619464e+01    0.4411899    0.3234823  -6.63  0.001451882    1.715    0.417
       226  -9.7966    201.5668     49.6384   3.2899466679e+01   2.9663614001e+01    0.2537885    0.2232646  75.02  0.001320199    1.224    0.183
       227  -9.6182    154.9255     50.5362   3.9624287893e+01   3.9958173507e+01    0.2027266    0.1315577  64.22  0.001007009    1.522    0.343
       228  -9.6748     54.7417     49.8236   6.7625326375e+01   6.1716206178e+01    0.2462229    0.2059372  48.71 0.0005812535    1.411    0.291
       229 -11.4450    233.0901     48.2230   2.9419340266e+01   2.3585313854e+01     0.223535    0.1771823 -58.89 0.0003077366    1.030    0.029
       230  -8.7349    194.7546     48.9858   3.3534762542e+01   3.1199592489e+01    0.2172585    0.1288681  68.71  0.001133899    1.744    0.426
       231  -9.9668    246.4390     47.7203   2.8191871211e+01   2.1220134659e+01    0.2078554    0.1622915 -51.33 0.0006840061    1.056    0.053
       232 -12.1653    163.7081     42.7562   3.6018750252e+01   3.8991812340e+01    0.7362491    0.4120944 -74.22  0.003187669    2.440    0.590
       233  -9.7645    149.4731     33.5320   3.5503958410e+01   4.3509296945e+01    0.2874288    0.2395017  61.81 0.0007500119    1.176    0.150
       234  -9.9092    157.8200     39.1565   3.5876010565e+01   4.0835696271e+01    0.2242937    0.1910768  57.83 0.0003842381    1.214    0.176
       235 -11.0711    155.0739     35.9114   3.5351082012e+01   4.1893533566e+01    0.5427237     0.376021 -52.82 0.0006859221    1.432    0.302
       236  -9.6595    154.2689     45.3856   3.8237246545e+01   4.0835919894e+01     0.389209     0.213781  51.21   0.00181382    1.875    0.467
       237  -8.6510     38.6649     44.6681   7.3020624993e+01   6.5107994660e+01    0.3065156    0.1492867 -38.14  0.001398441    1.977    0.494
       238 -10.2595     33.9827     44.1840   7.5187172716e+01   6.5822085319e+01    0.3452371    0.2621379 -23.42    0.0011188    1.206    0.171
       239 -10.7863    230.5808     39.3362   2.7761454751e+01   2.5197676574e+01    0.4065852    0.2923254 -18.15 0.0005470396    1.886    0.470
       240  -8.9352    226.5173     38.4693   2.7917717802e+01   2.6084928433e+01    0.2321517    0.1259419 -39.88  0.001205991    1.557    0.358
       241  -9.4040     74.7859     40.2635   5.5830703409e+01   5.9654989932e+01    0.2664392    0.1817405  38.55 0.0006609889    1.390    0.280
       242 -10.1209     74.0495     35.6356   5.4164294252e+01   6.0495330104e+01    0.3105382    0.2230492   6.63 0.0008605715    1.651    0.394
       243  -9.4918     73.1782     44.4353   5.8104747935e+01   5.9315418245e+01    0.3276146    0.2017293 -31.84 0.0008733058    1.682    0.406
       244 -10.2026     67.5930     44.3075   6.0141771631e+01   6.0412165841e+01    0.3965661    0.2613323  40.99  0.001064609    1.464    0.317
       245  -9.5533     45.1006     44.4032   6.9800738376e+01   6.4230207822e+01     0.208684     0.169658 -27.27 0.0001812441    1.153    0.133
       246  -9.7693    209.1702     42.8884   3.0503344824e+01   2.8981171190e+01    0.2552701    0.1614844 -37.25  0.001346035    1.466    0.318
       247  -8.7286    190.9316     44.4110   3.2860140614e+01   3.2642207154e+01    0.1918566    0.1202993  71.88  0.001025987    1.622    0.384
       248  -9.7847    178.1163     43.8551   3.4314033258e+01   3.5553422619e+01    0.4239657    0.2273473 -84.05  0.001814607    2.601    0.616
       249  -9.9767    107.9925     43.4279   4.7074009578e+01   5.1978989927e+01     0.478076    0.2315249  62.48  0.001242451    2.267    0.559
       250 -10.5094     73.6844    213.8410   9.6537522888e+01   1.9400161637e+01    0.3756965    0.3515344 -31.40  0.002079177    1.220    0.180
       251 -11.1681     54.7913     36.8351   6.2190639981e+01   6.3956912319e+01    0.3034196    0.2600315 -37.40 0.0003413569    1.282    0.220
       252 -11.4400     54.0313     33.3128   6.0951189704e+01   6.4645556794e+01    0.2416816    0.1970873  21.57   0.00034947    1.121    0.108
       253  -9.2510    218.2983     41.4149   2.9287884148e+01   2.7324431860e+01    0.2120597    0.1754539 -47.84 0.0007392931    1.136    0.120
       254  -9.3988     28.0542     41.7816   7.7341739089e+01   6.7011808077e+01    0.2124701    0.1714417 -35.84 0.0005499572    1.161    0.139
       255  -9.6397    240.3611     39.4179   2.6995382329e+01   2.3364611852e+01    0.3113408    0.2241742 -16.73  0.001938349    1.967    0.491
       256  -9.0743     98.4338     41.2131   4.8793615569e+01   5.4465142340e+01    0.2970284    0.1600393  39.32  0.000977429    1.963    0.491
       257 -10.3188    122.2773     39.6142   4.2411804007e+01   4.9181549584e+01    0.7381241    0.2044735  62.19  0.002282855    3.913    0.744
       258 -11.5987    126.9924     34.5534   3.9745416213e+01   4.8723743647e+01    0.5767114    0.3113672 -55.09   0.00252605    2.297    0.565
       259  -9.7363    123.9799     30.6714   3.9028882832e+01   4.9917634392e+01    0.2859974    0.2160245  68.74  0.001248362    1.257    0.205
       260 -10.5597    201.7821     37.7249   3.0046951149e+01   3.1180873697e+01    0.2814374    0.2041012 -49.85 0.0007318396    1.198    0.165
       261 -10.2047    194.6839     37.2506   3.0674958319e+01   3.2755061115e+01    0.2570878    0.1860814 -56.64 0.0003597777    1.219    0.180
       262  -9.1200    190.5179     35.4394   3.0681022288e+01   3.3885777173e+01      0.26837    0.1959517 -12.39  0.001198613    1.888    0.470
       263 -10.4295      1.7716     21.5483   8.4957116842e+01   7.3330605125e+01    0.3178231    0.1354148 -46.51  0.001623514    1.935    0.483
       264  -9.3288     91.3077    214.5536   9.2369635369e+01   1.6935009870e+01    0.3096708    0.1250129  29.26 0.0009720039    2.360    0.576
       265  -9.5957    123.9754    206.0006   8.3359343924e+01   1.4121683331e+01    0.1910277    0.1771182  17.37  0.001146036    1.010    0.010
       266  -9.0239     90.3341    206.0390   9.1520539639e+01   1.8936676623e+01    0.1897901    0.1753864  77.97   0.00114032    1.129    0.114
       267  -9.9182     32.9615     37.0685   7.2762480922e+01   6.7278378892e+01    0.2092917    0.1652258 -31.30            0    1.182    0.154
       268 -11.1499      5.4154    203.5598   1.1206360674e+02   2.8958476109e+01    0.3433107    0.1599552  66.77  0.001686945    2.027    0.507
       269  -9.8513      1.3532    184.8967   1.1201150405e+02   3.3683242320e+01    0.3845881    0.1035051 -79.32  0.001346463    3.266    0.694
       270  -9.4964     24.9982    173.9474   1.0501016830e+02   3.4456758467e+01    0.1963827     0.176673  83.54            0    1.026    0.026
       271  -9.2817      6.5631    168.3344   1.0958690425e+02   3.7399940533e+01    0.2122531    0.1623526  15.92 0.0005777155    1.555    0.357
       272 -10.9715      9.5449    163.0954   1.0836381157e+02   3.8512168397e+01    0.4747021    0.2787885 -16.93  0.002248663    2.524    0.604
       273 -11.6105     17.9863    158.4461   1.0554082273e+02   3.9051655783e+01    0.4869558    0.2577116 -73.47  0.001639711    1.664    0.399
       274 -10.7979      2.3472    153.4951   1.0966102275e+02   4.1477877118e+01    0.3360724    0.2098827 -80.39 0.0004757383    1.369    0.270
       275 -10.7304      6.7701    148.0875   1.0791158131e+02   4.2586898099e+01    0.4048192    0.2103373  29.63  0.001244699    2.030    0.507
       276  -9.2982      4.7414    131.7227   1.0701611284e+02   4.6999979122e+01    0.2081438    0.1706131  64.07 0.0005769061    1.254    0.202
       277 -10.5128     11.4603    144.7490   1.0617261027e+02   4.3133985832e+01    0.3952592    0.2069803  51.64 0.0004635092    2.024    0.506
       278 -10.3199      9.1541    138.3067   1.0625454605e+02   4.4987566652e+01    0.3909667    0.2459383  80.87  0.001985923    1.587    0.370
       279 -11.2242     34.8257     27.6057   6.7459351420e+01   6.8633083554e+01    0.3278964    0.2773459 -10.98 0.0003806898    1.066    0.062
       280  -9.1726      2.2681     38.0690   9.0938061728e+01   7.0061304013e+01    0.1971686      0.13929 -19.36 0.0002370521    1.271    0.213
       281 -11.3245    246.4949     32.5579   2.5174189180e+01   2.3093368533e+01     0.477387     0.231907 -53.29   0.00148245    1.636    0.389
       282 -10.9202    169.9532     32.8703   3.2438382992e+01   3.8812053668e+01    0.4697253    0.3007577 -24.36  0.001078806    1.812    0.448
       283  -8.5298    101.9714     37.0364   4.6279444654e+01   5.4248527377e+01    0.1596601    0.1515843  42.93  0.000324826    1.016    0.015
       284  -8.9699     38.8365     36.1617   6.9339881987e+01   6.6623619946e+01    0.3320606    0.1607779 -33.60  0.001521202    2.105    0.525
       285 -10.2349     19.6728    118.9136   1.0033988525e+02   4.9360913815e+01    0.3522457    0.2067302   9.86  0.001271775    2.047    0.512
       286  -9.6819    185.6006     35.6827   3.1290557896e+01   3.4936406521e+01    0.2418548    0.1578504  78.76  0.001064687    1.520    0.342
       287  -9.4814    115.2898     35.6592   4.2570722958e+01   5.1347323510e+01    0.2355354    0.2163819 -42.41  0.000486613    1.151    0.132
       288  -9.1485    114.6044     32.4782   4.1597093920e+01   5.1912538011e+01    0.2309976    0.2044902 -46.06  8.47409e-05    1.201    0.167
       289  -9.1282    106.7628     34.8589   4.4267991477e+01   5.3437767830e+01    0.2360235    0.1684952  35.78 0.0005479297    1.478    0.323
       290  -8.2428     12.4574     35.4752   8.3760375254e+01   6.9832966395e+01    0.1267558    0.1034848 -23.62 0.0002282695    1.004    0.004
       291 -10.6198     97.0754     33.2590   4.6133688113e+01   5.5860998364e+01    0.2273167    0.2091335  41.18 0.0001934865    1.013    0.013
       292 -10.5718     14.2950    115.8146   1.0184280435e+02   5.0574295086e+01    0.5246457    0.3039866  -4.56  0.001491617    2.218    0.549
       293 -11.8055     22.4287    142.5536   1.0249874053e+02   4.2860206596e+01    0.8775218    0.3600543  54.13   0.00190483    3.023    0.669
       294 -10.4342      2.6389    142.3760   1.0866918760e+02   4.4340339672e+01    0.3758971    0.3382438  31.61  0.001914818    1.275    0.216
       295 -10.3348      1.6325    136.5119   1.0846732671e+02   4.5930006795e+01    0.7085693    0.1792647 -82.38  0.002168283    4.188    0.761
       296 -10.4407    179.9523     29.6345   3.0384082055e+01   3.6931129460e+01    0.3806216    0.2564436 -53.48  0.001402929    1.365    0.267
       297 -10.4843     11.9978    128.9785   1.0431573881e+02   4.7255580065e+01    0.6255643    0.2618389  19.58  0.002066269    2.672    0.626
       298  -8.8754    223.8610     30.8472   2.6502789199e+01   2.7534339725e+01     0.162317    0.1488126 -68.08 0.0006330046    1.213    0.175
       299  -9.6923    216.1862     29.6313   2.6865162886e+01   2.9202005608e+01    0.2819899    0.1902013 -51.23  0.001058162    1.227    0.185
       300  -9.3734     66.0310     30.8730   5.5011024389e+01   6.2774730931e+01    0.1922605    0.1740124  18.43 0.0003084421    1.028    0.027
       301 -10.8674     12.3206    123.1519   1.0350623502e+02   4.8773691027e+01    0.5522452     0.359403  -4.13  0.002447398    1.915    0.478
       302 -10.1778     72.1501     25.9293   5.0620414076e+01   6.2208234065e+01    0.5711042    0.2397033  38.39  0.002334582    2.496    0.599
       303 -10.5990      6.8728    121.7600   1.0523092640e+02   4.9490127707e+01     0.588864     0.264226   3.24  0.002227851    2.987    0.665
       304 -10.7764     12.9227    134.9306   1.0468452945e+02   4.5617229349e+01    0.3752572    0.2697986 -68.34  0.000371867    1.204    0.170
       305  -9.6397      3.8543     28.9969   8.6643235793e+01   7.1774645711e+01    0.3697286    0.2160229 -43.40   0.00140936    1.421    0.296
       306  -8.7148    229.4850     29.0185   2.5679711261e+01   2.6663387745e+01    0.1716305   0.09628618 -39.61 0.0006562011    1.523    0.343
       307  -8.5472    201.3908     29.5403   2.8155390189e+01   3.2265800472e+01    0.1242647     0.100419 -62.98 0.0001103069    1.039    0.037
       308  -8.6342    147.0410     29.2609   3.4594170548e+01   4.4598254951e+01    0.1767955    0.1563799  89.62 0.0002257392    1.042    0.041
       309  -9.2271    206.8541     26.0865   2.6861878884e+01   3.1526601000e+01     0.232611    0.1558749 -32.14  0.001228204    1.547    0.354
       310  -9.6253    189.0843     25.8834   2.8466471117e+01   3.5343930272e+01    0.1951539    0.1625733 -53.61 0.0003838032    1.116    0.104
       311  -9.8576    183.2654     25.0192   2.8843862124e+01   3.6727559648e+01    0.2485891    0.2057726 -56.34 0.0004139339    1.106    0.096
       312 -10.6002     17.5649    133.7978   1.0303046539e+02   4.5574486925e+01    0.3976052     0.275147  83.26 0.0002851935    1.460    0.315
       313  -8.6196    120.0210     26.4732   3.8362517319e+01   5.1350720732e+01    0.1962046   0.09072014  43.24 0.0008078123    2.391    0.582
       314 -10.5531     66.4558     22.6260   5.1116129431e+01   6.3784366548e+01    0.4798993    0.2915607  27.78  0.001640736    1.764    0.433
       315 -10.0657    212.3344     22.2778   2.5548649532e+01   3.0835357455e+01    0.2498082    0.1946248 -45.23 0.0006233651    1.207    0.171
       316 -10.3961     29.5301    150.9169   1.0127541065e+02   4.0014576049e+01    0.3650292    0.2235489 -37.05  0.001539321    1.940    0.485
       317  -8.5307    158.9313     22.7590   3.1033065297e+01   4.2537493418e+01    0.1874416    0.1570178  58.13  0.001121594    1.248    0.199
       318 -11.7101     84.7878     39.0236   5.1982098246e+01   5.7767594924e+01    0.4279871    0.3156211 -59.17 0.0002486807    1.790    0.441
       319  -8.5218    103.9000     23.8606   4.0834980585e+01   5.5435918386e+01    0.1688963    0.1462024 -86.62 -0.000430966    1.273    0.215
       320  -9.4518     98.6645     23.6909   4.2008127620e+01   5.6663932932e+01    0.2351171     0.223089  82.23  0.001487047    1.123    0.109
       321 -10.2055     30.9878    147.0462   1.0034753576e+02   4.0902010199e+01    0.2990097     0.252463 -53.58  0.000885295    1.178    0.151
       322 -10.4655      6.4363    158.3750   1.0886721788e+02   3.9947519054e+01    0.4020362   0.08226732 -61.38  0.001353095    3.585    0.721
       323 -10.0726    248.5358     22.3466   2.3051418027e+01   2.3919109140e+01     0.206193    0.1496816 -62.37 0.0005315515    1.070    0.066
       324  -9.4345    117.5149     19.2381   3.6309565620e+01   5.2734184592e+01    0.3028689    0.1788214  57.05  0.000622635    1.507    0.336
       325 -11.3164     13.8795    151.6283   1.0610324925e+02   4.1153190309e+01    0.4436715    0.2039737 -41.84  0.001854524    2.616    0.618
       326  -9.6276    225.2750    150.9246   5.2115620885e+01   8.8692925042e+00    0.1882708    0.1727267  -5.19 0.0004291406    1.173    0.148
       327  -9.9954     36.3141    143.1124   9.8138000526e+01   4.1425619401e+01    0.5051024    0.1871468 -58.94   0.00193258    2.292    0.564
       328  -8.8189     57.0821    141.7821   9.1264491692e+01   3.9408386596e+01    0.3104104      0.15979 -42.14  0.001230225    2.166    0.538
       329  -9.7032     44.4864    141.4775   9.5269016899e+01   4.0992178598e+01    0.2638362    0.2376143  65.32 0.0006109607    1.139    0.122
       330 -10.5280    111.7426     15.3103   3.5995948982e+01   5.4495254175e+01    0.2032735    0.1692956  82.18            0    1.191    0.160
       331  -9.8472    188.3898     20.8145   2.7283324899e+01   3.6067655279e+01    0.2309879    0.1809897  53.07 0.0002692518    1.508    0.337
       332 -10.0574     27.9351    141.4071   1.0059830414e+02   4.2683621252e+01    0.2793205    0.1815586 -61.39  0.001036266    1.378    0.274
       333  -9.5411     30.8394    133.9031   9.8629716962e+01   4.4415480128e+01    0.2213731    0.1767648 -49.81 0.0004431163    1.219    0.180
       334 -10.2485     23.4728    124.9240   9.9860125489e+01   4.7460925087e+01     0.361023    0.2349443 -80.57 0.0009335536    1.479    0.324
       335 -11.0853     26.1016    130.4277   9.9733851710e+01   4.5771569899e+01    0.4723457    0.3243579  12.82  0.001027473    1.703    0.413
       336 -11.2284     30.6289    125.0884   9.7386467165e+01   4.6785120593e+01    0.3920522    0.3402245  43.23 0.0003505685    1.250    0.200
       337 -10.1504    221.4597     15.5057   2.3406847804e+01   2.9755548128e+01    0.2262124     0.167481 -72.23 -6.131678e-05    1.128    0.114
       338  -9.6565     41.4987    128.0703   9.4100826373e+01   4.4893588334e+01    0.2087852    0.1988595  33.72 0.0006027223    1.140    0.123
       339  -8.2227     92.2546    127.2915   7.7149682223e+01   3.7882208551e+01    0.1516263    0.1169458 -25.06 0.0001653854    1.487    0.327
       340 -10.6358     49.0479    126.3232   9.1190321306e+01   4.4497855450e+01    0.3957061    0.3041942 -32.43   0.00200122    1.407    0.289
       341  -9.4263     97.7127    125.8701   7.5146410986e+01   3.7278821627e+01    0.2439741    0.2090282  18.11 0.0004304628    1.262    0.208
       342  -9.9835    229.9077    123.3248   4.5747946219e+01   1.2780490934e+01    0.5044287    0.2433647 -51.61  0.002287537    2.260    0.558
       343 -10.2581     66.7315    124.0971   8.4702381800e+01   4.2752212945e+01    0.3708761    0.2218868 -29.20 0.0009845098    2.199    0.545
       344  -9.9516     67.9259    118.3755   8.3045416976e+01   4.4056174885e+01     0.361789    0.3009417  42.33  0.000990138    1.273    0.214
       345 -10.1314     37.2254    124.0545   9.4906516664e+01   4.6413486801e+01     0.238906    0.1788556 -44.57  0.001229108    1.309    0.236
       346  -8.0918    136.0000    121.0351   6.3301395765e+01   3.1049456169e+01    0.2627842   0.08516514 -45.82 8.825271e-05    2.960    0.662
       347 -10.6288     83.2801    118.6616   7.7970755188e+01   4.1564060942e+01    0.4339436    0.2712173 -38.66 0.0009726962    1.696    0.410
       348 -10.7086     58.4394    117.6579   8.6187145821e+01   4.5582067539e+01    0.4452342    0.3108153  26.58 0.0007928173    1.536    0.349
       349  -9.9234     98.7370    117.3703   7.2764025762e+01   3.9167245960e+01    0.2626921    0.2468296 -20.92 0.0003015745    1.079    0.074
       350  -9.7868     46.5312    116.6731   9.0234233736e+01   4.7341644769e+01    0.3209593    0.2244368 -45.33   0.00156776    1.370    0.270
       351  -9.7741     30.8192    116.4276   9.5906542489e+01   4.9065509270e+01    0.3559647    0.1623186 -62.29  0.001116343    1.876    0.467
       352  -9.6114      1.6566    115.7943   1.0638474613e+02   5.1346884560e+01    0.3043999    0.2016046  82.29  0.001343514    1.526    0.345
       353 -10.1951      1.3309    112.3093   1.0610528781e+02   5.2272019432e+01    0.4993781     0.141324 -67.87  0.001881511    2.612    0.617
       354  -9.5441     39.4847    113.0798   9.2107943276e+01   4.9076673464e+01    0.2990591    0.2419723 -89.76  0.001562871    1.342    0.255
       355  -8.6835    116.9676    112.7054   6.6216436267e+01   3.6755521170e+01    0.2129674    0.1979231  36.10 0.0003859088    1.109    0.098
       356  -8.9702     84.2685    113.0205   7.6267018679e+01   4.2798866879e+01    0.2091557    0.1892394 -51.15 0.0001973239    1.068    0.064
       357 -10.2108     62.6957    111.9398   8.3406558821e+01   4.6465420038e+01    0.2551448    0.2346129  40.09 0.0001628118    1.158    0.137
       358 -10.9117     46.8344    109.1593   8.8576353662e+01   4.9265143001e+01    0.5959044     0.342892  59.99  0.001841281    2.526    0.604
       359 -11.2405     46.1378    103.6623   8.7635041553e+01   5.0763400703e+01    0.4408202    0.2950951 -66.50 0.0003088726    1.484    0.326
       360 -10.8830     21.7308    110.2932   9.8256660846e+01   5.1471667681e+01    0.5972645    0.2949185  33.27  0.002671988    2.172    0.540
       361 -10.1845     28.8957    109.5116   9.5411614340e+01   5.1063516944e+01    0.3695272    0.2621216  14.10  0.001434893    1.596    0.373
       362  -9.6212     25.6477    106.9780   9.6198925929e+01   5.2014144905e+01    0.2340457    0.2227769  52.71 0.0004714321    1.171    0.146
       363  -9.7672     34.6943    111.3159   9.3556654159e+01   5.0036054530e+01    0.2311282    0.1683921 -76.07 0.0006770708    1.373    0.271
       364 -10.0660     34.7906    105.5961   9.2413330746e+01   5.1518468588e+01    0.6413727    0.2912765 -78.63  0.002259529    3.054    0.673
       365 -10.4826      9.1299    108.7253   1.0276989324e+02   5.2770516463e+01    0.5464519    0.2810768 -18.49   0.00240558    2.530    0.605
       366  -8.8350      8.4724    103.4543   1.0227332069e+02   5.4180857652e+01     0.199251     0.120555 -84.88 6.357951e-05    1.664    0.399
       367  -8.4345    138.9916    107.9471   5.9191528484e+01   3.3258508457e+01    0.1847018    0.1668051 -42.72 0.0009593944    1.062    0.059
       368 -10.1824    120.0475    107.8880   6.4083938262e+01   3.7216095557e+01    0.3156961    0.2382225  49.53 0.0002816992    1.396    0.284
       369 -10.1427     16.0315    104.6669   9.9524858765e+01   5.3372771734e+01    0.5231032    0.2741505 -74.95  0.001817638    1.810    0.447
       370  -9.5231     20.4973    104.9431   9.7835664330e+01   5.2967767405e+01    0.2908151    0.2265041  65.92 0.0009888592    1.475    0.322
       371  -9.5971     58.4822    106.8068   8.3729226893e+01   4.8365399015e+01    0.2296737    0.1978263  64.01 0.0006481875    1.333    0.250
