#   1 NUMBER                 Running object number                                     
#   2 MAG_AUTO               Kron-like elliptical aperture magnitude                    [mag]
#   3 X_IMAGE                Object position along x                                    [pixel]
#   4 Y_IMAGE                Object position along y                                    [pixel]
#   5 X_WORLD                Barycenter position along world x axis                     [deg]
#   6 Y_WORLD                Barycenter position along world y axis                     [deg]
#   7 A_WORLD                Profile RMS along major axis (world units)                 [deg]
#   8 B_WORLD                Profile RMS along minor axis (world units)                 [deg]
#   9 THETA_WORLD            Position angle (CCW/world-x)                               [deg]
#  10 FWHM_WORLD             FWHM assuming a gaussian core                              [deg]
#  11 ELONGATION             A_IMAGE/B_IMAGE                                           
#  12 ELLIPTICITY            1 - B_IMAGE/A_IMAGE                                       
         1 -14.1095    194.2216    103.2567   3.7126205292e+01   2.1408421266e+01      1.26853    0.8066532 -42.01    0.0033937    1.507    0.336
         2 -16.2995    222.5290     77.4669   2.5927178304e+01   1.9259303606e+01     2.545037     1.577802 -17.44   0.01179595    1.801    0.445
         3 -16.8944    236.3351    128.9263   3.6314284184e+01   8.7917755384e+00     5.962661     2.735699 -30.49   0.02703528    1.953    0.488
         4 -17.2312    241.7835     67.6207   2.1038172008e+01   1.6541776408e+01     3.919547     2.884131  79.88   0.02187012    1.660    0.398
         5 -15.0200    200.1643     86.3872   3.1643971745e+01   2.2902772895e+01     2.678708     1.316573 -37.64   0.01103743    1.846    0.458
         6 -16.3306    229.4567     45.1067   1.6655757140e+01   2.2226642229e+01     3.655144     2.533813  -8.80    0.0186158    1.758    0.431
         7  -8.4255    199.7068     18.0335   1.2189182961e+01   3.2627451688e+01    0.5002714    0.1386055 -34.19  0.001779407    2.830    0.647
         8  -8.7562    191.5934     10.7516   1.0812772138e+01   3.5455710408e+01    0.2818523    0.1986424  35.96  0.001146084    1.768    0.434
         9  -9.7532    136.4379      9.4144   1.7105794184e+01   5.0102515451e+01    0.2496034    0.1947014 -35.77  0.001315638    1.305    0.234
        10  -8.1786    101.1855     10.1057   2.4303970109e+01   5.9043357391e+01    0.2135468    0.1805352  17.78 0.0006498742    1.190    0.160
        11  -9.9791    118.3102      4.9638   1.8347382934e+01   5.5251420121e+01     0.605783    0.2816961  27.75  0.002214925    3.068    0.674
        12  -9.1739    134.3998      5.1983   1.5752972281e+01   5.1037813819e+01    0.2839663   0.09771334  66.30  0.001024903    2.583    0.613
        13  -7.9114    218.2037      8.5786   7.9812918121e+00   2.9111646590e+01    0.2971891    0.1940824 -45.03  0.001609878    1.319    0.242
        14  -8.8068    220.7397      2.7355   6.2582562214e+00   2.9096573668e+01    0.1801381    0.1551424 -34.96  0.000370112    1.172    0.147
        15  -7.8177    195.9737      3.1945   8.1901136814e+00   3.5090939561e+01    0.1684064    0.1528947 -58.96 0.0002394592    1.048    0.045
        16  -9.0862    225.5110      1.3038   5.5835309996e+00   2.8122775211e+01     0.171358    0.1103482  84.35 0.0001154484    1.552    0.356
        17  -8.2851    137.9313      1.4814   1.3771939694e+01   5.0431953329e+01    0.2151576    0.1300543  69.72  0.000486498    1.545    0.353
        18 -14.8464    208.9080    116.6174   3.7883659254e+01   1.6012556035e+01     2.557617       1.2467 -37.62   0.01048557    1.895    0.472
        19  -7.0520    123.6641    245.6737   7.6620266721e+01   9.7174954219e+00    0.1063623   0.07949068  13.41 0.0007051585    1.720    0.419
        20  -9.2340    187.4593    238.1236   6.4390524202e+01   1.7174195278e+00    0.1998806    0.1562555  23.29  0.000365642    1.030    0.029
        21  -8.5415    239.9194    235.6253   5.5431033157e+01  -5.0080015121e+00    0.1842456     0.138695  -7.69 0.0007966153    1.257    0.205
        22  -8.3449    187.0426    207.9846   6.0117256378e+01   5.6806590532e+00    0.1785995    0.1465837  20.36            0    1.029    0.028
        23 -15.4221    241.3251    110.9924   3.1516065956e+01   1.0471509418e+01    0.9063458    0.6943316  30.59  0.005257491    1.445    0.308
        24  -9.6198    206.4476    201.9676   5.5673294027e+01   3.4949540794e+00     0.298752    0.2082272  10.58 0.0007867013    1.399    0.285
        25 -14.9111    247.9923    119.0898   3.2422274617e+01   8.0980118695e+00    0.8016656    0.4047549 -27.29  0.003871178    1.751    0.429
        26  -8.9711    183.0359    195.0217   5.8771273744e+01   8.1928002102e+00    0.1816029    0.1577311  21.25            0    1.023    0.022
        27 -14.9977    229.8464    101.5052   3.0914712627e+01   1.4106691446e+01     1.161588    0.5108858 -34.71  0.004948471    1.967    0.491
        28  -8.6349    236.0735    233.0530   5.5649141039e+01  -4.2662096047e+00    0.1671289    0.1245156  21.72 0.0004483263    1.163    0.140
        29  -7.8163     79.3988    184.1316   7.9021447617e+01   2.6863651596e+01    0.2077667     0.159625  36.63 0.0006810728    1.342    0.255
        30 -10.1063    197.4162    180.8883   5.3623863403e+01   7.9163987399e+00    0.2763887    0.2288198   0.55 8.140109e-05    1.140    0.123
        31  -8.1241     70.8291    180.0441   8.0520225337e+01   2.8915530265e+01    0.1847383    0.1584261  68.35 0.0003996755    1.037    0.036
        32  -8.9967    194.4793    174.7374   5.3028929597e+01   9.3545972665e+00    0.2337749    0.2024961  19.83 0.0002406908    1.039    0.037
        33  -6.8819    158.3200    172.6703   5.9804138833e+01   1.6128242931e+01    0.1338467    0.1062569  76.21 0.0003097535    1.690    0.408
        34  -9.1679    193.4393    167.9910   5.1935547304e+01   1.0595823990e+01    0.2527118    0.2099279  19.66 0.0009495382    1.115    0.103
        35  -7.0564     89.4626    157.4796   7.3095874468e+01   3.1160531409e+01     0.138715    0.1229605  73.04 0.0001751307    1.016    0.015
        36  -6.9153     54.6401    156.7210   8.1808187570e+01   3.6244884799e+01    0.1210362    0.1010268 -32.91 0.0007012118    1.666    0.400
        37  -8.8531    166.1182    154.5953   5.4703671098e+01   1.7969106111e+01    0.3480544    0.2343421  44.49  0.001157855    1.441    0.306
        38  -8.6441    179.5013    150.5708   5.1122940094e+01   1.6112057039e+01    0.3743476    0.1359441 -40.77  0.001048247    2.795    0.642
        39  -8.9221    175.8667    149.0029   5.1526196105e+01   1.7098076627e+01    0.3059383    0.1960374  37.50 0.0002843908    1.543    0.352
        40  -8.1612    187.3663    149.8140   4.9409846110e+01   1.4725991918e+01    0.1902213     0.174973  36.62 0.0007775845    1.123    0.110
        41  -8.1791    133.0677    148.5109   6.0840849994e+01   2.5518563405e+01    0.2231357    0.1864034 -53.88 0.0005987349    1.240    0.194
        42  -8.6918    132.4593    141.4342   5.9548078471e+01   2.7127631645e+01    0.3703602    0.2594031 -77.22  0.001177356    1.930    0.482
        43  -8.1817     72.6804    140.7779   7.4885022667e+01   3.7584421403e+01    0.2351957    0.1582739 -65.42 0.0005570806    1.412    0.292
        44  -8.8903     37.9896    137.9972   8.4068798749e+01   4.2631397691e+01    0.1996128    0.1645417  85.09 0.0003751483    1.012    0.012
        45  -8.4115    159.9701    134.5213   5.1707882266e+01   2.3016315238e+01     0.286224    0.2164105 -42.74 0.0005898186    1.333    0.250
        46  -9.3287    160.5131    130.4811   5.0660345859e+01   2.3696133671e+01    0.3581678    0.2760901  33.17  0.001385855    1.355    0.262
        47  -8.1031    189.2926    130.3508   4.4710074132e+01   1.7727274781e+01    0.2507546     0.134026  43.41  0.000561133    1.904    0.475
        48 -15.0059    249.0498    129.4274   3.4552647257e+01   6.4740571047e+00     1.436395    0.3241453 -32.21  0.004780776    3.820    0.738
        49  -9.7635    171.7444    126.4993   4.7318702550e+01   2.2097066271e+01    0.5770135    0.2203915 -36.56  0.002000052    2.762    0.638
        50  -9.0450     68.1871    129.8632   7.4364238830e+01   4.0870338598e+01    0.4420396    0.1262179  49.22  0.001325337    4.341    0.770
        51  -7.8381    116.4717    129.5006   6.0997634649e+01   3.2829763646e+01    0.1476456     0.141932  86.68 8.900619e-05    1.007    0.007
        52 -10.0156    164.0560    124.5266   4.8479536354e+01   2.4111771040e+01    0.5667881    0.2920076 -50.40  0.001356405    2.147    0.534
        53  -7.3890    192.3797    125.3336   4.2943104521e+01   1.7967116548e+01    0.2794241    0.1676037   5.15 0.0002747112    3.251    0.692
        54 -10.9081     55.8755    121.6343   7.6614208887e+01   4.4564569558e+01    0.6263742    0.3119406 -50.65  0.002760965    2.076    0.518
        55  -8.2322    176.3465    123.7423   4.5708144258e+01   2.1634990294e+01    0.2615737    0.2071041  40.63 0.0003310998    1.282    0.220
        56  -9.0161    179.0295    121.4871   4.4618004058e+01   2.1478176647e+01    0.2553416    0.2147785 -47.22 6.717625e-05    1.218    0.179
        57  -7.9247     69.3068    124.3456   7.3079463030e+01   4.2062590848e+01    0.1423081    0.1060782 -35.92 0.0007042933    1.696    0.410
        58 -10.3810     48.8235    120.8160   7.8618803972e+01   4.5639594547e+01    0.5442734    0.2349475 -51.09   0.00226417    2.398    0.583
        59 -10.5038     41.8858    120.0846   8.0622594557e+01   4.6617226578e+01    0.5667885    0.3337586 -66.96   0.00289215    1.480    0.324
        60  -8.9586    135.7859    121.7603   5.4337351079e+01   3.0673231248e+01    0.2120855    0.1791559 -84.39 0.0007050494    1.357    0.263
        61  -8.4911    203.6789    234.2639   6.1096783929e+01  -8.7098865212e-02    0.1986133    0.1694393  55.49 0.0005142653    1.761    0.432
        62 -10.6397    140.6577    117.2289   5.2043697401e+01   3.0611541464e+01    0.5852742    0.2790597 -41.21  0.002223676    2.146    0.534
        63 -11.7464    133.7479    107.6633   5.1301891954e+01   3.4139431727e+01    0.7572297    0.6926312   1.36    0.0039487    1.240    0.194
        64 -10.9082    147.2787    115.1501   4.9945457848e+01   2.9618784947e+01    0.5900057    0.3704053 -48.56  0.002583714    1.605    0.377
        65 -10.9558    140.4414    101.8044   4.8070002739e+01   3.3905521698e+01    0.4336586    0.4037953 -32.61  0.002278099    1.091    0.083
        66  -8.4114    168.1797    114.4032   4.5094093592e+01   2.5173287772e+01    0.2136596    0.1457404  61.05 0.0009509225    1.700    0.412
        67 -10.6603    157.1728    109.7466   4.6288608659e+01   2.8531882545e+01    0.5534236    0.4526284  16.30 0.0009794683    1.454    0.312
        68 -10.4712    159.1404    102.5169   4.3929265254e+01   2.9515316390e+01    0.5632733    0.4140213 -32.69  0.002641307    1.382    0.277
        69  -9.2452    159.8129     96.1570   4.2031985277e+01   3.0597882385e+01    0.3705128    0.3001189  -0.23 0.0009564046    1.525    0.344
        70  -7.9509    177.6498    230.6342   6.5105259876e+01   4.0513295120e+00    0.1903165    0.1583665  14.73 0.0007420544    1.130    0.115
        71  -9.2978    181.4492    115.6937   4.2706179353e+01   2.2016605911e+01    0.4063195    0.2823226 -26.49  0.001526074    1.504    0.335
        72  -9.3604    164.7627    106.4204   4.3753630848e+01   2.7474897109e+01    0.4201709    0.2539644 -28.09  0.000931656    1.878    0.467
        73  -9.8688    151.2773    105.8142   4.6587408276e+01   3.0644851379e+01    0.4282526    0.2067958  58.45  0.001515031    2.590    0.614
        74  -7.7465    172.1805    101.2102   4.0811977289e+01   2.6770572264e+01    0.2052266    0.1758021 -68.13 0.0003814938    1.312    0.238
        75 -10.1970    165.8821     98.3985   4.1353202581e+01   2.8755264711e+01     0.303406    0.2627116 -46.73 0.0002728392    1.133    0.118
        76  -7.5992    162.3963    212.1790   6.5345693975e+01   8.9291488317e+00    0.1481752     0.118248 -62.78 0.0009410082    1.699    0.411
        77  -9.9556    134.9357     95.4688   4.7663970657e+01   3.6469143057e+01    0.3542708     0.303542 -14.49 -7.112725e-05    1.348    0.258
        78  -9.3809    156.5246     92.2715   4.1654702959e+01   3.2120627449e+01     0.289254     0.274071   8.89 0.0002711616    1.126    0.112
        79  -9.3935    127.2654     90.1532   4.8094092884e+01   3.9313510275e+01    0.3796447    0.2452818 -74.63 0.0009478096    2.472    0.595
        80 -10.1915    146.4315     86.2323   4.2180914823e+01   3.5686090723e+01    0.4564497    0.2964527  49.92  0.001987999    1.579    0.367
        81  -7.6585    180.0900     89.2963   3.5987908192e+01   2.7093165443e+01    0.1989527    0.1916799 -73.24 0.0004007615    1.082    0.076
        82  -7.8581    170.1114     87.8577   3.7527349191e+01   2.9722973504e+01    0.2192782    0.2040028 -66.53  0.001151432    1.112    0.101
        83  -8.9156    161.4274     85.2242   3.8553709473e+01   3.2291894425e+01    0.2816047    0.2362746  35.08 0.0002123834    1.296    0.228
        84  -8.1325      3.4784     85.9715   8.8872595082e+01   5.8293021175e+01    0.1960223    0.1003439 -77.02 0.0004955806    1.552    0.356
        85  -8.0521    135.3414     85.3070   4.4577864603e+01   3.8475890699e+01    0.1596584    0.1255481   9.37 0.0003120425    1.687    0.407
        86  -9.3626    154.8070     83.3775   3.9432624854e+01   3.4234001672e+01    0.4350475    0.2034904  58.73  0.001555227    2.426    0.588
        87  -9.0669    130.8041     81.3492   4.4510293466e+01   4.0333531726e+01    0.2263692    0.1980214 -52.61 0.0004663932    1.126    0.112
        88  -9.0136    157.3377     79.6569   3.7764575907e+01   3.4316849573e+01    0.2922707    0.2613136 -64.26 0.0002981908    1.158    0.136
        89  -9.5574    133.4912     77.4678   4.2610581261e+01   4.0482438972e+01    0.3933629    0.1724592 -54.40  0.001219412    3.177    0.685
        90 -10.4465    150.5628     78.0350   3.8749614908e+01   3.6270116089e+01    0.5022191    0.3607211  34.88  0.002251412    1.608    0.378
        91  -8.3946    136.3051     76.6305   4.1647346756e+01   3.9979248617e+01    0.1662972    0.1211325 -71.03 0.0007034102    1.753    0.429
        92  -8.0435    157.8699     74.1197   3.5957107982e+01   3.5197658052e+01    0.2434613    0.2067755 -64.80 0.0004581473    1.252    0.202
        93 -11.6727    169.9492     70.1013   3.2311795834e+01   3.2900698782e+01    0.2981974    0.2650003 -37.93 0.0002800766    1.080    0.074
        94  -9.3598    139.3991     67.8344   3.8050289063e+01   4.0903322077e+01    0.2637325     0.229252  33.52 0.0008119348    1.246    0.198
        95 -10.3102    141.8257     89.3812   4.4204994063e+01   3.6141549606e+01    0.4101041    0.3148378 -61.40  0.001107685    1.435    0.303
        96 -10.4768    181.1976     70.1221   3.0271850279e+01   3.0106357148e+01    0.2959864    0.2612416 -65.74 0.0002550874    1.169    0.144
        97  -8.4739    185.6578     70.5872   2.9641155328e+01   2.8934049124e+01    0.2444798    0.2300231  86.64 0.0005384094    1.113    0.102
        98 -11.1676    145.9809     59.7265   3.3848825028e+01   4.0710325370e+01    0.6778776    0.3616897 -42.43  0.002706524    1.826    0.452
        99  -9.9067    136.1909     61.8488   3.6793477004e+01   4.2783609752e+01    0.4910845    0.1729491 -44.55   0.00154877    2.918    0.657
       100  -7.6371    166.4934     61.4830   3.0286338844e+01   3.5210437251e+01     0.152679    0.1479834 -44.77  5.43742e-05    1.024    0.023
       101  -8.8756    157.0220     61.5099   3.2130435051e+01   3.7610959692e+01    0.3589098    0.1332846  51.21  0.001199766    2.693    0.629
       102  -8.1763    123.3072     58.9606   3.8978344366e+01   4.6448055028e+01    0.2646746    0.1021457 -52.94 0.0007043246    4.271    0.766
       103  -7.6704    167.8764     56.5046   2.8451533894e+01   3.5659478580e+01    0.2244829    0.1513558  61.25 0.0009549663    1.524    0.344
       104 -10.9406    144.5385     50.3252   3.0924193342e+01   4.2640487350e+01     0.535822    0.4573945   6.35 0.0004530326    1.353    0.261
       105  -9.7101    118.5186     52.9459   3.8040588999e+01   4.8679471481e+01    0.3470963    0.2209201  53.04  0.001508147    1.601    0.375
       106  -7.7323    106.0000     52.9909   4.1557455430e+01   5.1591068465e+01    0.2425244   0.08403449 -38.00 0.0003275891    2.797    0.642
       107 -10.9698    136.2382     39.6094   2.8802820789e+01   4.6429830997e+01    0.7975875     0.436951  13.55  0.002408433    4.261    0.765
       108 -11.2386    184.2106     41.8173   2.1201660248e+01   3.3631707333e+01     0.447598     0.298962 -21.60  0.001165231    1.589    0.371
       109  -9.4050    121.4291     42.7296   3.3398370344e+01   4.9692451033e+01    0.3066922    0.1366846 -37.37  0.001147651    2.156    0.536
       110  -9.5593    141.8481     42.0174   2.8518674947e+01   4.4623000280e+01    0.2826949    0.2240573  61.50    0.0012745    1.267    0.211
       111  -8.1917    176.3207     33.8727   1.9817068092e+01   3.6732431365e+01    0.5430932    0.3139636 -57.16  0.002315894    1.904    0.475
       112  -7.7227    162.2095     41.0251   2.4365800609e+01   3.9454117552e+01    0.2191478    0.1971247  15.11 0.0004539015    1.252    0.201
       113 -10.8315    196.8625     22.5383   1.3799007072e+01   3.2834734497e+01    0.4826854    0.2956496 -83.53  0.002253257    1.805    0.446
       114  -8.5941    195.5995    229.2227   6.1761488427e+01   1.6411349777e+00    0.2223417    0.1585018  26.56 0.0008527139    1.108    0.098
       115 -10.4233    190.0015     32.5825   1.7598541005e+01   3.3365586966e+01    0.4006433    0.2637902 -21.91  0.001645427    1.593    0.372
       116 -10.5245    191.4327     26.8951   1.5701677197e+01   3.3700504296e+01    0.5009159      0.25701 -16.25  0.002032703    2.350    0.574
       117  -9.1932    200.5129     31.9491   1.6161756795e+01   3.0792020966e+01    0.2531271     0.202224 -81.86  0.000550423    1.268    0.212
       118  -8.3745    177.6715     41.8433   2.2164121603e+01   3.5311370240e+01     0.288848    0.2085604  82.25 0.0009281788    1.500    0.333
       119 -15.0949    242.2569    103.8991   2.9737899776e+01   1.1317805671e+01    0.9713904     0.505298  66.26  0.004237546    2.947    0.661
       120  -8.0085    197.1257     27.8098   1.5328259706e+01   3.2147354696e+01    0.1974385    0.1697968 -63.03  0.000236428    1.083    0.076
       121  -8.3484    137.6509     28.6853   2.4385413544e+01   4.7584037457e+01     0.159243    0.1090312  31.13 0.0004716167    1.725    0.420
       122  -7.2601    180.0953     26.2586   1.6877714127e+01   3.6700216244e+01    0.3598798    0.1908572  -0.37   0.00127462    3.288    0.696
       123 -16.2277    244.7877     94.8132   2.7262652489e+01   1.2130530040e+01     2.012682    0.8606521  45.57  0.008684102    2.729    0.634
       124  -7.6931    135.6623     24.6975   2.3229474874e+01   4.8610991949e+01    0.1561414     0.107497  32.63 0.0007037745    1.667    0.400
       125  -8.2010    194.3519     16.7257   1.2331825203e+01   3.4121827998e+01     0.201655    0.1824248  78.84 0.0003200018    1.132    0.117
       126  -7.2238     86.4215    230.5326   8.2140016124e+01   1.7161144599e+01     0.116201   0.08733331  55.13 0.0003743337    1.051    0.049
       127 -16.2974    245.2598     83.5341   2.4511558560e+01   1.3629168281e+01     1.857961      0.88867  43.08  0.008250405    2.608    0.617
       128  -7.2752     64.4314    228.4077   8.6159868360e+01   2.0350738736e+01    0.1127466   0.08497692  56.42  0.000100806    1.015    0.015
       129  -8.5768    234.1356    223.9752   5.4579228410e+01  -3.0725282265e+00    0.1647502    0.1242671  11.24  0.000394544    1.019    0.019
       130  -9.8817    239.4086    225.0701   5.3916545048e+01  -3.8770289586e+00    0.5160583     0.173441  34.26  0.001706761    2.544    0.607
       131  -9.8589    242.9954    221.9452   5.2870566602e+01  -4.0167543791e+00    0.3790784    0.1475727  35.83  0.002066926    2.225    0.550
       132  -8.3971    234.2993    219.8889   5.3916331981e+01  -2.6549686520e+00    0.1890472    0.1560588  35.54 0.0007526509    1.521    0.342
       133  -9.9856    230.7989    215.2342   5.3739774444e+01  -1.6660862863e+00    0.2276148    0.1798951  25.73 0.0006461797    1.241    0.194
       134  -8.4151    185.0689    216.5993   6.1787307137e+01   4.8039138846e+00    0.1776367    0.1628312 -32.37   0.00072783    1.361    0.265
       135  -7.1756    173.2052    217.0148   6.4014201127e+01   6.5529791159e+00    0.1323505   0.09532455 -37.93 0.0003995678    1.628    0.386
