#   1 NUMBER                 Running object number                                     
#   2 MAG_AUTO               Kron-like elliptical aperture magnitude                    [mag]
#   3 X_IMAGE                Object position along x                                    [pixel]
#   4 Y_IMAGE                Object position along y                                    [pixel]
#   5 X_WORLD                Barycenter position along world x axis                     [deg]
#   6 Y_WORLD                Barycenter position along world y axis                     [deg]
#   7 A_WORLD                Profile RMS along major axis (world units)                 [deg]
#   8 B_WORLD                Profile RMS along minor axis (world units)                 [deg]
#   9 THETA_WORLD            Position angle (CCW/world-x)                               [deg]
#  10 FWHM_WORLD             FWHM assuming a gaussian core                              [deg]
#  11 ELONGATION             A_IMAGE/B_IMAGE                                           
#  12 ELLIPTICITY            1 - B_IMAGE/A_IMAGE                                       
         1 -14.1692    241.1864     45.9846   1.4296256837e+01   1.9712016354e+01     3.553298     2.917029 -55.27   0.02187887    1.109    0.098
         2 -15.3858    242.9842     94.2843   2.5778811001e+01   1.2684909471e+01     6.227285     4.390252 -20.13   0.03441314    1.359    0.264
         3  -9.6831    119.3812      9.6770   1.8740167838e+01   5.4382622004e+01    0.5639181    0.3932358  44.81  0.002870671    1.412    0.292
         4  -8.4520     97.5666      6.8483   2.2100538285e+01   6.0091449467e+01    0.2413524    0.1789148 -48.79 0.0008532726    1.536    0.349
         5  -8.1372    228.9691      5.5288   5.1972633143e+00   2.7090338515e+01    0.2200811    0.1796867   4.56  0.001331852    1.620    0.383
         6  -9.1741    234.5347      2.8603   4.2001494239e+00   2.6116428385e+01    0.5185918    0.2448567  61.58  0.002546408    2.352    0.575
         7  -8.8121    244.7109      3.4109   3.7577658520e+00   2.3853137559e+01    0.4316965    0.1748006  53.21  0.001885105    3.338    0.700
         8  -9.3746    216.1140      2.6466   5.2972152392e+00   3.0340596102e+01    0.3193251    0.2216729  33.24  0.001706719    2.012    0.503
         9  -7.9629     40.9832    215.3200   8.8453939991e+01   2.5195417031e+01    0.1564533     0.119635  53.82 0.0004551529    1.121    0.108
        10  -9.4427    247.9162    249.3086   5.4466730033e+01  -7.4827102974e+00    0.2503442    0.1341966  36.33  0.001723839    1.791    0.442
        11  -7.9328     47.0130    212.9287   8.7092774410e+01   2.4964745212e+01     0.153656    0.1357178 -39.21 0.0004556827    1.713    0.416
        12  -7.2512     21.5413    211.5108   9.2081813058e+01   2.7998594590e+01     0.113183   0.08321684  65.64 1.620865e-05    1.010    0.010
        13  -7.2244    243.6822    208.6855   4.8890707639e+01  -2.8234365920e+00    0.1176318   0.07026886   5.81 0.0002585848    1.649    0.394
        14 -10.0634    123.9891    205.9974   7.0481337091e+01   1.5673079395e+01    0.1780277    0.1519128  44.96  0.001159569    1.005    0.005
        15  -7.0168     76.4978    204.5567   8.0296408996e+01   2.2888359930e+01     0.122278    0.1018305  57.90  0.000244004    1.044    0.042
        16  -8.0408    250.1554    202.3859   4.6829608951e+01  -2.9698947848e+00    0.1433821   0.09705014  39.70 0.0009416479    1.717    0.417
        17  -7.9987    237.2216    197.6535   4.8041954439e+01  -6.5241007321e-01    0.2008991     0.123435  23.80  0.000623268    1.471    0.320
        18  -8.6934    192.0381    193.2140   5.5066194107e+01   6.7967792606e+00    0.4896199    0.2739342 -61.37   0.00187693    4.695    0.787
        19  -9.6078    127.8579    191.5714   6.7680586958e+01   1.7679381170e+01    0.2086247    0.2011279  78.92 0.0003241285    1.121    0.108
        20  -9.1712    223.4831    189.0555   4.8781227936e+01   2.4450687528e+00     0.345509    0.2727732  42.80 0.0007915023    1.503    0.335
        21  -7.9261    133.7419    189.4152   6.6101453169e+01   1.7112116647e+01    0.1975602    0.1577941 -18.81 0.0006610876    1.610    0.379
        22 -10.1693    214.1078    181.4489   4.9002812737e+01   4.9491692345e+00    0.5196661    0.2860845 -39.53  0.002513667    1.931    0.482
        23  -7.8457    212.4954    174.9041   4.8060604367e+01   6.1523601372e+00    0.2317796    0.1165968 -30.46 0.0009483887    1.995    0.499
        24  -6.7322      5.6883    182.6912   9.3985462091e+01   3.5345719112e+01    0.1022127   0.08084798 -59.41 0.0007026017    1.623    0.384
        25  -9.2792    220.4660    176.4757   4.6980879219e+01   4.6325426407e+00    0.3898104     0.306273 -67.19  0.002189264    2.322    0.569
        26 -10.0335    224.4578    174.3940   4.5912300859e+01   4.2859938071e+00    0.4567432    0.2017819 -36.39   0.00218365    2.209    0.547
        27  -8.7617    239.6860    177.2270   4.3966408681e+01   1.5515306854e+00    0.2374352    0.1906442  74.18  0.001377199    2.540    0.606
        28  -8.6073     71.1921    178.0332   7.8694691760e+01   2.9094789319e+01    0.1948545    0.1628662  54.90 0.0002738372    1.098    0.089
        29  -9.6789    230.4207    167.7365   4.3643078240e+01   4.2590345240e+00    0.4005425    0.1978176 -43.22  0.001518322    2.358    0.576
        30  -7.8399    215.2132    169.0113   4.6454109369e+01   6.5650730387e+00    0.1771573    0.1609485 -31.67 0.0005158498    1.279    0.218
        31  -9.2755    220.6603    246.4533   5.8307000231e+01  -3.9278468643e+00    0.1842391    0.1349905   5.97 0.0006716704    1.148    0.129
        32  -9.9095     68.1962    144.6299   7.5098990163e+01   3.7192914981e+01    0.6018727    0.2925427  54.97  0.002555999    2.230    0.552
        33 -10.3418    214.1995    141.0004   4.0853267055e+01   1.1032660155e+01    0.3689406    0.2317933 -25.50   0.00186171    1.550    0.355
        34 -11.5987    198.1560    131.8300   4.1654502932e+01   1.5627715206e+01    0.7317823    0.5135602 -45.51  0.003717471    1.477    0.323
        35  -7.6396     36.8740    160.7141   8.5237680465e+01   3.7246604422e+01    0.1710899    0.1397608  70.84 0.0004096315    1.049    0.046
        36 -11.5405      5.9740    131.2002   9.0916931816e+01   4.7060580011e+01    0.8398103    0.5896707 -86.64  0.005239718    1.138    0.121
        37  -9.6868     27.1201    134.5479   8.5260637799e+01   4.4495456148e+01    0.3276266    0.1972034  83.75 0.0005028448    1.539    0.350
        38  -9.9964     61.8484    133.0321   7.5096742168e+01   4.0891345876e+01    0.2746541     0.215435  65.84 0.0008114793    1.237    0.192
        39  -9.5398    135.7427    130.4130   5.4621773794e+01   2.8717080709e+01    0.4336917    0.1699313 -45.04  0.001527462    2.585    0.613
        40 -10.3975    137.1059    125.4487   5.3143176579e+01   2.9506200369e+01    0.4236211     0.325655  29.99  0.002052687    1.451    0.311
        41 -11.9963     53.5335    126.0154   7.6431259052e+01   4.3714342197e+01     1.193452    0.6685193  29.48  0.005641268    2.033    0.508
        42 -11.9792     47.7176    122.9913   7.7717187394e+01   4.5179139070e+01    0.9966344    0.7963251 -20.56  0.002315397    1.724    0.420
        43 -12.1501    240.6550     85.1676   2.3910518158e+01   1.4455040426e+01    0.8177927    0.5786261  78.67  0.001807914    1.888    0.470
        44  -8.6940    191.4977    151.0232   4.7128021500e+01   1.3638455125e+01    0.3162628    0.2281472 -77.76  0.001431788    2.587    0.613
        45  -9.7607    191.8410    156.4811   4.8198517557e+01   1.2652024074e+01    0.4518808    0.3703548 -34.87  0.001908681    1.230    0.187
        46  -8.5016    187.5270    152.5363   4.8210101873e+01   1.4128435166e+01    0.2685525    0.2505312 -15.65  0.001225094    1.062    0.058
        47 -10.3262     36.7444    126.5991   8.1533226959e+01   4.5500933243e+01    0.4122671    0.3250142   7.51  0.001237259    1.726    0.420
        48  -8.0014    151.2994    122.6567   4.9121082615e+01   2.7117377427e+01    0.1537769    0.1201504 -82.00 0.0007036262    1.674    0.402
        49  -9.4248    141.5021    120.3884   5.0867913125e+01   2.9668818345e+01    0.2849848    0.2268853 -45.51 0.0009517733    1.245    0.197
        50  -9.6748    163.7485    119.2862   4.5523224327e+01   2.5122316248e+01    0.3457493    0.2066409  54.27  0.001478525    1.820    0.451
        51  -7.3634    120.7294    130.9619   5.8491792116e+01   3.1571715957e+01    0.1836836    0.1292213 -50.83 0.0004587464    1.420    0.296
        52  -9.9310    160.6896    129.1169   4.8556368517e+01   2.3833326358e+01    0.3771856     0.274404  31.52   0.00175935    1.499    0.333
        53  -9.3802    135.0036    113.1934   5.0664297462e+01   3.2589557459e+01    0.4117608    0.1797897 -53.48  0.001416023    2.604    0.616
        54 -10.4921    158.1681    109.0264   4.4137416614e+01   2.8379369051e+01     0.572788    0.4048913 -20.05  0.002544394    1.751    0.429
        55  -7.0043    100.6696    111.7124   5.9520105007e+01   3.9851316649e+01     0.147767    0.1212549 -11.88 0.0005005645    1.619    0.382
        56  -8.8399    148.4862    110.0130   4.6595102959e+01   3.0330319500e+01    0.2955383    0.2177483  29.44   0.00135344    1.588    0.370
        57  -9.3532    165.4766    108.7928   4.2490066598e+01   2.6791777527e+01       0.2795    0.2151776  48.23 0.0007238334    1.338    0.253
        58 -10.3427    175.7391    106.0423   3.9654549708e+01   2.5014508012e+01    0.4741112    0.3604907  26.67  0.001355923    1.540    0.351
        59  -8.7192    135.0561    104.3217   4.8331333730e+01   3.4484825725e+01    0.2933011    0.2233867 -56.35  0.000920964    1.350    0.259
        60  -8.9419    166.8768    103.3169   4.0751405486e+01   2.7532011902e+01     0.247227    0.2011018  81.14 0.0007371312    1.495    0.331
        61  -9.6737    157.2667    101.4832   4.2327906182e+01   3.0079819853e+01    0.3270493    0.3035258 -12.03  0.000352708    1.141    0.124
        62  -8.2975    142.0936    101.1969   4.5754301382e+01   3.3580380251e+01     0.263851    0.2211896 -64.96 0.0004298738    1.277    0.217
        63 -10.6323    173.9273     96.6014   3.7501304829e+01   2.7179142304e+01    0.4579004    0.3775888 -20.37  0.001010489    1.286    0.223
        64  -8.0306    128.0417     90.9668   4.6377150942e+01   3.8884959314e+01    0.2264387    0.2246801 -32.34 0.0003547599    1.046    0.044
        65  -8.3571    121.8835     87.3754   4.6947591739e+01   4.1019455321e+01    0.2711568    0.2191269 -35.33 0.0003537414    1.264    0.209
        66 -10.0343    187.4143     76.8475   2.9514716210e+01   2.7477788814e+01    0.5401269    0.2312558 -27.68  0.001894498    2.614    0.617
        67 -10.8203    197.1347     76.5150   2.7821497446e+01   2.5234627022e+01    0.5833089    0.5099226 -65.67  0.001876015    1.190    0.160
        68  -9.2649    200.0230     63.7614   2.3844570699e+01   2.6550520578e+01    0.3182891    0.2044573 -35.72  0.001504084    1.416    0.294
        69  -7.3292    161.6814     75.6984   3.3973769158e+01   3.3918844311e+01    0.1551382    0.1220179  16.08 0.0002771303    1.623    0.384
        70  -8.5093     93.0562     73.5966   5.1149071974e+01   5.0087561850e+01    0.2631437    0.2020445 -39.97  0.001287551    1.270    0.213
        71  -9.3235    178.3561     71.2276   2.9471286198e+01   3.0604408963e+01    0.3603571    0.2350634 -54.73 0.0008906881    1.651    0.394
        72  -9.6830    199.1205     68.7916   2.5379276883e+01   2.5991370000e+01    0.4357392    0.2540196 -22.83  0.001095346    1.880    0.468
        73  -7.6044    183.3133     70.2894   2.8336707212e+01   2.9549693307e+01    0.1483872     0.117308  19.22 0.0005786719    1.587    0.370
        74  -7.8360     81.6959    154.0570   7.2939797594e+01   3.2992077429e+01    0.1850737    0.1641875 -80.58 0.0003756789    1.094    0.086
        75 -10.0125    183.5454     78.4931   3.0650913091e+01   2.8125690513e+01    0.6063794    0.3063983  46.18  0.002410783    2.180    0.541
        76  -8.7289    182.1293     61.2882   2.5889693471e+01   3.1285898539e+01    0.3251083    0.2125715 -15.78 0.0009610943    1.867    0.464
        77  -8.6930    189.1194     56.6495   2.3422763374e+01   3.0269770080e+01    0.3720638    0.2352586  -0.96  0.001488228    2.515    0.602
        78  -9.7349    197.7455     55.9321   2.1961633686e+01   2.8266973057e+01    0.4079801     0.348932 -71.32   0.00171296    1.189    0.159
        79  -9.1402    199.2358     50.2222   2.0131145810e+01   2.8728453993e+01    0.3914604    0.2745683 -29.73  0.001417583    1.371    0.271
        80  -9.9833    211.1951     50.4848   1.8682527534e+01   2.5830531955e+01    0.5174044    0.3429072 -51.07  0.001805451    1.424    0.298
        81  -8.4039    142.9422     52.5483   3.0404948859e+01   4.2598752596e+01    0.2577241    0.1999176 -50.88 0.0002844034    1.305    0.234
        82  -8.9982    185.0777     51.5772   2.2527854761e+01   3.2028243788e+01     0.315386    0.2118891 -36.17  0.001495827    1.389    0.280
        83  -9.1223    162.5077     51.2728   2.6141765113e+01   3.7803804988e+01    0.2912307    0.2093954 -54.38  0.001332041    1.433    0.302
        84  -7.3977     39.3313    152.3145   8.3787267828e+01   3.8952164995e+01    0.1240891   0.09455202 -44.44 0.0007045513    1.680    0.405
        85  -8.0796    196.3274     43.9915   1.8722188788e+01   3.0308292440e+01    0.2086846    0.1730287 -33.26 0.0006207227    1.162    0.140
        86  -8.2946    195.8440     37.1229   1.6787099346e+01   3.1346049859e+01    0.4087878    0.1483121 -39.90  0.001531564    2.374    0.579
        87  -8.4265    180.4041     32.7374   1.7435457727e+01   3.5812265249e+01     0.229616    0.2169531  77.60 0.0002062155    1.093    0.085
        88  -8.0311    132.1357     28.8546   2.3998164156e+01   4.8880257892e+01    0.2080539     0.170624  24.81 0.0004744597    1.363    0.266
        89 -12.1491    247.1615    110.7555   2.9022676710e+01   9.5331142450e+00     1.060734    0.3637137 -38.07  0.004299424    2.461    0.594
        90  -7.4737    187.2977     24.3622   1.4011460138e+01   3.5082480850e+01    0.1431647    0.1070651  28.16 0.0007033501    1.715    0.417
        91  -8.7002    113.7799    242.6422   7.6603991112e+01   1.1138995338e+01    0.1755171    0.1514951  52.69 0.0005364502    1.133    0.118
        92  -9.0104    203.6053     19.0867   1.0773953409e+01   3.1618551870e+01    0.3533346    0.2293144 -48.47  0.001109011    1.382    0.277
        93  -9.0313    198.4967     16.2142   1.0438651980e+01   3.3195639687e+01    0.2655608    0.1942274 -71.92  0.001042945    1.319    0.242
        94  -9.2782    141.9415    147.0104   5.6740989727e+01   2.3989126567e+01    0.3530007    0.2789893  -8.08 0.0009901843    1.646    0.393
        95  -7.7936    198.9769    162.3364   4.8046400318e+01   1.0395936617e+01    0.1888239    0.1592191  27.04 0.0004936903    1.133    0.118
        96  -7.6310    182.2278    241.3974   6.4063313015e+01   1.7288033848e+00    0.1598454   0.08496743  41.87 0.0009477219    1.661    0.398
        97  -8.7610     39.1517    239.2576   9.0145618270e+01   2.1058277017e+01    0.1691568    0.1389724  62.24 0.0004333582    1.190    0.159
        98  -7.6051     99.3624    237.1489   7.8787639292e+01   1.3967016539e+01    0.1405874    0.1006215  88.49 0.0005147377    1.662    0.398
        99  -7.2744    138.0463    223.9810   6.9954418180e+01   1.0541465868e+01    0.1425811    0.1139031  38.95            0    1.023    0.022
       100  -7.8546    241.4521    219.3201   5.0967168755e+01  -3.7069955056e+00    0.1879277   0.08508807  35.40 0.0009045514    1.973    0.493
