#   1 NUMBER                 Running object number                                     
#   2 MAG_AUTO               Kron-like elliptical aperture magnitude                    [mag]
#   3 X_IMAGE                Object position along x                                    [pixel]
#   4 Y_IMAGE                Object position along y                                    [pixel]
#   5 X_WORLD                Barycenter position along world x axis                     [deg]
#   6 Y_WORLD                Barycenter position along world y axis                     [deg]
#   7 A_WORLD                Profile RMS along major axis (world units)                 [deg]
#   8 B_WORLD                Profile RMS along minor axis (world units)                 [deg]
#   9 THETA_WORLD            Position angle (CCW/world-x)                               [deg]
#  10 FWHM_WORLD             FWHM assuming a gaussian core                              [deg]
#  11 ELONGATION             A_IMAGE/B_IMAGE                                           
#  12 ELLIPTICITY            1 - B_IMAGE/A_IMAGE                                       
         1 -13.3068    197.5605     41.2552   4.4169424051e+01   3.0897271485e+01     1.231359     1.000943 -32.47  0.003640481    1.164    0.141
         2 -13.8345    206.9192     31.9728   4.0607611541e+01   2.9895603248e+01     1.607359    0.9556447 -12.42  0.001438839    2.113    0.527
         3 -12.9699    231.3914      5.9060   3.2075508360e+01   2.7352335767e+01    0.8342583    0.6694198 -77.19  0.005161136    1.213    0.176
         4 -10.6686     53.2011      3.1093   5.9583255715e+01   7.0841135267e+01    0.2361847    0.2071069  60.65  0.001453933    1.318    0.241
         5  -8.0289    224.2731    206.6750   7.7047178791e+01   1.8814525933e+00   0.09310095   0.08781853 -14.03 0.0002373068    1.580    0.367
         6 -10.8361    140.2385    249.7635   9.7909489576e+01   7.1266273601e+00    0.2796227    0.1975886  47.45  0.001349345    1.468    0.319
         7 -12.0798    126.2843    246.7847   1.0021989151e+02   9.2882567738e+00    0.5771211    0.4124049  49.49  0.003928877    1.406    0.289
         8 -11.6612    116.1234    245.5384   1.0203758594e+02   1.0743006050e+01     0.412228    0.3233634 -44.55  0.003045839    1.632    0.387
         9 -10.1901    119.8948    245.1022   1.0127144261e+02   1.0334342442e+01    0.1678256    0.1494852  78.34  0.000699436    1.422    0.297
        10 -13.3785     56.9730    186.2395   1.0917607737e+02   2.9006051793e+01     1.754242     1.049305  54.71  0.009630951    1.501    0.334
        11 -15.4732     47.7563    199.8456   1.1245629096e+02   2.7202632925e+01     11.20547     3.462066  62.48   0.02985047    5.452    0.817
        12 -10.7082    193.2323    195.1278   8.0519350284e+01   7.6284477464e+00    0.7900507    0.4470024 -61.23  0.002862834    5.960    0.832
        13 -17.3576     11.7967    245.5791   1.2202610589e+02   2.2230033988e+01     5.576099     1.898302  22.66   0.01826545    3.815    0.738
        14 -10.8980    111.8436    204.9548   9.8518095543e+01   1.7987445906e+01    0.3226802    0.2262918 -73.95  0.001282254    1.818    0.450
        15  -9.6831     32.5664    204.5767   1.1617444567e+02   2.7845893771e+01    0.2023271    0.1873042 -85.89 0.0006483408    1.295    0.228
        16 -11.1403    110.0634    197.8116   9.8019450472e+01   1.9563949876e+01    0.6098514     0.317443  13.60  0.002323838    3.739    0.733
        17  -9.9595    120.5993    194.8412   9.5276151239e+01   1.8577588869e+01    0.2198775    0.1581069 -77.46 0.0008424829    1.865    0.464
        18 -11.6848    107.8104    203.8424   9.9267370257e+01   1.8759650593e+01    0.4519123    0.3047734  47.23  0.001114702    1.342    0.255
        19 -11.3487    156.3249    218.2136   9.1039744032e+01   9.4953604795e+00     0.321762    0.2683701  72.64  0.002123234    1.796    0.443
        20  -9.5826    149.6796    187.4982   8.7856557708e+01   1.5448392442e+01    0.2407865    0.1989832  86.43 0.0009826303    1.755    0.430
        21  -9.1665     23.7240    185.7725   1.1713591606e+02   3.2646369325e+01    0.1804157    0.1465962  30.83 0.0004555272    1.350    0.259
        22 -16.5806      5.4338    212.4731   1.2230733786e+02   2.8784717699e+01     15.94279     1.110213 -80.76   0.03197168   10.746    0.907
        23  -8.3281     80.6703    184.2869   1.0322053142e+02   2.6406626117e+01    0.1375214   0.08634924  59.12  0.000410401    1.616    0.381
        24  -8.7360     91.0125    182.4606   1.0049451085e+02   2.5354590086e+01    0.1844751    0.1698968 -86.16 0.0003436304    1.146    0.127
        25 -10.3655     99.2071    180.8761   9.8310777628e+01   2.4497829759e+01    0.2810057    0.2304802  23.08 0.0006212156    1.284    0.221
        26  -9.8584    188.3802    176.5552   7.8193831860e+01   1.1144521688e+01    0.3532861    0.2896406 -55.16  0.002144655    1.655    0.396
        27 -11.2931    196.8472    204.6409   8.1413304322e+01   5.7874884854e+00    0.3732319    0.1997869  37.02  0.002104486    1.748    0.428
        28  -9.7009    147.0645    172.8134   8.5963335119e+01   1.8513058493e+01    0.4230702    0.2623742 -72.90  0.001771591    3.128    0.680
        29 -13.4365     43.1693    110.1103   1.0392805901e+02   4.9060711041e+01     2.047402     1.177051  45.65  0.008463767    1.786    0.440
        30 -12.3567     73.1434    170.1917   1.0342224252e+02   3.0500866031e+01    0.8937737     0.496171 -35.02  0.003764013    3.007    0.667
        31 -12.2065     83.2916    159.7318   9.9366616085e+01   3.1457603520e+01     1.180389    0.6190438  65.31  0.004701433    2.719    0.632
        32 -13.1085     72.0738    154.1489   1.0160916207e+02   3.4352991699e+01    0.5715377    0.5114766 -64.30  0.001154976    1.175    0.149
        33 -14.5367     68.5752    144.0359   1.0113915695e+02   3.7265168106e+01     4.757804     1.970417  57.40  0.003197257    3.444    0.710
        34  -8.4648    194.4966    171.5505   7.6128544434e+01   1.0956562311e+01    0.1288355     0.109919   2.33 0.0004102292    1.015    0.015
        35  -8.9607    185.5862    169.7644   7.7472415382e+01   1.2670046088e+01    0.1704734    0.1206428 -45.62  0.000597728    1.600    0.375
        36  -9.4887    240.4682    169.4561   6.8014098657e+01   4.4013423915e+00    0.1182405   0.09429985  -8.91 3.868256e-05    1.039    0.038
        37  -9.1384     37.4095    167.9973   1.1249979613e+02   3.5282254947e+01    0.2544382     0.138715  48.41 0.0009794076    1.610    0.379
        38  -8.9515    136.4864    166.4847   8.7227215784e+01   2.1492094718e+01      0.31613    0.1585157  45.07  0.001385568    1.971    0.493
        39  -8.9120    133.7939    162.8697   8.7205982133e+01   2.2665366286e+01    0.2866081    0.2302653  54.99  0.001575478    1.332    0.249
        40  -9.4009     32.1953    165.1171   1.1363310862e+02   3.6482623428e+01    0.1799605    0.1611403 -75.63 0.0005487593    1.220    0.180
        41  -8.4218     48.2426    160.3769   1.0890585281e+02   3.5883798883e+01    0.1798413    0.1079501  43.11 0.0003430562    1.516    0.340
        42  -8.2025     53.0000    157.9433   1.0734491657e+02   3.5905715454e+01    0.2105098   0.07219723 -70.23 0.0007912157    2.865    0.651
        43 -11.5303     90.3096    152.5445   9.6385407294e+01   3.2059320497e+01    0.6277847    0.4706128 -19.46  0.002086244    1.877    0.467
        44  -9.1217     48.5187    154.4371   1.0819730269e+02   3.7270595508e+01    0.1356851    0.1158293  69.54 0.0001439376    1.035    0.034
        45 -10.7514    133.8054    145.1963   8.3823381048e+01   2.6280371827e+01     1.082593    0.3076388 -54.70  0.002947621    5.085    0.803
        46  -9.6336    174.8676    149.1132   7.5512095486e+01   1.8006438645e+01    0.2018086    0.1926566 -79.78 0.0006667128    1.301    0.232
        47  -9.2539    143.6182    146.4501   8.1751865112e+01   2.4224311525e+01    0.2792675    0.1300893 -60.11 0.0009472669    3.472    0.712
        48 -10.2556     40.3937    146.9286   1.0969624128e+02   4.0001612402e+01    0.2292205    0.2003528  27.35 0.0007890408    1.299    0.230
        49  -9.7230     47.4563    171.7749   1.1022671075e+02   3.3322150397e+01    0.3248453    0.2404651 -14.92  0.001590251    2.059    0.514
        50 -10.1098    103.4781    138.5020   9.0304374624e+01   3.3163567376e+01     0.511981    0.3348705 -20.21  0.002103846    2.533    0.605
        51 -11.6518     91.0888    138.0599   9.3673621434e+01   3.5334232253e+01    0.2734351    0.2597273 -43.25 0.0003469059    1.141    0.124
        52  -9.6729     43.6052    138.2265   1.0775680951e+02   4.1813280920e+01    0.2028356    0.1724975  50.58 0.0004584815    1.155    0.134
        53 -11.7706     44.0110    129.7021   1.0654743652e+02   4.3921749898e+01    0.4832755    0.3373387  72.53  0.001785117    1.438    0.305
        54  -9.9785    105.8604    130.7902   8.8094118144e+01   3.4532588177e+01     0.367735     0.315239 -76.31  0.001250944    1.231    0.188
        55 -10.8042     33.5184    131.1024   1.1003088969e+02   4.4667809726e+01    0.2976032      0.25913 -61.90  0.001115806    1.208    0.172
        56 -10.0604    135.5344    128.5364   7.9815899842e+01   2.9461897314e+01    0.4090552    0.1451972 -50.29  0.001355846    2.998    0.666
        57  -9.8746    112.4204    129.3971   8.5997367830e+01   3.3666776721e+01    0.3465995    0.2767161   2.69 0.0007766825    1.622    0.383
        58 -10.7591    119.0158    123.0037   8.2791015059e+01   3.3874608663e+01    0.6686878    0.4199582  -6.22  0.002243961    3.703    0.730
        59  -9.0456    160.4794    127.4800   7.3785203650e+01   2.4744435222e+01    0.1435645    0.1387189 -17.28 1.840867e-05    1.026    0.025
        60 -10.2668     99.5843    125.2885   8.8706404950e+01   3.6934072629e+01    0.3047568    0.2527033 -13.79  0.001189119    1.518    0.341
        61 -11.2319     39.2406    123.7807   1.0729218459e+02   4.5954282863e+01    0.3821075    0.2304695 -68.55  0.001277399    1.503    0.334
        62  -9.2516    108.2957    118.3638   8.4669507285e+01   3.6971463717e+01    0.2310006    0.2156902 -11.92 0.0004086058    1.186    0.157
        63  -9.2562    135.0000    119.9647   7.7940695031e+01   3.1387968882e+01    0.2452013   0.08447826 -46.02 0.0007276305    2.876    0.652
        64  -9.7920    231.3204    113.7309   5.7980235749e+01   1.3553627309e+01    0.2347528    0.2057423 -17.61 0.0007988961    1.056    0.053
        65  -9.4815    205.3441    110.0753   6.1090465313e+01   1.8910768340e+01    0.2743994    0.2075456  39.83 0.0008555501    1.442    0.307
        66 -10.6113    116.7736    109.3255   8.0091502087e+01   3.7391346919e+01     0.650152    0.3425825  54.51  0.002489805    2.254    0.556
        67  -8.4604    134.6785    106.3121   7.4583693491e+01   3.4349709836e+01    0.1544997     0.121907 -86.99 0.0007038306    1.652    0.395
        68  -8.6176    129.4756     96.4801   7.3242863153e+01   3.7540848498e+01    0.1540383    0.1478883 -68.74 0.0003028631    1.051    0.049
        69 -10.8729     52.8523     93.6915   9.7229522670e+01   5.2135211922e+01    0.5165738    0.3576174  81.47  0.002440762    1.745    0.427
        70  -8.5184    157.4911     89.5165   6.4675027405e+01   3.2665391623e+01    0.1532296    0.1417028 -60.51  0.000230554    1.105    0.095
        71 -10.1483     42.6190     89.1668   1.0022898416e+02   5.4553891061e+01    0.4361393    0.1123448  42.40  0.001330674    4.235    0.764
        72  -8.5653     75.7797     85.1847   8.6542912218e+01   5.0795402318e+01    0.1979723    0.1716045 -26.30  0.000365774    1.275    0.215
        73  -8.8921    157.7593     82.5895   6.2634960405e+01   3.3881232463e+01    0.2001622    0.1482719  67.80 0.0005484248    1.544    0.352
        74  -8.4987    184.4782     77.4529   5.6185880780e+01   2.8620783616e+01      0.14448    0.1349321 -22.38 0.0002179826    1.079    0.073
        75  -9.2519     58.6747     67.3389   8.7845504140e+01   5.7853411044e+01    0.3277264    0.2022354  57.70  0.001411661    2.165    0.538
        76 -13.0723    186.4835     49.9126   4.8049435511e+01   3.2338812868e+01     1.050222    0.9035318   7.69 0.0008100161    1.393    0.282
        77  -9.9893    160.3959    214.3925   8.9717663767e+01   9.4979821364e+00    0.2407506   0.09589715  24.29 0.0009527799    3.270    0.694
        78 -10.8208    109.6336    240.6024   1.0282515267e+02   1.2301769467e+01    0.1836958    0.1485894 -71.36  0.001341628    1.590    0.371
        79  -8.6545     73.2485     54.4151   7.7292135585e+01   5.8257299104e+01    0.2027486    0.1402897  53.46   0.00094648    1.640    0.390
        80 -10.8079    184.0086    213.0216   8.5041366801e+01   6.4074686279e+00    0.2115836    0.1928449  19.55   0.00155156    1.269    0.212
        81 -10.1734     60.0266    220.4379   1.1125417997e+02   2.1792782466e+01    0.3824238    0.2658914  32.37  0.001607957    1.333    0.250
        82  -8.9204    189.6522     14.9594   3.7445477214e+01   3.5876279523e+01     0.192357    0.1614892 -42.30 0.0006461868    1.107    0.097
        83  -9.4109     90.0027    212.6842   1.0414345413e+02   1.9543739118e+01    0.2040226    0.1655171  78.36 0.0004999958    1.338    0.252
