#   1 NUMBER                 Running object number                                     
#   2 MAG_AUTO               Kron-like elliptical aperture magnitude                    [mag]
#   3 X_IMAGE                Object position along x                                    [pixel]
#   4 Y_IMAGE                Object position along y                                    [pixel]
#   5 X_WORLD                Barycenter position along world x axis                     [deg]
#   6 Y_WORLD                Barycenter position along world y axis                     [deg]
#   7 A_WORLD                Profile RMS along major axis (world units)                 [deg]
#   8 B_WORLD                Profile RMS along minor axis (world units)                 [deg]
#   9 THETA_WORLD            Position angle (CCW/world-x)                               [deg]
#  10 FWHM_WORLD             FWHM assuming a gaussian core                              [deg]
#  11 ELONGATION             A_IMAGE/B_IMAGE                                           
#  12 ELLIPTICITY            1 - B_IMAGE/A_IMAGE                                       
         1 -15.4426    246.8925    158.0404   2.6883848847e+01   3.1375159097e+00     6.645982    0.9543191 -36.37   0.01881855    5.891    0.830
         2 -14.8652    242.0214    111.5064   1.8053461157e+01   1.0901929734e+01     3.264908    0.6879754 -41.43   0.01079847    3.852    0.740
         3 -12.7415    245.3507     56.1712   5.7036989792e+00   1.8299061743e+01     2.889357     0.731047 -34.58   0.01108702    3.107    0.678
         4 -14.4969     11.4714     84.3597   7.6343928410e+01   5.9356626868e+01     1.909402     1.107718  32.40  0.008605032    1.902    0.474
         5 -15.0635     13.2909    108.2117   7.9012992146e+01   5.2988673628e+01     2.864923     1.586393  63.05   0.01323066    2.045    0.511
         6 -14.2748    203.2177     41.9501   6.4437653581e+00   2.8972354813e+01       1.3581    0.8120856 -29.41  0.006861082    1.712    0.416
         7 -14.8821    217.1700     61.9376   9.8457304054e+00   2.3135385560e+01      2.10906     1.394288 -75.83   0.01110827    1.719    0.418
         8 -14.5972    214.4410     44.7047   5.9719099911e+00   2.6108325595e+01     2.006639    0.7611424 -45.75  0.008616589    2.213    0.548
         9 -12.6770    218.8124     28.8597   1.7833166276e+00   2.7160462198e+01     1.358061    0.1315566 -37.70  0.004357239    4.304    0.768
        10 -12.1565    207.2186      7.5086   3.5754107635e+02   3.2093841102e+01    0.6744205    0.4747627 -73.94  0.004156617    1.211    0.174
        11 -13.4797     21.4232     14.3276   4.7012352216e+01   7.4169823830e+01    0.5852091    0.3789268 -13.28  0.003292399    1.586    0.370
        12 -13.9644      7.4940      6.3151   5.2979249160e+01   7.7058242231e+01     1.243831    0.8518386   2.73  0.007885817    1.345    0.256
        13 -10.2301    192.9009      1.7486   3.5707047811e+02   3.5942062105e+01    0.2839891    0.1451148 -89.10  0.001130107    1.829    0.453
        14 -10.9208    178.8383      2.3803   3.5826109822e+02   3.9235129608e+01    0.3972488    0.1162743  81.78  0.001407287    3.485    0.713
        15 -12.2639    165.5924    218.6737   5.2683311697e+01   5.5935976211e+00    0.8230034    0.5159596  -6.02  0.004195147    2.041    0.510
        16 -12.9690    245.6918    246.2478   4.2281875682e+01  -8.1202056441e+00    0.7135636    0.4465835   6.95  0.004623317    1.217    0.179
        17 -12.8341    247.0412    233.3771   4.0099648186e+01  -6.8193299303e+00    0.6411489    0.3209036 -25.00  0.004046152    1.719    0.418
        18 -12.9214    204.9570    246.8083   4.9281759455e+01  -3.6680694412e+00    0.7122414    0.5384215  29.30  0.005099749    1.428    0.300
        19 -14.7044    178.4915    242.1804   5.3561112573e+01   2.5221412202e-01     2.068505    0.8968773  35.61  0.009859936    1.989    0.497
        20 -14.8696    146.6808    239.7627   5.9607130186e+01   4.8998943107e+00     2.418467     1.370782  28.32   0.01347686    1.461    0.316
        21 -13.4308     73.9136    215.7204   7.3024180268e+01   1.9515127265e+01     1.057334     0.641867  80.70  0.004030115    2.040    0.510
        22 -14.5211     88.1917    222.2363   7.0358895534e+01   1.6253251079e+01     1.691822     1.259567  47.23  0.007958765    1.156    0.135
        23 -15.0830    103.2857    244.1614   6.9287493283e+01   1.0126272184e+01     2.242015     1.045779  34.63   0.01046395    1.682    0.406
        24 -14.2288     84.6347    241.8138   7.3070661501e+01   1.3010303729e+01     1.293857    0.9060481 -73.13  0.008084675    1.735    0.423
        25 -14.5597     55.7595    227.3946   7.8229159811e+01   1.9417596241e+01     2.983529     1.312798  73.15    0.0125501    3.225    0.690
        26 -14.0286     40.9952    244.2957   8.2530671681e+01   1.7832151875e+01     1.467784    0.4324166  46.55  0.006779474    2.406    0.584
        27 -14.4586     39.1354    229.2471   8.2042827351e+01   2.0968774112e+01     1.865864    0.6194968  53.17  0.008186978    2.611    0.617
        28 -13.9792     10.7610    186.6937   8.6209332000e+01   3.3147651139e+01     1.606903    0.7199582  68.82  0.006474667    2.084    0.520
        29 -13.4290     20.8748    229.6687   8.6005670242e+01   2.2809046985e+01     2.080576    0.6485245  84.79  0.008110367    4.153    0.759
        30 -13.0451      7.7147    211.1381   8.8062817305e+01   2.7917190226e+01     1.907541    0.6755236  87.61  0.008558909    2.812    0.644
        31 -10.2382     30.2028    249.8545   8.5016358965e+01   1.7964189556e+01    0.3266443    0.1121899  43.93   0.00168954    1.974    0.493
        32  -9.5841     99.5018    181.4368   6.2346017436e+01   2.3328016085e+01    0.1446464    0.1324506  44.45 0.0001499014    1.009    0.009
        33 -10.8574     15.6495    177.3046   8.4414282868e+01   3.4959331071e+01    0.3584468    0.3226333   2.11  0.001849956    1.436    0.303
        34 -12.2714     66.5578    171.1938   6.9840612163e+01   3.0720088459e+01     0.773942    0.6028551  76.78  0.003239969    1.296    0.229
        35 -11.2609    117.2224    174.9081   5.6674110971e+01   2.1871769183e+01    0.3819969    0.2875024 -19.80  0.001851116    1.684    0.406
        36 -10.5341    114.5443    223.0482   6.4427390743e+01   1.2355770694e+01    0.2711644    0.2507377  80.16  0.001317241    1.266    0.210
        37 -15.6638      9.2387    150.3546   8.4381756595e+01   4.2213406548e+01     2.529825     1.614675 -73.94    0.0123506    1.400    0.286
        38 -14.1560     28.2865    151.8225   7.8789717925e+01   4.0208324768e+01     1.801311     1.155843  68.31  0.009123796    1.526    0.345
        39 -14.2149     20.4402    129.2556   7.8921889013e+01   4.6857674549e+01     1.123888     0.973469  -3.78   0.00513209    1.396    0.283
        40 -11.2580    120.9705    221.4471   6.2774118902e+01   1.1714324446e+01    0.4130507    0.2836924  59.92  0.001666694    1.782    0.439
        41 -12.5405     71.4301    133.1037   6.2292844178e+01   3.9802769178e+01    0.5354478    0.4308169 -23.85 0.0007238976    1.517    0.341
        42 -12.7755     57.2336    150.6758   6.9755537650e+01   3.7208253389e+01    0.8720658    0.5994441 -66.97  0.003066343    1.407    0.289
        43 -13.3995     67.0136    145.5123   6.5914812552e+01   3.7208787890e+01     0.929759    0.8151248 -72.97   0.00280166    1.111    0.100
        44 -12.9462     40.9856    145.9493   7.4188580472e+01   4.0427152007e+01    0.5116173     0.323453  -9.62  0.001636391    2.468    0.595
        45 -10.2167     85.1840    135.8216   5.8424683901e+01   3.6878666821e+01    0.2131772    0.1851097 -24.70 0.0006621298    1.325    0.245
        46  -9.8977    105.7008    130.9503   5.1103995645e+01   3.4398270747e+01    0.2331563    0.2068011 -61.72  0.001165256    1.141    0.124
        47 -13.1209     56.1717    122.1854   6.5392068937e+01   4.4896897102e+01    0.9424263    0.7540287  43.12  0.003303449    1.275    0.216
        48 -12.2960     52.3732    109.9117   6.4343215399e+01   4.8666603980e+01     0.897611    0.5972024  64.53  0.003105054    1.832    0.454
        49  -9.8767     87.3489    122.1392   5.4779054154e+01   4.0007416221e+01    0.2462727    0.2142318  21.40 0.0004731309    1.250    0.200
        50  -9.2870    101.1703    116.3798   4.8989332670e+01   3.8857973519e+01    0.2091313    0.1468319  50.13 0.0002178503    1.478    0.323
        51 -10.7795     38.3910    113.7294   7.0319292383e+01   4.9320781238e+01    0.5035627    0.2881089 -43.66  0.002148123    1.859    0.462
        52 -10.6264     37.4960    108.0440   6.9653194971e+01   5.0936517890e+01    0.3615719    0.2351972  30.26   0.00117376    1.628    0.386
        53 -12.6678     41.1624     95.8549   6.5755614057e+01   5.3752947210e+01    0.7942483    0.5110702  38.24  0.002343197    1.645    0.392
        54 -11.5201     50.5547     82.6231   5.8517079921e+01   5.5951624157e+01    0.5357922    0.4459444  23.28  0.002413294    1.270    0.212
        55 -11.3489      1.8327    218.7056   8.9623732371e+01   2.6833323005e+01    0.4432859     0.159221  87.82  0.002105674    2.666    0.625
        56 -11.9068    165.8739    200.5739   4.9698079850e+01   8.6208481256e+00    0.8193338    0.4120144  44.97  0.003698396    2.184    0.542
        57  -9.8738     34.0588     66.4779   6.1495499628e+01   6.1944238291e+01    0.2064631    0.1380869  20.72  0.001034689    1.600    0.375
        58 -11.5276      2.6285     58.9903   7.6073273000e+01   6.6173612420e+01    0.3488515    0.3334079 -52.58  0.001249982    1.139    0.122
        59 -12.3293      8.8010     56.8398   7.2202617374e+01   6.6381687799e+01    0.8186869    0.4751916 -80.74  0.003600814    1.927    0.481
        60 -10.8975     25.3520     52.6424   6.1739531965e+01   6.6087072036e+01    0.3031899    0.1820666 -40.76  0.001528697    1.510    0.338
        61 -12.9234     57.0817    201.5578   7.5734294506e+01   2.4767589070e+01     3.361115     1.405332  79.38    0.0110923    4.517    0.779
        62 -10.6751     85.9821    204.3221   6.8875978416e+01   2.0271662043e+01    0.3927359    0.2596235  68.36  0.001582621    1.744    0.426
        63 -12.5192    111.3297    192.2747   6.0975213765e+01   1.9032106263e+01    0.8743237    0.4947564 -46.90  0.004036726    1.967    0.492
        64 -10.3281     27.8976     58.2660   6.2161146794e+01   6.4537154303e+01    0.3436116    0.1802425 -39.58  0.001572839    1.826    0.452
        65  99.0000      6.2027    238.8145   8.9380864031e+01   2.2416203776e+01    0.6876796    0.2400592  49.45  0.003676211    1.964    0.491
        66 -12.1178     25.4207    208.7880   8.3914223346e+01   2.6740753947e+01     2.110821    0.5683728  45.63  0.008766781    2.692    0.629
        67 -13.3731     46.2995    206.8512   7.8830828766e+01   2.4889214514e+01    0.6943393    0.5685374 -80.71  0.003140959    1.277    0.217
