#   1 NUMBER                 Running object number                                     
#   2 MAG_AUTO               Kron-like elliptical aperture magnitude                    [mag]
#   3 X_IMAGE                Object position along x                                    [pixel]
#   4 Y_IMAGE                Object position along y                                    [pixel]
#   5 X_WORLD                Barycenter position along world x axis                     [deg]
#   6 Y_WORLD                Barycenter position along world y axis                     [deg]
#   7 A_WORLD                Profile RMS along major axis (world units)                 [deg]
#   8 B_WORLD                Profile RMS along minor axis (world units)                 [deg]
#   9 THETA_WORLD            Position angle (CCW/world-x)                               [deg]
#  10 FWHM_WORLD             FWHM assuming a gaussian core                              [deg]
#  11 ELONGATION             A_IMAGE/B_IMAGE                                           
#  12 ELLIPTICITY            1 - B_IMAGE/A_IMAGE                                       
         1 -12.5572     74.2764     50.4229   1.0336147704e+02   5.7273094002e+01     1.075017    0.7244377 -51.48  0.005448176    1.516    0.340
         2 -12.4075     60.5010     45.6268   1.0713108632e+02   6.0231717426e+01     1.042472    0.4608416 -49.06  0.004538578    2.030    0.507
         3 -11.1552    178.3835     21.0952   6.4514995413e+01   3.7834644351e+01     0.545705    0.2825051  31.14  0.001847411    2.400    0.583
         4 -11.1587    105.7400     19.9640   7.9990018412e+01   5.6477891246e+01     0.427572    0.2391084 -27.71  0.000765143    1.765    0.433
         5 -11.9178    240.9333     31.5673   5.9579396892e+01   2.0924871395e+01    0.3540154    0.3083752 -13.43  0.001611071    1.131    0.116
         6 -11.7984     22.7621     11.2736   1.1206234533e+02   7.1096719083e+01    0.5657604    0.3212143 -24.33  0.002904081    1.699    0.411
         7 -12.7120     18.3626     22.5088   1.1879984759e+02   6.9178016928e+01    0.9157338    0.6020595  49.75  0.005290297    2.325    0.570
         8 -12.2362     15.6758     12.6040   1.1669863248e+02   7.1353772746e+01    0.5722526    0.4600295  87.73  0.003716146    1.913    0.477
         9 -11.3000     90.7528     19.7077   8.4708268836e+01   5.9742342523e+01     0.606693    0.3990573 -29.77  0.002555764    1.476    0.323
        10 -11.6446     85.9789     14.2146   8.3789693089e+01   6.1487501662e+01    0.6161756    0.3390254 -13.64  0.002472037    2.057    0.514
        11  -9.5348     87.4459      7.7218   8.0085768380e+01   6.2033103694e+01    0.6802036    0.4058456  46.82  0.003339922    1.625    0.385
        12 -10.2665     32.0154     12.1753   1.0726858977e+02   7.0091026224e+01     0.300147    0.2098323  45.71  0.001401164    2.159    0.537
        13 -11.0249     46.9503     18.5972   1.0247887809e+02   6.7233807629e+01    0.3901923    0.3329657 -36.32  0.002143154    1.225    0.184
        14 -12.2251     49.2763     12.9652   9.8661041614e+01   6.7916731721e+01    0.6557306    0.3305251  37.53  0.003241104    2.212    0.548
        15 -11.4039     42.3851     14.2495   1.0274106261e+02   6.8574352407e+01    0.4556821    0.2148161  27.53  0.002037601    2.321    0.569
        16 -11.8330     35.8235     18.8785   1.0821395091e+02   6.8448941842e+01    0.5860627    0.2497678 -40.17  0.002444454    1.954    0.488
        17 -12.0399     69.7034     17.9022   9.1841829757e+01   6.3975050094e+01    0.7126697    0.4104362  48.99  0.003393085    2.161    0.537
        18 -10.7763    165.3994     17.2279   6.5299253767e+01   4.1720337980e+01    0.3939821    0.2329731  33.30   0.00121375    1.833    0.454
        19 -13.1744    237.3438     15.5606   5.5756071375e+01   2.3417376861e+01    0.5923728    0.5274405  55.06  0.002436892    1.184    0.155
        20 -12.3419    244.7556     14.4455   5.4805701968e+01   2.1809139044e+01    0.4121397    0.2328995 -20.52  0.001468236    1.741    0.426
        21 -12.7538    245.3870      6.3188   5.2707025889e+01   2.2435261226e+01     1.209156    0.5881611 -84.91  0.005292043    2.650    0.623
        22 -11.6600    240.0817      7.8482   5.3522125262e+01   2.3515696905e+01    0.3452851    0.2416549 -48.48 0.0003923634    1.361    0.265
        23 -11.3248    133.6761     15.2270   7.0704053415e+01   5.0290932163e+01    0.9359083    0.3061167  56.56  0.003215972    2.662    0.624
        24 -10.8589    125.7959     11.1501   7.0817060974e+01   5.2736568986e+01    0.4287902    0.2474486  69.85  0.001572334    2.048    0.512
        25 -11.9792    104.8907     13.0686   7.7138344958e+01   5.7554756255e+01    0.4952983    0.3748943  -3.57  0.001886243    1.293    0.226
        26 -11.7069    211.5451      9.7081   5.6701021039e+01   3.0298014663e+01    0.5508502    0.3426387   9.51  0.001948306    2.059    0.514
        27 -11.0717    192.2671      7.6687   5.8267882683e+01   3.5485964629e+01    0.4317119     0.280267   1.37    0.0016156    1.819    0.450
        28 -10.8416     66.5486     10.5740   8.9528104405e+01   6.5637911378e+01     0.351291    0.1984754  32.72  0.001741221    1.771    0.435
        29 -10.0289      4.4166     10.3593   1.2250288925e+02   7.2409688136e+01    0.3435755   0.08598477 -38.97  0.001445209    3.134    0.681
        30 -10.0216    169.0659     10.0604   6.2207005517e+01   4.1458526764e+01    0.3075099    0.1481999  41.95  0.001215366    2.108    0.526
        31  -9.3083    150.6724      8.2659   6.4583440022e+01   4.6560024418e+01    0.1440703    0.1122454 -68.78 0.0001960754    1.572    0.364
        32 -10.0251      1.2550      7.3555   1.2339010423e+02   7.3143410721e+01    0.1758155   0.07812685 -61.43 0.0001615448    1.798    0.444
        33 -10.9293     77.3031      5.2909   8.2468157027e+01   6.4386218861e+01    0.5146062    0.2473325 -27.44  0.002236724    1.981    0.495
        34 -10.6223     62.9563      6.0888   8.8717777985e+01   6.6898455213e+01    0.3107799    0.1891771 -12.89   0.00106475    1.663    0.399
        35  -9.8542     40.6863      5.6460   9.9305868878e+01   7.0256697781e+01    0.3256967    0.1378753 -27.01  0.001373157    2.661    0.624
        36 -10.0890     43.7823      2.3855   9.5883911609e+01   7.0373522800e+01    0.2511209    0.1820828   4.10   0.00130458    1.283    0.221
        37 -10.3146    199.3806      6.0575   5.6946252551e+01   3.3766617615e+01    0.2826923    0.1899147  76.03   0.00010875    1.480    0.324
        38  -9.8139    162.9377      5.7536   6.1631188418e+01   4.3507223956e+01    0.2665585    0.1873221  23.84 0.0008718984    1.527    0.345
        39 -10.9085    218.6112      3.3530   5.4206557590e+01   2.9101451684e+01    0.3347592    0.2890087  68.79 0.0008289313    1.144    0.126
        40 -12.1258    133.8715      2.5807   6.5496653137e+01   5.1512928917e+01    0.3776409    0.2751011  48.29 0.0005033737    1.223    0.182
        41 -10.6286     71.5928      3.1673   8.3538956957e+01   6.5747641516e+01     0.291566    0.2454395  -9.92  0.001772212    1.125    0.111
        42 -10.9784    205.4032      2.2261   5.5165161659e+01   3.2545946209e+01    0.4531003    0.2344697 -86.29  0.001875553    2.390    0.582
        43 -11.0098      2.7805      1.8107   1.2036856063e+02   7.4177740346e+01    0.3690129    0.1755072  -6.63    0.0020469    2.421    0.587
        44 -10.6265    113.4911      2.0284   6.9761773000e+01   5.6714263805e+01    0.2974085     0.200345  68.79 0.0006276149    1.678    0.404
        45 -10.8872    105.6812      1.9060   7.1708584753e+01   5.8603599461e+01    0.5973152    0.2125795  62.16  0.001976786    3.111    0.679
        46  -9.4550     21.6591      3.2843   1.0901418908e+02   7.2672985551e+01     0.099567   0.09578554  80.85 0.0007015567    1.635    0.388
        47 -11.7520    223.6668      2.0723   5.3400662450e+01   2.7965060223e+01    0.6827867    0.3011836 -89.78  0.002660461    2.930    0.659
        48  -9.3485    123.0183      1.0000   6.7091226055e+01   5.4439405389e+01    0.2451588   0.07700385  62.66 0.0008100778    2.996    0.666
        49 -11.8622     29.9050    132.8447   1.3410556979e+02   4.3693193058e+01    0.5068347    0.2714526 -83.68 0.0005127114    1.706    0.414
        50 -12.1456     22.6536    135.6150   1.3614905323e+02   4.3680109475e+01    0.4447059    0.3029138  57.02  0.002139074    1.379    0.275
        51 -10.9067     81.7374    135.0060   1.2095729779e+02   3.7520559407e+01    0.3915747    0.2353704  17.60  0.001472777    2.352    0.575
        52 -10.7958     47.5242    134.3428   1.2977037458e+02   4.1739870288e+01    0.2678041    0.1785471 -68.70 0.0008493427    1.373    0.271
        53 -11.0988     72.0007    133.8174   1.2332765425e+02   3.9065876611e+01    0.3822196    0.2455764 -24.87  0.001831464    2.555    0.609
        54 -10.3772     14.1834    132.9819   1.3801493657e+02   4.4865418908e+01    0.2182748    0.1242132  78.23 0.0008670737    1.593    0.372
        55 -11.0647     92.9952    129.0329   1.1698463490e+02   3.7198104422e+01    0.3313393    0.2810311  76.14  0.001570216    1.246    0.197
        56 -10.4501     78.8198    128.3270   1.2066459290e+02   3.9378681860e+01    0.2457276    0.1747201 -57.43 0.0007043519    1.379    0.275
        57 -10.6329     11.0475    126.8201   1.3834063982e+02   4.6395895508e+01    0.3428811    0.1332392 -56.42  0.001336098    2.508    0.601
        58  -9.7730     26.4144    139.8184   1.3557937063e+02   4.2482967170e+01    0.1865711    0.1531886 -64.12 0.0008067667    1.283    0.220
        59 -10.4897     18.3461    124.8850   1.3634024466e+02   4.6319044574e+01    0.2430856    0.1262576 -65.67 0.0005953136    1.666    0.400
        60  -9.4525      1.8043    125.3730   1.4053183967e+02   4.7267983631e+01    0.2131498   0.07072473 -83.48  0.001012808    2.536    0.606
        61 -11.3859    240.1584    124.1903   8.3001953257e+01   9.3937870327e+00    0.2596872    0.2120504   5.70  0.001520664    1.042    0.040
        62 -11.3328     55.7651    123.1021   1.2615052617e+02   4.3364380154e+01    0.4383856    0.3072642  23.47  0.001605564    1.668    0.401
        63 -11.6661    104.9610    121.1479   1.1226098201e+02   3.7010113684e+01     0.481718    0.4444776  52.17  0.002227494    1.074    0.069
        64 -10.4882     45.7059    120.4797   1.2856726580e+02   4.4997065515e+01    0.2554004    0.2061042  76.01  0.001142023    1.191    0.161
        65  -9.9951    221.4535    120.4860   8.5377337567e+01   1.3626223129e+01    0.1443701    0.1245998   6.30 0.0004042085    1.008    0.008
        66  -9.5561     72.7334    119.9765   1.2095535785e+02   4.2041416315e+01    0.1800666    0.1437057 -18.43 0.0005913205    1.619    0.382
        67 -10.9419     34.3892    119.2188   1.3152423454e+02   4.6318913183e+01    0.2184887    0.1671953 -45.65 0.0008804519    1.461    0.316
        68 -10.0563    114.0121    115.9790   1.0871051958e+02   3.6559202297e+01    0.2096106    0.2045626  12.48 0.0003537065    1.027    0.026
        69  -9.9324    149.5302    118.9700   1.0024973447e+02   2.9094024644e+01    0.3496902    0.1819184  27.30  0.001285965    2.566    0.610
        70 -12.1331     45.1641     85.8165   1.2333515295e+02   5.2990605474e+01    0.7449781    0.4398798  77.04  0.003366166    2.478    0.596
        71 -11.9646      9.8151     97.6992   1.3622164616e+02   5.2884594653e+01    0.8902544    0.3886072  40.48  0.004788999    2.445    0.591
        72 -12.1238      7.3374     88.9319   1.3609072557e+02   5.4986845267e+01    0.4593987     0.348364 -83.08  0.001071639    1.089    0.082
        73 -11.5421     28.8064    113.0884   1.3237766114e+02   4.8153090694e+01    0.3758394    0.2700097  25.43  0.002412292    1.632    0.387
        74 -11.3021     21.5181    114.2075   1.3451914364e+02   4.8448294561e+01    0.3240067    0.2390537 -14.22  0.001367656    1.882    0.469
        75 -12.7204     26.2175    107.0261   1.3242442184e+02   4.9719298174e+01    0.9647018    0.5053328 -36.97  0.004923948    2.517    0.603
        76 -12.5117     18.8412    106.3044   1.3446682273e+02   5.0402462540e+01     0.302002     0.230962 -50.38 0.0003604318    1.369    0.270
        77 -12.1331     18.4896     90.5085   1.3278071786e+02   5.4004951815e+01      0.53958    0.2560857 -54.13  0.002390324    1.839    0.456
        78  -9.9095      7.2523    114.4555   1.3839141034e+02   4.9312170690e+01    0.2279473    0.1520174  55.38  0.001119648    1.492    0.330
        79 -11.4977      2.3792    112.2291   1.3951658819e+02   5.0067372256e+01    0.3385143    0.1981498 -83.44 0.0009219068    1.363    0.266
        80 -10.8445      5.9899    108.5349   1.3826649065e+02   5.0683103522e+01    0.2170637    0.1851897 -89.87 0.0005978037    1.083    0.077
        81 -11.5256      3.0848    104.6886   1.3876102582e+02   5.1683983828e+01    0.3277108    0.2982354  -0.19  0.001336942    1.441    0.306
        82  -9.6092    126.6840    114.0199   1.0487451694e+02   3.4627678645e+01    0.2017251    0.1867766 -34.42 0.0004434152    1.103    0.093
        83  -9.9847     87.5531    114.1844   1.1570444902e+02   4.1280392388e+01     0.285327    0.1621271  51.51  0.001302817    1.979    0.495
        84 -10.9478     67.0522    112.0437   1.2122490121e+02   4.4551201523e+01    0.4352549    0.2761408 -71.58  0.001931486    1.587    0.370
        85 -10.5130    108.0283    112.4588   1.0957214002e+02   3.8363647955e+01    0.3247263     0.237758  73.95  0.001551418    1.856    0.461
        86 -10.8139    170.5362    109.9253   9.3076036428e+01   2.6289576383e+01    0.3975534    0.3314994  -8.39  0.002042643    1.228    0.186
        87 -10.6224    175.1576    107.0953   9.1315042393e+01   2.5764940936e+01    0.3242218    0.2531785  15.23 0.0008204111    1.340    0.254
        88  -9.9272     48.9137    112.1676   1.2652045142e+02   4.6558565933e+01     0.197755    0.1591268  74.69  0.001232483    1.251    0.201
        89 -11.2142     79.5452    108.5433   1.1691282825e+02   4.3700751366e+01    0.5690328    0.3614401  45.88  0.002854667    1.648    0.393
        90 -11.4738     86.4201    105.0220   1.1415803490e+02   4.3498225393e+01     0.438812    0.3304322  10.63  0.001862662    1.667    0.400
        91 -10.9108    102.4809    108.9631   1.1035219970e+02   4.0069371142e+01    0.4656003    0.3712084  -5.77  0.002414969    1.570    0.363
        92 -13.0524     19.6518     95.6816   1.3304752710e+02   5.2752516430e+01    0.5219483    0.3717497  41.08 0.0006253965    1.566    0.361
        93 -10.0214    130.6004    107.7697   1.0233652619e+02   3.5146163536e+01    0.2094583    0.1422473 -54.75 0.0008698044    1.665    0.399
        94 -10.4073    157.9900    105.6566   9.4893404038e+01   2.9820114950e+01    0.2740292    0.2228163 -20.76 0.0006473006    1.272    0.214
        95 -10.6315    143.4239    105.8640   9.8534178374e+01   3.2905774891e+01    0.3029437    0.2821498  34.62   0.00131983    1.060    0.056
        96 -11.3901    146.2087    100.0856   9.6319430711e+01   3.3436768137e+01    0.4767494     0.364216  -6.60  0.002252003    1.547    0.354
        97  -9.8838    182.3117    104.6282   8.9116267807e+01   2.4586140510e+01    0.1509589    0.1226741 -71.17 0.0007033902    1.777    0.437
        98 -10.2869     48.1163    103.0802   1.2537327804e+02   4.8718376475e+01    0.1862547    0.1822957  46.29 0.0003716715    1.156    0.135
        99 -10.6689     66.6692     99.4016   1.1900531877e+02   4.7485090594e+01    0.3740046    0.1980791  44.82  0.001758288    2.056    0.514
       100 -10.8742     68.3919     95.7239   1.1772360213e+02   4.8109998008e+01    0.3153014    0.2639226 -27.48 0.0006888689    1.320    0.243
       101 -12.3338     34.8991     92.0981   1.2777771383e+02   5.2454172887e+01     1.788555    0.9789036  83.96  0.008606327    2.344    0.573
       102 -10.4052     57.7023     97.9664   1.2153075495e+02   4.8877954342e+01    0.1903215    0.1579432 -67.32 0.0006873267    1.098    0.089
       103  -9.3384     77.8403     97.1885   1.1507462204e+02   4.6510288074e+01    0.1797471    0.1522183 -30.72  0.000277968    1.260    0.206
       104  -9.6195    140.5457     96.2475   9.6734683768e+01   3.5399911167e+01    0.2118979    0.1450904 -26.34 0.0007637149    1.612    0.379
       105 -11.4625     37.6368     85.8276   1.2585892521e+02   5.3671405191e+01    0.3262893    0.2605006  33.77  0.000799789    1.427    0.299
       106 -10.8147    117.3048     93.0101   1.0219309835e+02   4.0808934034e+01    0.3804583    0.2431821  27.94  0.001528883    1.772    0.436
       107 -11.2031    126.3115     93.1405   9.9698415473e+01   3.8994518867e+01    0.4475809    0.3754144 -62.79  0.002059831    1.393    0.282
       108 -11.1697    122.4670     93.5122   1.0086811386e+02   3.9691454731e+01    0.2657246    0.2305389 -49.54 0.0009527635    1.204    0.170
       109 -11.0259    102.7811     91.0783   1.0594458683e+02   4.3911557322e+01    0.5661296    0.4954769 -76.01  0.002050519    1.317    0.241
       110 -11.7186     81.7907     93.0585   1.1290981668e+02   4.6875844676e+01    0.5928715    0.3900157  51.13  0.001582413    1.740    0.425
       111 -11.2113     89.3169     90.0325   1.0981722671e+02   4.6401186372e+01    0.3852473     0.291519 -43.98  0.001008743    1.271    0.213
       112  -9.9456     92.8978     85.7403   1.0759090712e+02   4.6766509067e+01     0.262458    0.2146472  -3.17 0.0006271725    1.416    0.294
       113 -11.7207     79.8411     82.9774   1.1108521513e+02   4.9425762391e+01    0.9013211    0.6002381 -81.02  0.004066076    2.249    0.555
       114 -11.5602     66.7852     81.8293   1.1516891556e+02   5.1487230916e+01    0.9585445    0.4165206 -54.07  0.004108098    2.041    0.510
       115 -11.3901     72.0663     79.0526   1.1269290466e+02   5.1413595415e+01    0.7251789    0.3361839 -36.49  0.002831951    2.678    0.627
       116 -10.5421    152.6554     92.0576   9.2515118911e+01   3.3539245831e+01    0.3590293    0.2938711   1.94  0.001763502    1.321    0.243
       117  -9.5779    138.8436     92.8139   9.6235555839e+01   3.6437120813e+01    0.3317188    0.1742515  26.45  0.001151559    2.773    0.639
       118 -10.2628    183.6603     86.4495   8.3895430699e+01   2.7305030104e+01     0.474988    0.1716484 -36.95   0.00159658    2.732    0.634
       119 -11.2859    113.3276     84.5720   1.0102273419e+02   4.3339011940e+01     0.637224    0.2956344 -40.68  0.002462745    2.168    0.539
       120 -11.2864    107.7011     79.7822   1.0133484052e+02   4.5414103045e+01    0.7135853    0.5034451 -85.62  0.002950105    2.565    0.610
       121 -11.2464    143.8149     83.2897   9.2216455379e+01   3.7172455679e+01    0.4462235    0.3399832  -3.97  0.002072517    1.534    0.348
       122  -9.3042    212.4611     87.4671   7.8656343910e+01   2.0401818830e+01    0.1506618    0.1342255   6.63 0.0001381026    1.034    0.032
       123 -10.4579    165.6135     83.1150   8.6872074343e+01   3.2152898526e+01    0.3730374     0.295333 -38.18  0.001582526    1.312    0.238
       124 -10.1463    127.4866     83.5083   9.6653262123e+01   4.0691815757e+01    0.1534671    0.1440502   2.83 3.065848e-05    1.025    0.024
       125 -11.0686     58.2820     78.0956   1.1721852845e+02   5.3377504935e+01    0.2709661    0.2304066  26.48   0.00081538    1.307    0.235
       126 -10.1228     53.5331     80.5002   1.1940846262e+02   5.3360679709e+01    0.2171647    0.1555238 -66.86 0.0007695592    1.320    0.243
       127 -11.4085     52.9824     76.0597   1.1861660775e+02   5.4438007286e+01    0.4037949    0.3393733 -60.82  0.001329458    1.084    0.078
       128 -11.8512     14.0595     74.5063   1.3213414048e+02   5.7915279467e+01    0.4781992    0.2781275 -68.44  0.002284998    1.360    0.265
       129 -11.7856      2.0388     71.5115   1.3591650767e+02   5.9150729875e+01    0.5921738    0.1529015 -73.72  0.002412435    2.887    0.654
       130 -11.8953      6.6854     62.0908   1.3301765776e+02   6.1088639671e+01    0.7483304     0.176689 -57.66  0.003233325    2.680    0.627
       131 -11.9237     13.3523     65.9926   1.3112471865e+02   5.9891950490e+01    0.2698559    0.2087576 -88.98 0.0004082333    1.277    0.217
       132 -11.1008     11.9025     62.6279   1.3113521811e+02   6.0728875618e+01    0.3001169    0.2004249  -8.64  0.001875501    1.871    0.466
       133 -10.6645     93.9660     76.4106   1.0467646038e+02   4.8608536992e+01    0.5333393    0.3545634  33.21  0.001910066    1.582    0.368
       134 -10.8983    142.6432    249.1165   1.2225250420e+02   9.1514282153e+00    0.2255586    0.1227397  35.47  0.001304813    1.390    0.281
       135 -11.9365     85.2346     73.3890   1.0669188088e+02   5.0708600676e+01    0.6744703    0.6009855  50.12  0.003844324    1.259    0.206
       136 -11.6571     78.6936     67.0951   1.0710564723e+02   5.3092710268e+01    0.7079383    0.4721337  42.06  0.003549031    1.651    0.394
       137  -9.4714     46.5568     77.5054   1.2120647531e+02   5.4771389209e+01    0.1292215     0.113051 -62.82  4.83425e-05    1.041    0.040
       138 -11.7365    187.1411     70.1078   7.8469003390e+01   2.9048609084e+01    0.6313054    0.5299615 -24.75  0.002371617    1.177    0.150
       139 -11.2286     41.6423     70.2261   1.2142113002e+02   5.6908874454e+01     0.384014    0.2864703 -53.95  0.001497245    1.140    0.123
       140 -10.4158     38.4876     73.5076   1.2326362057e+02   5.6438572939e+01    0.2052818    0.1806854 -47.42  0.000614684    1.088    0.081
       141 -10.1158    161.5040     70.2430   8.3935304522e+01   3.5340342851e+01    0.3068573    0.2192243  51.11   0.00140164    1.401    0.286
       142 -11.8978    122.6655     68.4138   9.3380399869e+01   4.4666095196e+01    0.5689167    0.3926397  41.18  0.002041672    1.442    0.307
       143  -9.9757    208.2565     68.3571   7.4132156925e+01   2.4140493419e+01    0.3529761    0.1555336  43.08  0.001316546    2.354    0.575
       144 -10.4607    172.0777     67.6039   8.0780335550e+01   3.3170731063e+01    0.3625166    0.3034428 -53.07  0.001784245    1.390    0.280
       145 -11.2299    219.6641     66.3237   7.1720220441e+01   2.1697056404e+01    0.5320851    0.3223511  61.60  0.002412244    1.823    0.451
       146 -11.1788     32.5952     71.9298   1.2509010315e+02   5.7287821525e+01    0.4543846    0.2558731  22.40  0.001834442    2.084    0.520
       147 -11.1267     58.1518     61.8327   1.1311512267e+02   5.7053082249e+01    0.4180799    0.2892188 -72.88   0.00120377    1.771    0.435
       148  -9.2310     25.7715     64.9645   1.2628621187e+02   5.9383492596e+01    0.1609544   0.08530928 -64.55 0.0004334447    1.540    0.351
       149 -10.4153     20.9334     65.1428   1.2815048355e+02   5.9657415806e+01    0.1829796    0.1472194 -58.07 0.0008728356    1.040    0.038
       150 -10.2423    204.3801     63.9217   7.3523838640e+01   2.5705047447e+01    0.2868155    0.1979153  22.20 0.0001383202    1.649    0.393
       151  -9.4705    167.4725     63.0800   8.0357335170e+01   3.5035682465e+01    0.2144709     0.151652 -29.61 -6.356979e-05    1.416    0.294
       152 -10.9156    113.6104     61.2968   9.3707054277e+01   4.7940431643e+01    0.5845681    0.2400683 -40.26  0.002123749    2.391    0.582
       153 -11.0582    122.5468     58.6377   9.0151887284e+01   4.6515467581e+01    0.3917459    0.3656699  43.24  0.001450752    1.144    0.126
       154 -10.6245    117.4733     56.1909   9.0785791423e+01   4.8070486618e+01    0.4541258    0.2407308  49.03   0.00120609    1.961    0.490
       155 -11.0756     92.0288     62.1065   1.0092735138e+02   5.1945855196e+01    0.3662293    0.3550668  22.05   0.00112251    1.124    0.111
       156 -10.7387     91.3380     58.0626   9.9819085354e+01   5.2888662756e+01    0.3695638    0.3271744  25.70  0.001134059    1.157    0.136
       157 -10.8371     87.5052     56.5389   1.0063352350e+02   5.3868187362e+01    0.4322774    0.2254215 -45.95  0.001256576    1.849    0.459
       158 -10.1725     98.6125     62.1220   9.8732318158e+01   5.0745897458e+01    0.2774889    0.2140003  27.45    0.0014095    1.342    0.255
       159 -10.5123    159.5694     61.5757   8.1629963639e+01   3.7244060634e+01    0.4466114    0.2576164  39.58  0.001822228    1.757    0.431
       160 -11.3329     40.3342     56.1120   1.1856866224e+02   6.0221967336e+01    0.4869586    0.3131656  61.70   0.00133771    2.365    0.577
       161 -11.5615     50.9133     61.2942   1.1574751639e+02   5.8002351520e+01    0.4249575    0.3459919 -74.55  0.001361177    1.362    0.266
       162 -11.2340     46.2064     58.1982   1.1676545821e+02   5.9187395835e+01    0.3416411    0.2455781 -53.34  0.001163187    1.196    0.164
       163  -9.9499     32.6808     53.3270   1.2099297437e+02   6.1503999965e+01    0.2080175    0.1664556 -43.71  0.000630356    1.087    0.080
       164 -10.1607     25.7136     59.9848   1.2531564506e+02   6.0520558145e+01    0.9356436     0.351463  50.96  0.003283901    5.255    0.810
       165 -11.2222     25.3670     55.3135   1.2446031024e+02   6.1600373058e+01    0.4258398    0.3015759   9.27  0.001850753    1.692    0.409
       166 -10.1072     29.4612     52.5175   1.2213098980e+02   6.1934868619e+01    0.2246238    0.2005664 -59.57 0.0007697384    1.114    0.102
       167  -9.6328    146.9486     60.5429   8.4281318191e+01   4.0510159420e+01    0.2344704    0.1508034  50.24 0.0005757521    1.538    0.350
       168  -9.3593    228.3144     59.6233   6.8612880675e+01   2.0545588418e+01    0.1522689    0.1029824 -54.74  0.000702898    1.798    0.444
       169 -10.9234    136.4026     56.2140   8.5500724722e+01   4.3767158722e+01    0.5278971    0.3528463 -10.54   0.00152978    1.803    0.445
       170 -11.2428    156.7350     53.9393   7.9761591264e+01   3.9162694912e+01    0.7831739    0.3942529 -44.74  0.002931756    2.302    0.566
       171  -9.6818     34.7615     57.0516   1.2105344254e+02   6.0499543658e+01    0.1776181    0.1432648 -57.27  0.001120592    1.070    0.065
       172  -9.7423      2.0148     56.0229   1.3391803560e+02   6.2634979558e+01    0.1744628    0.1377156 -65.60 0.0005202861    1.027    0.026
       173  -9.6961     67.1361     54.8861   1.0758348813e+02   5.7392642254e+01     0.198367    0.1846067 -63.33 0.0006778803    1.228    0.186
       174  -9.8674    177.3370    248.3063   1.1619141224e+02   4.3711050603e+00     0.111011   0.06723934  19.93 0.0007041119    1.675    0.403
       175 -10.8196     60.5938     36.5505   1.0378042525e+02   6.2048154195e+01    0.3298084    0.2073053 -42.44  0.001020633    1.418    0.295
       176 -10.3107     13.7967     54.1176   1.2892195187e+02   6.2557858983e+01    0.1896927    0.1479982 -46.94   0.00028196    1.154    0.133
       177 -10.7249    249.2142     52.9269   6.4153542756e+01   1.6644093804e+01    0.2152518    0.1718738 -44.23 0.0007048837    1.264    0.209
       178 -11.2299    145.9836     46.4487   7.9684363131e+01   4.3011261165e+01    0.5697042    0.3139696 -28.78   0.00232865    1.835    0.455
       179 -11.2488    240.0480     50.5041   6.4634655368e+01   1.8970794886e+01    0.2968681    0.2843836  -0.58 0.0008582731    1.050    0.048
       180 -12.7823    117.2444     42.3958   8.5798096472e+01   5.0515004329e+01    0.9462658    0.6978667  71.12  0.003217514    1.902    0.474
       181 -12.9386    120.2215     38.9692   8.3621007413e+01   5.0386623803e+01    0.8303145    0.6922473 -63.64  0.002520548    1.585    0.369
       182 -10.9013    112.8560     50.2670   9.0055411533e+01   5.0132850092e+01    0.7573271    0.5705795   1.69  0.003643611    1.497    0.332
       183  -9.5271     54.9122     51.1891   1.1123979822e+02   5.9762070134e+01    0.1758616    0.1365426 -20.70 0.0004655746    1.305    0.233
       184 -11.4012     33.1119     42.9014   1.1801494246e+02   6.3766468885e+01    0.5976216    0.4426238  36.90  0.002382264    1.652    0.395
       185 -11.9078     46.1481     48.6015   1.1406406641e+02   6.1302250853e+01    0.4907654    0.3547584 -32.95  0.001292923    1.284    0.221
       186 -11.6882     41.7478     45.4757   1.1499151455e+02   6.2424228882e+01     0.295408    0.2625082  25.31 0.0003132751    1.315    0.239
       187 -10.5580    173.7967     48.3721   7.4330131676e+01   3.5631246230e+01    0.4620247    0.2766511  65.70    0.0019142    1.872    0.466
       188 -10.3351     51.9957     48.0719   1.1145493630e+02   6.0771858455e+01    0.3136437    0.1567039 -44.45  0.001038405    1.723    0.420
       189  -9.6090      3.5292     49.1754   1.3224917396e+02   6.4112181749e+01    0.1807924   0.08384413  16.77 0.0009828031    2.650    0.623
       190 -10.5729    202.0393     46.6859   6.8856268219e+01   2.8605377685e+01    0.3606689    0.2205701 -24.03  0.001611563    1.620    0.383
       191  -9.3902     90.5229     48.0450   9.6560334421e+01   5.4997756563e+01    0.1897965    0.1258287 -62.59 0.0005481986    2.325    0.570
       192 -10.1101     26.0849     48.1494   1.2249438099e+02   6.3153455613e+01    0.2118004    0.1475855 -25.57   0.00029785    1.498    0.333
       193 -10.9944     20.9948     47.1823   1.2445560340e+02   6.3705225099e+01     0.303621    0.2507322 -63.39  0.001255145    1.114    0.103
       194 -10.5532    100.0573     42.7810   9.1308909895e+01   5.4127056684e+01    0.3710823    0.2875771 -82.50  0.001706893    2.218    0.549
       195 -11.1505     93.8487     41.2390   9.2809685449e+01   5.5627711006e+01    0.5536771    0.2870207  39.06   0.00185804    1.967    0.492
       196  -9.7476      3.1762     44.6026   1.3161232841e+02   6.5141596175e+01    0.1993078    0.1164049   3.22 0.0008688014    2.143    0.533
       197 -11.1868    156.1349     41.8401   7.5757851736e+01   4.1114429351e+01    0.3821788    0.3301742  24.50  0.000852585    1.123    0.110
       198  -9.6309    139.1849     43.6240   8.0328150543e+01   4.5128719660e+01    0.2290522    0.1320743  42.87 0.0009461109    1.678    0.404
       199  -9.8342     18.2327     42.0134   1.2444456533e+02   6.5015034503e+01    0.2143277     0.136017 -21.80  0.001268217    1.721    0.419
       200 -11.1964     81.3426     39.4378   9.6608287904e+01   5.8253541933e+01     0.517086    0.3292576  42.94  0.001674611    1.714    0.417
       201 -11.1028     77.6564     34.0878   9.5854519242e+01   5.9866890694e+01    0.4282206    0.3003636  19.52  0.001209803    1.521    0.343
       202 -11.3633     82.2459     31.3473   9.2955531543e+01   5.9539282211e+01    0.4375335    0.3934871  56.81  0.002362582    1.443    0.307
       203 -11.1047    231.4904     39.3705   6.2717329431e+01   2.2258277909e+01    0.3417943    0.2135129 -32.74  0.001503587    1.488    0.328
       204 -10.9706      4.5334     35.9276   1.2932633167e+02   6.7003198911e+01    0.2434551    0.1907362  -3.66 0.0007387726    1.520    0.342
       205 -10.5606    176.6447     36.8239   7.0016227498e+01   3.6439383588e+01    0.3539319    0.2776732 -30.46  0.001649839    1.294    0.227
       206 -10.5306    172.4827     32.9772   6.9482121567e+01   3.8019710300e+01     0.280962    0.2189743  88.29 0.0009531757    1.549    0.354
       207 -11.7333    182.6582     25.2062   6.5200738940e+01   3.6243811216e+01    0.5461132    0.2884574  50.02  0.001121383    1.787    0.440
       208 -10.5944    175.8739     28.7776   6.7482432649e+01   3.7631350934e+01    0.5362518    0.2624155  -7.25  0.001899875    2.821    0.646
       209  -9.7895    199.1978    244.4162   1.1198412659e+02   1.6708518389e+00     0.160259   0.07913383  42.69 0.0009520622    1.713    0.416
       210  -9.9160    133.5301     37.5378   7.9495027211e+01   4.7431779179e+01    0.3457374    0.2338092 -67.90  0.001387453    2.477    0.596
       211 -10.9767     22.5548     36.4862   1.2101156491e+02   6.5950199019e+01    0.3334433    0.2241059  39.43  0.001370039    1.910    0.476
       212  -9.6050    206.9812     37.2911   6.5332436380e+01   2.8516244534e+01    0.2014449    0.1908218  58.50 0.0005870129    1.074    0.069
       213 -10.4157    153.5420     36.2784   7.4353565025e+01   4.2554156740e+01     0.294552    0.2542196 -77.75 0.0006861411    1.425    0.298
       214 -11.9018    105.6928     32.8510   8.5513828832e+01   5.4605859506e+01    0.9492549    0.5223728   0.42  0.003254656    3.336    0.700
       215 -11.5419    127.4083    242.4831   1.2425853261e+02   1.2090051398e+01    0.2699814    0.1899265 -83.50  0.001902344    2.116    0.527
       216 -11.5671    115.5225     24.5094   7.9110148097e+01   5.3610024088e+01    0.4524116     0.262955  45.31  0.001053081    1.617    0.381
       217 -11.6782    110.3186     23.6225   8.0224650093e+01   5.4938260036e+01    0.4213044    0.3933972 -61.35   0.00180627    1.352    0.260
       218 -11.2089     69.7585     32.4331   9.8310067326e+01   6.1470661858e+01    0.4521736    0.2862347  27.73  0.000564296    1.672    0.402
       219 -10.6496    150.8717    237.4468   1.1957945771e+02   9.4445706673e+00    0.1921514    0.1421213 -13.14  0.001327688    1.927    0.481
       220 -10.0500    159.7064     29.7752   7.0774052810e+01   4.1789594141e+01    0.3042191    0.2077009 -16.03 0.0006727436    1.540    0.351
       221 -11.2325    164.6094     27.6203   6.9082904488e+01   4.0757391315e+01    0.3788324    0.3009033 -81.51  0.001313452    1.553    0.356
       222 -10.4164    189.3553     27.5302   6.4921808859e+01   3.4212193022e+01    0.4099263     0.258177   5.03   0.00157908    1.987    0.497
       223 -11.1162     56.4585     30.8955   1.0333945551e+02   6.3707717136e+01    0.4262125    0.2367853  29.48  0.001560944    1.950    0.487
       224 -12.0211     48.0102     30.2887   1.0692050350e+02   6.4893357822e+01    0.8298157    0.3392006  22.72  0.003414002    3.133    0.681
       225 -11.6577     26.3521     27.7671   1.1646438624e+02   6.7523322768e+01    0.4650407    0.4027205  27.99  0.002704823    1.434    0.303
       226  -9.8186    177.6502    236.6900   1.1473455569e+02   5.6330430924e+00    0.1162136   0.07103023  18.73 0.0005724963    1.715    0.417
       227 -10.3925    143.3389    235.6698   1.2073293663e+02   1.0755081610e+01     0.112756   0.07148591  56.94 0.0007051848    1.738    0.425
       228  -9.2718    190.1908    229.6247   1.1159757779e+02   4.5855716058e+00    0.1653687   0.08126145  31.52 0.0008134596    1.604    0.376
       229  -9.7002      6.2551     30.8507   1.2736590288e+02   6.8039998683e+01    0.2392726    0.1051862 -33.48  0.001247517    2.195    0.544
       230 -10.6888    198.4063     28.7237   6.3973363007e+01   3.1711983793e+01    0.3863584    0.2472519  46.15  0.001733561    1.554    0.357
       231 -10.0931    199.5252     24.9901   6.2679062613e+01   3.1837187206e+01    0.2673645    0.2156173  10.00 0.0009150496    1.346    0.257
       232  -9.4986     99.8031     30.3880   8.6374929791e+01   5.6250986147e+01    0.2118749    0.1266002  35.92 0.0009500763    1.671    0.402
       233 -11.4604    125.2320     26.9492   7.7493695745e+01   5.0956818998e+01    0.4700294    0.3603366 -57.96  0.001447846    1.728    0.421
       234 -10.3170    230.4581     27.0139   5.9494815163e+01   2.3875897546e+01    0.2109085    0.1298589 -22.55  0.001023796    1.577    0.366
       235 -10.2893    153.4233     25.1796   7.0362324880e+01   4.4005009408e+01    0.4995357    0.2535849  -5.82  0.001804017    2.695    0.629
       236  -9.6335    156.8149     25.1256   6.9674012712e+01   4.3117843141e+01    0.2493469    0.1914066  59.73 0.0003324019    1.274    0.215
       237 -11.5501    250.3580     23.9117   5.6691779869e+01   1.9595894175e+01    0.4413656    0.1671421 -25.06  0.001629353    2.388    0.581
       238 -12.1130    246.6348     21.0667   5.6316536086e+01   2.0723238009e+01    0.3368444    0.2927394 -74.81  0.001120691    1.197    0.165
       239 -11.1345    215.0694     23.4652   6.0257176675e+01   2.8029902003e+01    0.4299879     0.331574 -19.59  0.001035103    1.301    0.231
       240  -9.7422     59.9845     24.4078   9.9025881082e+01   6.4415459664e+01    0.2139207    0.1530034 -34.20 0.0004939613    1.243    0.195
       241  -9.3689    132.6395     23.3034   7.4186420459e+01   4.9597135223e+01    0.1504724     0.118345 -68.67 0.0004827119    1.725    0.420
       242  -9.6849     80.8486     19.3356   8.8111679937e+01   6.1747666281e+01    0.2516923    0.1203226  43.29  0.001087607    2.104    0.525
       243  -9.5407      9.4303    227.4326   1.4343904232e+02   2.7696330066e+01   0.09338188   0.06413451  62.56 5.989147e-05    1.004    0.004
       244 -10.1607    234.4960    222.5047   1.0289712272e+02  -1.2149247619e+00    0.1179234   0.08169848  19.68 0.0001362683    1.022    0.022
       245  -9.3846    152.5199    207.5284   1.1560733956e+02   1.3264922474e+01    0.1230747   0.09727374  37.47 0.0001686194    1.025    0.024
       246 -10.2015    238.5965    204.7300   9.9333851276e+01  -2.3916239012e-02    0.2042159    0.1028291 -20.71  0.001133246    2.106    0.525
       247 -10.2067      4.5409    204.7815   1.4352827018e+02   3.1792524395e+01    0.1710525   0.07508433 -78.41  0.001138223    2.111    0.526
       248 -11.5976    244.2738    199.0660   9.7407527154e+01  -2.9098901454e-01    0.2784438    0.2042128 -48.61  0.001626083    2.757    0.637
       249 -10.5933    233.9399    197.1544   9.8835260106e+01   1.5018410088e+00    0.2045858     0.156854  -5.09 0.0009682545    1.245    0.197
       250 -10.7700     38.6332     21.8317   1.0802473716e+02   6.7590676690e+01    0.3700085    0.1840068 -42.52  0.001877231    1.656    0.396
       251 -10.4781    246.4928    194.5075   9.6236453857e+01  -1.5057110777e-01    0.1225211   0.09066307  14.56 0.0008104459    1.028    0.027
       252  -9.5890    223.4933     22.4515   5.9009643702e+01   2.6046027534e+01    0.2220605    0.1831111 -11.39 0.0008889404    1.247    0.198
       253 -10.1048    221.0821     19.1182   5.8346407560e+01   2.6983490354e+01    0.1990119     0.198414  11.87 -0.0009232552    1.029    0.028
       254 -10.4630     66.2261     22.0013   9.5228827378e+01   6.3877084725e+01    0.2578409    0.2001335  16.63 0.0003184746    1.263    0.208
       255 -10.4564     17.0556    192.3990   1.4080998090e+02   3.2928774347e+01    0.1715961    0.1145348  78.58 0.0003690577    1.212    0.175
       256 -10.1913    141.8114     19.6141   7.0666079599e+01   4.7696052941e+01    0.3016034    0.1311104  56.13  0.001144238    2.082    0.520
       257  -9.3304      1.5089     20.5548   1.2721346823e+02   7.0413344094e+01    0.1182349   0.08574346 -50.11 0.0006282174    1.033    0.032
       258  -9.4231    169.0239    191.7701   1.1005135407e+02   1.2891139551e+01     0.172352   0.08886652  39.40 0.0004625284    1.594    0.373
       259 -12.2108      4.6241    184.6600   1.4279947911e+02   3.5324311461e+01    0.5052121    0.2849404  66.98  0.003666787    1.377    0.274
       260  -9.9689    240.0418    184.7748   9.5572624821e+01   1.9155377729e+00    0.1621159   0.08577498  37.38 0.0008704261    1.642    0.391
       261 -11.6191    249.9895    179.9900   9.3002296038e+01   8.6778684310e-01     0.302553    0.1696041 -22.41  0.001718748    1.732    0.423
       262 -10.2709     39.5291    173.5037   1.3524768241e+02   3.4419002149e+01    0.1101664   0.09009949  71.78 8.061234e-05    1.020    0.019
       263  -9.3219    170.7810     17.5644   6.4528251556e+01   4.0243936355e+01    0.1862803    0.1422308  81.13 0.0002592287    1.432    0.301
       264  -9.7342    198.2466    167.7567   1.0003309447e+02   1.1268588175e+01    0.1862175    0.1358728  11.31 0.0005879662    1.333    0.250
       265 -11.5529      9.7682    166.0169   1.4098164961e+02   3.8444551124e+01    0.4182939    0.2449388 -64.59  0.002846981    1.768    0.434
       266  -9.7469    145.3177     16.0948   6.8581577399e+01   4.7176409453e+01    0.2011196    0.1816931  -9.33 0.0002955931    1.135    0.119
       267 -10.0928    186.5226     15.0171   6.1336198413e+01   3.6301618152e+01    0.2821884    0.1796573  49.22 0.0007109785    1.506    0.336
       268 -11.9474     13.3269    157.2457   1.3976923793e+02   3.9907586583e+01    0.3828849    0.2363797  73.46  0.001205669    1.356    0.263
       269 -10.1392     18.9795    165.0558   1.3901816037e+02   3.7914640873e+01    0.1716801    0.1348108  76.77  0.000985664    1.015    0.014
       270 -10.2014    205.1480    163.4323   9.7846658600e+01   1.0623870088e+01    0.2238087    0.1801159 -12.24 0.0007018492    1.238    0.192
       271  -9.1199    188.5287    164.4739   1.0133545502e+02   1.3537521480e+01    0.1389205     0.115279  21.17 0.0008093105    1.022    0.021
       272 -10.3548     80.7908    160.2579   1.2472851395e+02   3.2339906819e+01    0.3164659    0.2224281  32.64   0.00187335    1.458    0.314
       273 -11.2337    104.6668    153.0081   1.1803012477e+02   3.0384628643e+01    0.4741064    0.3304439 -71.54  0.002580137    1.644    0.392
       274 -10.1797     74.5152    153.5070   1.2537003293e+02   3.4540984198e+01    0.2228672    0.1834941  88.84  0.001431918    1.173    0.148
       275 -10.3981     31.1187    153.7425   1.3559426563e+02   3.9165141928e+01    0.3306675    0.1889599  57.46  0.002030957    1.596    0.373
       276 -10.9176     30.6059    149.0897   1.3534353348e+02   4.0174533332e+01    0.2428439    0.1565148  64.22 0.0007410811    1.409    0.290
       277 -11.5012     62.2597    150.0108   1.2790398268e+02   3.6766580213e+01    0.4004225    0.3022253  78.37  0.001742041    1.275    0.215
       278 -11.8164     46.8672    145.9200   1.3118928371e+02   3.9308936567e+01     0.475313    0.2861553 -83.43  0.001944602    1.591    0.372
       279 -11.0478     16.8251    148.3177   1.3845116331e+02   4.1457205441e+01    0.3140048     0.134223  37.40  0.001792212    2.183    0.542
       280  -9.9777    224.9505    156.8851   9.2810541793e+01   7.9016981951e+00    0.3074054     0.141997  47.54  0.001352249    2.306    0.566
       281 -12.0837     22.8749    149.3858   1.3714798472e+02   4.0763016848e+01     0.376128    0.2594683 -29.91   0.00238454    2.236    0.553
       282 -11.8192      5.1738    147.4713   1.4100855084e+02   4.2458517284e+01    0.3178392    0.2601683  11.90  0.001796054    1.672    0.402
       283 -12.0349    249.7113    143.4815   8.5704183616e+01   5.1713708622e+00    0.6635835    0.1892774 -29.23  0.002469733    3.296    0.697
       284 -10.1862    240.2380    146.9564   8.8032117720e+01   6.4250090617e+00    0.1710808    0.1012848 -24.95 0.0006516572    1.614    0.380
       285  -9.7296    108.7781    146.1994   1.1592233936e+02   3.1118389024e+01    0.1713927    0.1540668  -0.52 0.0002123972    1.298    0.229
       286 -11.2847     48.3257    151.4417   1.3139506869e+02   3.7994524714e+01    0.3290534    0.2094734  21.17  0.001542269    1.968    0.492
       287 -10.7057     33.2197    144.3803   1.3433193110e+02   4.0933875589e+01    0.2233086    0.1796176  70.34 0.0007592268    1.093    0.085
       288 -11.3116      2.7981    141.6472   1.4122897813e+02   4.3803172782e+01    0.3086199    0.2485315  63.93  0.002201367    1.161    0.139
       289 -11.3906      3.9904    136.5273   1.4067173507e+02   4.4788427990e+01    0.2017217    0.1677831  76.28 0.0004290183    1.096    0.087
       290  -9.6962    133.5339    140.7552   1.0887307077e+02   2.7958135323e+01    0.2579218    0.1360038 -42.62  0.001095963    2.073    0.518
