#   1 NUMBER                 Running object number                                     
#   2 MAG_AUTO               Kron-like elliptical aperture magnitude                    [mag]
#   3 X_IMAGE                Object position along x                                    [pixel]
#   4 Y_IMAGE                Object position along y                                    [pixel]
#   5 X_WORLD                Barycenter position along world x axis                     [deg]
#   6 Y_WORLD                Barycenter position along world y axis                     [deg]
#   7 A_WORLD                Profile RMS along major axis (world units)                 [deg]
#   8 B_WORLD                Profile RMS along minor axis (world units)                 [deg]
#   9 THETA_WORLD            Position angle (CCW/world-x)                               [deg]
#  10 FWHM_WORLD             FWHM assuming a gaussian core                              [deg]
#  11 ELONGATION             A_IMAGE/B_IMAGE                                           
#  12 ELLIPTICITY            1 - B_IMAGE/A_IMAGE                                       
         1 -13.8745      3.1960      8.1838   1.1887008027e+02   7.2883333459e+01     2.245619    0.9168409 -45.72   0.01289252    1.848    0.459
         2 -13.8886    203.6357      9.9268   6.3466754007e+01   3.2675787292e+01      1.53528    0.7624873  51.21  0.001427247    2.122    0.529
         3 -14.4309    198.6996     17.2560   6.6013343571e+01   3.3145186817e+01     2.609642     1.590558  29.80  0.009946535    2.319    0.569
         4 -10.5894    166.0857    241.5538   1.2338927872e+02   3.3223556273e+00    0.3240403    0.1588123  29.84   0.00107341    2.264    0.558
         5 -10.2378    205.1737    249.8295   1.1768440482e+02  -3.8726084836e+00    0.1594822    0.1116226  19.29   0.00104168    1.312    0.238
         6  -9.6977    183.9916    250.3038   1.2139033715e+02  -6.6764964378e-01    0.1676181    0.1225063  34.22 0.0005794107    1.068    0.063
         7 -10.4274    152.5420    243.9653   1.2611766160e+02   5.1480478676e+00    0.2137175    0.1209979 -50.46  0.001251035    2.243    0.554
         8 -11.9381    136.1741    227.8401   1.2710493302e+02   1.0245920505e+01    0.4847782    0.3627253  -5.40  0.002774449    2.268    0.559
         9 -11.9076    145.8245    241.3755   1.2700600975e+02   6.5937859767e+00     0.466888    0.3606912  10.69 0.0008070436    1.767    0.434
        10 -11.6232    150.3844    248.0454   1.2699463060e+02   4.9087157010e+00    0.5658461    0.2038922  46.35  0.002689176    2.237    0.553
        11 -11.4438    135.7631    241.0548   1.2878086278e+02   8.2354342531e+00    0.2531529    0.2089631  58.07  0.001160516    1.117    0.105
        12 -12.1947    135.2772    236.7999   1.2836844212e+02   8.9672008225e+00    0.4150058    0.3315669 -60.49  0.001889804    1.527    0.345
        13 -11.1968    133.9303    249.3511   1.3004475547e+02   7.2806187923e+00    0.4732613    0.2005756  49.12   0.00246091    1.937    0.484
        14  -9.3098    108.5782    242.7768   1.3383546632e+02   1.2135798848e+01    0.1681088    0.1179932  54.65  0.000724631    1.119    0.106
        15 -11.9515    111.2564    248.3596   1.3391655276e+02   1.0858119645e+01    0.9149896    0.2853527  46.38  0.004266127    2.442    0.590
        16 -10.0270    122.9784    249.9838   1.3203230174e+02   8.8569088098e+00    0.2623791    0.1606385  52.83  0.001668201    1.322    0.244
        17 -10.0921    126.2601    248.8468   1.3133815687e+02   8.5298576323e+00    0.3103115    0.1482157  58.32  0.001597541    2.257    0.557
        18 -10.4951    121.5528    244.7160   1.3173141899e+02   9.8761395938e+00    0.3550333    0.1690585  54.33 0.0009981521    1.908    0.476
        19 -12.0575    126.4197    240.9203   1.3044876704e+02   9.7169356691e+00    0.3888183    0.3380042  60.26  0.001705694    1.121    0.108
        20 -10.1401    101.6949    243.3134   1.3510546870e+02   1.3062969142e+01    0.2646421     0.135573 -70.40  0.001502538    2.398    0.583
        21  -9.4215    100.7030    250.2984   1.3592946987e+02   1.2094344754e+01    0.1807892    0.1250323  64.02 0.0006568701    1.243    0.196
        22 -11.3306     98.1722    246.4997   1.3602051538e+02   1.3059731166e+01    0.4309008    0.2158026  46.47  0.002354874    1.548    0.354
        23 -10.3262     87.3783    250.5848   1.3823260881e+02   1.3926317183e+01    0.4749385    0.1384039  36.83  0.001941708    3.806    0.737
        24 -10.3886     88.0109    247.4796   1.3786318192e+02   1.4337834916e+01    0.3051539    0.1896159  31.94  0.001881172    1.967    0.492
        25 -11.1446     81.2908    246.4260   1.3892661606e+02   1.5434163355e+01    0.5218507     0.259668 -84.07  0.002925974    2.536    0.606
        26 -10.2620     83.6299    242.2322   1.3817253516e+02   1.5806714095e+01    0.3052848    0.2474338  12.43  0.002059464    2.132    0.531
        27 -10.2566     90.1216    236.2391   1.3649374380e+02   1.5905225270e+01    0.2927094     0.172066  66.53  0.001769373    1.626    0.385
        28  -9.4373     83.5073    238.4247   1.3786487504e+02   1.6463741801e+01    0.2403392    0.1196348  48.81 0.0009204378    1.572    0.364
        29  -9.6508     86.3080    237.2892   1.3726891961e+02   1.6265803793e+01    0.1704568    0.1388004  51.59 0.0003045578    1.201    0.167
        30  -9.4069     74.3676    250.5866   1.4042485495e+02   1.5684895529e+01    0.2630175   0.08855779  39.55  0.001297697    2.622    0.619
        31 -14.8016     28.9303    150.9578   1.4049326327e+02   4.0782344715e+01     4.542229     1.733548 -55.09    0.0196595    2.604    0.616
        32  -9.8485     93.7879    217.1648   1.3390695831e+02   1.8745340673e+01    0.3028323    0.1786148  87.88  0.001628211    2.084    0.520
        33 -11.0418     98.3914    231.1078   1.3449928212e+02   1.5583907610e+01    0.3410193     0.255567  87.04  0.001691061    1.364    0.267
        34 -10.5925    110.4102    222.4451   1.3132133547e+02   1.5268384643e+01    0.2785823    0.2324978 -43.26 0.0006714382    1.611    0.379
        35 -10.4491    105.1377    219.1859   1.3195499171e+02   1.6662149761e+01    0.2789828    0.1790809  82.52 0.0004055553    1.853    0.460
        36 -10.5822     92.6603    226.0117   1.3504165654e+02   1.7314437081e+01     0.322392    0.1768455  53.49 0.0008688059    1.516    0.340
        37 -12.0091     99.1175    223.2413   1.3354629196e+02   1.6851803996e+01    0.4693265    0.2726448  40.48  0.001221905    1.578    0.366
        38 -10.4533    115.7994    239.9641   1.3225597371e+02   1.1500358484e+01    0.2114481    0.1442062  54.88 0.0008268557    1.194    0.162
        39 -10.6338    143.8161    249.3323   1.2830349130e+02   5.7528314293e+00    0.2994347    0.1743998  58.43  0.001212013    1.789    0.441
        40 -10.5615    104.5107    237.8643   1.3406981547e+02   1.3539298733e+01    0.3713079    0.2431576  24.22  0.002117714    2.267    0.559
        41 -11.2810    128.7446    233.3669   1.2916031740e+02   1.0547693843e+01     0.325428    0.1814789  43.08  0.001823937    1.467    0.318
        42 -14.5055     27.6877    247.4933   1.4779932135e+02   2.1829640106e+01     1.096006    0.7881973  48.42   0.00696824    1.407    0.289
        43 -10.7315    165.8710    235.5983   1.2263456440e+02   4.1975867344e+00    0.2161426    0.1950604  75.43  0.001536976    1.345    0.257
        44 -10.8416    223.4536    244.5148   1.1381800276e+02  -6.0200758840e+00    0.2488077   0.09022144  39.59  0.001225807    2.220    0.549
        45 -10.7544    121.6946    232.9550   1.3041216613e+02   1.1725306242e+01    0.2952356    0.2290033  45.99 0.0005317866    1.114    0.102
        46 -10.9083    156.7665    231.4771   1.2374616549e+02   6.2978620596e+00    0.2083754    0.1929852  40.68  0.000285901    1.140    0.123
        47 -11.3024    141.9859    230.1624   1.2631377886e+02   8.9270413380e+00    0.3526871    0.2594872 -34.74  0.001773371    1.842    0.457
        48 -10.9148     73.8124    230.8658   1.3893258064e+02   1.9099624813e+01     0.295182    0.1766138  32.52  0.001743324    2.032    0.508
        49 -10.0663    180.9640    229.6444   1.1904824561e+02   2.5563678812e+00    0.1754566    0.1322968  36.19 0.0006769006    1.081    0.075
        50  -9.7313    164.2655    220.9580   1.2087313973e+02   6.6457321134e+00    0.2541834    0.1695027 -32.14  0.001444157    1.926    0.481
        51  -9.5096    150.7562    229.8083   1.2463671470e+02   7.5432815689e+00    0.2691047    0.1373843  49.77  0.001397792    1.737    0.424
        52 -10.9117     84.6418    229.6881   1.3687243223e+02   1.7814585929e+01    0.2512932    0.1968663  30.94  0.001016959    1.625    0.385
        53 -10.4045     73.6829    238.3893   1.3958376124e+02   1.7807991550e+01    0.2873225    0.1209821  64.82  0.001398146    2.690    0.628
        54 -10.0479    190.9051    228.0713   1.1701003939e+02   1.1290661514e+00    0.1795718    0.1482308  33.21 0.0003020119    1.042    0.041
        55 -10.5951    165.4768    227.3689   1.2156802876e+02   5.4669334979e+00    0.3413777     0.232094 -67.85  0.001422808    2.238    0.553
        56 -11.1561    132.6174    224.4966   1.2735280319e+02   1.1373980052e+01    0.2293693    0.2185729  -5.50 0.0009831695    1.341    0.254
        57 -10.8282    117.3546    224.3453   1.3022539197e+02   1.3850711592e+01    0.2171378    0.1857446  55.19  0.000325438    1.070    0.065
        58 -10.0753     79.5469    229.2153   1.3775433363e+02   1.8609071874e+01    0.1807447    0.1042527 -77.91 0.0008294865    1.857    0.461
        59  -9.9307     78.6542    224.6874   1.3750366945e+02   1.9543031359e+01    0.2122931     0.165628 -49.64  0.001426007    1.802    0.445
        60  -9.6346     77.6600    221.3168   1.3737363685e+02   2.0294461245e+01    0.2671793    0.1339856  55.90 0.0008291223    1.716    0.417
        61  -9.5688    160.2181    224.1238   1.2209020537e+02   6.8427412635e+00    0.1914191    0.1574627  25.54 0.0007671522    1.234    0.190
        62  -9.3354    155.9311    223.6608   1.2283149650e+02   7.6369165829e+00    0.1784444    0.1349587  45.89 0.0004217089    1.111    0.100
        63  -8.8619    220.2277    223.6113   1.1109476744e+02  -3.0594626243e+00    0.1001613   0.09479135 -69.13 0.0006889199    1.631    0.387
        64 -10.2898    149.9532    222.5023   1.2380097047e+02   8.8260030309e+00    0.2018749     0.192402  24.70  0.001414304    1.188    0.158
        65  -9.1945    149.5598    218.5528   1.2332622328e+02   9.5312371075e+00    0.1757451    0.1377125  67.94 0.0001016969    1.411    0.291
        66 -11.9962    142.1400    221.1524   1.2510423788e+02   1.0354621991e+01      0.35488    0.3045352 -60.45  0.002374852    1.377    0.274
        67 -11.2520    138.6490    213.9180   1.2479013627e+02   1.2157894293e+01    0.5574456    0.3159114  29.90  0.002164134    2.072    0.517
        68 -10.5464    246.9590    218.4848   1.0568887710e+02  -6.5852960297e+00    0.1827863   0.09830571  35.93  0.001042614    1.622    0.383
        69  -9.8549     89.0102    219.8050   1.3509448888e+02   1.8962655399e+01    0.2866228    0.1629917 -44.43   0.00149008    2.774    0.639
        70  -9.2642    101.2198    216.1896   1.3236859095e+02   1.7805351225e+01    0.1846246    0.1388492  72.98 0.0003118349    1.251    0.201
        71 -10.3197    102.1954    212.1744   1.3171589867e+02   1.8395139184e+01    0.3768203    0.2215527  59.93  0.002004438    1.618    0.382
        72  -9.8856    183.1248    214.1564   1.1627905848e+02   4.4369840422e+00    0.1684146    0.1408928  55.90 0.0004181835    1.323    0.244
        73 -10.8305     88.2327    213.0643   1.3453770111e+02   2.0325384658e+01    0.2454907    0.2208491  77.54  0.000420381    1.173    0.147
        74 -12.5865    131.8515    211.6165   1.2580661381e+02   1.3704466332e+01    0.3398878    0.2848969   9.90 0.0005461016    1.585    0.369
        75 -15.3510      5.8210    243.7185   1.5099536783e+02   2.4710131604e+01     1.477001    0.6300756 -82.42   0.00987598    2.038    0.509
        76  -9.5125    152.1636    211.9527   1.2187132823e+02   1.0174665644e+01    0.1906836    0.1569193  62.79 0.0005404205    1.253    0.202
        77 -13.0997     13.9949    239.0848   1.4953885727e+02   2.4690239415e+01    0.3523572    0.1943005  52.01   0.00130972    1.413    0.292
        78  -8.8607    197.9222    208.0247   1.1250463528e+02   2.7723096237e+00    0.1529859    0.1258418  30.20 0.0003725348    1.038    0.037
        79 -10.6808    174.4669    206.0912   1.1662595012e+02   7.2076476590e+00     0.356506    0.2754007  16.49  0.001176719    1.421    0.296
        80 -11.6844     93.0793    204.9506   1.3267783494e+02   2.1153474280e+01    0.6076459    0.3092624  49.08  0.001509453    1.700    0.412
        81 -11.8253    247.2415    205.7012   1.0339088654e+02  -5.1059991731e+00    0.4538884    0.2862717  24.80   0.00271334    1.409    0.290
        82  -9.7170    126.0044    205.8629   1.2617943729e+02   1.5719510601e+01    0.2003524    0.1505597  61.48 0.0004987173    1.257    0.204
        83  -9.9210    149.6821    204.3247   1.2121345431e+02   1.1908095637e+01    0.2633636    0.2089849   4.59  0.001070276    1.687    0.407
        84 -10.8499    103.1926    203.0914   1.3041705821e+02   1.9955694988e+01    0.3780232    0.2307793  56.46  0.001364429    1.495    0.331
        85 -10.5285    100.5031    198.4366   1.3037796283e+02   2.1281961742e+01    0.2808331     0.248434 -40.06  0.001773924    1.494    0.331
        86 -10.6265     99.1900    195.0579   1.3021592509e+02   2.2155604124e+01    0.3264369    0.2608559  -5.01 0.0003234809    2.120    0.528
        87  -9.8217     75.3953    203.5447   1.3604869487e+02   2.3989836090e+01    0.3353436    0.1912414  33.39  0.001694112    2.025    0.506
        88  -9.4746    224.9349    202.6491   1.0666593003e+02  -1.1024582197e+00    0.1754056    0.1350426  31.32 0.0004061194    1.160    0.138
        89  -9.5630    166.7121    203.2771   1.1767798958e+02   9.0526679274e+00    0.1944517    0.1461103  40.66  0.000167769    1.160    0.138
        90 -10.3314    169.7928    200.2570   1.1657596776e+02   8.9992711153e+00    0.2205354    0.1958072  26.46 0.0003578172    1.088    0.081
        91  -9.9016    133.0322    202.9576   1.2435243023e+02   1.5055183977e+01    0.1961294    0.1931041 -63.31 0.0003102551    1.193    0.162
        92 -10.5976    134.0928    197.8377   1.2338075202e+02   1.5812537369e+01    0.2997247    0.2208322 -85.59 0.0002927364    1.700    0.412
        93 -10.5242    197.1613    200.6517   1.1137307394e+02   4.0024246976e+00    0.3793703    0.2117844  50.10  0.001649782    1.876    0.467
        94  -9.9318    121.2828    200.1761   1.2634567097e+02   1.7568988003e+01    0.3797592    0.1759025  59.11   0.00155483    2.741    0.635
        95 -10.3511    115.3335    200.2259   1.2757023051e+02   1.8549400496e+01    0.2263562    0.2011049 -39.24 0.0002625276    1.431    0.301
        96  -9.2205    158.2685    242.0320   1.2485119564e+02   4.5098924403e+00    0.1556355    0.1363879  41.29 0.0004098703    1.108    0.097
        97  -9.1652    163.9837    206.2688   1.1869241862e+02   9.0442346693e+00    0.2528371    0.1720381 -84.89   0.00119806    2.687    0.628
        98 -10.0817     83.2494    193.4982   1.3333559469e+02   2.4881858910e+01    0.3535734    0.2325379  17.98 0.0007705254    2.648    0.622
        99  -9.2600     86.2654    199.2866   1.3339455998e+02   2.3277396823e+01    0.1710758    0.1434546  35.29 0.0001964382    1.410    0.291
       100  -9.6979     85.7741    195.9930   1.3310917259e+02   2.4007726809e+01    0.2351615    0.1674827 -74.87 0.0002073228    1.397    0.284
       101  -9.4003    192.1301    197.9425   1.1184782860e+02   5.3214181817e+00    0.1801874    0.1671999  48.07  0.001146747    1.202    0.168
       102 -12.0495     70.7099    194.5731   1.3604094005e+02   2.6432551348e+01    0.4480774    0.2932212 -47.84  0.001787242    2.043    0.511
       103 -12.0077     75.3830    187.9147   1.3432330856e+02   2.7155846488e+01    0.3112912    0.2821722  66.74 0.0006410109    1.172    0.146
       104  -9.2807    113.5313    195.7908   1.2733202758e+02   1.9701336582e+01    0.2975779    0.1364966  54.86  0.001291491    2.282    0.562
       105  -9.7788    112.9735    192.0355   1.2692102822e+02   2.0529770245e+01    0.2228902    0.2064732   0.33 0.0008413786    1.421    0.296
       106  -9.2909    107.3410    196.0518   1.2865331346e+02   2.0662004914e+01    0.1774531    0.1530136  87.23 0.0006036115    1.133    0.117
       107 -11.6440    249.8600    187.7306   9.9609051684e+01  -3.2452331481e+00    0.3761899    0.2036643 -22.70  0.001962453    1.841    0.457
       108 -10.8616    120.4529    193.4979   1.2556285146e+02   1.8986803052e+01    0.3633117    0.3287394  63.01  0.001751361    1.042    0.040
       109 -10.8910     38.6496    192.7164   1.4231010210e+02   3.0792465553e+01    0.2927157    0.1852765 -64.02  0.001854422    1.638    0.389
       110  -9.0616     42.4224    189.2228   1.4126032858e+02   3.1083164544e+01    0.1563056   0.09301172  89.20 0.0006602895    1.510    0.338
       111  -9.4986     46.3864    187.3126   1.4028422121e+02   3.1020059438e+01    0.3195995    0.2121382  20.26  0.001832262    2.364    0.577
       112 -13.0279     46.3792    228.5255   1.4359073457e+02   2.3001800912e+01    0.3905883    0.3237419 -81.25 0.0008078506    1.375    0.273
       113 -10.0547    173.0160    192.6395   1.1463849236e+02   9.6893923858e+00    0.3064438    0.2103786 -21.63  0.001065094    1.901    0.474
       114 -10.5072    191.2888    191.6119   1.1087442482e+02   6.4750412696e+00    0.3006603    0.2357039  19.64 0.0008042907    1.270    0.213
       115  -9.8344     47.2278    192.9601   1.4063018594e+02   2.9754917056e+01    0.1624201    0.1380963 -76.04 0.0005488204    1.294    0.227
       116  -9.5896    135.3545    190.4078   1.2197316045e+02   1.6985531091e+01    0.2174898     0.164661 -60.58 0.0004586724    1.459    0.315
       117  -9.2732     54.6100    188.8356   1.3874724574e+02   2.9710980236e+01     0.189921    0.1164991  48.51 0.0005125246    1.492    0.330
       118  -9.9741    175.8700    186.9640   1.1305862134e+02   1.0125313374e+01    0.2026715      0.18434  33.82 0.0004089539    1.013    0.013
       119  -9.4289     67.5425    186.8276   1.3584949323e+02   2.8459688146e+01     0.209517    0.1603557  23.66 0.0008051251    1.808    0.447
       120  -9.2320    154.5981    185.2377   1.1709381688e+02   1.4436162398e+01    0.1796247    0.1307537 -34.66 0.0006812903    1.616    0.381
       121 -10.4713    140.9199    183.7295   1.1970935014e+02   1.7256031939e+01     0.430988    0.2340936  58.08  0.001208197    2.147    0.534
       122  -9.2423     81.7358    184.0081   1.3249689047e+02   2.7062100657e+01    0.1740087    0.1443116  83.02 0.0002601962    1.069    0.064
       123  -9.4846     87.2316    183.3411   1.3122654260e+02   2.6388005064e+01    0.3921449    0.1909321  38.31  0.001862687    2.059    0.514
       124  -9.7106     37.6047    184.1620   1.4179066917e+02   3.2676226744e+01    0.2082275    0.1590124  42.33    0.0014193    1.452    0.311
       125  -9.4335    217.2149    183.1997   1.0441552011e+02   3.0224405678e+00    0.1916725    0.1598654  11.89 0.0003990196    1.095    0.087
       126 -10.3560    159.5662    194.0548   1.1758065028e+02   1.1926484025e+01    0.3128264    0.2092574  53.35  0.001027179    1.478    0.323
       127  -9.9657     65.9867    182.0003   1.3563530679e+02   2.9684242322e+01    0.1826226    0.1542801  76.88            0    1.036    0.035
       128 -10.8198    130.6558    180.0988   1.2130240124e+02   1.9834353276e+01    0.7542498    0.2188036  48.27  0.002476439    3.490    0.713
       129  -8.9323    135.3515    177.7166   1.1988260213e+02   1.9452817504e+01    0.1837276    0.1322712 -41.76 0.0004347994    1.591    0.371
       130  -9.6021    115.0000    179.9784   1.2469231859e+02   2.2614081279e+01    0.2658615    0.1889071 -80.26 0.0008045733    1.611    0.379
       131  -9.8153    115.2620    176.6589   1.2411169489e+02   2.3252465815e+01    0.2533192    0.1877709 -86.25 0.0005920419    1.527    0.345
       132  -9.7999    104.1394    180.8072   1.2719468531e+02   2.4262054219e+01    0.1925454    0.1578977  69.07 0.0003045684    1.127    0.113
       133  -9.7049    175.8596    179.9234   1.1176081848e+02   1.1351995808e+01    0.2080196    0.1803117   6.50  0.000424714    1.237    0.192
       134  -9.2906     48.1472    179.8345   1.3919746552e+02   3.2387014067e+01     0.179418    0.1294678  67.24 0.0005074007    1.203    0.169
       135  -8.3975     37.4811    180.4887   1.4148991697e+02   3.3461919904e+01    0.1207183   0.09230023  79.49 0.0001804373    1.042    0.040
       136 -10.5431    181.8455    177.1751   1.1003014284e+02   1.0676479980e+01    0.3700126    0.2213065  39.34  0.001776727    1.561    0.359
       137 -11.7093     84.4023    176.0135   1.3086975115e+02   2.8364613470e+01    0.4337776    0.3324632  65.47  0.001294099    1.197    0.165
       138 -10.5265     29.9715    177.3841   1.4277173117e+02   3.4916001747e+01    0.3404037    0.1410745  45.28  0.001287658    2.196    0.545
       139  -9.4567    109.2909    176.2338   1.2536785704e+02   2.4359264245e+01    0.2232368    0.1669675 -77.12 0.0006954613    1.413    0.292
       140  -9.9641     77.1896    175.7297   1.3243156685e+02   2.9478823624e+01    0.2046764    0.1597249 -80.31 0.0006059516    1.190    0.159
       141 -12.3266     70.7913    174.1533   1.3364863124e+02   3.0716710290e+01    0.3548733    0.3085876  17.20 0.0006181963    1.590    0.371
       142 -10.9833     68.9466    167.4536   1.3320550387e+02   3.2433410979e+01    0.3516588    0.2032425 -61.82  0.001858083    1.647    0.393
       143  -9.6723     95.6634    174.3061   1.2811621404e+02   2.6997496890e+01    0.3144242    0.2016723 -56.77  0.001657041    1.603    0.376
       144 -12.6648    248.5365    171.1314   9.6552817399e+01  -7.8107640446e-01    0.6943862    0.4966713  -8.66  0.004022899    1.344    0.256
       145 -11.2012    249.2333    149.6302   9.1947039036e+01   2.1810164053e+00    0.6068879    0.3716061 -46.26  0.003026253    1.917    0.478
       146 -12.3582    248.1265    101.5652   8.1232869544e+01   9.6941726200e+00    0.9343548    0.4529479 -31.79  0.004091111    1.882    0.469
       147 -11.5482    247.4874    123.0897   8.6330735647e+01   6.5169697774e+00    0.7652055     0.545306 -83.31   0.00359467    2.488    0.598
       148 -12.0214    248.4442    114.2029   8.4140542465e+01   7.6916546427e+00     0.836745    0.4394501 -37.80  0.003867305    1.719    0.418
       149 -12.4970    245.2023    163.3881   9.5517386360e+01   8.9969079600e-01     0.545546    0.4341918 -29.31  0.003191109    1.239    0.193
       150 -12.5461    244.6746    155.8929   9.4030559888e+01   2.0884963519e+00     1.321101    0.9341552 -69.09  0.006161151    2.823    0.646
       151 -12.3998    248.2441    134.5844   8.8808582485e+01   4.6153387952e+00    0.9042347     0.812546 -30.24  0.005418526    1.132    0.116
       152  -8.7909     42.2672    174.3271   1.3989995901e+02   3.4244803544e+01    0.1109759   0.08436586 -54.40 0.0003711553    1.573    0.364
       153  -9.5643    154.4950    172.7656   1.1486561055e+02   1.6804247563e+01    0.3239811    0.1807494  27.69  0.001070088    2.394    0.582
       154  -9.5268    139.0616    173.4839   1.1833456028e+02   1.9606104876e+01    0.2105219    0.1292168  45.26 0.0004397306    1.514    0.340
       155 -10.9036     80.7277    163.5562   1.2995300340e+02   3.1626841999e+01    0.2482769    0.2173952 -87.23 0.0002846216    1.046    0.044
       156 -10.0073     91.1416    172.8036   1.2891253729e+02   2.8029191412e+01    0.2658506    0.1973981 -49.94 0.0008320747    1.530    0.346
       157 -12.5743     89.8630    167.0822   1.2836039525e+02   2.9469022374e+01    0.6958091     0.647491 -78.83  0.003030394    1.138    0.121
       158  -9.8688     84.9955    165.2399   1.2920936268e+02   3.0618322530e+01    0.2243138    0.1790712  58.35 0.0002842883    1.180    0.152
       159  -9.1881    183.5093    171.4724   1.0857997216e+02   1.1350326346e+01    0.1408177    0.1294152  26.03 5.301845e-05    1.010    0.010
       160  -8.5186    132.7037    171.2971   1.1934462741e+02   2.1231001944e+01    0.1399873    0.1050574  76.01 0.0002849867    1.568    0.362
       161  -9.3033    100.6287    170.7855   1.2646588283e+02   2.6951588901e+01    0.1828625    0.1223549 -73.64 0.0009348266    1.586    0.370
       162  -8.8613    167.2057    169.9837   1.1164053594e+02   1.4843305447e+01    0.1825431    0.1143872 -44.43 0.0008585197    1.706    0.414
       163 -10.9943     44.1429    168.7956   1.3892749862e+02   3.5232329619e+01    0.3244253    0.2350852 -62.20  0.001491529    1.414    0.293
       164 -10.6307     47.6915    168.3210   1.3809234598e+02   3.4927630290e+01    0.2953772    0.1906378 -87.18  0.000878926    1.396    0.283
       165 -13.8761     45.6931    247.9355   1.4496061478e+02   1.9714584881e+01     1.868216    0.7830008  35.63   0.01040414    2.650    0.623
       166  -8.5700    113.3364    169.6736   1.2340662165e+02   2.5047249621e+01    0.1462846    0.1007045  74.49 0.0007051627    1.722    0.419
       167  -9.6178    107.3258    168.2167   1.2453364865e+02   2.6387882592e+01    0.2163464    0.1762054  39.57 0.0004180488    1.280    0.219
       168  -9.5133     58.4213    167.7975   1.3563327162e+02   3.3738786677e+01    0.2023418    0.1482454  61.82 0.0005962379    1.263    0.208
       169  -9.4062    175.9440    166.4469   1.0911859261e+02   1.3757767253e+01    0.1953832    0.1221355  66.18 0.0004643134    2.390    0.582
       170  -9.5211    136.3417    165.8430   1.1754641852e+02   2.1662090794e+01     0.246064    0.1850483  67.84 0.0009630593    1.479    0.324
       171 -11.5181    248.3128    141.3040   9.0285149654e+01   3.5888480126e+00    0.9220104    0.3309269  38.78  0.003421184    3.279    0.695
       172  -9.7066     47.0049    163.2795   1.3768584064e+02   3.6117936635e+01    0.1689248    0.1377954  73.23 0.0003530282    1.097    0.088
       173 -10.2771     37.0737    162.8434   1.3987482941e+02   3.7315933426e+01    0.1894329    0.1343348  74.17 0.0006330985    1.252    0.201
       174 -10.2765    123.2683    160.7955   1.1958479963e+02   2.5157781276e+01    0.2220358    0.2157477  -6.56  0.000224223    1.192    0.161
       175 -11.4512     73.4454    158.3824   1.3091218497e+02   3.3830341616e+01     0.454697    0.3297162 -86.85  0.001208067    1.339    0.253
       176 -10.0430     79.0376    158.9539   1.2967059072e+02   3.2900342556e+01    0.2000206    0.1733119  83.55 0.0003935584    1.026    0.025
       177 -10.9840     96.1699    158.9413   1.2560616063e+02   3.0261041414e+01    0.3765477    0.2591797 -55.07  0.001980832    1.467    0.319
       178  -9.2771     52.5173    158.4892   1.3585236330e+02   3.6535896028e+01    0.1266643    0.1062852 -89.69 2.624859e-05    1.020    0.019
       179 -12.6544     41.9569    236.7352   1.4488430713e+02   2.2064663914e+01    0.5081923    0.2230668  54.67  0.001069943    1.743    0.426
       180  -9.2833     89.0053    156.7887   1.2696011695e+02   3.1880149658e+01    0.1864741    0.1677477  71.37            0    1.056    0.053
       181 -11.3474    133.5388    141.6730   1.1337093212e+02   2.7288392006e+01    0.7768407    0.3198324 -51.97  0.002835118    2.550    0.608
       182 -10.2386    132.1222    152.3360   1.1591103368e+02   2.5288050628e+01    0.2512786    0.2224205 -82.79 0.0003626544    1.181    0.153
       183 -12.0971     14.1720    154.3111   1.4417788935e+02   4.1375306050e+01    0.3114708    0.2336053 -71.63  0.001555501    1.230    0.187
       184  -9.0286    228.3599    155.2554   9.6679995474e+01   5.2396075365e+00    0.1872963    0.1212043 -40.28 0.0004884602    1.595    0.373
       185 -13.4693     20.1302    232.6294   1.4824796838e+02   2.5187482815e+01     0.809494    0.4789907 -79.80  0.004451271    1.559    0.358
       186  -9.7738     61.9458    152.8199   1.3287109240e+02   3.6639934114e+01    0.3225251    0.1666137 -71.96 0.0009769376    1.849    0.459
       187 -10.6213    112.7469    152.3494   1.2049353581e+02   2.8891855737e+01     0.343607    0.2818743  60.37 0.0006976734    1.195    0.163
       188  -9.9550     95.8397    152.8149   1.2465158935e+02   3.1679787867e+01    0.2578316    0.2103164 -10.83  0.000847306    1.805    0.446
       189 -10.8526    102.2158    151.0677   1.2279730307e+02   3.1009799253e+01     0.348487    0.3274871 -88.23  0.001341111    1.044    0.042
       190 -10.0945    104.9674    146.0471   1.2119718318e+02   3.1660977305e+01     0.290158    0.2415629 -59.88  0.001602143    1.180    0.153
       191  -8.7607    119.7044    151.3202   1.1863681514e+02   2.7853545170e+01    0.1464397     0.109162  81.46 0.0002517677    1.614    0.380
       192 -10.6287     90.7213    150.2180   1.2545201716e+02   3.3087966196e+01     0.226894    0.2112128 -74.61 0.0003314836    1.095    0.087
       193 -11.4412     56.1358    150.3352   1.3393389108e+02   3.7938456098e+01    0.5201235    0.3548142 -56.82  0.002089877    1.454    0.312
       194  -9.6661     53.2721    146.5954   1.3412213338e+02   3.9140363520e+01    0.2109398     0.168135 -76.43 0.0004713833    1.089    0.082
       195 -11.8628     58.7866    133.4133   1.3075799691e+02   4.1506279701e+01    0.3806383    0.3391979  63.15  0.001985586    1.169    0.145
       196 -12.3233     72.9485    138.5289   1.2792192485e+02   3.8433164205e+01    0.9041908    0.5159894  50.21    0.0027428    1.835    0.455
       197 -10.5309     67.0055    147.7587   1.3090055078e+02   3.7127133686e+01    0.2282792    0.1877121  58.59 0.0003879833    1.208    0.172
       198 -13.0691     67.2456    143.5841   1.3019863714e+02   3.8053152083e+01    0.8364474    0.4697311  64.18   0.00323064    2.163    0.538
       199  -9.2652    141.7096    147.9693   1.1279156985e+02   2.4319516863e+01    0.3023269    0.1915522  17.60  0.001174667    2.678    0.627
       200 -12.4919      2.3566    111.8199   1.4292047939e+02   5.1684078891e+01     1.009717    0.1620065 -75.54  0.002818864    6.573    0.848
       201 -12.7936      3.0178    138.9955   1.4540302378e+02   4.5600843111e+01    0.9880715     0.380519  59.58  0.004744546    2.929    0.659
       202 -15.0283     11.4223    208.8130   1.4845880116e+02   3.0426720498e+01     2.203569     1.192511 -82.01   0.01488222    1.543    0.352
       203 -10.0673     53.8224    140.1213   1.3306768121e+02   4.0561717699e+01    0.1966671    0.1516562  82.66 0.0007430261    1.236    0.191
       204 -14.8569     54.8654    217.4001   1.4124618523e+02   2.4020004300e+01     2.043937     1.729844  64.49   0.01540997    1.206    0.171
       205 -10.5900    173.2644    239.9612   1.2189252557e+02   2.3859066817e+00    0.2485445     0.201539 -69.35 0.0009335912    1.762    0.432
       206 -11.3974     96.2952    239.2057   1.3567087893e+02   1.4520741379e+01    0.4251507     0.312428  86.87  0.002030872    1.400    0.286
       207  -9.8609    119.0481    138.4270   1.1619655680e+02   3.0808145194e+01    0.2240082    0.1993774 -41.89  0.000381905    1.195    0.164
       208 -10.9097    112.6889    136.3473   1.1734405464e+02   3.2455726189e+01    0.4912127    0.3136872  46.11  0.001618293    1.571    0.364
       209  -9.3535     92.5107    231.9547   1.3565664703e+02   1.6296491499e+01    0.2584189    0.1067536 -60.61  0.001277208    2.712    0.631
       210  -9.8813    134.4793    155.5475   1.1600177669e+02   2.4154425987e+01    0.2647309     0.210728 -54.96 0.0005780234    1.296    0.228
       211 -12.4696     45.8356    131.6382   1.3388288668e+02   4.3444106772e+01    0.5884117    0.4038535  61.19  0.003310212    1.541    0.351
       212  -9.3310    106.9820    129.9747   1.1744755399e+02   3.4927760413e+01    0.2346532    0.1705069  74.50 0.0006197117    1.692    0.409
       213 -11.9933     66.5913    127.8977   1.2774674496e+02   4.1777597530e+01    0.4986574    0.4090948  73.84  0.001628771    1.248    0.199
       214  -9.6641    117.6265    129.1242   1.1453587046e+02   3.3142683916e+01    0.2188395    0.1322594 -40.51 0.0009445728    1.802    0.445
       215 -12.6061     30.4516    126.6945   1.3723487336e+02   4.6149865508e+01     0.591406    0.2383177  33.24  0.002845875    2.724    0.633
       216  -8.6706     93.2835    127.6621   1.2054685083e+02   3.7825571069e+01     0.145352    0.1072752  85.63 0.0004698658    1.627    0.385
       217  -9.6523     85.7878    126.7618   1.2236300284e+02   3.9243546250e+01    0.2525113    0.2096247  -0.53  0.001320484    1.632    0.387
       218 -12.5105      9.1990    125.9064   1.4265045638e+02   4.8073018964e+01     0.336781    0.2274356 -74.77  0.002214652    1.152    0.132
       219 -10.3997    209.7891    125.7956   9.3337287770e+01   1.3942884889e+01    0.2627233    0.2362971 -19.06 0.0004817497    1.074    0.069
       220 -11.5348     37.8617    123.5596   1.3481356808e+02   4.6156374756e+01    0.4137485    0.2365124 -50.54  0.002192319    1.721    0.419
       221  -8.5548    114.6774    123.2549   1.1396017453e+02   3.5012817554e+01    0.1459912    0.1134067  77.44 0.0001995667    1.543    0.352
       222  -9.9860     50.1875    122.8850   1.3134670915e+02   4.4987767741e+01    0.2077485    0.1581521  84.83  0.001163958    1.332    0.249
       223 -11.5405     12.9558    120.5024   1.4107785038e+02   4.9018442559e+01    0.1997496    0.1624558 -44.54  0.001392212    1.429    0.300
       224  -9.6859    238.6848    121.9255   8.7445337724e+01   8.4639603384e+00    0.2292204    0.1648427 -12.43  0.001160327    1.500    0.334
       225 -11.9670     20.7457    120.8215   1.3904625269e+02   4.8342009954e+01    0.3322432    0.2266346 -39.22  0.002026844    1.775    0.437
       226  -8.4329    130.6770    119.2630   1.0892909826e+02   3.2711505706e+01    0.1496787    0.1184611  81.97 0.0002469856    1.558    0.358
       227 -12.0651     31.3109    117.4315   1.3570198000e+02   4.8203414549e+01    0.4131323    0.2769691 -50.43  0.001774344    1.466    0.318
       228 -11.0109    168.1732    113.4164   9.8619655430e+01   2.5658869317e+01     0.379788    0.3084221 -74.17 0.0008841216    1.501    0.334
       229  -9.3649     72.8137    115.1395   1.2357012681e+02   4.3885045194e+01    0.1808146    0.1568019 -29.21 0.0003412672    1.333    0.250
       230  -8.9686     82.1765    114.3761   1.2075880614e+02   4.2667867906e+01    0.1830772    0.1278637  51.74 0.0001185228    1.561    0.359
       231 -11.9107      2.2355    144.4645   1.4603748437e+02   4.4458212294e+01    0.4289494    0.2382199 -85.43  0.002654921    1.415    0.293
       232  -9.3253    203.6594    111.6647   9.1000421306e+01   1.7787216783e+01    0.1582492      0.11634  11.95 0.0007051009    1.757    0.431
       233 -10.1807     69.9231    111.1421   1.2356233897e+02   4.5219327424e+01    0.2031114    0.1738348  83.44 0.0003016893    1.238    0.192
       234 -11.4793     57.3585    110.6173   1.2710382072e+02   4.6991121757e+01    0.4715405    0.2752427  24.48   0.00232007    2.190    0.543
       235 -10.6764     31.8656    110.9326   1.3455278680e+02   4.9650824570e+01    0.1911079    0.1878032  44.13 0.0008774024    1.252    0.201
       236 -10.2476     62.5815    106.7874   1.2479252643e+02   4.7216687974e+01    0.2749346    0.1111734 -54.86  0.001141798    2.120    0.528
       237 -10.3885    134.5802    105.2835   1.0436569235e+02   3.4866334402e+01     0.387045    0.1476529 -41.72  0.001300041    2.637    0.621
       238 -10.6106     28.3224    106.1421   1.3481780226e+02   5.1068996383e+01    0.1900959     0.165552 -26.15 0.0006339112    1.396    0.284
       239  -8.7998    106.1696    103.1132   1.1131201810e+02   4.1100155968e+01    0.1900862    0.1670841 -89.18 0.0002327695    1.267    0.211
       240 -12.0895    109.7434    230.3926   1.3233384447e+02   1.4001132999e+01    0.8267357    0.2911854  44.84  0.002534816    2.267    0.559
       241  -9.8383     62.8190     99.8912   1.2322415746e+02   4.8771583394e+01    0.2112447    0.1683652 -41.74 0.0004836765    1.244    0.196
       242  -8.9393    137.0110     94.2538   1.0071388891e+02   3.6604900438e+01    0.1936286    0.1324493  47.66 0.0003687386    1.482    0.325
       243 -10.5360     46.9844     90.0343   1.2598566890e+02   5.2923122962e+01    0.3270266     0.188673  17.04  0.001235861    2.364    0.577
       244 -12.7931      2.2941    131.4118   1.4490554824e+02   4.7324283914e+01     0.879898    0.2872624 -84.55  0.003732531    3.042    0.671
       245 -10.2113    199.8285    246.0440   1.1806609358e+02  -2.6056878990e+00     0.167124    0.1371163  44.89 0.0004910792    1.305    0.234
       246 -12.5440    248.9077    240.1251   1.0894078652e+02  -9.2323117317e+00    0.4911466    0.3478411  -9.84  0.003518283    1.351    0.260
