#   1 NUMBER                 Running object number                                     
#   2 MAG_AUTO               Kron-like elliptical aperture magnitude                    [mag]
#   3 X_IMAGE                Object position along x                                    [pixel]
#   4 Y_IMAGE                Object position along y                                    [pixel]
#   5 X_WORLD                Barycenter position along world x axis                     [deg]
#   6 Y_WORLD                Barycenter position along world y axis                     [deg]
#   7 A_WORLD                Profile RMS along major axis (world units)                 [deg]
#   8 B_WORLD                Profile RMS along minor axis (world units)                 [deg]
#   9 THETA_WORLD            Position angle (CCW/world-x)                               [deg]
#  10 FWHM_WORLD             FWHM assuming a gaussian core                              [deg]
#  11 ELONGATION             A_IMAGE/B_IMAGE                                           
#  12 ELLIPTICITY            1 - B_IMAGE/A_IMAGE                                       
         1 -13.4585    212.3606     28.4390   1.5307026908e+01   2.9851913266e+01    0.8322878     0.653586 -40.54  0.004419916    1.135    0.119
         2 -10.1793     60.8114     21.2816   3.7450943908e+01   6.7591373919e+01    0.2209094    0.1741783  76.40 0.0007009245    1.412    0.292
         3 -14.1731    245.8582    238.3031   5.2394741983e+01  -2.4234031078e+00     1.637519    0.5308189 -30.53  0.009526134    2.545    0.607
         4 -14.0700    122.0095    232.9821   7.3815982813e+01   1.1087985248e+01     5.816143     4.465369 -78.27   0.03694407    2.013    0.503
         5 -10.7596     61.5662    202.4514   8.4939371390e+01   2.4173542086e+01    0.1358653    0.1112217  46.21 0.0001865873    1.080    0.074
         6  -9.3738     51.2057    202.2876   8.7640422312e+01   2.5377577988e+01    0.1126696   0.09600117 -38.26 0.0002996758    1.426    0.299
         7 -18.5484     24.0813    121.4243   8.8434169976e+01   4.9039841853e+01      18.5992     3.308047 -77.20   0.04155056    6.539    0.847
         8  -9.7806    210.9599    198.6675   5.1732990562e+01   5.7289770752e+00    0.1539752    0.1189995   2.36 0.0004693277    1.117    0.105
         9 -12.9038     82.2715    194.6382   7.8694603106e+01   2.3340380021e+01    0.3649052    0.2987036  50.96  0.000595426    1.193    0.162
        10  -9.9344     56.3813    193.3761   8.5474519502e+01   2.6802394751e+01    0.2226867    0.1174599 -60.62  0.001048459    2.042    0.510
        11 -10.9861      3.5266    191.5818   9.9792570514e+01   3.2283825225e+01     0.122014     0.111505  55.39  0.000734251    1.140    0.123
        12 -10.6762     51.1523    186.0722   8.6234880621e+01   2.9103177871e+01    0.2106942    0.1665426  51.31  0.000733038    1.137    0.121
        13  -8.9609     51.5091    180.8856   8.5634270913e+01   3.0304229050e+01    0.4565694     0.183442  83.88  0.001134995    4.830    0.793
        14  99.0000     48.1011    228.0563   9.0280790196e+01   2.0314151679e+01     0.284101     0.211446 -32.80  0.001742659    1.793    0.442
        15  -9.8459     74.1488    180.9494   7.9216465950e+01   2.7486583053e+01    0.3793559    0.1924876 -71.41 0.0009369135    2.297    0.565
        16  -9.4087     56.2443    182.0961   8.4400744153e+01   2.9458931474e+01     0.183446    0.1365591  60.58 0.0004331191    1.314    0.239
        17 -11.6764     61.8339    179.2731   8.2498580615e+01   2.9457749683e+01    0.4235391    0.2834079 -27.83  0.001404434    2.027    0.507
        18 -11.7732    173.2991    176.2259   5.4595518765e+01   1.3985042062e+01    0.5706018    0.3689619 -46.04  0.001890145    1.650    0.394
        19 -11.7582    179.3179    169.0275   5.2115613505e+01   1.4330317181e+01    0.5207246    0.4109417 -31.68  0.003220793    1.176    0.150
        20 -13.4190    113.4054    170.3318   6.7047701612e+01   2.4224398352e+01     1.005368     0.676741  72.17  0.004447757    2.378    0.579
        21 -12.1851    234.1760    168.6856   4.3051688080e+01   7.0931562571e+00    0.3328802    0.1773884 -43.08  0.001544041    1.977    0.494
        22 -11.1483      1.4376    177.2291   9.9917356206e+01   3.5877908253e+01     0.155393    0.1167871  87.20 0.0004308445    1.263    0.208
        23 -10.5580     54.3650    166.2721   8.3216081805e+01   3.3585619303e+01    0.5302269     0.177017 -55.25  0.001873767    3.023    0.669
        24 -10.4568     48.0130    164.0847   8.4927775207e+01   3.4901483715e+01    0.2123442    0.1891236  51.72 0.0003206776    1.027    0.026
        25 -15.8925     68.6979    143.8384   7.5512128272e+01   3.7471664521e+01     2.520482     2.031167  71.96   0.01215671    1.308    0.235
        26 -12.1739    139.5832    172.2642   6.1021858850e+01   1.9755441430e+01     0.282504    0.2406006   0.88 0.0006186894    1.143    0.125
        27 -10.3760    138.9542    155.6072   5.8024868640e+01   2.3199297736e+01    0.2394832    0.1973536 -51.42  0.000441455    1.282    0.220
        28 -11.2148    112.5359    150.8738   6.3728925630e+01   2.8704478379e+01    0.4923275    0.3190781  82.03  0.001887867    2.903    0.656
        29 -11.5980    108.8947    145.3315   6.3622330904e+01   3.0606046581e+01    0.3213625    0.3087002 -37.26 0.0006587672    1.051    0.049
        30 -12.3852     91.8812    148.7671   6.9160744044e+01   3.2638619872e+01    0.5087494    0.4075299 -60.98  0.000618436    1.286    0.222
        31 -13.0155     97.3123    142.9967   6.6457873791e+01   3.3146724951e+01    0.8411314    0.5141241 -38.70  0.003377939    1.878    0.467
        32 -11.7192    133.5801    145.6992   5.7285533033e+01   2.6190207493e+01    0.9107985    0.2787834 -52.84  0.002750952    3.911    0.744
        33  -9.0286    114.2824    146.2701   6.2342862587e+01   2.9455057922e+01    0.1434171    0.1144178 -11.07 0.0001756538    1.495    0.331
        34 -11.3849    106.2404    138.7392   6.3008862701e+01   3.2620341157e+01    0.3987505    0.2785327  74.71  0.001237893    2.060    0.515
        35 -12.2072    106.4592    131.3063   6.1336451621e+01   3.4346434360e+01     0.567104    0.4831959 -79.30  0.002602972    1.310    0.237
        36 -11.8294     96.9787    130.7144   6.4004712944e+01   3.6209390090e+01    0.3001156    0.2832989 -10.74 0.0003516977    1.140    0.123
        37 -11.3551    133.9099    128.7387   5.3450316366e+01   2.9750267421e+01    0.4989615    0.3576092  76.30  0.001604039    2.123    0.529
        38 -10.2698    115.1874    125.5098   5.7548142951e+01   3.4064567828e+01    0.2436436    0.2064269 -21.52 0.0006062291    1.322    0.244
        39 -10.8463    160.8613    117.8510   4.4855502398e+01   2.6735283925e+01    0.2273506    0.1728296 -71.28 0.0004670396    1.722    0.419
        40 -10.6156    103.2417    120.3575   5.9739728850e+01   3.7569887179e+01    0.2952423    0.2382342 -11.55 0.0006723225    1.567    0.362
        41  -9.7687    110.5264    115.4918   5.6409410613e+01   3.7298476610e+01    0.1538686     0.150446 -65.42 0.0001572642    1.002    0.002
        42 -11.3582    117.6512    109.2447   5.2802428724e+01   3.7279765481e+01    0.3042805    0.2773958  34.57  0.001583237    1.154    0.134
        43  -9.9576    134.3244    105.6532   4.7580249187e+01   3.4559677341e+01    0.1578624     0.119035 -79.92 0.0007049871    1.744    0.427
        44 -11.7036    119.6370    104.6355   5.1027706164e+01   3.7889646151e+01    0.3123066    0.2799083 -77.75  0.001606336    1.181    0.153
        45 -11.8161    112.7426     99.6286   5.1531330099e+01   4.0470107057e+01    0.4812968    0.3329546  71.05  0.001740497    1.905    0.475
        46 -10.4547    106.6521     95.3444   5.2055697040e+01   4.2741993458e+01    0.3212152    0.2440633  85.47 0.0007585654    1.693    0.409
        47 -10.8772    130.2752     91.9551   4.4743019534e+01   3.8263216542e+01    0.3837324    0.2640494 -85.12   0.00131244    2.174    0.540
        48  -9.8613     67.7737    213.9797   8.4411140567e+01   2.1015754641e+01    0.1516081    0.1364519  49.14 0.0002216331    1.097    0.088
        49 -10.7838     90.2663    221.9958   7.9746626348e+01   1.6795414164e+01    0.2402874    0.2221082 -33.04 0.0009520114    1.254    0.202
        50 -10.0020     92.9076     85.1829   5.3253611446e+01   4.8020289095e+01    0.2494622    0.2061949  78.56  0.001182869    1.367    0.269
        51 -11.2072     82.8441     83.7883   5.6288169856e+01   5.0465757010e+01     0.347731    0.2616785  60.30 0.0008231445    1.448    0.309
        52 -10.8687     77.0088     81.0504   5.7566486704e+01   5.2305599733e+01    0.2295956    0.2240749 -89.80 0.0003038646    1.008    0.008
        53 -11.9705     89.4668    215.5015   7.9252762609e+01   1.8136426307e+01    0.4756508    0.2873108 -63.43  0.002203549    1.964    0.491
        54 -12.7749    171.9948     67.1769   2.9611795987e+01   3.3276849727e+01    0.4444815    0.3917648 -45.98 0.0008165016    1.050    0.047
        55 -13.4929    188.1217     54.0516   2.3960046070e+01   3.1679344358e+01    0.9913189     0.830848  13.76  0.003764879    1.634    0.388
        56 -11.9411    194.1329     48.4040   2.1833663810e+01   3.1161906833e+01    0.3520153     0.296289  37.56 0.0009448501    1.576    0.365
        57 -10.0327    137.5380     55.9782   3.1925120989e+01   4.3146962741e+01    0.2886755     0.198437 -86.93  0.001235903    1.709    0.415
        58 -11.4849     53.6997    230.5191   8.9118100034e+01   1.9256627322e+01    0.2500117    0.1410006 -73.04  0.001397835    2.102    0.524
        59 -10.0454     61.2289     27.3283   4.0792231456e+01   6.6608755171e+01    0.2096396    0.1301924  62.97  0.000812431    1.735    0.424
