#   1 NUMBER                 Running object number                                     
#   2 MAG_AUTO               Kron-like elliptical aperture magnitude                    [mag]
#   3 X_IMAGE                Object position along x                                    [pixel]
#   4 Y_IMAGE                Object position along y                                    [pixel]
#   5 X_WORLD                Barycenter position along world x axis                     [deg]
#   6 Y_WORLD                Barycenter position along world y axis                     [deg]
#   7 A_WORLD                Profile RMS along major axis (world units)                 [deg]
#   8 B_WORLD                Profile RMS along minor axis (world units)                 [deg]
#   9 THETA_WORLD            Position angle (CCW/world-x)                               [deg]
#  10 FWHM_WORLD             FWHM assuming a gaussian core                              [deg]
#  11 ELONGATION             A_IMAGE/B_IMAGE                                           
#  12 ELLIPTICITY            1 - B_IMAGE/A_IMAGE                                       
         1 -10.8944    110.4907     40.1038   1.8071466829e+01   5.1780498433e+01     1.004737    0.7466909 -11.61  0.004970492    1.765    0.433
         2 -11.1841     88.4879     54.4253   2.9874796380e+01   5.4693323382e+01    0.6982762    0.2672899 -30.25  0.002055671    4.382    0.772
         3 -11.9576    104.7381     12.8908   9.1680087480e+00   5.6590285431e+01    0.4718094    0.3585006  -7.57  0.002263895    1.659    0.397
         4 -12.6365    105.8931     19.9836   1.1668962349e+01   5.5539163975e+01    0.3775183    0.3104068 -75.19 0.0004400515    1.325    0.246
         5 -12.2848    113.2767     25.0331   1.1925984793e+01   5.3081961389e+01      1.00501    0.3363475  51.41  0.003656604    2.662    0.624
         6 -11.3743    121.1139      6.7492   3.8495845849e+00   5.3008732919e+01    0.4609795    0.2684849  55.46  0.002332958    1.554    0.356
         7 -11.6277    114.3211      2.3815   3.3727425979e+00   5.5128656149e+01    0.5584008    0.2836931  84.78  0.001810769    2.029    0.507
         8 -11.0555    121.6325     11.6971   5.5090189839e+00   5.2404578589e+01    0.5311106    0.2112883  72.65  0.002109782    2.329    0.571
         9 -12.1327    143.5002     25.1338   6.4131600829e+00   4.5338355863e+01      1.02228    0.7331243  65.50  0.005524735    1.259    0.206
        10 -11.6946    135.3085     15.0491   4.4595290291e+00   4.8556520346e+01    0.4830296    0.4547645   4.72   0.00302624    1.334    0.250
        11 -12.0048    127.9559     14.8822   5.5570405120e+00   5.0459404592e+01     0.601797    0.4176322 -29.11  0.001901018    1.656    0.396
        12 -12.2979     58.3876     29.1314   3.1193918009e+01   6.5267795638e+01    0.6977486    0.3699626 -25.30 0.0004824229    2.378    0.579
        13 -11.4500     20.3294     21.9149   4.9280494765e+01   7.2497109148e+01    0.5236891    0.3103898 -33.71  0.001844593    1.627    0.386
        14 -12.6084    162.3948     28.5602   4.7326044523e+00   4.0168185643e+01    0.7484227    0.4537718  56.16   0.00376353    1.670    0.401
        15 -10.2924    154.8204     19.7291   3.1865192681e+00   4.3093563745e+01    0.6516272    0.3698825  40.95  0.002977553    2.397    0.583
        16 -11.6200     36.4006     18.1409   3.6960552506e+01   7.0892434348e+01    0.5981657    0.4364736 -36.97   0.00247362    1.484    0.326
        17 -12.3800     48.8883     12.7912   2.7352286632e+01   6.9416952008e+01    0.6494197    0.2632725  47.21  0.002838652    2.177    0.541
        18 -11.7752    242.2692     15.0111   3.5456367666e+02   2.4147557568e+01    0.2338459    0.1840851 -53.05 0.0002395895    1.164    0.141
        19 -12.3631    237.7652     16.5313   3.5512342613e+02   2.4835513460e+01    0.3884983    0.2995896  43.28  0.002605389    2.051    0.512
        20 -11.8155    164.7425     17.9867   1.4883519724e+00   4.0818355210e+01    0.5159903    0.2657999  47.10  0.002332964    2.443    0.591
        21 -10.7405      6.4236      9.6362   5.3736285552e+01   7.6077264318e+01    0.3715753    0.2946492 -12.11  0.001991723    1.022    0.022
        22 -10.5365     12.8739      8.5249   4.7762435124e+01   7.5626379429e+01    0.2536207     0.249118 -27.23  0.001527683    1.450    0.310
        23 -11.8123     16.0956     14.0030   4.8310698384e+01   7.4357329623e+01    0.6223933    0.2964252 -31.33  0.003030142    2.221    0.550
        24 -12.1662     22.6462     11.0052   4.1823346470e+01   7.4031396004e+01    0.5808175    0.3475452 -10.70  0.002269548    2.021    0.505
        25 -12.2568    228.0224     14.8580   3.5537801379e+02   2.6934270607e+01     0.489965    0.2346129 -72.41  0.001162203    1.999    0.500
        26 -11.2473    222.5043     11.0080   3.5491956144e+02   2.8474413237e+01    0.3481835    0.2061529  71.79  0.001213732    1.719    0.418
        27 -11.3209     85.8242     14.4265   1.4446721044e+01   6.1104761577e+01    0.5229735    0.3132016   0.91   0.00237629    2.510    0.602
        28 -11.2631     89.0217      8.4728   1.0983100003e+01   6.0934776297e+01    0.5001723    0.3392044 -76.01  0.002533152    1.924    0.480
        29 -10.0713    195.2135     13.0631   3.5730386889e+02   3.4137978638e+01    0.2572875     0.126637 -52.19  0.001323734    1.759    0.431
        30 -11.2838    190.9914     11.0465   3.5716066077e+02   3.5315962451e+01    0.4967407    0.3005217 -14.27  0.002547716    2.521    0.603
        31 -11.0664    196.5659      3.0995   3.5485816362e+02   3.4870884950e+01    0.3336031    0.2324661 -50.36  0.001329628    1.279    0.218
        32 -11.6449    211.6445      9.4291   3.5527546029e+02   3.0915074065e+01    0.4336977    0.3068124 -18.83  0.001772041    1.945    0.486
        33 -11.8516     64.0108      8.9717   1.8884540610e+01   6.6725690774e+01    0.4241696    0.3121818 -46.16 0.0006422625    1.700    0.412
        34 -12.5805    235.8056      7.8155   3.5350329927e+02   2.6166479153e+01    0.4886929    0.2990295 -46.28  0.001870372    1.329    0.247
        35 -12.1076    245.0750      4.6612   3.5242498821e+02   2.4737944254e+01     0.624123    0.2545551 -81.92  0.003294377    2.488    0.598
        36 -10.6067    169.1090      9.4193   3.5868801446e+02   4.0658504889e+01    0.3466553    0.1780106  62.67  0.001597818    1.835    0.455
        37  -9.7654    157.3961     10.2412   1.3307171537e-01   4.3458087656e+01    0.1808267    0.1099042 -45.44 0.0008459541    1.616    0.381
        38 -11.6001    184.3246      6.4554   3.5657438315e+02   3.7333784487e+01    0.6539341     0.229629 -50.84  0.002853965    2.529    0.605
        39 -10.1107    153.1727      7.6542   3.5985510202e+02   4.4769088077e+01    0.3276474    0.1718478 -15.48  0.001497815    2.732    0.634
        40  -9.9105      1.1262      7.5020   5.7267113429e+01   7.6878395247e+01    0.2116541   0.06279022 -52.78 0.0009172922    2.998    0.666
        41 -10.3709      1.8387      2.2178   5.3680161100e+01   7.7734888744e+01    0.2663073    0.1258679 -37.78  0.001243037    1.895    0.472
        42  -9.7192     77.8702      7.2111   1.3438864781e+01   6.3737720360e+01    0.2631756    0.2023937 -84.97 0.0008977863    1.604    0.376
        43 -10.5575     75.1263      2.9371   1.2191864671e+01   6.4780386599e+01    0.3449189    0.2072459  72.37  0.001739283    1.718    0.418
        44 -10.2943    141.7271      2.9863   3.5976515792e+02   4.8088818425e+01    0.2705478    0.2428573 -84.77  0.001582998    1.109    0.099
        45 -10.9745    137.7401      3.9770   5.6237425743e-01   4.9011664960e+01     0.231607    0.1909245  78.81 0.0003233811    1.049    0.047
        46 -11.8413    132.8417      2.6415   7.5833950414e-01   5.0377538436e+01    0.5789747     0.244787  74.56  0.002379144    2.025    0.506
        47 -10.6744    218.5151      3.4246   3.5355859596e+02   3.0097606658e+01     0.208271    0.1582267 -72.02 0.0006300051    1.042    0.040
        48 -10.3087    157.8188      3.2933   3.5810932372e+02   4.4027303770e+01    0.2752764    0.1827161 -72.12  0.000921982    1.372    0.271
        49  -9.5227    176.2863      5.5963   3.5702492923e+02   3.9314937501e+01    0.1747138    0.1022387  69.46 0.0007050547    1.566    0.361
        50 -10.3945     29.3430      2.3648   3.1944159645e+01   7.4234737867e+01    0.2985025    0.2032294 -52.66  0.001257153    2.401    0.584
        51 -10.8739    223.6631      2.3609   3.5305090814e+02   2.9149206388e+01     0.203108    0.1677267 -70.06 0.0006507324    1.145    0.126
        52 -11.3950    204.4896      1.9727   3.5408155331e+02   3.3230935223e+01    0.4843287    0.1810076  85.00  0.001226471    2.560    0.609
        53 -10.5963    105.9282      2.1285   4.7257201765e+00   5.7282268162e+01    0.3821127    0.2116556 -82.77  0.001725802    2.223    0.550
        54  -9.3197    152.0566      1.2015   3.5809027487e+02   4.5650909067e+01    0.1741988   0.08781814  75.43 0.0004304841    1.672    0.402
        55 -10.5212     41.6649      3.7119   2.5716674656e+01   7.1890840153e+01    0.3435504    0.1858228  27.67  0.001703196    1.964    0.491
        56  -9.3876     33.7306      1.6660   2.8806553390e+01   7.3573503888e+01     0.125896   0.08300252  13.54 0.0003883248    1.591    0.371
        57  -9.2953     12.6548      1.7303   4.3746094650e+01   7.6711795348e+01    0.1231851   0.07784092  -1.04 0.0002938629    1.615    0.381
        58  -9.1591     22.7339    126.6596   7.4058624495e+01   4.7345114153e+01    0.1453837   0.09585851 -45.44 0.0002187474    1.598    0.374
        59  -9.6743     33.3137    125.6560   7.0067827472e+01   4.6621096535e+01    0.1561152    0.1002903  62.41 0.0007047181    1.709    0.415
        60  -9.5975      2.3083    125.6752   8.1273846408e+01   4.9049295684e+01    0.1424808   0.08675415  59.81 0.0003406371    1.651    0.394
        61 -10.7686    104.5538    122.3218   4.4742070309e+01   3.6477615936e+01     0.326653    0.3056999  68.60 0.0009938475    1.085    0.079
        62 -10.0365     44.4977    119.5026   6.4941010654e+01   4.7021777279e+01    0.2663008     0.191463 -68.11 0.0008510313    1.356    0.263
        63  -9.9764     43.4192    116.1736   6.4766218105e+01   4.8034106037e+01    0.2967812    0.2203674 -78.24 0.0007879838    1.378    0.275
        64  -9.2277    202.4516    118.5152   2.1108537278e+01   1.7012656668e+01    0.1358751    0.1226367 -41.41 0.0001527565    1.016    0.015
        65 -11.4191      8.0003    114.8719   7.8207055581e+01   5.1543859275e+01    0.2950138    0.2434816 -60.58 0.0003643947    1.143    0.125
        66 -12.0486      2.8592    111.5663   7.9840686977e+01   5.2698917620e+01    0.4186943    0.3346987  79.52  0.001272297    1.206    0.171
        67 -11.7013      4.5431    105.8097   7.8603132527e+01   5.4109286183e+01    0.4589218    0.3945337  46.47   0.00279015    1.236    0.191
        68  -9.9337     79.1242    114.8865   5.1326529214e+01   4.3092541363e+01    0.2348866    0.2115754  71.78 0.0005806156    1.163    0.140
        69 -10.2860     58.5353    115.0460   5.8823322362e+01   4.6344037725e+01    0.2646744    0.1970173  48.82 0.0003141155    1.377    0.274
        70 -10.6089     35.0078    103.0046   6.5717485181e+01   5.2450337322e+01    0.7241171    0.3219647   2.99  0.002258269    4.001    0.750
        71 -11.1708     24.5047    102.5009   6.9991517085e+01   5.3591212991e+01    0.4360868    0.2699903  74.48  0.001485836    1.969    0.492
        72 -11.6284     26.3639    106.6312   6.9889536672e+01   5.2341769624e+01    0.7873576    0.3131622 -37.19  0.002694896    3.370    0.703
        73 -11.5519     22.5379    113.9778   7.2500316303e+01   5.0731182949e+01     0.528156    0.4019617 -13.82  0.001755077    1.524    0.344
        74 -11.5937     28.5289    112.8058   6.9987118527e+01   5.0510553935e+01    0.4305295    0.2867423  43.90  0.001825176    1.548    0.354
        75 -11.0068     12.7400    111.4402   7.5999180261e+01   5.2141863497e+01      0.45647    0.2026917 -76.47  0.001396677    2.100    0.524
        76 -10.9480     16.3835    109.2384   7.4286758533e+01   5.2465868609e+01    0.3049004     0.255997  47.16  0.001167566    1.242    0.195
        77  -9.9605     48.8063    111.9428   6.1903608827e+01   4.8485049278e+01    0.2624806    0.2128564  30.68 0.0009504741    1.248    0.199
        78 -11.9442     79.8570    107.9229   4.9404351783e+01   4.4709037543e+01    0.5599951    0.3481212  30.61  0.001129387    1.666    0.400
        79  -9.4576    174.5628    108.4027   2.3804311112e+01   2.4478440634e+01    0.2818637     0.135636  64.91 0.0009630222    3.293    0.696
        80  -9.6745    101.9262    109.0000   4.2272657264e+01   4.0190984941e+01     0.267106   0.08867846  40.54 0.0007424032    2.929    0.659
        81  -9.9878    245.6703    106.3004   1.2456935736e+01   1.1370917437e+01    0.1207547   0.08247294 -61.25 0.0005202216    1.644    0.392
        82 -10.5091    181.6920    104.2832   2.1476076966e+01   2.3721436793e+01    0.2613382    0.2406713  -9.25  0.001488714    1.218    0.179
        83  -9.6204    143.8013    105.7758   2.9808297734e+01   3.1777734744e+01    0.2535214    0.1217781  58.01 0.0008844891    2.518    0.603
        84 -10.5302     91.6949    102.3189   4.3864456080e+01   4.3837081910e+01    0.4377798     0.330181 -26.36  0.001972655    1.618    0.382
        85  -9.8187     86.0186    103.4755   4.6112920076e+01   4.4661450892e+01    0.2387248    0.1528741  36.33 0.0004977215    1.542    0.351
        86 -11.1745     50.6116    100.7210   5.8843205237e+01   5.1166336961e+01    0.5782983    0.3404787 -30.76  0.002180765    2.187    0.543
        87 -12.0993     67.4320     95.0542   5.0753106145e+01   5.0050674496e+01    0.5467554    0.4660395 -16.63  0.001310388    1.311    0.237
        88 -11.1200     17.1907    100.0813   7.2681714420e+01   5.4808286790e+01    0.2893853    0.2019427 -68.68 0.0007099458    1.313    0.239
        89 -10.0249    225.9803     99.6581   1.3560826264e+01   1.5757756639e+01    0.1920011    0.1048184  84.95  0.000705049    4.392    0.772
        90 -11.4969      9.1977     96.7263   7.5602945761e+01   5.6207785303e+01    0.4335921    0.3477276  45.02  0.000590969    1.342    0.255
        91 -10.3257    210.5660     97.9113   1.5306470315e+01   1.8932795129e+01    0.2159859     0.188346  78.89 0.0003080921    1.266    0.210
        92 -10.5804     30.9950     96.9519   6.6269906131e+01   5.4437547450e+01    0.4051546     0.320728  28.66  0.002179351    1.308    0.236
        93 -10.7441     83.2072     93.4098   4.4392041720e+01   4.7604934614e+01    0.4560165    0.1499306  39.91  0.001418401    2.922    0.658
        94 -11.0697     78.7078     92.1680   4.5685166034e+01   4.8751148365e+01    0.5873417    0.3783516 -51.64  0.002584265    1.585    0.369
        95  -9.7370    141.1374     95.0777   2.7623964942e+01   3.4564462364e+01    0.2429916     0.180959  -9.35 0.0005441513    1.966    0.491
        96 -10.4073     42.8471     94.3817   6.0659727029e+01   5.3789394704e+01    0.3278179    0.2855799   7.25  0.001552038    1.204    0.170
        97 -10.9000     43.6091     90.5897   5.9464882420e+01   5.4657694443e+01    0.2491872    0.2384408 -42.30 0.0002672114    1.013    0.013
        98 -11.2694     23.1397     94.3249   6.9195339467e+01   5.5836750170e+01    0.3282526    0.2816138 -22.33  0.001163586    1.215    0.177
        99 -11.0652     19.1649     87.7077   6.9799326053e+01   5.7856792241e+01    0.6703389    0.2835461 -62.26  0.002823076    2.044    0.511
       100 -10.1326    125.9541     93.9846   3.1172470628e+01   3.8295989973e+01    0.2323449    0.2229566  72.74  0.000324933    1.014    0.014
       101 -10.3722    236.8356     92.6040   1.0748874125e+01   1.4904957193e+01    0.2550714    0.1930615  84.12   0.00130118    1.615    0.381
       102 -11.0282    236.3723     89.1751   1.0099629119e+01   1.5498343451e+01     0.411904    0.1905956 -58.43  0.001792822    2.816    0.645
       103 -10.3425     35.6008     91.7847   6.3229482640e+01   5.5289917692e+01    0.5263619    0.2842834  81.83  0.001887169    3.262    0.693
       104  -9.8801     38.8062     90.3794   6.1514017254e+01   5.5288302442e+01    0.2740327    0.1927984 -10.18 0.0007398713    1.698    0.411
       105 -10.3021     24.7747     86.0373   6.6910804438e+01   5.7819855813e+01    0.4974906    0.2592847  84.04  0.001878102    3.061    0.673
       106 -10.6956     28.7529     84.4686   6.4749741680e+01   5.7849317805e+01     0.543265    0.4260795  70.54   0.00172208    1.503    0.335
       107 -10.2003     50.5268     91.9442   5.6828639679e+01   5.3407397364e+01    0.2275134    0.1427312 -58.65 0.0005067055    1.569    0.363
       108 -10.0631     98.2518     90.7912   3.8478989444e+01   4.5154096098e+01    0.2713821    0.2004927  53.53 0.0007636001    1.373    0.272
       109 -11.7896      6.8884     88.4225   7.5485441745e+01   5.8471378468e+01    0.7317277    0.3918915  16.34  0.003543895    2.009    0.502
       110 -11.2121      2.6254     81.6502   7.6497285025e+01   6.0396018355e+01    0.4311903     0.265507  89.47 0.0006292665    1.713    0.416
       111 -10.8262      1.9261     71.5404   7.5337934460e+01   6.2940081306e+01    0.5090182    0.1767396 -64.87  0.002132082    2.302    0.566
       112  -9.7703     67.0182     88.0349   4.9018224676e+01   5.1823767912e+01    0.2436891    0.1816444 -18.91 0.0007267494    1.659    0.397
       113 -10.0129     52.2546     86.9692   5.4837268396e+01   5.4400386965e+01    0.2178302    0.2000428  73.09 0.0003703303    1.199    0.166
       114 -11.5774     45.1118     83.8769   5.7158893237e+01   5.6139692328e+01    0.4765007    0.4162821  52.56  0.002049313    1.243    0.196
       115 -10.0850     90.4742     85.5898   3.9561568523e+01   4.7946410599e+01    0.3462651    0.2680193  74.09  0.001587924    1.615    0.381
       116 -10.4615    143.2054     84.1925   2.4146968668e+01   3.6205526677e+01    0.2412068    0.2332761 -71.06 0.0005478571    1.046    0.044
       117 -10.7984    113.0665     83.0336   3.1602419198e+01   4.3536305374e+01    0.4526923    0.3431887  83.58  0.002035994    1.688    0.407
       118 -10.2893     81.5280     83.9062   4.2248663331e+01   5.0126974637e+01    0.4875704     0.300966  26.65  0.002012269    1.889    0.471
       119 -12.0879     75.2784     78.6621   4.3005390737e+01   5.2512892753e+01    0.5585155    0.4287829  58.52 0.0005623962    1.467    0.318
       120 -10.2089     37.7894     85.2778   6.0794373615e+01   5.6690527717e+01     0.333838    0.1974886   5.63  0.001440468    2.106    0.525
       121 -11.2069     60.7933     83.3339   5.0232245175e+01   5.3978708716e+01    0.2622758    0.2544704  52.06 0.0003147227    1.074    0.069
       122  -9.7078    151.2511     83.2657   2.2114058686e+01   3.4467559994e+01     0.198267    0.1645594 -71.33 0.0006099819    1.265    0.210
       123 -10.2440     67.3954     81.2989   4.6926595934e+01   5.3347333420e+01    0.3013764    0.2517268 -22.12  0.001109423    1.312    0.238
       124 -11.0162    239.5194     66.6281   5.1393994405e+00   1.8182270127e+01    0.3562109    0.1450695 -35.43  0.001689047    2.176    0.540
       125 -12.4591    239.0947     75.3950   6.9750694518e+00   1.7023368502e+01    0.6306796    0.4584805  74.74  0.004025712    1.580    0.367
       126 -10.7743     88.9916     77.5213   3.7594474500e+01   5.0018331600e+01    0.5114507    0.2921871  48.07  0.002118176    1.723    0.420
       127 -10.3058     94.1500     76.1467   3.5387776576e+01   4.9207065898e+01    0.4663946    0.3666657 -55.16  0.002218109    1.372    0.271
       128 -10.9216     53.4362     76.2160   5.1339276336e+01   5.6810428129e+01    0.4099255    0.3387691 -63.00  0.002157559    1.297    0.229
       129  -9.4141    118.8346     78.2026   2.8510526198e+01   4.3165066930e+01    0.1973753    0.1804535   6.23  0.001010442    1.268    0.212
       130 -10.1491     58.1557     77.5896   4.9681574558e+01   5.5755835166e+01    0.2435275    0.2037808 -66.61 0.0006113538    1.316    0.240
       131  -9.7482    179.9106     75.9025   1.4808471167e+01   2.9063078786e+01    0.3572602    0.1440674  55.03  0.001131668    2.499    0.600
       132 -10.0685    188.3142     74.4573   1.3129926585e+01   2.7407435885e+01    0.2496523    0.1475467 -56.13  0.001135451    1.731    0.422
       133  -9.9068     46.9239     74.9824   5.3925246588e+01   5.8043794214e+01    0.2408958    0.1628601 -27.42  0.001121103    1.688    0.408
       134 -11.3311     27.3813     73.2900   6.2850240156e+01   6.0750488454e+01    0.3984191    0.2965381 -16.96  0.001094515    1.419    0.296
       135 -11.0735     14.2338     74.2076   6.9617734480e+01   6.1604896852e+01    0.3222218    0.2611684 -88.23  0.001391965    1.345    0.257
       136  -9.2075    103.2644     79.6544   3.3532176876e+01   4.6463063934e+01    0.1549694    0.1222471 -84.28 0.0003232394    1.605    0.377
       137  -9.5572    103.5136     74.5194   3.1841737040e+01   4.7456924912e+01    0.2868012    0.1432368  57.67  0.001034163    2.316    0.568
       138  -9.2400     66.3402     74.2781   4.5206614874e+01   5.5134761973e+01    0.1516854     0.115827  -4.12 0.0003737962    1.621    0.383
       139 -10.0821     80.8107     71.7725   3.8696215106e+01   5.2929594945e+01    0.3793714    0.2175724 -39.55  0.001586245    1.888    0.470
       140 -10.9240     34.8717     71.3522   5.8648331099e+01   6.0428534109e+01    0.4537158    0.2257709  35.45   0.00154367    2.038    0.509
       141 -11.2021     41.3460     72.8414   5.5927709345e+01   5.9292378863e+01    0.3728827     0.248984  17.09  0.001095992    1.583    0.368
       142 -11.6899     40.5461     68.9291   5.5185851639e+01   6.0313504769e+01    0.4149323    0.2638233  28.97  0.001840076    1.564    0.361
       143  -9.6240    153.5777     72.0000   1.8514163852e+01   3.5925224412e+01    0.3312318   0.08206967  56.67 0.0009370957    3.954    0.747
       144 -10.9122    122.4140     68.4938   2.4556270206e+01   4.4152186003e+01    0.4895768    0.2583473  49.58  0.001986763    1.804    0.446
       145  -9.9814     13.2021     67.2919   6.8724739459e+01   6.3364535354e+01    0.4133115    0.1237666  12.67  0.001284508    3.793    0.736
       146 -10.7349    219.2899     66.4538   7.2164291559e+00   2.2073975356e+01    0.3464151    0.1194197  61.90  0.001439733    3.114    0.679
       147  -9.9429    192.7480     65.5933   1.0321169808e+01   2.7812242471e+01    0.3173577    0.1783631 -79.69  0.001151692    2.578    0.612
       148 -11.0611    181.3368     63.6692   1.1477918767e+01   3.0695853014e+01    0.5211954     0.263982 -62.85  0.002071607    2.579    0.612
       149 -12.7703      7.1947     63.3944   7.1118498123e+01   6.4665635064e+01    0.6336569    0.2669345 -35.59 0.0004950535    2.372    0.578
       150 -12.6099      4.3339     61.2653   7.2254801094e+01   6.5320599955e+01    0.7762162    0.2539267 -36.78 0.0002366303    3.067    0.674
       151 -11.3647     92.9836     62.9274   3.1384542808e+01   5.2110109120e+01    0.6224439    0.3424976  65.28  0.002261696    2.690    0.628
       152  -8.9056     51.6455     65.7226   4.8899397551e+01   5.9479967401e+01    0.1490041    0.1085025  -9.39 0.0003785039    1.650    0.394
       153 -10.2496    198.8526     64.1328   9.1536292297e+00   2.6689673756e+01    0.2199255    0.1649036 -67.20  0.001019172    1.273    0.215
       154 -10.6006    158.8546     62.6391   1.4895218956e+01   3.6206490214e+01    0.3300041     0.214194  51.58 0.0008138146    1.579    0.367
       155 -10.0604    105.1932     63.1985   2.7620504892e+01   4.9251442404e+01     0.209339    0.1785169 -80.34 0.0007575375    1.337    0.252
       156  -9.6771     57.9802     62.2617   4.4837207623e+01   5.9210568068e+01    0.2906124    0.1955101 -81.97  0.001187201    2.687    0.628
       157 -10.5421     50.7871     56.4282   4.6120818427e+01   6.1621178052e+01    0.7005822    0.3152833 -49.55  0.002861606    2.262    0.558
       158 -10.7280     40.2434     56.5627   5.1419627692e+01   6.3139375012e+01    0.3294529     0.201388  32.56 0.0009366553    1.610    0.379
       159 -11.4384     43.3748     60.6820   5.1218443573e+01   6.1808428275e+01    0.4221262     0.252423 -56.09 0.0007849209    1.748    0.428
       160 -11.6095     46.6251     59.2772   4.9140831103e+01   6.1650247432e+01    0.6704736    0.2972799  50.29  0.002316614    3.496    0.714
       161  -9.4145    169.4419     62.4504   1.3021674828e+01   3.3681772089e+01    0.1438526    0.1280272 -76.99 9.859999e-06    1.030    0.029
       162 -10.6061    237.7744     59.5218   3.8487275380e+00   1.9481507515e+01    0.2674391    0.1617471 -56.60 0.0006674507    1.443    0.307
       163  -9.4326    150.9553     60.9099   1.5873413531e+01   3.8423516172e+01    0.1746035    0.1625441 -76.06 0.0007744197    1.046    0.044
       164 -10.1069    113.9555     60.8120   2.4325413213e+01   4.7586225672e+01    0.2632805    0.2279064 -42.85  0.001375082    1.230    0.187
       165 -10.1280    126.8236     50.6733   1.7771085499e+01   4.6088300072e+01    0.8109612    0.2879775 -37.52  0.002855543    2.910    0.656
       166 -11.9468    126.0758    240.7542   5.9169361434e+01   7.1273230482e+00    0.3523977    0.2225724  40.98  0.001991281    1.422    0.297
       167 -11.1143    118.2792     56.3069   2.1689843541e+01   4.7303921883e+01    0.8996378    0.5075771 -88.89  0.002738953    4.276    0.766
       168  -9.9623    124.5977     56.2776   2.0114020197e+01   4.5743115363e+01    0.2770171    0.1886476 -37.15  0.000839656    1.579    0.367
       169 -12.2343    116.7971     46.2671   1.8667134254e+01   4.9285233518e+01    0.8879437    0.6980816  13.56  0.004418812    1.697    0.411
       170 -11.3550    120.0097     40.5144   1.5923318993e+01   4.9331263698e+01      0.48732    0.1988414  47.09 0.0005932833    2.512    0.602
       171 -11.7338    119.5040     36.9751   1.4813511067e+01   4.9957511544e+01    0.3780769    0.2909019 -48.33  0.001129603    1.393    0.282
       172 -10.8761     31.9828     52.7439   5.4518155242e+01   6.5013075668e+01    0.4653587    0.2276483  18.40  0.002006386    2.235    0.553
       173  -9.9848     29.6115     59.6408   5.8001060910e+01   6.3743044103e+01    0.3550642    0.1955997 -59.56  0.001660318    1.821    0.451
       174 -11.3567     25.7181     56.8998   5.9292934860e+01   6.4770415696e+01    0.5004463    0.3348677 -54.57  0.001446935    1.428    0.300
       175 -12.0165     75.4933     53.4259   3.4247163490e+01   5.7676643127e+01    0.7082869    0.4629813 -40.94  0.003359713    1.626    0.385
       176 -12.0806     73.0153     47.1018   3.2768622309e+01   5.9339751215e+01    0.4131237    0.2993485 -56.52  0.001889788    1.702    0.413
       177 -10.0747    106.3281     58.2734   2.5613205234e+01   4.9870545057e+01    0.2636535    0.1759038  51.28 0.0005258262    1.395    0.283
       178 -10.4314     67.6626    240.6384   7.2429469184e+01   1.4916075641e+01    0.1805601    0.1435358  -5.63 0.0009969935    1.679    0.404
       179 -10.9386    155.0571     48.4610   1.1530421030e+01   3.9324198837e+01    0.2490641    0.2362659 -19.21 0.0003046804    1.270    0.213
       180  -8.9011     33.3039     56.6813   5.5102960701e+01   6.3991660459e+01    0.1327931    0.1068413  63.11 0.0003307447    1.628    0.386
       181 -10.6403     60.6563     52.2121   3.9973110060e+01   6.0794891265e+01    0.5187492    0.2344054 -53.28  0.001976299    2.749    0.636
       182 -10.5727     61.2827     46.5675   3.7476475073e+01   6.1752702504e+01    0.3986593    0.2820064  12.32  0.001934451    1.707    0.414
       183 -10.9894    244.9268     51.8631   1.6694312354e+00   1.9189506266e+01    0.3842175    0.1529211 -63.73  0.001599119    3.438    0.709
       184 -10.5716    144.9459     50.2205   1.3863050226e+01   4.1593369110e+01     0.271775    0.2182581 -19.91  0.000336635    1.541    0.351
       185  -9.4386    201.9993     52.4941   6.0082472917e+00   2.7693555760e+01    0.1714741    0.1013227  43.56 0.0007560588    2.387    0.581
       186  -9.2363     55.4752     50.3659   4.1630538781e+01   6.2074696830e+01    0.1424173    0.1255616  13.73 0.0007934957    1.075    0.070
       187  -9.3606    189.1406     49.2272   6.7636792431e+00   3.1031145573e+01    0.1866192    0.1358568 -66.01 0.0004034495    1.280    0.219
       188 -10.3502    172.0932     47.1710   8.5151377519e+00   3.5331721217e+01    0.3097322    0.2363802  54.69  0.001690597    1.409    0.290
       189 -12.2973     41.5384     44.2834   4.6206096153e+01   6.5505650695e+01     0.900038    0.3170838  32.99  0.002243578    2.740    0.635
       190 -10.3309     31.9943     44.4906   5.1566188013e+01   6.6759355812e+01    0.3032469    0.1641628  47.27  0.001068347    2.458    0.593
       191  -9.9201     83.3489     46.3762   2.8618897895e+01   5.7244901451e+01    0.3211773    0.1993952  14.99  0.001242235    2.770    0.639
       192  -9.5583     27.4989     47.4662   5.5234593331e+01   6.6662002720e+01    0.2390381    0.1238849   8.84  0.001019372    2.349    0.574
       193 -10.6788     20.5894     45.9802   5.8810689860e+01   6.7686199503e+01    0.2966424    0.2614635 -40.37  0.001258484    1.109    0.098
       194 -10.9111     26.1642     42.3223   5.4168946228e+01   6.7891404981e+01    0.3362606     0.285895  14.18  0.001105185    1.145    0.127
       195 -10.1982     23.0424     36.9389   5.4034763698e+01   6.9331739213e+01    0.4725893     0.177827  36.84  0.001854303    2.841    0.648
       196 -10.2444     13.1560     46.3849   6.3471298771e+01   6.8220967924e+01    0.2919642    0.1568911 -37.11  0.001198661    1.729    0.421
       197 -10.8236    225.4943     46.0373   2.1463474464e+00   2.3657352105e+01    0.2060501    0.1662949  88.20 0.0003570944    1.242    0.195
       198 -10.3154    234.1247     45.1257   1.2005298282e+00   2.2085032238e+01    0.1765927    0.1139121 -60.27 0.0007886713    1.317    0.241
       199 -10.4232    145.9861     43.8980   1.1759944409e+01   4.2258451797e+01    0.3930878    0.1625887 -47.37  0.001427191    2.552    0.608
       200  -9.8095    198.5056     43.9800   4.3803680049e+00   2.9635959115e+01    0.3564089    0.1573329 -88.60  0.001291444    3.680    0.728
       201 -10.3925    156.0044     42.1116   9.5372881655e+00   3.9992694352e+01    0.2719654    0.2082658 -31.43 0.0008634184    1.469    0.319
       202 -10.3725     98.8543     41.3522   2.1696315993e+01   5.4449572248e+01    0.3567492    0.2310307  80.50  0.001020487    2.133    0.531
       203 -10.0799     56.6943     41.5164   3.7481916054e+01   6.3521254727e+01    0.2343514    0.1932342  54.24 0.0005361083    1.379    0.275
       204 -11.4713    156.7243     54.4621   1.2966372714e+01   3.8013126567e+01    0.6892259    0.4190279 -80.60  0.002771123    2.167    0.539
       205  -9.2550    134.3245     40.6724   1.2939569101e+01   4.5673298396e+01    0.1504888    0.1353491  75.37 0.0005027642    1.023    0.023
       206  -9.8563    132.7462     36.7472   1.1977670125e+01   4.6616409659e+01       0.4173    0.2197384 -70.39  0.001490716    3.026    0.670
       207 -10.6087     79.3641     37.9625   2.6659726191e+01   5.9499767626e+01    0.4454657    0.3186726  75.14  0.002125832    1.871    0.466
       208 -10.8075     78.7337     33.8963   2.5181418736e+01   6.0260599923e+01    0.5665345    0.4241473  14.15  0.002901962    1.615    0.381
       209  -9.6824     18.3883     40.2075   5.8193610153e+01   6.9121385334e+01    0.1633204    0.1222294 -64.26 0.0004363797    1.519    0.342
       210 -11.2640      3.8223     36.3831   6.6532270262e+01   7.1005577640e+01    0.4873435    0.3136018 -46.31  0.001538228    1.325    0.245
       211 -10.2018    249.8518     38.9682   3.5875110996e+02   1.9937206552e+01    0.2002873    0.1316449 -65.95 0.0003317888    1.307    0.235
       212 -10.2100    218.1988     38.6190   1.1919891233e+00   2.6103725385e+01     0.250144    0.1544766 -60.79 0.0008323286    1.417    0.294
       213 -10.7199     61.0728     36.1688   3.3188843350e+01   6.3617655131e+01    0.4440685    0.2497282 -31.17  0.001559171    2.012    0.503
       214 -10.8840    226.3415     36.8943   1.2107896016e-01   2.4663342208e+01    0.3589158    0.1676539  76.03  0.001838769    2.258    0.557
       215  -9.7578    206.2189     37.2485   1.9981084947e+00   2.8822214815e+01    0.1795628    0.1223743 -70.63 0.0004371521    1.334    0.250
       216 -10.6618    153.3661     35.7000   8.0808884450e+00   4.1519252954e+01    0.2547187     0.215591  69.26 0.0006687231    1.131    0.116
       217 -11.3132    175.3047     34.2575   4.6420833925e+00   3.6299326937e+01    0.5872687    0.2753071 -68.53   0.00075399    2.824    0.646
       218  -9.4050     94.1615     35.3829   2.0773004746e+01   5.6460714268e+01    0.2028885    0.1291535  66.99 0.0006147923    1.662    0.398
       219 -10.3938    212.0195     32.6468   4.1264103652e-01   2.8154591516e+01    0.5155134    0.1396012 -53.41  0.001802965    3.894    0.743
       220 -11.4094    146.8197    238.0586   5.4295925269e+01   4.7350637784e+00    0.3559161    0.2479706  62.09  0.001911303    2.339    0.573
       221 -10.7766     73.1207    237.8758   7.0940978773e+01   1.4763398315e+01    0.2107227    0.1458839  49.09 0.0009365656    1.241    0.194
       222 -11.6377    107.0922     31.7575   1.5859240111e+01   5.3790788652e+01    0.6973398    0.3257773  43.74   0.00278955    2.270    0.560
       223  -9.8012    167.4965    237.5143   4.9878375987e+01   2.0389373884e+00    0.1256141   0.09907686  13.43 0.0008104831    1.012    0.012
       224  -9.4131     15.4960    233.5019   8.3799741353e+01   2.2175264326e+01    0.1203004    0.0946692  53.15 -5.198866e-05    1.040    0.038
       225  -9.1665    189.7108    229.6664   4.4295424598e+01   3.2229896242e-01    0.1250261    0.0793485  -4.36 0.0004808313    1.629    0.386
       226  -9.1812    108.3116    229.3105   6.1844057779e+01   1.1667623871e+01    0.1289747   0.09652483  -2.75 0.0007027814    1.627    0.385
       227  -9.0582    164.4842    211.4628   4.6617372507e+01   6.7087768184e+00    0.1325461     0.112346  13.43 0.0002024313    1.013    0.013
       228 -10.1250    140.6698     20.2500   5.3167208427e+00   4.6622492225e+01    0.3092546    0.2883308  12.51  0.001367654    1.357    0.263
       229 -10.9503    133.7248     22.0414   6.9920894193e+00   4.8198286140e+01    0.4106037    0.3115445  79.97  0.001417986    1.177    0.151
       230  -9.3000     78.6769    203.6898   6.6146431202e+01   2.1166065123e+01    0.1351124    0.1068402 -13.68 0.0005690058    1.651    0.394
       231 -11.0493      5.9755    199.0548   8.4544163817e+01   3.0515197025e+01    0.3167752    0.1324507 -65.78  0.001482739    2.474    0.596
       232 -10.3543    239.4781     32.2292   3.5815267729e+02   2.2677678860e+01    0.2812556    0.1289956  60.14  0.001499608    2.556    0.609
       233 -10.4649    218.1182     32.1686   3.5978320377e+02   2.6930387216e+01     0.282504    0.1460135  84.64 0.0009632453    2.018    0.504
       234  -9.4945     67.1827     32.2162   2.8843059828e+01   6.3014216853e+01    0.2465935    0.1432559  16.55 0.0009600372    2.883    0.653
       235  -9.4853    234.0000    196.0271   3.0877114152e+01  -3.9608525185e-01    0.1875944   0.05709369 -38.43 0.0006917735    2.927    0.658
       236 -11.7173     49.3172     29.8902   3.5866399488e+01   6.6844694607e+01    0.6750519    0.3246002  33.98  0.002868886    2.035    0.509
       237 -11.8072     26.4705     27.6945   4.7906289307e+01   7.0713362316e+01    0.4633019    0.3402303 -59.37  0.002090932    1.761    0.432
       238 -11.9547      4.4404    184.0077   8.4242069515e+01   3.4166060780e+01    0.6049921    0.3060857  64.17   0.00303362    1.772    0.436
       239  -9.0843     22.3072     31.2903   5.2203096489e+01   7.0527347818e+01     0.132955   0.08731365 -17.04 0.0002754421    1.576    0.366
       240 -10.4595    189.1178     27.4629   1.3530254620e+00   3.3883939094e+01     0.347348    0.2776399  12.35  0.001993044    1.967    0.492
       241 -12.0549    127.1380     28.1990   1.0217872650e+01   4.9156695410e+01    0.8944775    0.3840672  73.94  0.003345124    2.588    0.614
       242 -11.2756    178.0154     28.3854   2.7767879235e+00   3.6383429625e+01    0.2318913    0.2191594  86.79    0.0010629    1.207    0.171
       243 -10.5582    230.3913     27.2920   3.5779266761e+02   2.5031377781e+01    0.2160159    0.1906346  65.25   0.00124213    1.460    0.315
       244 -11.0856    249.5819     26.9197   3.5643844780e+02   2.1434778754e+01    0.2373187    0.1439708  88.42   0.00153878    1.660    0.397
       245 -10.1724    240.0333    184.7656   2.7974381857e+01   4.5903823378e-01    0.1962424    0.1399685 -25.32 0.0004938431    1.150    0.131
       246 -10.0286     45.4090     25.1218   3.5567460246e+01   6.8298120158e+01    0.3067178    0.1514715 -26.94  0.001125491    2.563    0.610
       247  -9.8629    182.7067     24.9878   1.3901635238e+00   3.5678284154e+01    0.1832351    0.1533641 -67.96 0.0006605391    1.060    0.056
       248 -10.0104    214.5250     24.0100   3.5827984297e+02   2.8667053914e+01    0.2286215    0.1572448  62.57  0.001394988    1.647    0.393
       249 -10.7250    202.1140     23.6787   3.5922630783e+02   3.1392267793e+01    0.2729142    0.1974234  63.00  0.001193295    1.524    0.344
       250 -10.1202    155.5459     24.5122   4.4865475534e+00   4.2362822959e+01    0.3231199    0.1596673  85.21  0.001080248    2.213    0.548
       251 -10.4774    250.1931    177.3325   2.5141063900e+01   2.5152759890e-01    0.2211298   0.07309457 -35.59  0.001010475    2.527    0.604
       252 -10.1797    169.6092     23.0927   2.3298519870e+00   3.9045383244e+01    0.3116624     0.159507  66.46  0.001495759    1.777    0.437
       253  -9.0139     86.2291     23.4136   1.8234458448e+01   5.9962241584e+01    0.1383373    0.1001111  19.16 0.0006883946    1.684    0.406
       254  -9.8466     38.9973    173.2482   7.3821067616e+01   3.3543883080e+01    0.1831752    0.1128559  29.03 0.0006155546    1.573    0.364
       255  -9.0815    170.6909    171.7015   3.8323599496e+01   1.2979884840e+01    0.1422175    0.1038992  -3.04 0.0003616048    1.596    0.374
       256 -10.3110      4.0796     22.0570   6.1397800265e+01   7.3945184841e+01    0.3402977    0.2047923  21.44  0.001967945    1.665    0.399
       257 -11.1844    223.0105     21.2055   3.5704102580e+02   2.7229865068e+01    0.2832316    0.1938142 -63.32 0.0008022123    1.170    0.145
       258 -10.6363    178.1149     21.0211   8.4763676609e-01   3.7230823097e+01    0.4177168    0.2181944  44.42  0.001860679    2.761    0.638
       259 -10.8388     68.3794     19.9095   2.2680338174e+01   6.4485684949e+01     0.330599    0.3111921 -63.21  0.001800193    1.286    0.222
       260 -11.8495      9.1681    166.8400   8.1994469615e+01   3.7998383965e+01    0.3612854    0.2589022  42.85  0.001238784    1.296    0.228
       261 -12.5653     12.7358    160.2958   8.0507954713e+01   3.9367945513e+01    0.5653211    0.3715439 -52.75  0.002657859    1.664    0.399
       262  -9.4690    216.6443     20.1793   3.5727886275e+02   2.8666048288e+01    0.1479384    0.1076688 -30.19 0.0002185494    1.576    0.366
       263 -10.7085     18.4735    164.9810   7.9145123656e+01   3.7691915567e+01    0.2448734    0.1947386 -11.24  0.001375636    1.605    0.377
       264  -9.9928     45.8646     19.3888   3.2406761742e+01   6.9084745670e+01    0.3181482    0.2474789  85.37  0.001650886    2.355    0.575
       265 -10.2925    205.0450    162.9535   2.9831797543e+01   8.8456191683e+00    0.2029646     0.175007 -16.77 0.0006463883    1.024    0.023
       266 -10.8909     28.6651    161.3847   7.5770684474e+01   3.7659202919e+01    0.2811356     0.165586 -73.48  0.001127133    1.630    0.387
       267 -10.9045      9.5638     19.3059   5.5964507214e+01   7.4057278743e+01     0.391335    0.2026242  -4.43   0.00125183    2.233    0.552
       268 -10.2421    214.9543    161.3316   2.7778910555e+01   7.5606554932e+00    0.1749943    0.1537563  -4.63 0.0005141532    1.074    0.069
       269 -10.5335    223.4569    157.4879   2.5627731189e+01   6.8855018080e+00    0.3028694    0.2190737 -61.27   0.00168308    2.017    0.504
       270 -10.1947    193.1096     18.5026   3.5878373517e+02   3.4014309062e+01    0.3386267    0.1465316 -82.03  0.001411384    2.772    0.639
       271  -9.8294     74.7628     19.2611   2.0078386212e+01   6.3141934490e+01    0.1919137    0.1421133  31.85 0.0006274602    1.347    0.258
       272  -9.9940    104.7885    154.5092   5.1506491570e+01   2.8610791833e+01    0.2850068    0.2260245 -57.74  0.001392702    1.331    0.249
       273 -10.2451      1.4906    166.0063   8.4144953784e+01   3.8778706205e+01    0.1969098    0.1145314 -85.31 0.0005207771    1.557    0.358
       274 -11.9276     16.5173    147.9149   7.8358791828e+01   4.2254193657e+01    0.9081382    0.2543165 -88.16  0.002507188    5.201    0.808
       275 -11.5874     21.4394    150.4879   7.7012730781e+01   4.1164385502e+01     0.375008    0.2584193 -48.80  0.000583414    1.589    0.370
       276  -9.8940    211.1719     15.8976   3.5673692680e+02   3.0310409818e+01    0.1826647    0.1279389 -63.14 0.0002480542    1.151    0.131
       277 -10.7534    248.3376     16.5474   3.5452295301e+02   2.2847976813e+01    0.1887759   0.08566871 -36.53  0.001068433    1.898    0.473
       278 -11.5528     24.0009    147.9946   7.5949636317e+01   4.1586804804e+01    0.3520298    0.2851912  89.73 0.0008314622    1.150    0.131
       279 -11.0853      4.8286    153.1771   8.2416693287e+01   4.1777323565e+01    0.2065578    0.1566281  63.61 0.0004491145    1.193    0.162
       280  -9.4741     55.4440    152.4982   6.6307478348e+01   3.6895950720e+01     0.147738    0.1375154  67.29 8.617361e-05    1.007    0.007
       281 -11.5046     47.7289    146.9315   6.8038099558e+01   3.9337704913e+01    0.6609275    0.4250161 -36.27   0.00297164    1.938    0.484
       282  -9.6037    227.3200    149.6151   2.3499445821e+01   7.5552230503e+00    0.1766085    0.1415886 -61.00 0.0007637427    1.627    0.385
       283 -10.3223    104.1111    147.4647   5.0334127659e+01   3.0442295142e+01    0.3151539    0.2232012 -61.37 0.0006441764    1.520    0.342
       284 -12.2292      3.6397    142.2572   8.2060644706e+01   4.4661970728e+01    0.7189394    0.3476979  49.38  0.003345609    1.988    0.497
       285 -10.8843    249.8691    144.4427   1.9244320339e+01   5.0491802952e+00    0.3912148    0.1545642 -40.10  0.001445572    2.080    0.519
       286 -10.7332     33.0974    144.1729   7.2541704061e+01   4.1713486296e+01     0.295485    0.2522478  85.21 0.0009260634    1.109    0.098
       287 -10.1639    232.1641    143.0762   2.1494538763e+01   7.8484335597e+00    0.2269128     0.170299  51.49 0.0009262279    1.672    0.402
       288 -11.9062     25.1895    135.9786   7.4278126279e+01   4.4651530719e+01    0.5484664    0.3804263 -22.37  0.002709144    1.819    0.450
       289 -11.4524     30.3269    132.3964   7.2050791295e+01   4.5120666644e+01    0.3093213    0.2426381 -27.47 0.0009775596    1.489    0.329
       290  -9.9692    216.8540    138.3037   2.2917194469e+01   1.1071230995e+01    0.1881243    0.1679699  86.59 0.0007501195    1.469    0.319
       291  -9.6750     79.6858    138.0256   5.6025067271e+01   3.7076046952e+01     0.212989     0.200034 -82.08 0.0004671678    1.080    0.074
       292 -10.6638     40.6574    137.7008   6.9148399250e+01   4.2618278849e+01    0.3052903    0.2285862  54.52 0.0009316187    1.327    0.247
       293 -11.9763     12.1725    135.8427   7.8728309407e+01   4.5750538246e+01     0.578605    0.2590465 -50.85  0.002460576    2.303    0.566
       294 -11.0277     20.4969    133.9990   7.5686051869e+01   4.5585930200e+01    0.3278539    0.2302261 -88.08   0.00144691    1.364    0.267
       295 -10.7303    247.4331    134.3933   1.7679902394e+01   6.8920510337e+00    0.2082079    0.1693688 -32.46 0.0002029324    1.013    0.013
       296  -9.4164     39.3573    133.2806   6.8981320282e+01   4.3942034557e+01    0.1488656    0.1074895 -30.22 0.0004692593    1.663    0.399
       297  -9.8536     35.9712    133.4859   7.0202735051e+01   4.4254964545e+01    0.2083698    0.1411972  25.93 0.0005317489    1.519    0.342
       298  -9.9414    103.9344    130.7221   4.6859552396e+01   3.4561462270e+01    0.2186529    0.1934876  40.70 0.0002997804    1.093    0.085
       299  -9.1418     50.7832    129.9619   6.4421270099e+01   4.3458624072e+01    0.1980323    0.1180169 -65.81 0.0004910521    1.645    0.392
       300 -10.9917    243.4310    127.9728   1.6977970260e+01   8.4589419560e+00    0.2361531    0.1793562  77.87  0.001051463    2.000    0.500
       301 -11.9328    240.5501    122.1890   1.6229749957e+01   9.7885544142e+00    0.5989541     0.296993 -37.51  0.003125209    1.671    0.402
       302 -10.8188    223.2732    123.9663   1.9000212703e+01   1.2346471983e+01    0.6000495    0.2141661 -50.93  0.002088482    3.849    0.740
       303 -10.3883     26.6156    127.2406   7.2723271590e+01   4.6846222318e+01    0.2734533    0.1498525 -60.81 0.0002968038    1.691    0.409
       304  -9.2923     27.3048    123.7049   7.2010627867e+01   4.7725025975e+01    0.1476752    0.0990127  60.20   0.00026223    1.581    0.368
       305 -11.0884     11.4473    124.8980   7.7947909411e+01   4.8682656815e+01    0.5242296    0.2239574 -51.42  0.001950316    2.298    0.565
