#   1 NUMBER                 Running object number                                     
#   2 MAG_AUTO               Kron-like elliptical aperture magnitude                    [mag]
#   3 X_IMAGE                Object position along x                                    [pixel]
#   4 Y_IMAGE                Object position along y                                    [pixel]
#   5 X_WORLD                Barycenter position along world x axis                     [deg]
#   6 Y_WORLD                Barycenter position along world y axis                     [deg]
#   7 A_WORLD                Profile RMS along major axis (world units)                 [deg]
#   8 B_WORLD                Profile RMS along minor axis (world units)                 [deg]
#   9 THETA_WORLD            Position angle (CCW/world-x)                               [deg]
#  10 FWHM_WORLD             FWHM assuming a gaussian core                              [deg]
#  11 ELONGATION             A_IMAGE/B_IMAGE                                           
#  12 ELLIPTICITY            1 - B_IMAGE/A_IMAGE                                       
         1 -11.0505     35.7597     60.6361   9.0959636558e+01   6.1299151468e+01     2.424143    0.9829221 -26.00  0.007288713    5.611    0.822
         2 -10.6811     37.2662      9.5141   7.0010471169e+01   6.9438602836e+01    0.8238815    0.3023011 -39.53  0.002269685    3.132    0.681
         3 -11.0297     23.7362     32.3908   8.6711793805e+01   6.7794208113e+01     1.353399    0.4769409 -36.00  0.003190399    2.793    0.642
         4 -10.4341     27.2394     11.1963   7.5667970121e+01   7.0580889603e+01    0.8738487    0.3886138  36.09   0.00470589    2.206    0.547
         5 -10.0689     18.2652      4.7921   7.7192271854e+01   7.2479369826e+01    0.4922905    0.3356318 -49.86  0.003093376    2.344    0.573
         6  -9.2577      2.2243     14.2960   9.0948724102e+01   7.2624533259e+01    0.4012294    0.2015319 -57.72  0.002172879    2.722    0.633
         7 -10.3829      5.4944      4.7648   8.4575121245e+01   7.3778279062e+01    0.4984161    0.3403949   5.74  0.001640836    1.266    0.210
         8 -10.2932      4.9720     41.6844   9.9324799742e+01   6.7647083201e+01    0.8949432    0.3788292 -64.66  0.004229109    2.764    0.638
         9 -10.6175    130.5973     45.8774   5.4710738798e+01   4.6416365726e+01     2.911782     1.143952 -18.76  0.006041233   10.671    0.906
        10 -10.7687    133.9926     30.9359   4.9270907375e+01   4.7597064806e+01    0.3583232    0.2761175   3.55  0.001950442    1.686    0.407
        11  -9.0465     72.0205      8.4674   5.6237645374e+01   6.3613389346e+01    0.2110278     0.163528  -0.12 0.0004772191    1.322    0.243
        12 -10.4121     73.5472     17.7665   5.9716435816e+01   6.2347239713e+01     1.121395    0.3591676 -25.42  0.004261095    3.820    0.738
        13  -9.5955     77.9076      4.2897   5.2695877550e+01   6.2831996009e+01    0.4969392    0.3001483  -7.52  0.002240365    1.933    0.483
        14 -10.1026     69.5982     40.7417   7.0349851844e+01   6.0011993723e+01     1.061799    0.4087412 -36.59  0.004400304    2.658    0.624
        15 -10.2487     76.2793     32.0898   6.4646258762e+01   6.0046633167e+01    0.7110083    0.5131903  82.29   0.00248145    2.586    0.613
        16  -8.5559    111.8532     21.5564   5.0789732796e+01   5.3836890188e+01    0.4743592     0.198156 -31.63  0.002081915    2.570    0.611
        17  -9.3943    101.0126     32.2770   5.7291528701e+01   5.4977624648e+01    0.5051765    0.2322485 -35.02  0.001788422    2.311    0.567
        18 -10.1195     63.0515      3.0499   5.6720448240e+01   6.5824784948e+01    0.4890416    0.3746554  16.44  0.001759067    1.199    0.166
        19  -9.7571     63.4045     21.4737   6.4788639468e+01   6.3783943917e+01    0.5906915    0.3107375 -39.09  0.002304566    2.150    0.535
        20 -10.2181     64.4077     13.2177   6.0835374155e+01   6.4561914475e+01    0.4133624    0.3035814 -14.19   0.00181115    1.394    0.283
        21  -8.6539     45.4290     15.6649   6.9315857524e+01   6.7475293080e+01    0.2591495      0.16945 -22.14 0.0007476071    1.491    0.329
        22  -9.9838     52.1770     13.6951   6.5617625823e+01   6.6637602793e+01    0.5296553    0.3125243  27.32   0.00199083    1.606    0.377
        23 -10.3575     45.7133     29.0571   7.5108324097e+01   6.5606644465e+01    0.4514171    0.3958601 -55.62  0.002222579    1.631    0.387
        24  -9.7339     10.3849     18.7049   8.8147355183e+01   7.1279992479e+01    0.5769014    0.2622404 -12.34  0.002610666    3.287    0.696
        25  -9.1367     96.3921     14.6813   5.1946009474e+01   5.7988735555e+01    0.7249439    0.2870142 -14.52  0.002686945    4.139    0.758
        26  -9.8278    130.7597      5.6293   4.1813401415e+01   5.1009398877e+01    0.5119354    0.3195476 -39.75  0.002852808    1.783    0.439
        27  -8.8595    136.2558      1.5433   3.9690830280e+01   5.0065445201e+01    0.3926148    0.2024752  40.36  0.001916019    2.228    0.551
        28  -9.5779    114.3227      9.7328   4.6131995936e+01   5.4460627987e+01    0.6084751    0.2463499  50.21  0.001667784    2.105    0.525
        29  -8.8667    101.9491      7.7631   4.8031066369e+01   5.7426173321e+01    0.3058711    0.2197827 -40.95  0.001087736    1.634    0.388
        30  -9.2463    115.2765      4.0845   4.3993693321e+01   5.4737455244e+01    0.4634247    0.2752588  86.31  0.001886381    2.054    0.513
        31  -8.5140    125.0580     12.9718   4.5172934919e+01   5.1670718147e+01     0.272131    0.1936508 -65.62 0.0009619808    1.685    0.406
        32 -10.9383    126.2082      6.5585   4.2869325165e+01   5.1994350193e+01     1.204032    0.6737078 -56.36  0.005945663    2.285    0.562
        33  -9.0676    110.8032      4.3783   4.4952365656e+01   5.5732681400e+01    0.2787555    0.2446891 -14.26  0.001361241    1.318    0.241
        34  -8.4340    105.2603      1.9336   4.5183666427e+01   5.7182166499e+01    0.4135383    0.1650056  54.90   0.00193845    1.974    0.493
        35  -8.2753     97.6811      5.7031   4.8222425427e+01   5.8545650083e+01    0.2403886    0.1606745  25.93 0.0006012807    1.619    0.382
        36  -8.5337     96.0079      2.7485   4.7477088355e+01   5.9158723374e+01    0.2127508    0.1629858  59.81  0.000351652    1.163    0.140
        37  -8.9633    120.8604     15.8272   4.6921732587e+01   5.2367466315e+01    0.3052195     0.172467   4.70  0.001336972    2.962    0.662
        38  -8.9039    104.7042     14.6382   4.9937855750e+01   5.6166799103e+01    0.3803414    0.2197012  18.90  0.001792632    2.436    0.589
        39  -7.8998     80.6739     12.7212   5.5420769184e+01   6.1479033175e+01    0.2322256    0.1323802 -47.53  0.001044566    2.479    0.597
        40  -8.6363     88.9397      2.5519   4.9069901398e+01   6.0694102565e+01    0.2651671    0.1687575 -19.28 0.0007213412    1.779    0.438
        41  -9.6375     85.3562     12.9752   5.4189989740e+01   6.0496234243e+01    0.3947361    0.2616949 -56.14  0.001538411    2.256    0.557
        42  -8.2265     85.4158      6.3230   5.1485177954e+01   6.1112438421e+01    0.4662629    0.1432304  39.30  0.001693603    3.675    0.728
        43  -8.8583    141.2648     12.2131   4.2185396581e+01   4.7914464909e+01    0.2165074    0.1431856 -74.65 0.0006160358    1.743    0.426
        44  -8.0630    155.8187      9.2852   3.9236325333e+01   4.4727618747e+01    0.2686474   0.06774307 -34.67  0.001008962    3.638    0.725
        45  -7.6943    143.0098      4.5229   3.9616104474e+01   4.8214169657e+01    0.1726934   0.09552723 -81.09 0.0003610024    2.238    0.553
        46  -8.5825    166.9218      2.5909   3.6063765121e+01   4.2725744377e+01    0.1989774     0.181294 -47.18 0.0003422032    1.259    0.206
        47 -10.1736     71.2373    125.8328   9.4559673555e+01   4.1779182627e+01    0.5954931    0.3940613 -82.48  0.001399885    1.892    0.472
        48 -10.0182    198.0849    249.1483   8.5964534818e+01  -5.5599726620e+00    0.3784321    0.2548905  39.77 0.0004354583    1.518    0.341
        49 -10.3803    190.8426    248.6086   8.7262761118e+01  -4.4680948661e+00     0.412573    0.3124204  33.23  0.002682885    1.234    0.190
        50  -9.3772    160.2883    249.8595   9.3437679947e+01  -2.1329402013e-01    0.2562919    0.1322644  27.37  0.001272057    1.879    0.468
        51 -10.2097     67.0297    128.2766   9.6361325429e+01   4.1781726767e+01    0.6211159    0.3691318 -41.18  0.002748605    1.842    0.457
        52  -9.8178     98.5983    128.5090   8.6916007975e+01   3.6591978380e+01    0.6752123    0.4099391  71.84  0.002453864    2.819    0.645
        53  -7.0460    160.6519    128.6880   7.0819421375e+01   2.3925042347e+01    0.1574298    0.1241775   1.71 0.0005523328    1.715    0.417
        54 -10.1545     58.3691    124.4435   9.8308358217e+01   4.3932393242e+01    0.6234873    0.3798968  78.84  0.002164759    2.501    0.600
        55 -10.0357     41.8046    122.2004   1.0316708357e+02   4.6490400053e+01    0.7490093    0.3797605  89.66  0.002718796    3.326    0.699
        56 -10.1289     27.2001    122.7457   1.0791631534e+02   4.7808316705e+01     0.630597    0.3325958  66.66  0.002348005    2.695    0.629
        57  -9.8004    140.7879    118.3451   7.3007982828e+01   3.0482544743e+01     0.488158    0.3495241 -85.83  0.001281165    2.012    0.503
        58  -8.6624      1.6093    116.3733   1.1511410729e+02   5.1252930967e+01    0.4276411    0.1435765 -80.57  0.001638924    3.080    0.675
        59 -10.3314     91.8006    113.0793   8.5285999457e+01   4.1529010162e+01    0.6788881    0.5517305  65.44  0.001592224    1.407    0.289
        60  -8.7650     92.1134    103.9952   8.2877255870e+01   4.3596816015e+01    0.7022013    0.4510829  14.27  0.002851916    2.348    0.574
        61  -8.4394    152.6408    114.8382   6.9268797441e+01   2.8645607675e+01    0.2328994    0.1391962 -54.59 0.0008508532    1.787    0.440
        62 -10.5459     77.9158    112.3661   8.9452458870e+01   4.4052833001e+01    0.7187416    0.4866097 -71.55  0.002332866    1.722    0.419
        63  -9.6856     81.5050     99.3891   8.5038178397e+01   4.6516524242e+01    0.8230385     0.307596 -50.80  0.001966033    2.542    0.607
        64  -7.3132    158.6252    122.2879   6.9736302015e+01   2.5738228763e+01    0.1601045    0.1218756  87.84 0.0007019227    1.722    0.419
        65  -7.8805    239.6010    113.7845   5.2977057632e+01   1.0603967913e+01    0.1938087     0.107436 -47.81 0.0009410803    1.596    0.373
        66  -7.8679    167.4374    113.9922   6.5739723467e+01   2.5535353693e+01    0.2332809    0.1460832 -43.73 0.0004762177    1.548    0.354
        67  -7.2727    236.4592    113.5393   5.3374914294e+01   1.1229757987e+01    0.1353907    0.1161956 -46.85 5.205095e-05    1.001    0.001
        68 -10.6444     62.9467     95.3706   9.0248538137e+01   5.0343414095e+01     1.263095    0.6164927 -66.74  0.004746944    2.788    0.641
        69  -9.0651     64.4872     86.0247   8.7214771691e+01   5.2233075355e+01    0.6940483     0.390438   3.34  0.002478734    3.598    0.722
        70 -10.3127     65.6992    110.9256   9.3075805427e+01   4.6260626261e+01    0.7819508    0.5930191  85.93 0.0009746898    1.659    0.397
        71  -9.0879     59.4497    109.4980   9.4825539119e+01   4.7478090681e+01    0.2765133     0.217791  71.69  0.000586831    1.536    0.349
        72 -10.0040     14.4711    111.4645   1.1031562287e+02   5.1612455476e+01    0.5085133    0.2715232  84.69  0.001841716    2.406    0.584
        73  -8.4887     14.3131    105.3236   1.0942112350e+02   5.3108570343e+01     0.193691    0.1453044 -28.46 0.0006212055    1.462    0.316
        74  -8.4342    158.9550    111.6214   6.7010682182e+01   2.7917585056e+01    0.2829173    0.2059397 -62.15 0.0003920825    1.516    0.341
        75  -8.9609     30.8624    108.8009   1.0436933835e+02   5.0910109970e+01    0.4162772     0.244445 -85.80  0.001935836    2.086    0.521
        76  -9.8361     24.8534    111.2339   1.0682557901e+02   5.0853298966e+01    0.3186881    0.2362974   8.61  0.001623484    1.632    0.387
        77 -10.6885     21.6639    102.0377   1.0632446087e+02   5.3344679634e+01     1.048884      0.51249  74.76  0.003278111    4.493    0.777
        78  -9.0823     21.2514     91.6989   1.0453016405e+02   5.5826628784e+01    0.3748269    0.1596301 -43.32  0.001551589    2.191    0.544
        79  -9.7578     19.3906     87.7772   1.0444147931e+02   5.6882665722e+01    0.4753821    0.1264656 -51.66  0.001565589    2.751    0.637
        80 -10.7940     44.9101    102.3172   9.8213786140e+01   5.1023632030e+01    0.8379983    0.4685366  72.85  0.003054969    3.729    0.732
        81  -9.1751     39.8582    106.7319   1.0089158321e+02   5.0515106491e+01    0.2698245    0.1757795 -73.32 0.0006936849    1.572    0.364
        82  -8.6019    249.1789    105.0168   4.9848719835e+01   1.0331024451e+01    0.2266824    0.1251408 -58.51  0.001083135    2.009    0.502
        83  -9.6495    149.5472    103.2721   6.7013215438e+01   3.1765638762e+01    0.4458432    0.2869477 -60.82   0.00101134    1.826    0.452
        84  -8.3912    150.5939     96.2884   6.4915981530e+01   3.2946645454e+01    0.3870554    0.2720495  -5.06  0.001565894    2.386    0.581
        85  -9.4967      6.2775    103.4615   1.1187336255e+02   5.4078528589e+01    0.3684775    0.2486714  69.14  0.001289283    1.757    0.431
        86  -8.2734    165.9680    103.9634   6.3531090922e+01   2.7898897880e+01    0.2340195    0.2111926 -66.95 0.0004928637    1.098    0.089
        87  -8.3637     73.9053    102.2676   8.8279952402e+01   4.7090638318e+01    0.3829983    0.1717898 -44.92  0.001239308    2.186    0.542
        88  -8.5557    159.0502    101.2214   6.4320345841e+01   3.0023186632e+01    0.3136531    0.2066134 -50.12 0.0005480507    1.514    0.339
        89  -9.3249    242.5126     96.5211   4.8940325359e+01   1.2968482798e+01    0.2437615    0.1125481 -40.47 0.0008316474    1.847    0.459
        90 -10.1237     85.4161     86.4118   8.0159706495e+01   4.8718204139e+01    0.5101502    0.3826436  86.18  0.001009528    2.017    0.504
        91  -9.6725     87.5049     78.6775   7.7171956225e+01   4.9955979422e+01    0.6988126    0.3772697  25.91    0.0022773    2.493    0.599
        92  -9.4015     94.2812     97.0272   8.0332048422e+01   4.4775581323e+01    0.3563955    0.2874008 -86.65 0.0006561658    1.579    0.367
        93 -10.4686     92.4434     92.3081   7.9592213029e+01   4.6159087283e+01    0.6215609    0.4028642  16.05   0.00032451    2.222    0.550
        94  -9.3936    205.9761    247.9785   8.4305222749e+01  -6.4737239302e+00    0.2274387    0.1920126  55.50  0.001506265    1.781    0.439
        95 -10.4979     25.8336     78.1000   9.9810196905e+01   5.8554362108e+01    0.6183245    0.4291975  76.95  0.002028311    2.184    0.542
        96 -10.4121     48.3541     82.6394   9.2213198700e+01   5.5174055529e+01     0.993668    0.4862272 -50.29  0.002323126    1.812    0.448
        97  -9.9974     50.0637     54.4568   8.2965467507e+01   6.0738078535e+01    0.5535105     0.295252 -50.74  0.002058105    1.968    0.492
        98  -9.5607     56.4250     42.7735   7.6145490328e+01   6.1864130144e+01    0.7042068    0.3967359   1.27  0.002876097    3.181    0.686
        99 -10.2692     34.4916     90.3444   9.9320032132e+01   5.4961682653e+01    0.6748854    0.3338414 -76.35  0.002100198    2.945    0.660
       100 -10.0411     37.5432     80.2510   9.5732186152e+01   5.6944140004e+01    0.6712537     0.353696 -10.93  0.002139516    3.232    0.691
       101  -8.2675    163.3382     87.0426   5.9664818254e+01   3.1781779267e+01    0.2819045    0.1934146 -57.48 0.0004640414    1.550    0.355
       102  -8.9807    157.7913     90.9001   6.1867598055e+01   3.2342756242e+01    0.4382424    0.2331448 -40.18  0.001785929    1.882    0.469
       103 -10.0284      4.4267     89.3822   1.1032583948e+02   5.7493576230e+01    0.5640476    0.2908112  89.53   0.00205005    2.554    0.608
       104  -9.4054      6.0475     78.9902   1.0785017470e+02   5.9774608493e+01    0.6407226     0.228143 -34.64  0.002642934    3.161    0.684
       105  -8.6092    107.0206     91.0000   7.4785461743e+01   4.3595958774e+01    0.4249437    0.2078468  35.20  0.001590914    2.367    0.577
       106  -9.4166    111.9730     89.1345   7.2816598988e+01   4.2964329829e+01    0.6117619    0.3222716  40.92  0.002477082    1.952    0.488
       107 -10.6799     54.9845     70.8015   8.6307531956e+01   5.6849752629e+01    0.7205051    0.5116227  63.13  0.001268633    2.174    0.540
       108  -8.7155    150.4310     88.5775   6.2862539019e+01   3.4498647803e+01    0.3373142    0.1866313 -37.78  0.001383061    1.875    0.467
       109  -8.6286    164.4610     93.7058   6.1194135722e+01   3.0257167857e+01    0.4616033    0.1923399 -40.73  0.001197769    2.368    0.578
       110  -9.1425    188.1889     96.6321   5.7316521277e+01   2.4280092851e+01    0.3720036    0.2660229 -28.19 0.0007989652    1.598    0.374
       111  -7.2307    116.6361     85.2585   7.0378593042e+01   4.2767030138e+01    0.1510635     0.118462  81.41 0.0004352884    1.633    0.388
       112 -10.2758    103.9737     82.4695   7.3186718262e+01   4.5982338436e+01    0.5947965    0.3149311 -53.41 0.0009273567    2.154    0.536
       113  -9.5145    104.9122     71.3723   6.9498954101e+01   4.7952950047e+01    0.7502131     0.381126 -31.76  0.002850483    2.342    0.573
       114  -8.8802    157.9584     82.4747   5.9553055365e+01   3.3889596009e+01    0.6025818    0.2712132 -32.51  0.001794003    2.686    0.628
       115  -8.3296    156.8695     76.3525   5.8097930024e+01   3.5254093034e+01    0.3559531    0.2128233 -42.43 0.0009169066    1.665    0.400
       116  -7.6173    170.3612     83.2774   5.7261729749e+01   3.0830971676e+01    0.2137831     0.130221 -49.30 0.0009408555    1.630    0.387
       117  -8.9993    149.9189     80.1957   6.0655164217e+01   3.6197393813e+01    0.4227441     0.237698 -39.74  0.001492152    1.800    0.444
       118  -8.8443    119.0098     80.4494   6.8307817823e+01   4.3203468272e+01    0.3402326    0.2282952 -55.75 0.0006282307    1.676    0.404
       119  -8.6230    119.9325     75.8457   6.6677319605e+01   4.3881239180e+01    0.2791556     0.226884   4.68 0.0007537881    1.533    0.348
       120  -9.2309     74.2776     79.3856   8.1845821971e+01   5.2128892450e+01    0.5916926    0.2646314 -49.01  0.001949904    2.180    0.541
       121  -8.2645     68.6127     79.3547   8.3831605440e+01   5.3048899935e+01     0.275014    0.1321184 -53.34  0.001082374    2.142    0.533
       122  -8.2398    240.3518     79.3228   4.5574577647e+01   1.6171462075e+01    0.1215035    0.1032677   7.59 0.0007047912    1.753    0.430
       123  -8.4882    166.3057     78.5438   5.6793645947e+01   3.2633389403e+01    0.2651429    0.1954132 -45.32 0.0006976667    1.335    0.251
       124  -8.3146    184.3961     77.9839   5.3321837485e+01   2.8490889167e+01    0.2527525     0.201336  42.27 0.0006599178    1.451    0.311
       125  -9.3636    127.3927     75.1329   6.4520237585e+01   4.2343871988e+01    0.4079266    0.2678148 -61.39  0.000867913    1.914    0.477
       126  -8.7795    129.2422     68.9255   6.2188454613e+01   4.3042417358e+01    0.5601642    0.3028577  28.44  0.001958698    3.201    0.688
       127  -8.6734    130.4799     64.4950   6.0538436536e+01   4.3523571858e+01    0.3777471    0.2033403 -44.12  0.001610355    1.926    0.481
       128  -8.4734    139.8695     75.3368   6.1547101953e+01   3.9436306173e+01    0.3032406    0.2053081 -46.13 0.0004801884    1.501    0.334
       129  -8.1123    140.6899     70.9000   6.0064255989e+01   4.0036365005e+01    0.2752851    0.2043983 -37.31  0.001354799    1.399    0.285
       130  -8.7417    138.0573     66.0712   5.9238688570e+01   4.1488869984e+01    0.3146065    0.2197455 -53.22 0.0007161062    1.543    0.352
       131  -7.7830    138.3371     62.3257   5.8055051520e+01   4.2050841382e+01    0.1955011    0.1539738 -13.82 0.0009737732    1.576    0.366
       132 -10.3865     62.5694     60.7811   8.0198016310e+01   5.7724083936e+01     1.136582    0.3644878  31.52  0.003807543    3.860    0.741
       133  -8.2302    162.8890     73.0921   5.5986713530e+01   3.4397620961e+01    0.3085822     0.189545 -59.08 0.0009157031    1.874    0.466
       134  -9.2406    115.0785     72.0565   6.6831294340e+01   4.5654078976e+01    0.5237371    0.3052604 -35.27   0.00169003    1.826    0.452
       135  -9.9366     81.5260     72.2258   7.7150363552e+01   5.2339037145e+01    0.4061047    0.3129604 -72.49 0.0009364653    1.781    0.439
       136  -9.1198     83.6475     64.5604   7.3951907948e+01   5.3422163509e+01    0.5660378    0.4127159   8.96   0.00282326    1.684    0.406
       137  -8.0549    238.3344     73.3180   4.4538368671e+01   1.7514093766e+01    0.1190282    0.1035614   8.84 0.0005288986    1.696    0.410
       138  -9.4985     15.9280     70.4038   1.0201085860e+02   6.1039451631e+01    0.4395854    0.1945225 -57.23  0.001442091    1.843    0.457
       139  -9.7494     16.9432     60.1477   9.8982839622e+01   6.3142563453e+01    0.7535714    0.3240047 -50.81   0.00356514    1.854    0.460
       140 -10.8327     21.8889     53.4216   9.4842502534e+01   6.4101436430e+01    0.7829543    0.4833032 -86.87  0.003130198    3.880    0.742
       141  -8.5768     40.9232     20.4010   7.3455633215e+01   6.7523836637e+01    0.2034068    0.1574057 -30.89  0.001340767    1.351    0.260
       142  -7.7924     84.8530    250.6763   1.0886216775e+02   1.0795330268e+01    0.1768897   0.08737874  45.49  0.000912119    1.643    0.391
       143 -10.0400     13.0881     45.3360   9.6470934566e+01   6.6392058335e+01    0.7337539    0.3402957 -11.87  0.002183032    3.019    0.669
       144  -9.8320    150.8760    248.3623   9.5127922373e+01   1.4430986928e+00    0.3116828    0.2370627  33.76  0.001943073    1.110    0.099
       145  -9.6737    173.7303    248.7421   9.0610920623e+01  -2.0230265324e+00    0.3811785    0.2506405  69.38  0.001764905    3.380    0.704
       146  -7.9612    237.2045    244.3798   7.8118009964e+01  -1.0017557520e+01    0.1462459    0.0951577  34.35 0.0004139988    1.619    0.382
       147  -9.4093    188.2303    233.6470   8.5470306174e+01  -1.7807079224e+00    0.2745456    0.2319254 -57.68  0.001467506    1.593    0.372
       148  -9.0127    196.8382    231.8289   8.3499365858e+01  -2.7674520727e+00    0.2744925    0.2425338  81.37  0.001425848    1.793    0.442
       149  -9.2914    185.2853    226.2035   8.4859527906e+01  -1.1493043422e-01    0.2972087    0.2353233  36.67 0.0002378757    1.240    0.194
       150  -9.3198      6.7461     32.4297   9.5420076316e+01   6.9246075173e+01    0.2715428    0.1731333 -13.10 0.0005913938    1.481    0.325
       151 -10.1101      7.4362     28.2460   9.3555942253e+01   6.9934391721e+01    0.4556152    0.2756696  29.78  0.002856218    1.924    0.480
       152  -7.2244    175.2929     72.2892   5.3447694061e+01   3.1594592900e+01    0.1368696    0.1152114  22.18 0.0003475472    1.547    0.354
       153  -8.4620    169.4069     70.3010   5.3989262747e+01   3.3324308821e+01    0.2669575    0.1427728 -33.51 0.0006781718    2.037    0.509
       154  -9.1961    147.0111     69.2542   5.8180851892e+01   3.8832040158e+01    0.3872451    0.2547996 -64.62 0.0009174148    1.899    0.473
       155  -8.2813    156.5280     69.9760   5.6392603624e+01   3.6446452502e+01     0.216532    0.1438597 -39.14 0.0004612635    1.534    0.348
       156  -9.6979     94.8329     68.2716   7.1556150887e+01   5.0584968338e+01    0.4078217    0.2700749 -51.45 0.0007844447    1.671    0.402
       157  -9.4070     97.2755     58.5661   6.7601277817e+01   5.1829983634e+01    0.8066742    0.4707481  -3.94  0.002744879    3.977    0.749
       158  -7.8023     23.2829     68.9780   9.8588410964e+01   6.0769041638e+01     0.178684    0.1384555 -46.61 0.0002910085    1.097    0.089
       159  -8.8429    121.2496     66.0490   6.3320236262e+01   4.5364498696e+01    0.3467412    0.2630953 -68.76  0.001110924    1.647    0.393
       160  -8.1236    122.2062     61.1983   6.1554444306e+01   4.5977358560e+01    0.3201227    0.2113681  24.48  0.001162333    2.068    0.516
       161  -9.2536    109.7746     63.7725   6.5683125849e+01   4.8295872301e+01    0.3308902    0.2795422 -67.18 0.0008139846    1.390    0.281
       162  -8.8932    110.6973     58.3663   6.3671155956e+01   4.9017700583e+01    0.4239249    0.3072334   3.42  0.001483477    1.896    0.473
       163  -8.3999    157.7610     63.0787   5.4211546032e+01   3.7300563742e+01    0.2273469     0.181971 -68.01 0.0008609671    1.314    0.239
       164  -9.7850     73.2050     59.2706   7.5773277930e+01   5.6263177715e+01    0.4249969    0.2583283 -52.30  0.000798643    1.917    0.478
       165  -9.3931     75.4139     50.8414   7.2030096925e+01   5.7351458431e+01    0.6723354    0.3856988  12.84  0.002676828    3.003    0.667
       166  -7.9050    164.5973     60.1867   5.2119898861e+01   3.6123960508e+01    0.1878241    0.1404859 -24.32 0.0006237685    1.597    0.374
       167  -8.3872    152.4061     60.0829   5.4414544903e+01   3.9066493472e+01    0.2492412    0.2353766 -41.13  0.001429114    1.131    0.116
       168  -8.8725    146.4987     58.9414   5.5285806863e+01   4.0662117668e+01    0.2764316    0.2010685 -38.33 0.0007174456    1.430    0.301
       169  -8.5144    147.6512     53.6721   5.3500390633e+01   4.1206374504e+01    0.4154106    0.2490901 -21.17  0.001805505    2.247    0.555
       170  -8.4685     87.6052     58.4356   7.0585866278e+01   5.3777662981e+01     0.282772    0.2357235 -60.97 0.0008238954    1.461    0.316
       171  -8.5404     89.1059     52.9831   6.8217903700e+01   5.4412828217e+01    0.4423168    0.2806974  22.70  0.002052312    1.960    0.490
       172 -10.1947     85.1534     48.0388   6.7731404713e+01   5.5989031851e+01    0.3933994     0.308163 -67.70  0.000963453    1.818    0.450
       173 -10.3575     90.8893     37.6579   6.2138021839e+01   5.6395487643e+01    0.9293107    0.3719164  35.75   0.00338964    3.180    0.686
       174  -7.5625      9.6594     59.7113   1.0209174507e+02   6.3745740202e+01    0.1290932   0.07230792 -32.83 0.0007022158    1.644    0.392
       175  -8.0374    142.0719     44.4972   5.1873778571e+01   4.3886956080e+01    0.2056957    0.1735808  61.86 0.0004785348    1.101    0.092
       176  -8.8015    139.7876     40.0447   5.0968486995e+01   4.5046020146e+01     0.405533    0.2361121 -39.02   0.00128376    1.802    0.445
       177  -9.1371    144.1071     36.3477   4.9015123635e+01   4.4498124252e+01    0.2937923    0.2158931 -81.00 0.0005564057    1.552    0.356
       178  -8.3073    142.0117     48.4648   5.3087179641e+01   4.3333246445e+01    0.2381146    0.2071205 -26.51 0.0003340602    1.280    0.219
       179  -8.8098    138.9003     56.7112   5.6238662737e+01   4.2823404216e+01     0.330456    0.2147949 -47.78 0.0005399093    1.625    0.384
       180  -8.1576    139.4561     52.0211   5.4696944998e+01   4.3414908005e+01    0.3185384    0.2275609  31.45  0.001555883    1.701    0.412
       181  -9.0897    130.0488     56.4847   5.8168155669e+01   4.4940403755e+01    0.5310798    0.2350348 -32.73  0.001393909    2.521    0.603
       182  -8.5570    122.7716     40.7728   5.4829853482e+01   4.8960377659e+01    0.5118273    0.2939396  19.30  0.001948378    3.279    0.695
       183  -9.3961    118.1322     54.5807   6.0471588436e+01   4.7979626151e+01    0.5167246     0.301817 -36.32  0.001699681    1.796    0.443
       184  -8.9296    121.1021     46.8768   5.7223763370e+01   4.8479290555e+01    0.3384246    0.2245765 -40.62 0.0006480352    1.597    0.374
       185  -8.6712    162.4896     53.9618   5.0775013843e+01   3.7592018362e+01    0.2629375    0.1857583 -56.32 0.0007536956    1.467    0.318
       186  -8.8550    105.6167     51.7466   6.2868033751e+01   5.1195626304e+01    0.5660678    0.3108319 -26.09  0.001958081    2.200    0.546
       187  -8.8316    111.9053     46.7139   5.9470417084e+01   5.0585480017e+01    0.2957897    0.2427264 -57.11 0.0005094202    1.403    0.287
       188  -7.9416    113.1747     42.2207   5.7624399155e+01   5.0951442501e+01    0.2449802    0.1462722  31.58  0.001039886    2.035    0.509
       189  -7.1129    152.5826     53.5086   5.2483732682e+01   4.0046400964e+01    0.1419891    0.1311984 -88.62 0.0001163817    1.037    0.036
       190  -7.4142    172.4838     50.4903   4.8126105866e+01   3.5704900005e+01    0.1419797    0.1256046 -83.06 1.125495e-05    1.044    0.042
       191  -8.4941    157.4936     49.0434   5.0286396336e+01   3.9525096211e+01    0.2022484    0.1379645 -37.83 0.0003823829    1.529    0.346
       192  -8.9216    149.8371     46.9184   5.1087607506e+01   4.1677978566e+01    0.5090494    0.1741154 -33.70  0.001762913    3.103    0.678
       193  -8.7720    186.4192    221.5760   8.3871384866e+01   4.8922313577e-01    0.2251634    0.1905168   2.13 0.0004286045    1.108    0.098
       194  -8.6496    132.8833     35.8370   5.1043253622e+01   4.7245017112e+01    0.2940775    0.2031937 -51.56 0.0006590267    1.613    0.380
       195 -10.4559    217.0567    225.9773   7.8706665370e+01  -4.7739775339e+00    0.2197711    0.1924069  -8.68 0.0003548932    1.133    0.117
       196  -8.3077    162.0448     46.0035   4.8629602595e+01   3.8862325217e+01    0.2237149    0.1551126 -72.08 0.0006676978    1.633    0.388
       197  -7.6569     76.8056    223.3304   1.0778630635e+02   1.7427978858e+01    0.1725401    0.1149721  29.47 0.0002213951    1.635    0.388
       198  -7.3891    107.3337    220.2876   1.0065023554e+02   1.3500618165e+01    0.1282986    0.1057876  -2.69 0.0005471444    1.626    0.385
       199  -8.3194    187.0638    216.9952   8.2972683437e+01   1.1728272624e+00    0.1909251    0.1678988   8.29 0.0002916348    1.016    0.016
       200  -7.2918    214.0171    213.9754   7.7211412510e+01  -2.4624265562e+00     0.148157    0.1259143  -8.22            0    1.040    0.038
       201 -10.3289    153.9706    211.0000   8.8909448366e+01   7.7140309401e+00    0.2494847    0.2305228 -38.92 0.0004206905    1.162    0.139
       202  -9.6802     79.4231     23.8429   6.0333750908e+01   6.0497513910e+01    0.5306657    0.2546773  31.92  0.001524996    2.417    0.586
       203  -8.9833     84.7743     21.7488   5.7863365396e+01   5.9672596938e+01    0.2474466    0.2061117  43.27 0.0006415544    1.093    0.085
       204 -10.0035     37.5882     41.8661   8.3795343052e+01   6.4620408130e+01      0.40145    0.3298321  56.01  0.001478119    1.814    0.449
       205 -10.3988     35.9033     37.9358   8.3071207169e+01   6.5499835537e+01    0.5424276    0.3092199  -8.29 0.0003729197    2.335    0.572
       206  -8.9372    153.5657     41.2007   4.8735445182e+01   4.1575367659e+01    0.2645269    0.1965042 -75.43 0.0008054928    1.483    0.326
       207  -9.8716     10.9432    207.3516   1.2065167939e+02   2.8845240846e+01    0.5939476     0.271667  22.14  0.002881445    2.999    0.667
       208  -7.8629    110.3763     26.7364   5.2951881904e+01   5.3583892087e+01    0.2402783    0.1708546  39.86  0.001081756    1.356    0.262
       209  -9.2152    110.2023     32.9613   5.5176470100e+01   5.2861636561e+01    0.3833429     0.254655 -43.58  0.001094365    1.689    0.408
       210  -8.9283    104.9831     40.9796   5.9328756229e+01   5.2942735748e+01    0.3900397    0.2105678 -45.45 0.0007319985    2.140    0.533
       211  -8.4703    106.2769     36.0374   5.7249314798e+01   5.3335450446e+01    0.2521006     0.181124  48.46  0.001042457    1.269    0.212
       212  -8.3388    153.9523     35.4329   4.6997355681e+01   4.2243041598e+01    0.3390329    0.1960275 -64.62  0.001511038    2.207    0.547
       213  -8.7140    118.8811     34.7715   5.3730781347e+01   5.0656823790e+01    0.3037751    0.1876984 -30.96 0.0009376974    1.766    0.434
       214  -8.4397    106.0240    207.0184   9.9139928583e+01   1.6545912115e+01    0.1989562    0.1813805  53.44  0.001176433    1.028    0.027
       215  -9.1102    192.5930    195.2781   7.7996774142e+01   4.1434925758e+00    0.6957434    0.3585687 -63.11  0.002248412    4.899    0.796
       216  -9.5888     60.0256     33.2211   7.0968274492e+01   6.2775153336e+01    0.5470654    0.3079369 -34.32  0.002662438    1.783    0.439
       217  -8.5282    176.5762    196.6051   8.1545547590e+01   6.6309823806e+00    0.2324052    0.1902091  25.06 0.0006098671    1.181    0.153
       218  -9.2877     38.2720    195.3302   1.1366344366e+02   2.8739381141e+01     0.221707    0.1966085 -86.31 0.0005388165    1.144    0.126
       219  -8.7979    229.0070     30.7553   3.6454356647e+01   2.5510239364e+01    0.2363789    0.1831949 -82.53  0.001528498    1.119    0.107
       220  -7.7743    162.1348    193.4163   8.4077268256e+01   9.7945081090e+00    0.2141334    0.1708339 -55.48 0.0005223483    1.378    0.274
       221  -7.1997    109.3357    180.2650   9.4191432993e+01   2.2092358660e+01    0.1415545    0.1170326  -6.59 0.0003420156    1.586    0.370
       222  -8.9489     40.3030    179.9194   1.1161731530e+02   3.2195082403e+01    0.2048005    0.1877015  41.55 0.0003373667    1.255    0.203
       223  -8.6879     46.7335     20.2671   7.0851644855e+01   6.6686304762e+01    0.3764845    0.2146405  -8.17  0.001906116    2.253    0.556
       224  -8.4091    152.7144     29.9792   4.5622131889e+01   4.3222462687e+01    0.2988817    0.1722392 -87.60  0.001313222    2.272    0.560
       225  -8.9324    156.4124     27.1775   4.4223590989e+01   4.2666154962e+01    0.2277741     0.170093 -72.48 0.0005881359    1.398    0.285
       226  -8.8938    144.0296     25.5852   4.5778514305e+01   4.5832160762e+01    0.2945496    0.2267686  -7.65  0.001246511    1.674    0.403
       227  -8.9812     91.6030     26.2297   5.7630581240e+01   5.7734908914e+01    0.2871544    0.2205513 -52.92 0.0009608411    1.650    0.394
       228  -8.6736     92.0922     20.9497   5.5471298606e+01   5.8244548117e+01    0.3402687    0.2088258  27.89  0.001400166    1.812    0.448
       229  -8.0774    240.8613     25.8214   3.4427416624e+01   2.3678002484e+01    0.1657854     0.147379 -75.65 0.0004784434    1.224    0.183
       230  -8.5994    128.2874     25.5741   4.8676575505e+01   4.9581506857e+01    0.2567868     0.194281 -38.76 0.0009466848    1.446    0.308
       231  -7.9075    129.8041     21.4258   4.7041111379e+01   4.9686908930e+01    0.2192784    0.1580851  21.39  0.001175899    1.756    0.431
       232  -7.4838    149.6643     25.2867   4.4749037655e+01   4.4512182063e+01     0.137594   0.09510151 -75.85  0.000491876    1.628    0.386
       233  -9.4077    118.7063     21.3967   4.9243842575e+01   5.2284062956e+01    0.2719239    0.2297953 -65.12 0.0006172215    1.353    0.261
       234  -9.1958    102.8727     21.1210   5.2743990637e+01   5.5895710674e+01    0.2733313     0.216422 -40.32 0.0008438095    1.436    0.304
       235 -10.4679    100.9992    176.0033   9.5578387210e+01   2.4523699324e+01    0.2076626    0.1945425  74.33            0    1.006    0.006
       236  -8.0355    139.5912     17.7853   4.4155489994e+01   4.7750726908e+01    0.1722354    0.1166044 -45.43 0.0004238905    1.604    0.377
       237  -8.1844    155.4560     17.5180   4.1614031424e+01   4.3979549987e+01    0.1320172    0.1133689  86.99  0.000808296    1.048    0.046
       238  -8.7242    132.9152     17.1697   4.5111198384e+01   4.9401717231e+01    0.2002711    0.1642184 -83.85 0.0005652554    1.276    0.217
       239  -7.1944    135.9754    165.7658   8.4886868947e+01   2.0629148804e+01    0.1851806    0.1251662  39.66 0.0002009649    1.470    0.320
       240  -8.4803    133.5852    145.8060   8.1300280633e+01   2.5721207399e+01    0.5328618      0.15339 -53.70  0.001452838    4.007    0.750
       241  -8.4873    233.9942    146.7722   6.0721455380e+01   5.8454860707e+00    0.1652325    0.1128982  44.68 0.0008827901    1.671    0.402
       242  -8.5060    112.3896     15.5334   4.8557045068e+01   5.4345728700e+01    0.2230289    0.1932809 -52.88 0.0005838262    1.326    0.246
       243  -9.5968     66.6966    144.1360   9.9441614343e+01   3.7823052706e+01    0.5781626    0.3877551  89.48  0.002672057    1.771    0.435
       244  -9.6843    182.8346    143.2929   6.9379552445e+01   1.6193905982e+01    0.2575685    0.2380815 -52.06 0.0002771123    1.071    0.066
       245  -7.7949    188.2284    140.0170   6.7546895078e+01   1.5765649036e+01    0.1989628    0.1885196 -33.17 0.0004182086    1.025    0.024
       246  -7.4601     96.0138    136.4765   8.9419513706e+01   3.5097668572e+01    0.2200068    0.1219503  59.40 0.0007404388    2.465    0.594
       247  -8.7157    112.5120    133.8546   8.4194949485e+01   3.2700265092e+01    0.4032395     0.263345  70.16  0.001199646    2.200    0.545
       248  -9.0213     83.7381    131.8546   9.2024933436e+01   3.8325961802e+01    0.7139923    0.4143444  73.42  0.002500919    3.179    0.685
       249  -7.8615    242.6708    132.6690   5.6466514901e+01   6.8036679661e+00    0.1322806   0.09884547  -8.10 0.0007051693    1.715    0.417
       250 -10.2254    139.5481    103.7395   6.9541752239e+01   3.3912529823e+01     1.128761    0.5005977 -53.99  0.003508264    2.695    0.629
       251  -9.8384    138.7191     92.1652   6.6602448469e+01   3.6482995203e+01    0.7769376    0.3772809 -36.37  0.002421179    2.270    0.559
       252  -9.0859    140.5451     81.9527   6.3291805856e+01   3.8054522029e+01    0.5402251    0.2637485 -42.54  0.001542528    2.053    0.513
       253  -8.0777    189.9571     15.4927   3.6822057381e+01   3.6027483403e+01    0.1809454    0.1570464 -68.70 0.0005037392    1.114    0.102
       254 -10.7261    117.6068    123.6613   8.0396954582e+01   3.4121223390e+01     1.059009    0.7662252 -45.55   0.00222326    1.372    0.271
       255 -10.6129    131.4533    119.4870   7.5666088870e+01   3.2226474862e+01      1.07868    0.6611839 -80.76   0.00358751    3.324    0.699
       256 -11.0130    133.7550    109.4541   7.2507797364e+01   3.3960828320e+01     2.498752    0.5310729 -46.58  0.006246299    4.711    0.788
       257 -10.1304    108.8085    114.5041   8.0599446807e+01   3.8004224884e+01    0.7805307    0.4842747 -81.19  0.001557847    3.010    0.668
       258 -10.8651    108.9642    101.1239   7.7045687637e+01   4.1010641937e+01     1.122858    0.8380191 -85.10  0.005031779    1.857    0.462
       259 -10.5307    123.3441     91.9900   7.0490071017e+01   3.9943215623e+01     1.285879    0.6119302 -33.20  0.001555396    2.682    0.627
       260 -11.1940    121.0428    109.7908   7.5959955807e+01   3.6598566006e+01     1.827441    0.7389933 -56.77  0.005637049    3.315    0.698
       261  -7.5955     50.2972     35.2950   7.5723105317e+01   6.3988215783e+01    0.1272116   0.08768836  -1.65   0.00022615    1.566    0.361
       262 -10.7473    126.8624    103.5487   7.2739802075e+01   3.6736427874e+01     1.136598    0.6193221 -26.65  0.003650319    2.972    0.663
