#   1 NUMBER                 Running object number                                     
#   2 MAG_AUTO               Kron-like elliptical aperture magnitude                    [mag]
#   3 X_IMAGE                Object position along x                                    [pixel]
#   4 Y_IMAGE                Object position along y                                    [pixel]
#   5 X_WORLD                Barycenter position along world x axis                     [deg]
#   6 Y_WORLD                Barycenter position along world y axis                     [deg]
#   7 A_WORLD                Profile RMS along major axis (world units)                 [deg]
#   8 B_WORLD                Profile RMS along minor axis (world units)                 [deg]
#   9 THETA_WORLD            Position angle (CCW/world-x)                               [deg]
#  10 FWHM_WORLD             FWHM assuming a gaussian core                              [deg]
#  11 ELONGATION             A_IMAGE/B_IMAGE                                           
#  12 ELLIPTICITY            1 - B_IMAGE/A_IMAGE                                       
         1 -11.4932     18.9131     28.3248   8.8239892074e+01   6.8978674091e+01    0.4720887    0.2470112 -48.17  0.000708037    1.890    0.471
         2 -11.6296     14.2295     38.3563   9.4485903453e+01   6.7588394240e+01    0.6054502    0.4827906 -44.06  0.002749342    1.248    0.199
         3 -11.4704      5.4861     36.9643   9.8511467084e+01   6.8450591743e+01    0.7553658    0.4266012 -57.91  0.004327043    1.743    0.426
         4 -13.0963     62.1964     44.4047   7.4889030230e+01   6.0763959792e+01    0.4669527    0.4275303 -15.48 0.0007638058    1.170    0.145
         5 -10.9893    131.7873     35.5165   5.0853779414e+01   4.7545694384e+01    0.4963005    0.3374383 -42.91 0.0004056399    1.606    0.377
         6 -12.4995    107.7227     29.0229   5.4154683173e+01   5.3944460374e+01    0.4443616    0.3869369   0.09  0.002671791    1.207    0.172
         7 -11.9124    105.6505     21.1794   5.1766678931e+01   5.5296058577e+01    0.5083793    0.3101897  62.50 0.0004195704    1.618    0.382
         8 -10.3551     26.5303     21.0898   8.1110082980e+01   6.9350652307e+01    0.5250146    0.3546129   4.21  0.002658076    1.335    0.251
         9 -11.1646    218.2510     19.1398   3.4296946137e+01   2.9025692927e+01    0.5322884    0.2673906 -58.58  0.002114478    1.882    0.469
        10 -10.1238    211.5142     15.7013   3.4134502943e+01   3.0898206668e+01    0.4677856     0.192335 -58.88  0.001625207    2.579    0.612
        11 -10.5341    206.3742     24.5406   3.6657749402e+01   3.1038308394e+01    0.4350838    0.3582115 -76.59  0.001246354    1.037    0.036
        12 -11.5987     62.4997     16.7169   6.3011293956e+01   6.4600537030e+01    0.7546995    0.3644475  40.85  0.002017505    1.826    0.452
        13 -10.1568    153.6715     22.9098   4.2915915294e+01   4.3726439203e+01    0.2511078    0.1940042  57.28 0.0003761793    1.199    0.166
        14 -11.1576    165.6988     18.5843   3.9925753985e+01   4.1275856247e+01    0.4783435    0.3538572  11.68  0.001850431    1.907    0.476
        15 -10.6666     16.4238     17.7532   8.4994376458e+01   7.0919416537e+01    0.9552372    0.4188705  17.29  0.004887094    2.419    0.587
        16 -10.2662     13.8249     11.2018   8.3351211087e+01   7.2148455310e+01    0.2543599     0.182249   7.96  0.000733982    1.230    0.187
        17 -10.9573     15.0309      4.2592   7.9088806497e+01   7.2982528464e+01    0.5122744    0.3138167 -22.70  0.002535899    1.372    0.271
        18 -11.3928     24.8888      6.8720   7.4988827459e+01   7.1511210814e+01    0.2561487     0.182824 -36.88 0.0003956892    1.697    0.411
        19 -11.4822     20.6463      6.6139   7.7153168121e+01   7.2051828626e+01    0.2917027    0.2046358  -3.62 0.0003921841    1.132    0.117
        20 -11.0600      6.0090     16.2206   9.0268600764e+01   7.2058540813e+01    0.6261364    0.3157375 -51.99  0.003046298    2.213    0.548
        21 -10.1135     43.0428     15.6093   7.0492677214e+01   6.7934797928e+01    0.3885219    0.1917498  36.27   0.00205817    1.877    0.467
        22  -9.8306    230.5246     14.2239   3.2228142722e+01   2.6957077350e+01    0.2206084    0.2080945 -62.96 0.0008353346    1.306    0.234
        23  -9.1686    225.7441     16.4911   3.3084454643e+01   2.7711368980e+01    0.2502263    0.1568959 -36.40  0.001479704    1.617    0.381
        24  -9.4172    110.9420     16.3048   4.8731859269e+01   5.4592012584e+01    0.3667433    0.1891088  31.57 0.0007109449    2.309    0.567
        25 -10.2547    117.0705     15.3900   4.7084739509e+01   5.3264154930e+01    0.2946942    0.2076693  47.04 0.0006220898    1.257    0.205
        26 -11.1227    243.8727     13.7365   3.1148885045e+01   2.4275722694e+01    0.3926218    0.2741463  54.08  0.002383221    1.885    0.469
        27 -10.1715    247.4950      9.5121   3.0082326407e+01   2.4030182718e+01    0.2422877    0.1905319 -29.86 0.0008415456    1.601    0.375
        28  -9.9423    248.0108      4.7624   2.9141816729e+01   2.4448601782e+01    0.2212656    0.1390739 -84.00 0.0002180298    1.372    0.271
        29 -10.2130    249.9943      1.6465   2.8435508377e+01   2.4394141418e+01    0.2329233    0.1815981 -74.90 0.0005758009    1.082    0.076
        30  -8.6523     84.8011      8.5965   5.2216912245e+01   6.1066811454e+01    0.1613541    0.1122022  60.83 0.0004181575    1.463    0.317
        31  -9.2497     88.2834      6.4030   5.0366546160e+01   6.0522484073e+01    0.3324774    0.1864628  48.12  0.001367994    1.469    0.319
        32  -9.8278     89.1518     13.2871   5.2957273438e+01   5.9710831034e+01    0.2654382    0.2413098   0.18  0.001281392    1.173    0.148
        33  -9.3537     23.1966      1.7718   7.3154890033e+01   7.2341607393e+01    0.4111691    0.1564564  37.21  0.002081656    2.567    0.610
        34  -8.7275    250.5958     13.4037   3.0625628918e+01   2.2983429524e+01    0.1752128    0.1072997 -23.87 0.0005420941    2.253    0.556
        35 -10.5779    175.3451     12.9044   3.7175233496e+01   3.9550062339e+01    0.5800749    0.3097025  71.61  0.002428679    1.655    0.396
        36  -9.0356    128.8693      9.5226   4.2830800482e+01   5.1027178135e+01    0.4856744    0.3182927  -3.99  0.002229971    1.959    0.489
        37 -10.6719    133.1361     12.6517   4.3114336377e+01   4.9725553858e+01    0.2112301    0.2056925  -9.63 0.0002459899    1.175    0.149
        38 -10.6820     98.4467     12.9531   5.0403559134e+01   5.7728132092e+01    0.4786931     0.240642  57.34  0.001506737    1.753    0.430
        39  -9.3300     90.8660      8.9013   5.0714807267e+01   5.9751514939e+01    0.3197278     0.178265  31.25  0.001479238    1.820    0.451
        40 -10.1064     32.3968     12.7461   7.4133295166e+01   6.9799930041e+01    0.2212124    0.1960187   0.75 0.0007921559    1.324    0.245
        41  -9.5656    218.8410     11.3915   3.2554761399e+01   2.9762982958e+01    0.5458201    0.1113835 -45.81  0.002038999    3.733    0.732
        42 -10.7826    218.0323      3.2103   3.0861212087e+01   3.0798272076e+01    0.3329481    0.2609879  66.46  0.001521702    1.389    0.280
        43 -10.1106    145.6670     12.3630   4.0992253783e+01   4.6740973999e+01     0.421674    0.1889393  61.37  0.001465361    1.864    0.464
        44  -9.7707     78.9886     11.7341   5.5236447849e+01   6.1971358616e+01    0.2205596    0.1675776  13.34 0.0002913674    1.274    0.215
        45  -9.6119     43.5758      9.3616   6.7181613940e+01   6.8603238464e+01    0.3036524    0.1431536  35.84 0.0009300098    1.886    0.470
        46 -10.4042     55.9215     11.3545   6.3022141224e+01   6.6356256710e+01    0.2668184    0.1802239 -15.87 0.0006706764    1.459    0.314
        47  -9.6399     51.1779     12.1979   6.5330053664e+01   6.7064534207e+01    0.3458625    0.2125211 -22.86  0.001660115    1.610    0.379
        48  -8.8367     48.9822      8.0000   6.4183781230e+01   6.7888731879e+01     0.164775    0.1243744  50.35 0.0007465326    1.651    0.394
        49  -8.6493    196.6163     12.4922   3.4791462011e+01   3.4612147914e+01    0.1565482    0.1184485 -23.94 0.0001399523    1.622    0.384
        50 -10.5823    195.7242      3.6593   3.2784637288e+01   3.5709531705e+01    0.6187152    0.2519664  66.54  0.002979994    2.127    0.530
        51  -9.3125    195.2946      8.6728   3.4009256549e+01   3.5310477455e+01    0.2175801    0.1411941 -66.21 0.0006919295    1.448    0.309
        52 -10.5024    192.0360      8.0201   3.4165236032e+01   3.6125927324e+01    0.3571371    0.2883932 -39.75 0.0009521644    1.347    0.258
        53  -9.3604    224.1843      9.3935   3.1705669638e+01   2.8830143360e+01     0.232756     0.144022 -47.25 0.0009688429    1.442    0.306
        54  -9.2526    165.7944      8.9454   3.7257863063e+01   4.2218611815e+01    0.2587043    0.1537848 -39.71 0.0009939104    1.759    0.432
        55  -9.5074    120.0113      8.9236   4.4239655042e+01   5.3170046148e+01    0.3030968    0.1855316 -16.33 0.0009521153    1.937    0.484
        56 -10.2917    232.1541      6.2760   3.0478014029e+01   2.7488425495e+01    0.4651355    0.2096619 -28.68  0.002361161    2.594    0.615
        57 -10.3026    236.4936      6.9189   3.0307657207e+01   2.6525320416e+01     0.266274    0.1752017 -56.85 0.0009201966    1.248    0.199
        58 -10.4895    237.6731      3.0983   2.9472110676e+01   2.6691982345e+01    0.3840769    0.2030467 -88.59  0.002232455    1.733    0.423
        59 -10.7175      9.5254     14.5249   8.7437129341e+01   7.2042399009e+01     0.293104    0.1636206   6.39 0.0009195755    1.739    0.425
        60  -8.9734    202.1816      8.3571   3.3300313557e+01   3.3774773549e+01    0.1798011    0.1353615 -85.28   0.00113506    1.129    0.114
        61  -9.5000     62.1917      6.1746   5.8226688270e+01   6.5760041177e+01    0.2753235    0.2452017  14.73  0.001408549    1.169    0.144
        62  -8.7437     65.5668      4.4795   5.6266621530e+01   6.5284000585e+01    0.1937031    0.1252939  37.98 4.144651e-05    1.278    0.217
        63  -9.8648     74.5109      8.0010   5.4980328793e+01   6.3224026121e+01    0.3731279    0.1888834  53.34  0.001865607    1.800    0.445
        64 -10.6798     73.9461      2.9280   5.2893692197e+01   6.3782533704e+01     0.300117    0.2488847 -13.94  0.001234835    1.325    0.245
        65  -9.9010     69.1865      2.1315   5.3998411576e+01   6.4790521550e+01    0.2544919     0.155404  41.90 0.0005585282    1.341    0.254
        66  -9.2067    169.9547      6.9600   3.6228293051e+01   4.1412458506e+01    0.1886367    0.1593764 -89.82            0    1.037    0.036
        67  -9.0144    167.5301      2.0951   3.5204866227e+01   4.2429816339e+01     0.287893    0.2034556 -23.31  0.001283492    1.699    0.411
        68  -9.7958    106.6941      6.2645   4.5962258140e+01   5.6470612006e+01     0.342165     0.300451 -45.43  0.001103299    1.359    0.264
        69  -8.6142     97.5460      6.9624   4.8283999757e+01   5.8462911114e+01    0.1710061   0.09365168  20.36  0.000434786    2.287    0.563
        70 -10.8366    208.4389      3.6954   3.1712408798e+01   3.2847432192e+01    0.4185854    0.2819549 -63.92  0.001752824    1.304    0.233
        71  -9.6291    153.1706      4.4959   3.7603144460e+01   4.5648245545e+01    0.2510999    0.2085668 -36.81  0.001598326    1.358    0.264
        72 -11.0042     40.3573      2.8330   6.5265189477e+01   6.9810314282e+01     0.410808     0.258226   5.47  0.001071064    1.518    0.341
        73  -8.2553     45.9846      5.4855   6.4180128947e+01   6.8643409739e+01    0.1824455   0.07705103  27.42 0.0008097494    2.631    0.620
        74 -10.5160     30.9089      3.1417   6.9899721039e+01   7.1165310846e+01    0.2409907     0.187412 -37.20 0.0007579777    1.781    0.439
        75 -10.7598    159.9273      2.7210   3.6254679112e+01   4.4185132896e+01    0.3948897    0.2412524  69.54  0.001244132    1.387    0.279
        76 -10.9837    179.8434      1.9925   3.3879538016e+01   3.9536627906e+01    0.2653751    0.1713572  75.00 0.0005560697    1.327    0.246
        77 -10.4892     90.1460      1.8828   4.8039992502e+01   6.0490584194e+01    0.4015214    0.1691371  60.71  0.001324202    2.120    0.528
        78  -8.7262    119.5540      2.4839   4.2099982240e+01   5.3807945086e+01      0.18822    0.1252538  40.47  0.000511773    1.448    0.309
        79 -10.2891    115.7606      1.9266   4.2594124791e+01   5.4733816910e+01    0.2341167    0.1614109  65.81 0.0003197782    1.269    0.212
        80  -8.9351     81.4822      1.5783   5.0149799884e+01   6.2351963683e+01    0.2806335     0.149363  66.00  0.001398177    2.094    0.522
        81  -9.6599     55.8997      1.9344   5.8456126693e+01   6.7296371868e+01    0.1774714    0.1381045  18.37 0.0003708686    1.057    0.054
        82  -9.3946     50.0861      1.9704   6.0707187895e+01   6.8309381857e+01    0.2021234    0.1460151  36.79 0.0006027747    1.231    0.188
        83  -8.8416      3.8097      2.0360   8.4745841772e+01   7.4361380073e+01    0.2996516    0.1213496   0.53  0.001145619    4.850    0.794
        84  -8.4342    227.9267      1.5229   2.9803646299e+01   2.8866706920e+01    0.1675035   0.09819572  80.46 0.0006685822    1.523    0.343
        85  -8.3524    136.0154      1.4678   3.9082613066e+01   5.0001633945e+01    0.1998438    0.1085403  68.38 0.0008894863    1.563    0.360
        86  -8.4426    127.9922      1.2918   4.0268642178e+01   5.1918045114e+01    0.1968446   0.08249079  56.81 0.0009056474    1.903    0.474
        87  -8.3859    109.0419      1.0000   4.3541677313e+01   5.6351112858e+01    0.2102377   0.06215798  64.21 0.0005122228    2.876    0.652
        88  -9.7848     70.0573    115.7721   9.3711414104e+01   4.4334185766e+01    0.3116929    0.2271662  61.51  0.001110354    1.722    0.419
        89  -9.4378    201.5234    249.5546   8.6268880618e+01  -6.1738263789e+00    0.2185214    0.1640092  16.79 0.0006366941    1.079    0.073
        90 -10.5028      3.6795    116.8552   1.1563349496e+02   5.0624265099e+01    0.3441609    0.2887551 -55.66  0.001290996    1.137    0.121
        91  -9.7943     28.5001    117.0123   1.0769407031e+02   4.8828399634e+01    0.3040124     0.218749 -56.35  0.001422498    1.185    0.156
        92  -8.8596    239.2910    117.3387   5.3647262070e+01   9.9483488625e+00    0.1339835     0.101281 -10.18 0.0006409836    1.644    0.392
        93  -9.2659     81.6883    115.8426   8.9966780491e+01   4.2530356216e+01    0.4407533    0.1386677  43.00  0.001357962    3.538    0.717
        94  -9.8631     62.6570    115.4908   9.6081082234e+01   4.5441482394e+01    0.5758193     0.327127  74.35  0.001908459    3.959    0.747
        95  -9.8980     62.9393    110.8876   9.4949317135e+01   4.6544826681e+01    0.2429405    0.2138337 -29.21 0.0002882152    1.143    0.125
        96  -9.6623     48.7208    111.9569   9.9989195051e+01   4.8063202355e+01     0.304091    0.1790411 -36.94  0.001390081    1.813    0.448
        97  -9.0586     48.7911    116.0380   1.0079977019e+02   4.7034857215e+01    0.1972397    0.1630702 -84.53 0.0004064855    1.295    0.228
        98 -10.1355     32.1298    112.2243   1.0565700088e+02   4.9702626691e+01    0.3868294    0.2719647 -84.33  0.001459715    1.535    0.349
        99  -8.2082     40.4902    112.3752   1.0286123264e+02   4.8854780746e+01    0.1359957    0.1224223 -54.63 0.0001083864    1.033    0.032
       100 -10.1974      2.4924    109.0224   1.1501426606e+02   5.2600085544e+01    0.5568811    0.1771514 -60.44  0.001492138    2.206    0.547
       101 -10.5523      6.5803    107.9177   1.1352220409e+02   5.2645737710e+01    0.4299253    0.2186432 -49.77   0.00211405    1.676    0.403
       102  -8.7901    103.2819    108.3728   8.1308725060e+01   4.0498859061e+01    0.2765887    0.1780139 -38.03  0.000601474    1.591    0.371
       103 -10.7648     52.7615    106.9745   9.7530128948e+01   4.8818925586e+01    0.7640544    0.3097591  36.91   0.00301173    2.648    0.622
       104  -9.3975     44.0624    108.4910   1.0086053856e+02   4.9443163302e+01    0.3994893    0.2546655 -74.93  0.001914795    1.716    0.417
       105  -8.8048     43.0000     95.9880   9.8493255278e+01   5.2603819939e+01    0.4280848   0.08491983 -59.53  0.001058713    4.476    0.777
       106  -9.9092     42.7075     99.5522   9.9411157391e+01   5.1777271658e+01    0.5568683    0.1573989  36.32   0.00192323    3.745    0.733
       107  -9.3929     50.5150    103.0888   9.7434189276e+01   5.0038935544e+01    0.3348526    0.2592749  15.91  0.001347245    1.448    0.310
       108  -9.3823     50.5188     99.4842   9.6595158873e+01   5.0911534626e+01    0.3738961    0.2341924 -10.87  0.001676144    2.196    0.545
       109 -10.5780    117.5308    106.1117   7.6494116597e+01   3.8173481113e+01    0.5157938    0.2881972 -35.70  0.001426345    1.957    0.489
       110  -9.0179     35.9603    108.4844   1.0365109463e+02   5.0273011488e+01    0.2797227    0.1783677 -31.30  0.001171422    1.730    0.422
       111 -10.6272     37.2645    103.2006   1.0213725993e+02   5.1447132576e+01    0.5244849    0.3793362  13.75  0.002859639    1.600    0.375
       112  -9.1506    183.9345    107.1442   6.0761129574e+01   2.3207054172e+01    0.2200859    0.2093514 -43.87 0.0003353512    1.012    0.012
       113  -9.7865     92.8052    103.8593   8.3345238820e+01   4.3497420390e+01    0.4923384    0.2551229 -43.67   0.00196355    1.873    0.466
       114  -9.9093     88.2277    102.3021   8.4392107989e+01   4.4673144822e+01     0.476997    0.2338075  46.41  0.001825144    2.317    0.568
       115 -10.2629     63.2469    104.5703   9.3350997877e+01   4.8047269856e+01    0.3271987    0.2533125  -6.85  0.001032796    1.511    0.338
       116 -10.8602    101.4220    101.4710   7.9990869168e+01   4.2440665139e+01    0.6875778    0.3899124 -38.72  0.001316587    1.808    0.447
       117 -10.3545     70.8884    104.4589   9.0713868595e+01   4.6976986400e+01    0.3782391    0.2479258 -31.45  0.001723074    1.684    0.406
       118 -10.0116     77.7980     99.9567   8.7207128009e+01   4.6973682487e+01    0.5605311    0.2443014 -37.24  0.001952571    2.744    0.636
       119 -10.2816    124.4363     98.0835   7.2304276427e+01   3.8470178615e+01    0.5220171    0.3466181  11.19  0.002007087    2.421    0.587
       120 -10.6277    109.1921     98.8403   7.6893929211e+01   4.1498645921e+01     0.535691    0.4404129  78.73  0.002065567    1.567    0.362
       121  -9.1425    106.7304     91.0489   7.5369677595e+01   4.3689837264e+01     0.265791    0.1825041 -45.68 0.0005614825    1.444    0.308
       122  -9.9536     72.1518     99.8959   8.9109356639e+01   4.7873146078e+01    0.2288797    0.2051401 -89.91  0.001234001    1.323    0.244
       123  -8.9632     57.8327     99.8405   9.4081846040e+01   4.9913471133e+01    0.2217721    0.1744207 -34.67 0.0004839089    1.223    0.182
       124  -9.3265     23.3118     94.5902   1.0542241368e+02   5.4760594522e+01    0.2526543    0.1954283 -40.17  0.001029194    1.181    0.153
       125  -9.6421     16.7546     99.1439   1.0864388070e+02   5.4142296782e+01    0.3139023    0.1970215 -32.93  0.001440659    1.647    0.393
       126  -8.9629     20.5267     98.4895   1.0717960853e+02   5.4032316445e+01    0.1860617    0.1582728 -20.08 0.0006377534    1.272    0.214
       127 -11.1602    117.6523     97.9849   7.4180198324e+01   3.9939871827e+01    0.2749383    0.2705864  20.14 0.0003061006    1.032    0.031
       128 -10.4697      2.2177     80.2214   1.1066327135e+02   5.9446115130e+01    0.4289837    0.1942406 -65.75   0.00198231    1.770    0.435
       129  -8.6335      6.8630     90.4360   1.1070709423e+02   5.6830618382e+01    0.6790597    0.2422345 -64.81  0.001292214    2.148    0.534
       130  -9.4766      2.0788     92.5451   1.1279075410e+02   5.6576155754e+01    0.2266889    0.1835949  87.57 0.0004338365    1.339    0.253
       131  -9.8851      1.9049     87.2232   1.1199617228e+02   5.7836716474e+01    0.3997174    0.0955164 -59.55  0.001608121    2.606    0.616
       132  -9.0753      8.5285     98.5448   1.1145037475e+02   5.4804422211e+01    0.2357467    0.1680259 -60.46 0.0007381939    1.119    0.106
       133  -9.0057      4.2115     98.0584   1.1288578017e+02   5.5156937877e+01    0.2713405    0.2051601  -4.96  0.001704243    1.583    0.368
       134 -10.3231    137.4068     96.8249   6.8498861740e+01   3.5868141113e+01    0.4052549    0.3239013 -13.91  0.001903959    1.484    0.326
       135  -8.2200    150.0224     97.0451   6.5449141118e+01   3.2949670461e+01     0.180069    0.1786578 -44.87            0    1.006    0.006
       136  -8.9869     63.8864     97.1142   9.1255443361e+01   4.9741621735e+01    0.2184146     0.194595 -67.76 0.0009468294    1.213    0.175
       137  -8.8090    155.5315     95.9940   6.3873431280e+01   3.1888881900e+01    0.2334399    0.1506751 -40.62 0.0004785093    1.526    0.345
       138  -9.0025    130.1483     96.1885   7.0213944772e+01   3.7621038129e+01    0.2357973    0.2104489  -0.64 0.0007087092    1.225    0.184
       139  -8.9502     86.8790     96.1970   8.3146072351e+01   4.6314415273e+01    0.2142359     0.174323 -17.39 0.0008653548    1.327    0.246
       140 -10.7275     22.0540     87.5714   1.0445797531e+02   5.6523463507e+01    0.3844287    0.2726699  23.51  0.002228049    1.627    0.385
       141 -11.0434     31.8987     93.2935   1.0197836335e+02   5.4348858374e+01    0.4438177    0.2627575 -48.66 0.0006521794    1.424    0.298
       142  -9.6067     27.5017     91.5628   1.0324509961e+02   5.5144827735e+01    0.2243453    0.1995262 -18.73 0.0005119111    1.182    0.154
       143  -9.1170     13.1985     95.9916   1.0936332051e+02   5.5136021782e+01    0.2080047    0.1807202 -30.17  0.001094679    1.206    0.171
       144  -8.7391     80.0440     94.6880   8.5004900276e+01   4.7825488565e+01    0.2005108    0.1907114  10.27 0.0004743009    1.081    0.075
       145  -8.4831    166.5586     94.4683   6.1021425911e+01   2.9627533195e+01    0.1510627    0.1475646 -33.23 9.151285e-05    1.043    0.042
       146  -9.2619     46.9211     92.8553   9.6305050534e+01   5.2913166217e+01    0.4073718    0.1740722 -49.69  0.001698757    1.988    0.497
       147 -10.6797     43.2483     88.5306   9.6605574740e+01   5.4339338906e+01    0.3955906     0.241612  23.39 0.0006066095    1.812    0.448
       148  -9.0991    132.9645     82.4888   6.5462125929e+01   3.9740966609e+01     0.235754    0.2007349 -38.72 0.0004042048    1.179    0.152
       149 -11.4567    128.3660     85.7690   6.7642869991e+01   4.0141766148e+01    0.6715217    0.4543405  26.22 0.0007796371    1.829    0.453
       150 -10.2199    123.4940     87.0245   6.9333087371e+01   4.0973887679e+01    0.5543397    0.2247629 -42.83  0.001937821    2.459    0.593
       151  -9.4069     52.7270     90.2006   9.3486982738e+01   5.2841523956e+01    0.2428805    0.2065764 -47.73 0.0007580692    1.079    0.073
       152  -8.6782    101.5383     88.9469   7.6334119314e+01   4.5176928332e+01    0.2057296     0.187881 -28.77 7.077671e-05    1.062    0.058
       153  -9.3753    104.5532     85.5641   7.4382250167e+01   4.5286170304e+01    0.3532658    0.2555054 -14.57 0.0002895088    1.719    0.418
       154 -10.2563     87.4651     88.4617   8.0714985061e+01   4.7935699605e+01    0.3984551    0.2699738  42.69  0.001867425    1.557    0.358
       155 -10.8065     65.6657     85.7584   8.7516014609e+01   5.2099007757e+01    0.5829558    0.3910796  54.91  0.002653676    2.042    0.510
       156 -11.3980     78.7553     83.4987   8.2188638371e+01   5.0529446988e+01      1.03279     0.443284  33.62  0.002531614    2.504    0.601
       157  -9.4163     73.5077     79.4911   8.2816821461e+01   5.2257184281e+01    0.2711385    0.2238307  -3.12 0.0007017208    1.257    0.204
       158  -9.9926     16.5106     88.0444   1.0666304431e+02   5.6809400360e+01    0.3372266    0.2519283 -62.32   0.00113689    1.158    0.137
       159  -8.9067     97.3440     87.3973   7.7185324576e+01   4.6325992645e+01    0.2429293    0.1824779 -64.47 0.0008350725    1.652    0.395
       160 -10.7944     30.3254     85.2454   1.0075776724e+02   5.6386334823e+01    0.5114535    0.2796613 -51.50  0.001717531    1.505    0.335
       161  -8.7569     58.2189     87.3730   9.0699291865e+01   5.2781973678e+01    0.1817059    0.1308021  39.22 0.0003466104    1.555    0.357
       162  -9.8693    117.5198     85.0711   7.0410970046e+01   4.2671154017e+01    0.3962591    0.2198664 -23.37  0.001419413    2.679    0.627
       163 -10.2452    155.2839     84.0614   6.0593171565e+01   3.4241872188e+01    0.4735977    0.2815875 -24.27  0.001036164    2.170    0.539
       164 -11.1645    150.5447     80.5069   6.0637669860e+01   3.6018701221e+01    0.6073158    0.3073111  60.98  0.002287724    2.305    0.566
       165  -9.5147     37.8791     80.2201   9.6556281945e+01   5.6818324162e+01    0.5055551    0.2176799 -35.90  0.001971452    2.511    0.602
       166  -9.8814     50.4850     83.4985   9.2538894924e+01   5.4656791580e+01     0.244878     0.226983 -23.50  0.001193634    1.071    0.066
       167 -10.3508     45.2492     81.4428   9.3994113194e+01   5.5742599563e+01    0.6346915    0.2346181  34.05  0.001550393    2.885    0.653
       168  -9.2883    101.8500     81.2312   7.3877606712e+01   4.6722214254e+01    0.2746852    0.1942828 -51.62  0.001279554    1.527    0.345
       169  -8.5697    178.4636     81.4853   5.5148712005e+01   2.9234217019e+01    0.1461665    0.1421459 -60.70 0.0004201801    1.040    0.038
       170  -9.6517     20.7169     79.5486   1.0322201341e+02   5.8485760030e+01    0.2708895    0.1566525 -47.79  0.001443774    1.402    0.287
       171  -9.2448     18.7291     75.6299   1.0312193927e+02   5.9522343633e+01    0.2810699    0.1538337 -48.90  0.001480418    1.456    0.313
       172  -8.3100     62.9830     79.9985   8.6818097967e+01   5.3763502302e+01     0.177138     0.147892 -38.55 0.0008713687    1.099    0.090
       173 -10.0473    136.8976     78.4127   6.3249223736e+01   3.9605968770e+01    0.3493533    0.2593537 -60.27  0.001295892    1.577    0.366
       174 -10.6218    137.6904     72.9928   6.1416474878e+01   4.0409198564e+01    0.4081089    0.3175661 -18.21  0.001152523    1.479    0.324
       175  -9.7582     94.1685     70.1074   7.2729551823e+01   5.0442836716e+01    0.4488972     0.304719 -39.44   0.00216099    1.463    0.317
       176  -9.5307     93.2127     74.0446   7.4332300351e+01   4.9865262154e+01    0.3782024    0.2093928 -52.82 0.0003891991    2.151    0.535
       177 -10.6641     89.3790     73.5919   7.5446326717e+01   5.0686325404e+01    0.6704199    0.5201029 -58.58  0.002753906    1.549    0.354
       178 -12.9768     52.9828     74.6620   8.9038243235e+01   5.6295150646e+01    0.6622925    0.3538194 -53.41 0.0008844615    1.823    0.452
       179 -10.6607     45.2546     68.5501   9.0273321611e+01   5.8560707235e+01    0.3969783    0.2168856 -38.18 0.0002013343    1.673    0.402
       180  -9.2465    110.7792     76.6043   6.9728180925e+01   4.5790024616e+01    0.3360735    0.2388152 -37.18    0.0011283    1.412    0.292
       181  -8.8295    111.4987     71.4932   6.7882558073e+01   4.6604509658e+01    0.2952414    0.1795656 -16.74  0.001157712    2.396    0.583
       182  -9.6406     28.2162     76.2436   9.9405413271e+01   5.8631295678e+01    0.3362804    0.1706269 -49.52 0.0008378711    1.605    0.377
       183  -9.0054     80.9020     76.3049   7.9206512928e+01   5.1678594859e+01    0.2080818    0.1717383  24.32  0.001103494    1.221    0.181
       184 -10.5214    180.8407     73.6481   5.2625356286e+01   3.0023087137e+01    0.3971102    0.2901631  26.77 0.0008945701    1.858    0.462
       185  -9.2201    174.9261     75.1043   5.4094427897e+01   3.1177444221e+01    0.2237214    0.1900384 -72.42   0.00034331    1.224    0.183
       186  -9.4116     68.9181     74.6450   8.2971528308e+01   5.4011561594e+01    0.2272557    0.1787979 -29.18  0.000373818    1.197    0.164
       187  -9.9567     64.1399     74.4054   8.4675735461e+01   5.4792582500e+01    0.3209034    0.2014985 -42.92  0.001562887    1.473    0.321
       188  -8.5081     37.6622     75.2157   9.5302103600e+01   5.7961663468e+01    0.1877019    0.1022039 -46.00  0.000386934    1.558    0.358
       189 -10.3512    170.0943     73.0489   5.4445231822e+01   3.2678772868e+01    0.3255409    0.2558291 -38.97   0.00069223    1.272    0.214
       190 -10.4455    145.7554     71.2635   5.9006623682e+01   3.8809472346e+01    0.4513978     0.279766 -18.38  0.001483043    2.235    0.553
       191 -10.9259    144.0877     66.3425   5.7903441855e+01   4.0048784134e+01    0.4725249    0.2832397  40.38  0.002043799    1.804    0.446
       192  -9.4076    173.3774     69.0735   5.2736329645e+01   3.2559203369e+01     0.263184    0.2018667  59.00 0.0006122497    1.295    0.228
       193  -8.8357    152.4061     73.2767   5.8123366255e+01   3.6872940143e+01    0.2543404    0.1853054  82.12 0.0009282529    1.726    0.420
       194 -12.0034     79.4582     69.9555   7.7646175926e+01   5.3211525470e+01    0.3479893    0.2756389  -8.70 0.0003765667    1.328    0.247
       195  -9.7429     83.1366     64.1903   7.4413373040e+01   5.3658460099e+01    0.4576372    0.2397271 -48.02  0.001304796    2.094    0.522
       196 -10.3430    115.8760    248.4352   1.0344618312e+02   6.5998951373e+00    0.2557775    0.2095741  33.57 0.0008273262    1.114    0.102
       197 -10.0436     15.4792     59.9368   1.0056322032e+02   6.3188736903e+01    0.3265821    0.1922055 -57.46 -3.969802e-05    1.506    0.336
       198 -11.7524     39.5909     57.6684   8.9186645942e+01   6.1452201948e+01    0.3676902    0.2901842 -15.81 0.0008795976    1.149    0.129
       199 -11.5853     10.1346     52.0140   1.0081728516e+02   6.5193094902e+01    0.6483358    0.4713891  29.72  0.003469855    1.697    0.411
       200  -8.6211    192.4653    248.5000   8.7861009195e+01  -4.7590221233e+00    0.1249355   0.09980639  12.90 6.715544e-05    1.013    0.013
       201 -10.1342    163.7975    246.2882   9.3263725983e+01  -2.3336582141e-01    0.2957797    0.1400003  25.81  0.001271115    2.169    0.539
       202 -11.7296      2.3769     66.3328   1.0785470775e+02   6.2565482432e+01    0.4270327    0.2091122 -61.14  0.001170897    1.625    0.385
       203 -10.4502      9.0952     61.9387   1.0392303526e+02   6.3169022111e+01    0.4498647     0.316945  25.06  0.002436479    1.692    0.409
       204 -10.5570      3.8139     59.8512   1.0575943514e+02   6.3903773560e+01    0.5138019    0.2342246 -27.77  0.002508602    2.203    0.546
       205 -12.1388     30.7843     63.8619   9.4942293713e+01   6.1099383221e+01    0.7823735    0.5582565  10.71  0.004575927    1.486    0.327
       206 -11.0458     30.9035     53.1229   9.1527224648e+01   6.3282276168e+01     1.056665    0.2715281  31.28  0.003934253    3.928    0.745
       207 -10.1265     32.4376     48.0736   8.9097366924e+01   6.4101882673e+01    0.2859977    0.2307007  57.27  0.001303766    1.970    0.492
       208 -10.6223     24.2474     55.6199   9.5349953943e+01   6.3402325384e+01    0.7434918    0.2681472 -40.59  0.003208692    2.381    0.580
       209 -11.3780     45.6358     48.6507   8.3395724989e+01   6.2440335063e+01    0.8808661    0.4585337 -29.73  0.002345511    1.952    0.488
       210 -10.4628     38.6487     47.1017   8.5916759633e+01   6.3589829823e+01    0.6700649    0.3585992  -1.19  0.002937812    2.724    0.633
       211  -9.7374     25.1145     48.0741   9.2509774799e+01   6.4824736814e+01    0.2921655    0.2030533 -33.10 0.0008163888    1.185    0.156
       212  -8.8230    199.7901     71.2135   4.8865898232e+01   2.6016092628e+01     0.189049    0.1706087  20.15  0.001067702    1.379    0.275
       213 -10.1856    101.8516     70.3035   7.0371826151e+01   4.8860650908e+01    0.3578258     0.280362  16.38  0.001792907    1.401    0.286
       214  -9.8609    105.2910     65.6753   6.7793045785e+01   4.8993307904e+01    0.5363464    0.3357244  61.48  0.002065906    2.077    0.518
       215 -10.2519    119.9809     68.0274   6.4390399592e+01   4.5365607827e+01    0.4885782    0.3445829  25.87  0.002260574    1.654    0.395
       216  -8.6042     64.2405     69.3295   8.3016002667e+01   5.5828758752e+01    0.1945629    0.1244103  40.58   0.00094322    1.720    0.419
       217 -10.4820     18.3595     47.3928   9.5496476839e+01   6.5536453955e+01    0.4243956     0.344833 -24.74  0.002849909    1.049    0.047
       218  -9.6585     10.5812     69.1170   1.0499497501e+02   6.1513773518e+01    0.2256116     0.158294 -18.96 8.361067e-05    1.441    0.306
       219 -11.1435    134.4715     64.8836   5.9691681058e+01   4.2573351987e+01    0.5009222    0.4010101 -67.58  0.002507659    1.492    0.330
       220 -11.1050     97.3443     63.8313   6.9604707612e+01   5.0972474662e+01    0.3056327    0.2547461 -12.50 0.0001382872    1.232    0.188
       221  -9.8889     66.3898     62.2808   7.9831972769e+01   5.6891284149e+01    0.3643709    0.3068821 -60.52  0.001652758    1.504    0.335
       222 -10.2391     70.6295     60.0713   7.7464397328e+01   5.6620615770e+01    0.3602977    0.2644497  44.05 0.0008335891    1.520    0.342
       223  -8.9777    203.1416     63.1675   4.6372587161e+01   2.6520274018e+01    0.1904545    0.1484186 -73.74 0.0003527908    1.290    0.225
       224  -9.4272    193.9157     60.6676   4.7095797013e+01   2.9030733085e+01    0.3312131    0.1988897 -33.76 0.0007135769    1.709    0.415
       225  -8.1692    110.2763     62.6599   6.5326347241e+01   4.8454412109e+01    0.1429177    0.1169797 -73.25 0.0007000979    1.617    0.381
       226  -9.3752     77.3481     62.1393   7.5736665448e+01   5.5083207079e+01    0.2433675    0.1974741  37.24 0.0004885822    1.271    0.213
       227 -10.5212    162.4672     58.8267   5.1890950014e+01   3.6828918930e+01    0.6498802    0.3256692 -19.70   0.00231856    3.223    0.690
       228  -9.6746    164.6293     52.0255   4.9549329324e+01   3.7328340021e+01    0.2843245    0.2038156  60.84 0.0006459652    1.333    0.250
       229  -9.3731    150.8939     60.7470   5.4746035417e+01   3.9329886010e+01    0.3559602     0.194688  54.56  0.001531724    1.750    0.429
       230 -10.9289    142.1446     59.7319   5.6318444404e+01   4.1596776705e+01    0.3370834    0.2749902  31.42 0.0002161114    1.332    0.249
       231  -8.8217    116.0080     61.0426   6.3184782310e+01   4.7465094822e+01    0.2266852    0.1832265 -83.50  0.001118886    1.669    0.401
       232  -9.8897     53.6973     60.8055   8.4320097832e+01   5.9058203171e+01    0.2985241    0.2559392 -66.32  0.000500117    1.545    0.353
       233  -9.1623     52.7935     53.9276   8.2285198668e+01   6.0501694341e+01     0.320947     0.203211 -28.48   0.00115873    1.517    0.341
       234  -9.5204     53.9544     49.9393   8.0344247256e+01   6.1067831531e+01    0.3886098    0.3036144 -89.13  0.001940561    2.610    0.617
       235  -9.7577    167.1784     56.4959   5.0362314854e+01   3.6043976354e+01    0.2391385    0.1955366 -39.54 0.0002688197    1.250    0.200
       236 -10.5770    171.0729     59.1160   5.0403112522e+01   3.4701746574e+01    0.3965671    0.2939311 -58.16   0.00128324    1.406    0.289
       237 -10.2680    176.7722     57.4792   4.8973476524e+01   3.3579247945e+01    0.4885448    0.1862521  53.01  0.001677497    2.550    0.608
       238  -7.9879    105.4667     59.5591   6.5671508708e+01   5.0024714204e+01    0.1451865    0.1351734  18.68 0.0002604086    1.010    0.010
       239  -8.9767    198.9370     58.0226   4.5694268339e+01   2.8265655994e+01     0.200062    0.1840143 -66.98 0.0003044039    1.044    0.042
       240  -9.4357     75.0824     65.9966   7.7878885065e+01   5.4743049797e+01    0.2120481    0.1919596 -13.39 0.0003511982    1.021    0.020
       241  -9.6390    128.9209     57.4683   5.8678913045e+01   4.5091950509e+01    0.2321046    0.1405466  56.37  0.001034699    1.631    0.387
       242 -10.3517     63.7641     54.9359   7.8242108893e+01   5.8682086467e+01    0.5790325    0.4590562 -80.92  0.001603405    2.227    0.551
       243 -10.1780     81.2188     54.4001   7.1611236392e+01   5.5770829755e+01    0.5981397    0.5052769   1.22  0.003406183    1.137    0.120
       244  -9.3611     71.5980     41.3098   7.0084665024e+01   5.9660796945e+01    0.5352271    0.2513866 -18.47  0.001915284    3.609    0.723
       245 -10.4453     71.8048     51.1668   7.3796892597e+01   5.8016409854e+01    0.6782171     0.473574  11.05  0.003493549    1.580    0.367
       246  -8.4581      1.3607    244.2153   1.2547827941e+02   2.1648307064e+01    0.1499213   0.07742928  81.84 0.0003832616    1.610    0.379
       247 -11.2389     51.8583     29.3642   7.2927563859e+01   6.4731882465e+01    0.4067403    0.2329433 -17.96  0.002070364    1.898    0.473
       248  -8.3105     48.6870     57.6930   8.5320339975e+01   6.0337677663e+01    0.1396986   0.09214031 -16.25 0.0007025351    1.622    0.384
       249  -9.1435    136.7297     55.5203   5.6219812083e+01   4.3552878388e+01    0.2759795    0.1969751 -34.38  0.001360871    1.464    0.317
       250 -11.0205    117.9811     52.5691   5.9816668794e+01   4.8389358649e+01    0.4091164    0.2933295 -36.53 0.0004418103    1.457    0.314
       251 -11.5142    125.0969     46.5882   5.6028939241e+01   4.7637184976e+01    0.6917906    0.6497731  -2.67  0.002392382    1.116    0.104
       252 -10.0156     93.6755     54.6880   6.7572211271e+01   5.3301921188e+01    0.3594131    0.2755539  15.83 0.0007627683    1.387    0.279
       253  -8.8058     98.5349     54.9186   6.6138032771e+01   5.2265903739e+01    0.2041285        0.139 -33.49 0.0003718659    1.499    0.333
       254 -11.0240    153.8329     48.7391   5.0576385587e+01   4.0431722487e+01    0.5457852    0.3826716  72.26  0.002715514    1.472    0.321
       255  -9.4320    145.9221     52.7196   5.3352006496e+01   4.1770396795e+01     0.310688    0.2566798  77.01  0.001038656    1.261    0.207
       256  -9.0676    241.1034     54.4335   3.9750099405e+01   1.9629853392e+01    0.2047553    0.1467124  86.98 0.0006697857    1.439    0.305
       257  -8.9833    191.3423     53.6636   4.5684457022e+01   3.0680537144e+01    0.2721266    0.1969572  25.08  0.001328798    2.053    0.513
       258 -10.5180    174.4407     50.3923   4.7422595197e+01   3.5187171435e+01    0.3317086    0.3074019  13.18 7.666649e-05    1.291    0.225
       259  -9.2785    106.7570     52.9715   6.3019633641e+01   5.0829299658e+01    0.2395498    0.1910738  42.25 0.0002551928    1.188    0.158
       260  -9.1227     87.0466     51.7765   6.8671895242e+01   5.5102663799e+01    0.3426341    0.2033759  58.18  0.001071636    2.269    0.559
       261  -9.9264     88.0867     48.4836   6.7115225618e+01   5.5431165508e+01     0.390095    0.2555036 -50.72  0.001874181    1.944    0.486
       262  -9.0532    181.6986     49.2208   4.5962035286e+01   3.3609458290e+01    0.3091328    0.2065933 -19.27  0.001491499    1.926    0.481
       263  -8.7629    245.0187     50.3710   3.8501493674e+01   1.9415106967e+01    0.1666089    0.1370738 -73.59 0.0004441126    1.097    0.089
       264 -10.3216    114.6092     46.5147   5.8624194138e+01   5.0066696436e+01    0.3597247    0.2806928   1.37   0.00132405    1.481    0.325
       265  -9.2563    112.9772     41.4032   5.7262427064e+01   5.1163398341e+01    0.2247972    0.1900193 -48.40 8.142337e-05    1.346    0.257
       266  -9.2652     96.3726     48.8448   6.4623021590e+01   5.3691106490e+01    0.4211466    0.2730551   4.27  0.001875044    2.164    0.538
       267 -10.5741     88.2483     32.9209   6.1110515127e+01   5.7659468130e+01     0.519177    0.3682096  76.59   0.00239443    2.278    0.561
       268 -10.4928     93.9407     44.9250   6.3931643351e+01   5.4795613051e+01    0.4888836    0.2839524  43.47 0.0003584557    1.612    0.380
       269  -9.7039     90.3441     39.0263   6.2825804450e+01   5.6396419065e+01    0.4980299    0.2276117 -35.98  0.002153159    2.281    0.562
       270 -10.2559     77.6813     34.6859   6.5270662921e+01   5.9512073399e+01    0.6205661    0.2873752  42.93 0.0002217182    1.999    0.500
       271  -9.0359     80.9983     31.5085   6.2869046149e+01   5.9301391961e+01    0.2819964    0.1965587  39.93  0.001345878    1.305    0.234
       272  -9.3753     71.4917     30.0122   6.5524822151e+01   6.1312357332e+01    0.3263168    0.2324877 -12.48  0.001841545    1.423    0.297
       273 -10.6631     74.8625     27.2405   6.3180211793e+01   6.1042896073e+01    0.4142331    0.3265969 -47.14  0.001839195    1.662    0.398
       274  -9.0205    234.8919     46.9991   3.8791311000e+01   2.1940875291e+01    0.1834582    0.1534248 -64.53 0.0003234406    1.017    0.016
       275  -9.2097    202.6569     46.9115   4.2443688587e+01   2.9012388587e+01    0.2397071    0.1681788  54.16 0.0004909607    1.541    0.351
       276  -7.9832     84.2875     47.2898   6.7929518715e+01   5.6364354398e+01    0.1391721    0.1006779   9.24 0.0002296145    1.538    0.350
       277  -9.9864     81.0567     44.3467   6.7909539189e+01   5.7446022802e+01    0.4804414    0.2893178  -4.38   0.00207845    2.426    0.588
       278 -10.0967    244.3243     44.2081   3.7284153911e+01   2.0397425361e+01    0.2954785    0.2459432  79.26  0.001417773    1.276    0.217
       279  -9.1727    158.0204     44.6798   4.8604228015e+01   3.9980527871e+01    0.3106377    0.1287325 -43.24  0.001212747    2.497    0.600
       280  -9.1783    108.4204     43.2347   5.9118326140e+01   5.1930073264e+01    0.2765968    0.2388498 -57.79 0.0007673862    1.390    0.280
       281 -10.4825    103.3125     43.0531   6.0469304088e+01   5.3080166121e+01    0.3204321     0.266301  52.16 0.0005704171    1.203    0.169
       282 -11.7667    103.6318     38.6975   5.8790942207e+01   5.3619978918e+01    0.2729825    0.2623153  31.99 0.0002654916    1.092    0.084
       283  -8.6564      4.6040     45.0983   1.0148794241e+02   6.6918559606e+01    0.1909518    0.1192453 -30.89  0.000346927    1.327    0.247
       284  -9.5599    150.2096     53.5158   5.2717130210e+01   4.0613009037e+01    0.3805421    0.2314475 -37.57  0.001535428    1.690    0.408
       285  -8.3914    209.5184     43.5341   4.0786500846e+01   2.7914904417e+01    0.1330177    0.1150073 -72.58 -1.239253e-05    1.004    0.004
       286 -10.5096    136.1523     37.2850   5.0520944548e+01   4.6273899391e+01    0.8034382    0.4685167 -69.90  0.003205313    2.901    0.655
       287  -9.6122    202.9140    242.0826   8.4821432125e+01  -5.2887700272e+00    0.1888967    0.1479347  10.07 0.0003917993    1.039    0.038
       288  -9.3881     32.5360     42.5229   8.7032571609e+01   6.5120848493e+01     0.176829    0.1346845  34.45 0.0005739903    1.591    0.371
       289 -10.2811     35.9199     41.1815   8.4941894747e+01   6.4979525872e+01    0.2277163    0.1795508   6.11 0.0003095778    1.185    0.156
       290 -11.5693     41.4044     38.2574   8.1269455063e+01   6.4812541968e+01    0.3798763    0.2233125  -7.88 0.0008702341    2.055    0.513
       291  -8.2970    191.6864     42.2797   4.2723938836e+01   3.2196993516e+01    0.1395048    0.0941145 -71.11 0.0002730145    1.569    0.363
       292 -10.0217     27.1617     44.3271   9.0236475113e+01   6.5344383255e+01    0.2442952    0.2180724  22.25  0.001653906    1.373    0.272
       293 -10.1640    228.3877     39.0107   3.7707976353e+01   2.4383212851e+01    0.4410853    0.1416613 -39.60  0.001849769    2.603    0.616
       294  -8.7506    222.5935     40.2579   3.8575327518e+01   2.5462390970e+01    0.1677215    0.1199891 -28.10 0.0009471562    1.622    0.384
       295  -9.3340    158.2345     39.3320   4.7000225082e+01   4.0645070664e+01    0.2628566    0.2088983 -56.94 0.0006554993    1.314    0.239
       296  -9.7874    165.1723     36.5050   4.5039246438e+01   3.9318488886e+01    0.3718984    0.3219912  75.82  0.001416604    1.062    0.059
       297 -10.3495    178.0145     36.8638   4.3202263839e+01   3.6163814699e+01    0.4059702    0.2788534 -78.82  0.001722625    1.584    0.369
       298  -8.6052    120.4320     38.1880   5.4295075092e+01   4.9883115243e+01    0.1990182    0.1246582 -44.87 0.0009467297    1.814    0.449
       299  -8.9336     84.0351     37.7050   6.4334742532e+01   5.7853734147e+01    0.3220408    0.1334336  35.89  0.001252388    2.611    0.617
       300  -9.2900    189.2256     28.6670   3.9581079173e+01   3.4510733186e+01    0.4638984    0.1683529  53.75  0.001856773    2.796    0.642
       301  -9.5613    185.9955     36.5063   4.2003181411e+01   3.4301491885e+01     0.280275    0.2049742 -71.74 0.0007279923    1.373    0.272
       302  -9.9527    186.8009     32.7718   4.0932877928e+01   3.4581872575e+01    0.2734384    0.2503498  47.67   0.00107671    1.271    0.213
       303  -9.4472    223.5018     34.7053   3.7244637414e+01   2.5990447040e+01    0.2419075    0.1779165 -69.72 0.0007544038    1.203    0.169
       304  -9.3771    209.4586     33.7064   3.8476691351e+01   2.9218496184e+01    0.2960603     0.191434 -24.36  0.001566146    1.907    0.476
       305  -9.7374    142.0375     32.6718   4.7896054254e+01   4.5428782039e+01    0.5268196      0.26608 -27.83  0.002347631    2.206    0.547
       306  -9.8147    146.4355     29.2886   4.6043120417e+01   4.4764773761e+01    0.3393827    0.2332886  76.94 0.0007709107    1.477    0.323
       307  -9.2193    114.2308     35.4017   5.4826028003e+01   5.1677085197e+01    0.3087421    0.1996517  70.33  0.001382477    1.839    0.456
       308  -9.4333    117.2205     32.8123   5.3190560048e+01   5.1314462708e+01    0.2311964    0.1741916  40.11 0.0003187236    1.251    0.201
       309  -9.0615     95.6080     35.1233   5.9742254147e+01   5.5832739540e+01     0.290166    0.1687264  43.13   0.00133901    1.566    0.362
       310 -10.9811     56.0648     34.4225   7.3325800108e+01   6.3325449995e+01    0.3864464    0.3450967  43.60  0.002467375    1.446    0.309
       311  -8.4175    123.1038     33.8750   5.2198362650e+01   4.9810124103e+01    0.1981554     0.178887  78.83 0.0004759743    1.180    0.153
       312  -8.9479    247.1819    239.3917   7.6237083967e+01  -1.0694367851e+01    0.1534466   0.09713929  33.97 0.0009565373    1.745    0.427
       313  -8.6617    189.3407    239.7085   8.7106556620e+01  -2.9848115482e+00    0.1172114    0.0955337  51.68  0.000697624    1.650    0.394
       314 -10.5060    248.6689     30.2303   3.4061372773e+01   2.1350169204e+01    0.3345754    0.2500977 -16.56  0.002057426    1.989    0.497
       315  -9.1525    153.7265     32.1569   4.5651290957e+01   4.2647953845e+01    0.2356707    0.1549362  48.90  0.001022476    1.498    0.332
       316  -9.1792     43.2189     31.9525   7.7836554322e+01   6.5596544356e+01    0.2090723    0.1825182 -54.26  0.001328571    1.685    0.407
       317 -10.9622     24.7971     29.9072   8.5846744675e+01   6.8137651173e+01    0.3886983    0.2336525 -33.91  0.001771652    1.414    0.293
       318  -9.0061    221.1156    237.4989   8.0612422311e+01  -7.1264331100e+00    0.1772706    0.1039567  28.33 0.0007846226    1.529    0.346
       319  -9.6246     31.4035     28.2621   8.1839633266e+01   6.7678376969e+01    0.3593439    0.2583685  -6.72  0.002271865    1.212    0.175
       320 -10.4503     35.0908     30.6768   8.1082203206e+01   6.6851279860e+01    0.3786786    0.2377207   4.21  0.002129161    1.645    0.392
       321  -9.8436     37.4703     26.5052   7.8135435347e+01   6.7200509386e+01    0.2206376    0.1842048 -10.86 0.0006540993    1.116    0.104
       322  -9.5700    233.8355     30.7483   3.5417408660e+01   2.4297600602e+01    0.3661116    0.1700225  54.37  0.001776488    2.587    0.614
       323  -9.5063    238.5399     37.4220   3.6400147764e+01   2.2470546079e+01    0.2402732    0.1896726  48.07  0.001184043    1.696    0.410
       324  -9.2214    124.1134     29.6113   5.0520535120e+01   5.0088710979e+01    0.3454922    0.1483124  58.21  0.001056197    2.082    0.520
       325  -8.9067     94.3019     30.0874   5.8189084579e+01   5.6757656488e+01    0.2575143    0.1526618  42.95  0.001206782    1.515    0.340
       326  -9.0429    207.1374     16.6119   3.4745013275e+01   3.1775014902e+01    0.1856631    0.1102956  74.38 0.0004941215    1.538    0.350
       327 -10.0138    222.7776     26.5463   3.5514730611e+01   2.7166015145e+01    0.3751393    0.2957287  56.10  0.002051024    1.512    0.338
       328  -9.2175    168.4381    237.4830   9.1002248303e+01   5.0831789718e-01     0.129122    0.1105777  21.87 0.0001654629    1.032    0.031
       329  -9.0437    139.8783    237.0992   9.6942972202e+01   4.9975058888e+00    0.1950611    0.1598133  48.09 0.0004300953    1.206    0.171
       330  -8.6178    182.4508     28.4455   4.0372143601e+01   3.6142659930e+01    0.1327043    0.1165716 -87.50  4.36915e-05    1.004    0.004
       331  -9.2257    134.0672     27.7917   4.7864530437e+01   4.7928945438e+01    0.2152991    0.1994341 -27.14 0.0005923862    1.193    0.162
       332  -8.9344    222.3011    233.3267   7.9690327873e+01  -6.6903712345e+00    0.1283034   0.08029556  -2.46 0.0003062453    1.640    0.390
       333  -8.9824    161.9986     26.9164   4.2801275622e+01   4.1252502424e+01    0.2048463     0.147459  38.39 0.0004719598    1.610    0.379
       334  -9.0904     49.3918     24.7845   7.1959987770e+01   6.5760908576e+01    0.2436695    0.1467746  -4.66 0.0006057153    1.916    0.478
       335  -9.3440     45.8332     25.2598   7.3733151351e+01   6.6226582716e+01    0.2399082    0.1680971 -36.81  0.001068007    1.544    0.352
       336 -10.3901     41.3582     22.0603   7.4304801998e+01   6.7320459624e+01    0.3292066    0.2710318 -51.69  0.001497094    1.879    0.468
       337 -11.3379      2.0003     25.0126   9.6185031116e+01   7.0850472125e+01    0.2510626    0.1527773 -49.21 0.0005856129    1.477    0.323
       338  -9.9247    241.6281     24.9584   3.3561158511e+01   2.3409494234e+01    0.2118161     0.184497 -87.66 0.0009034179    1.205    0.170
       339  -9.9745     62.7618     23.2933   6.5862533103e+01   6.3760177250e+01    0.9022725    0.2652512  38.00  0.003308882    3.397    0.706
       340  -8.6776     32.3569    232.7105   1.1906923250e+02   2.0783065605e+01    0.1519452   0.09695707 -72.24 0.0004985574    1.560    0.359
       341 -10.7798    174.0922     23.0344   4.0024611047e+01   3.8769348910e+01    0.4404272    0.2968286  75.35  0.001760083    1.356    0.263
       342  -8.9454    188.8247     22.3154   3.8026202659e+01   3.5347742936e+01    0.2764787     0.179275  -3.34  0.001344861    2.570    0.611
       343  -9.9026    186.9858    231.2971   8.6224121189e+01  -1.3017367142e+00      0.19394    0.1529977  18.58  0.001182428    1.088    0.081
       344 -12.0359    117.0443     22.2135   4.9499652668e+01   5.2576418419e+01     0.283736    0.2240636  29.73  0.000412736    1.288    0.223
       345  -8.8188     95.3664     21.4861   5.4537602067e+01   5.7533892761e+01    0.3097416    0.2070785  35.09 0.0002689405    1.391    0.281
       346  -8.7146     91.9554     19.5513   5.4710934010e+01   5.8475855838e+01     0.448594    0.2347243   9.84  0.001810772    3.176    0.685
       347  -9.3498     84.5363     20.9870   5.7448337431e+01   5.9873041807e+01    0.3747824      0.20377 -45.26  0.001026363    2.519    0.603
       348  -8.6487     79.8690     22.2370   5.9421127960e+01   6.0675010021e+01    0.2125263    0.1690074 -35.26  0.001272434    1.460    0.315
       349  -8.9013     10.5652     22.7220   9.0448055841e+01   7.0639317303e+01    0.1448204    0.1022766 -51.38 0.0009286916    1.654    0.396
       350  -9.8808    131.9174     21.4009   4.6188776466e+01   4.9147918829e+01    0.2797987    0.2210102  43.63 0.0009290081    1.221    0.181
       351  -8.7655    177.0299    231.2324   8.8248205864e+01   2.3056460595e-01    0.1784631   0.09669875  33.28 0.0008793263    1.637    0.389
       352  -8.7695    139.5838     20.0997   4.4380262185e+01   4.7441004359e+01    0.2981995    0.1900869  23.02   0.00101564    2.120    0.528
       353  -9.2475    163.4795    226.5384   9.0334053776e+01   3.1666054025e+00    0.1340426    0.1167732  21.35 8.051488e-05    1.009    0.009
       354  -9.0694    223.9802    225.0355   7.7951590318e+01  -5.7076073573e+00    0.1915138    0.1522039   3.23 0.0005432715    1.030    0.029
       355  -8.7793    131.8824    225.1304   9.6973703904e+01   8.4978083857e+00    0.2026043    0.1715858  58.50 0.0005363525    1.248    0.199
       356  -8.9709    196.5711    222.2184   8.2763570114e+01  -1.2772924214e+00     0.183364    0.1132212 -25.99 0.0009512234    1.687    0.407
       357  -9.3338     88.7948    221.0190   1.0603214840e+02   1.5986769591e+01    0.2244325     0.178611  41.01 0.0006512666    1.169    0.145
       358  -8.4952    203.2132    217.6256   8.0636572010e+01  -1.5362028833e+00    0.1693754    0.1101085  21.74 0.0001849758    1.455    0.313
       359  -8.8881     37.0930     18.6910   7.4732456655e+01   6.8376924242e+01    0.3728532    0.1884955   0.04  0.001565322    3.299    0.697
       360  -8.6465    242.5535    209.8084   7.1860232956e+01  -5.9796275186e+00    0.1625526    0.1069768 -40.96 0.0007860777    1.663    0.399
       361  -9.3634    199.6379     18.2852   3.5869878023e+01   3.3291148937e+01     0.222373    0.1967501 -33.41 0.0008836134    1.333    0.250
       362 -10.6082    182.3547     18.3418   3.7767548902e+01   3.7315358886e+01    0.3289633    0.1984554  56.91 0.0003311097    1.623    0.384
       363  -9.4161    144.2059     18.4867   4.3096953658e+01   4.6490610775e+01    0.2712089    0.2126331  14.75  0.001289566    1.583    0.368
       364 -10.0492    232.9969     17.9920   3.2816602222e+01   2.6010293875e+01    0.2906599    0.1915568 -66.54  0.001803137    1.290    0.225
       365  -8.1671     51.2853    210.5680   1.1329904840e+02   2.3347647780e+01    0.1434075   0.08035994  69.36 0.0002494754    1.873    0.466
       366  -8.9860    230.9453    209.2921   7.3843177360e+01  -4.2940557526e+00    0.1776051    0.1402981   4.95 0.0004006729    1.104    0.095
       367  -9.3147    125.0561     23.3874   4.8203910031e+01   5.0569436672e+01    0.1911889      0.14409  60.06 0.0003299927    1.193    0.162
       368  -8.4194    123.9777    205.9866   9.5885923082e+01   1.3687528849e+01    0.1608053    0.1512354  42.37 0.0009393405    1.014    0.013
       369  -9.5209     35.0180    201.0130   1.1606483725e+02   2.7410912517e+01    0.2156387    0.1233299  64.82  0.001127789    1.678    0.404
       370  -8.2197    120.4055    199.4944   9.5698965470e+01   1.5689396549e+01     0.140405    0.1330731  53.30  0.000141493    1.027    0.027
       371  -9.1041      7.6721    195.4355   1.2166394213e+02   3.1366680428e+01    0.3272507     0.133609  46.54  0.001498362    2.186    0.543
       372  -8.5219    242.1798    193.6061   6.8896432334e+01  -3.4425044836e+00    0.1684692    0.1090282  18.31 0.0005128921    1.620    0.383
       373  -8.5234      5.5209    182.9422   1.2129203608e+02   3.4429337801e+01    0.1785076   0.09945427 -79.95 0.0003448215    1.478    0.323
       374  -8.9286     55.2016    181.2157   1.0918855723e+02   2.9764283563e+01    0.1933836    0.1753313 -76.89 0.0005163219    1.103    0.093
       375 -10.6608    101.0006    176.0105   9.6626240668e+01   2.4366002452e+01    0.2074878    0.1991391  75.02 -0.007547014    1.001    0.001
       376  -9.9817     18.3732    174.3031   1.1759587275e+02   3.5391848996e+01    0.2483717    0.1755942 -28.22  0.001024457    2.039    0.510
       377  -8.8686     55.0790     19.2085   6.7039132100e+01   6.5585662326e+01    0.1910661    0.1519232  13.56 0.0003537487    1.041    0.039
       378  -9.9677      7.3319    174.5287   1.2025682174e+02   3.6269123222e+01    0.2068186    0.1569007  88.65  0.000820432    1.062    0.058
       379 -10.2410      7.1624    166.3803   1.1965074004e+02   3.8236552651e+01    0.2191348    0.1951911  -7.80 0.0007308976    1.518    0.341
       380  -8.7057    201.0874     13.8522   3.4679664654e+01   3.3445307831e+01    0.1527106    0.1376415  66.02 0.0002637913    1.265    0.210
       381 -10.4283     13.8949    166.0378   1.1795847812e+02   3.7783740080e+01    0.4394589    0.2060782   3.59  0.001760055    4.245    0.764
       382  -8.5616     28.3242    164.3192   1.1411285090e+02   3.6919936025e+01    0.1329937   0.09060995 -45.03 0.0003186126    1.674    0.403
       383 -11.9930     36.7722    159.2951   1.1129281581e+02   3.7334232431e+01    0.8509923    0.3822446  40.37   0.00359839    2.250    0.556
       384 -11.9134     30.6845    154.6106   1.1237332770e+02   3.9122717651e+01    0.6431916    0.3611349  47.21  0.002785821    1.870    0.465
       385 -10.1428     24.1757    162.8497   1.1503301886e+02   3.7673524931e+01    0.2856222    0.2037989  19.92 0.0008022132    1.738    0.425
       386  -9.6298     20.5500    160.4904   1.1573023738e+02   3.8582188570e+01    0.2756742    0.1813638 -75.36 0.0009488785    1.279    0.218
       387 -10.6533      2.0666    154.7563   1.1995653557e+02   4.1421552030e+01     0.518847    0.1631067 -73.48  0.001724534    2.463    0.594
       388  -9.3792    249.0335    153.9701   5.9889683051e+01   2.0086202728e+00    0.2121524    0.1446949 -10.06 0.0006238288    1.696    0.410
       389  -9.1272     45.9710    151.4646   1.0770299030e+02   3.8325820314e+01    0.2088985    0.1662035 -71.18 0.0001782483    1.117    0.105
       390 -10.7064      4.7291    146.8985   1.1856355995e+02   4.3162147025e+01    0.4959803    0.2859329  57.51  0.002687005    1.839    0.456
       391  -8.6273     74.9740     12.4773   5.6806482179e+01   6.2701227742e+01    0.1902637    0.1591886  67.92  0.001183059    1.530    0.347
       392 -10.6730     19.1515    151.7983   1.1518460229e+02   4.0862863633e+01    0.3770328    0.2507673 -34.00  0.002038994    1.905    0.475
       393 -10.2833     13.9115    144.6379   1.1584001693e+02   4.3065355803e+01    0.4027887    0.2253151 -49.03  0.001695746    1.798    0.444
       394 -11.3075     19.4108    141.1265   1.1389547237e+02   4.3514301302e+01    0.4901639    0.4063134 -36.19  0.003035446    1.385    0.278
       395 -10.2898      9.4605    151.5414   1.1774847786e+02   4.1686277618e+01    0.2243711    0.2157775 -72.88 0.0008627006    1.222    0.182
       396 -10.3002     14.0160    150.0209   1.1638163901e+02   4.1718358029e+01    0.3139282    0.2610323 -77.39 0.0008663565    1.039    0.037
       397 -10.3828      3.1703    140.2284   1.1834745589e+02   4.4903737789e+01    0.4987122    0.2930529  63.52  0.002014305    1.826    0.452
       398 -11.1070      3.1810    130.0287   1.1730019579e+02   4.7414319381e+01    0.8461661    0.1628959 -63.78  0.002578235    3.160    0.684
       399  -9.6440     41.4882    139.0331   1.0715732235e+02   4.1992515927e+01    0.2604045     0.179946  52.66  0.001075364    1.589    0.371
       400  -9.9848    232.7278     23.5161   3.3989831187e+01   2.5415924598e+01    0.4119114    0.2073553 -81.95  0.002053926    2.192    0.544
       401  -9.3350    230.6738    136.9798   5.9279100191e+01   8.0709875054e+00     0.201419    0.1601346 -34.40 0.0005086833    1.093    0.085
       402  -9.2453     75.5075    136.0088   9.6341890946e+01   3.8433052401e+01    0.3626978    0.2823343  -2.26  0.001768501    1.642    0.391
       403  -8.9652     34.5174    136.4002   1.0884491328e+02   4.3371841395e+01    0.2894069    0.1436309 -44.74  0.001163977    2.116    0.527
       404  -8.8550    236.1675    136.6398   5.8307900860e+01   7.1478175267e+00    0.1757475    0.1267448  32.48 0.0005015667    1.630    0.387
       405  -8.1789     83.3307    135.6857   9.3919587393e+01   3.7311160540e+01    0.1562629    0.1164937  74.01 0.0007045147    1.678    0.404
       406  -9.0342     48.7933    134.4958   1.0421361557e+02   4.2347395217e+01    0.4278235    0.1803533  50.04 0.0007273872    3.084    0.676
       407 -10.8810     42.9110    130.8383   1.0540912686e+02   4.3934467515e+01    0.5978165    0.3697841 -38.74   0.00194774    1.777    0.437
       408  -9.5041     15.7798    135.3832   1.1425014335e+02   4.5236847140e+01    0.1601022    0.1243761  -9.95 0.0009431642    1.657    0.396
       409  -8.7523    248.7671    133.9805   5.5789585284e+01   5.4274028221e+00    0.1822808   0.09481731 -37.94 0.0004843785    1.605    0.377
       410 -10.9809     28.7498    132.0735   1.0995239014e+02   4.5008104346e+01    0.2361556     0.213602  89.25 0.0003410868    1.110    0.099
       411 -10.4337     10.2439    130.0063   1.1523004810e+02   4.6971912837e+01     0.519554    0.1479726 -57.06  0.002076015    2.628    0.619
       412  -9.6722     12.8624    127.1176   1.1409476807e+02   4.7512226375e+01    0.2285939     0.199133 -52.58 0.0007604416    1.168    0.144
       413  -9.4245     61.8206    130.9494   9.9543690112e+01   4.1647694404e+01    0.2294918    0.2091842  48.44 0.0004156399    1.181    0.153
       414 -10.5939     88.5581    128.0431   9.0675221492e+01   3.8380465169e+01    0.2564266    0.2510321  17.34 0.0002608793    1.074    0.069
       415 -10.6825     33.7030    125.0126   1.0733396709e+02   4.6342602483e+01    0.5802006    0.2597242 -80.67  0.002189921    2.849    0.649
       416  -9.2237     55.6016    126.1858   1.0058061561e+02   4.3657078456e+01    0.2210713     0.114709 -51.34 0.0009506926    1.733    0.423
       417  -9.0494     59.6637    124.9871   9.9051371456e+01   4.3446939852e+01    0.2156106    0.1740476 -63.69  0.001141137    1.147    0.128
       418  -9.4401    103.2868    123.9990   8.5300936897e+01   3.6780161150e+01    0.2414203    0.2163253  31.27  0.000287756    1.160    0.138
       419  -8.8140     71.9755    123.6902   9.4861257373e+01   4.2074992067e+01     0.196916    0.1940383  61.93 0.0004362469    1.086    0.079
       420 -10.8203      8.7496    122.9021   1.1481644560e+02   4.8832172475e+01    0.3913643    0.2319176 -37.61  0.001400379    1.848    0.459
       421  -8.8340    241.2883    123.3425   5.4648746132e+01   8.5503053958e+00    0.1345645   0.09964436 -11.28 0.0003219016    1.647    0.393
       422  -9.4900     38.7481    123.0850   1.0540220382e+02   4.6338298848e+01    0.2472951    0.2091756   1.83 0.0007804009    1.396    0.284
       423  -9.1955    220.9361    121.3534   5.7430050597e+01   1.2729032795e+01    0.2462268    0.1751965 -47.25 0.0005856261    1.306    0.234
       424 -11.0973     20.1362    108.5210   1.0907055064e+02   5.1610936309e+01     1.083351    0.4845434 -23.87  0.004191275    3.562    0.719
       425  -8.5379     20.4814    103.9861   1.0818163373e+02   5.2698715431e+01    0.2038082    0.1137033 -67.91 0.0009668421    1.552    0.356
       426  -8.8772     13.8045    109.7708   1.1139555144e+02   5.1747763992e+01    0.2736059    0.1656115 -84.40 0.0004256646    1.691    0.409
       427 -11.5960     21.3929    119.6599   1.1041413556e+02   4.8748968772e+01    0.6953362    0.4571274  79.08  0.003628808    1.766    0.434
       428 -10.3831     14.0188    113.5100   1.1188238017e+02   5.0812113911e+01    0.3396565    0.2116805  30.25  0.001869873    1.869    0.465
       429  -9.1265    236.7651    121.0068   5.4826193073e+01   9.7785940575e+00    0.1920456    0.1516782  12.90  0.001052479    1.629    0.386
       430  -8.9238    123.9970    121.0819   7.8644593352e+01   3.3417157097e+01    0.2791938     0.211212  48.54 0.0008381846    1.379    0.275
       431  -9.6699     61.9668    120.4682   9.7381687142e+01   4.4286718699e+01     0.267783    0.1991334 -60.93 0.0003653924    1.247    0.198
       432  -9.5442     93.7978    119.1136   8.6967606975e+01   3.9683737773e+01    0.2796832    0.2414771 -21.99  0.001414228    1.242    0.195
       433  -9.8353     43.5277    119.2917   1.0316870582e+02   4.6800066399e+01    0.3121426    0.2184648  42.99 0.0009448428    1.604    0.377
       434 -10.0822     67.9848    118.9395   9.5099360932e+01   4.3842707874e+01    0.2715713     0.233098 -64.93 0.0004813425    1.133    0.117
