#   1 NUMBER                 Running object number                                     
#   2 MAG_AUTO               Kron-like elliptical aperture magnitude                    [mag]
#   3 X_IMAGE                Object position along x                                    [pixel]
#   4 Y_IMAGE                Object position along y                                    [pixel]
#   5 X_WORLD                Barycenter position along world x axis                     [deg]
#   6 Y_WORLD                Barycenter position along world y axis                     [deg]
#   7 A_WORLD                Profile RMS along major axis (world units)                 [deg]
#   8 B_WORLD                Profile RMS along minor axis (world units)                 [deg]
#   9 THETA_WORLD            Position angle (CCW/world-x)                               [deg]
#  10 FWHM_WORLD             FWHM assuming a gaussian core                              [deg]
#  11 ELONGATION             A_IMAGE/B_IMAGE                                           
#  12 ELLIPTICITY            1 - B_IMAGE/A_IMAGE                                       
         1 -12.4975    176.9762     46.6053   5.4024214205e+01   3.4930381558e+01     1.153727    0.9934085  14.64  0.004154237    1.347    0.258
         2 -13.1009    197.4986     14.2051   4.1870096681e+01   3.3736450814e+01     1.704998     1.363028  67.02  0.008369802    1.192    0.161
         3  -9.8807    119.4179      9.7308   5.2563540223e+01   5.3778196778e+01    0.5835981    0.3132753  38.59  0.002733553    1.800    0.444
         4  -8.3814    238.8440      1.7978   3.5119688603e+01   2.5247928529e+01    0.1707134     0.150609  84.74 0.0004853555    1.193    0.161
         5  -8.4234    165.9793     19.7063   4.7595715259e+01   4.1148543492e+01    0.1930168    0.1662342  68.02 0.0003520702    1.066    0.062
         6  -9.0407    249.8127    249.6072   8.6960172126e+01  -1.1967655754e+01     0.193264   0.07657938 -27.92  0.001014895    2.633    0.620
         7 -18.6741     48.8603    224.6081   1.2167666126e+02   2.1829889948e+01      4.86694     3.847393 -84.64   0.02122385    1.254    0.202
         8  -9.6947    127.8307    162.1273   9.6190356084e+01   2.3126219264e+01    0.3367385    0.2775885  83.79 0.0007537862    1.393    0.282
         9  -8.7520    221.9844    193.7458   8.2104401401e+01  -6.2194850435e-01    0.1686325    0.1044371  35.48 0.0003323701    1.513    0.339
        10 -10.2187    166.3751    223.7005   9.8277116089e+01   4.1938341108e+00    0.4843019    0.2411323  36.99   0.00141685    1.728    0.421
        11  -9.7642    183.5107    211.7844   9.2922411248e+01   3.1868194603e+00    0.5800657    0.1784777 -48.16  0.002006344    4.357    0.770
        12  -8.6865     24.8977    187.3768   1.2353442438e+02   3.2160047123e+01    0.2710754    0.1279003 -80.21  0.001306186    1.828    0.453
        13 -10.2197    180.1737    189.0838   8.9534299060e+01   7.6626134122e+00    0.2801139    0.2348103 -23.68 0.0003676608    1.248    0.199
        14  -9.3199    238.8875    189.1338   7.8098840882e+01  -2.7525411683e+00    0.1862574    0.1699288  -3.56 0.0004629427    1.231    0.188
        15  -9.5108    165.9489    184.9491   9.1789792649e+01   1.1105872231e+01    0.4207248    0.3009961  78.10  0.001900569    2.298    0.565
        16  -9.3264    152.9982    186.2994   9.4878207495e+01   1.3285150933e+01    0.2478419    0.2017315 -86.15 0.0007052934    1.595    0.373
        17  -9.5914     17.6822    180.9760   1.2454515652e+02   3.4244849861e+01    0.1851496     0.157999 -74.59 0.0006925784    1.290    0.225
        18  -9.4200    221.1507    176.3820   7.8789312750e+01   2.2638326393e+00    0.4444043    0.1984482 -49.41  0.001638356    3.382    0.704
        19  -9.9184    149.6294    177.9830   9.4099915236e+01   1.5587687681e+01    0.2602815    0.2320719  78.32 0.0003640874    1.267    0.211
        20 -10.1758    186.4292    174.2662   8.5298778085e+01   9.1713605359e+00    0.6096861    0.3543206 -47.89  0.002463784    1.934    0.483
        21  -9.8418    144.1233    186.2392   9.6842205494e+01   1.4947780814e+01    0.3821624    0.2688705 -82.09  0.000927305    2.104    0.525
        22  -9.6988    158.6998    172.4488   9.0981078540e+01   1.4958621487e+01    0.5357825    0.3430586 -77.56  0.002037201    3.053    0.672
        23  -9.1964      7.2667    173.8670   1.2621063003e+02   3.6709313222e+01    0.1971436    0.1542911 -60.44 0.0006850421    1.469    0.319
        24  -8.8270    201.0280    173.2410   8.2075174355e+01   6.5385450158e+00    0.2199865    0.1914764 -20.72  0.000312347    1.126    0.112
        25  -8.9307    222.6888    208.4350   8.4737085537e+01  -2.9108681519e+00    0.2233796    0.2077615  78.27  0.000711905    1.730    0.422
        26  -8.7018    210.6815    203.0223   8.6013676426e+01  -1.1525600858e-01    0.1999403    0.1640262  35.54    0.0004104    1.239    0.193
        27 -10.4108    242.2505    201.2495   7.9843092428e+01  -5.0083665875e+00    0.2315365    0.1956717  22.51   0.00151302    1.241    0.194
        28 -10.6071    118.1452    162.3024   9.8593670465e+01   2.4878076477e+01    0.4082908     0.340218 -20.77  0.001230557    1.501    0.334
        29  -9.5644    148.7124    156.9576   9.0118084832e+01   2.0180825286e+01    0.4756837    0.2912475  60.59  0.001934072    2.122    0.529
        30 -10.3622    136.2632    140.0236   8.9443524301e+01   2.6447900702e+01    0.3608349    0.3006848  68.22 0.0006610628    1.349    0.259
        31 -10.6191    124.0337    142.7642   9.3167479742e+01   2.8256129130e+01    0.4698928    0.2931529 -56.40  0.001101634    1.658    0.397
        32 -10.6620    127.9864    141.2998   9.1831926533e+01   2.7819705270e+01     0.365884    0.3103736  25.41  0.001183262    1.284    0.221
        33 -11.6914    134.4114    150.4879   9.2208804557e+01   2.4463454250e+01     1.465331    0.4901727 -56.59  0.004124913    4.187    0.761
        34  -9.8695    143.7276    146.1503   8.8971543276e+01   2.3552101725e+01    0.4545152    0.2237364 -60.78  0.001536436    2.945    0.660
        35 -10.1972    194.0086    197.2547   8.8225255441e+01   3.7188414767e+00     0.472149    0.3712801  67.06   0.00251888    1.868    0.465
        36  -7.8866    188.6225    153.3031   8.0330683582e+01   1.2692370811e+01    0.1498774    0.1221412  86.20 0.0007026996    1.769    0.435
        37 -10.4446    117.7461    128.7101   9.1655739027e+01   3.2744632521e+01    0.4370991    0.3036029  17.64  0.001646102    1.961    0.490
        38  -9.2102    106.3241    123.7128   9.3622590761e+01   3.6079790829e+01    0.2669309    0.2422623 -27.55 0.0004144059    1.175    0.149
        39  -9.8787    191.5273    193.0254   8.7934677425e+01   4.8783594678e+00    0.4222234    0.2830301 -63.31  0.001941164    2.499    0.600
        40  -8.8832    147.1484    121.8497   8.2315642961e+01   2.8187435229e+01    0.2543781    0.2226838  38.39 0.0004669765    1.156    0.135
        41  -9.2022    211.7088    198.1252   8.4900315200e+01   4.6399307082e-01    0.2393486    0.1698509  26.69 0.0003300075    1.273    0.215
        42 -11.1392     21.3712    120.2298   1.1759378158e+02   4.8010602947e+01    0.3835499     0.332835  12.94  0.001591552    1.481    0.325
        43  -9.2886    203.6922    119.2293   6.9122080285e+01   1.5939497976e+01    0.2494909    0.2327847  -1.21  0.000304768    1.068    0.064
        44  -9.9859    212.4578    193.4233   8.3858337969e+01   1.0711430922e+00    0.2540972    0.2017426   8.75 0.0005100385    1.160    0.138
        45 -10.3553     94.9087    126.9132   9.7560360603e+01   3.7329873309e+01    0.3132948    0.2599894 -75.80 0.0005260542    1.255    0.203
        46  -8.1910    168.5395    114.0377   7.5172942534e+01   2.4999194403e+01     0.313955    0.2030759 -89.67  0.001032433    3.348    0.701
        47  -8.7243    111.9317    117.6728   9.0594747112e+01   3.6448086633e+01    0.3757437    0.2338343  60.74  0.001513393    2.128    0.530
        48  -9.6824    157.9784    193.6952   9.5107662378e+01   1.0935084154e+01    0.2438074    0.2066776 -64.54 0.0007249048    1.401    0.286
        49 -12.2614    124.0198    172.1892   9.8982067757e+01   2.1603334539e+01     1.288941    0.5096871  41.57  0.004839974    2.392    0.582
        50 -12.6240    138.6712    177.2919   9.6476265586e+01   1.7801875639e+01       1.2526    0.7510247 -50.45  0.003897855    1.766    0.434
        51 -11.3825    148.6870    191.5725   9.6761311874e+01   1.3050096249e+01    0.8746386     0.320152 -55.22  0.002938532    3.581    0.721
        52 -10.1874     18.8241    105.7867   1.1630530734e+02   5.1646369958e+01    0.2367297    0.1704104 -15.05 0.0008586945    1.812    0.448
        53 -10.9121     37.3446     98.6132   1.0919845444e+02   5.1831218164e+01    0.4911835    0.3002268 -72.26  0.001766302    1.571    0.364
        54  -9.6801     81.6530     99.6468   9.5047902191e+01   4.6011756262e+01    0.2929648    0.2319404  59.92  0.001496172    1.514    0.340
        55  -9.3821     67.5267     99.9764   9.9646962861e+01   4.8022829730e+01    0.2744332    0.2057708   0.64   0.00139649    1.710    0.415
        56  -9.4306     92.6356     96.3431   9.0723921747e+01   4.4945289156e+01    0.3371706    0.2562344 -76.66  0.001365288    1.697    0.411
        57  -8.8198      2.7706     84.2106   1.1816406982e+02   5.7637098575e+01    0.1735463    0.1072073 -50.27 0.0007430069    1.350    0.259
        58 -10.0965    108.8405     76.2403   7.9726976161e+01   4.6209532747e+01    0.2568148     0.230447 -20.86 0.0002130036    1.078    0.072
        59  -8.5273    205.0022     71.5539   5.6412131653e+01   2.4060821316e+01    0.2814982    0.2045453 -16.15 0.0007435091    1.627    0.386
        60 -11.7633    163.2975     61.0023   6.1006248908e+01   3.6222098048e+01     1.286974    0.8946418  16.93  0.005108952    1.979    0.495
        61  -8.1298    237.6493    249.7184   8.9056241927e+01  -1.0353615545e+01    0.1201669   0.06878833  12.61 0.0007014836    1.651    0.394
        62 -11.0040    181.6793     39.7804   5.1219086162e+01   3.4671312421e+01    0.4129389     0.384774   6.89  0.000877015    1.207    0.171
        63  -8.4311    154.2368     49.6145   5.9275077465e+01   4.0295851935e+01    0.2118429     0.132377  48.08 0.0004336953    1.552    0.356
        64 -11.3968    130.7360    168.3642   9.6681547562e+01   2.1202405742e+01    0.7637399    0.4612454 -70.19  0.002472538    2.279    0.561
        65  -8.7822    133.0196     16.6962   5.2348253961e+01   4.9799428083e+01     0.219453    0.1920428  -9.12 0.0007851993    1.226    0.185
        66  -9.6656      6.8265    233.4369   1.2956261858e+02   2.4701021849e+01    0.1430285   0.09291845  74.49 0.0007823028    1.099    0.090
        67  -8.3277    224.0591    226.0157   8.7588795208e+01  -5.5356670205e+00    0.1793594     0.144797  12.44 0.0003433988    1.042    0.040
