#   1 NUMBER                 Running object number                                     
#   2 MAG_AUTO               Kron-like elliptical aperture magnitude                    [mag]
#   3 X_IMAGE                Object position along x                                    [pixel]
#   4 Y_IMAGE                Object position along y                                    [pixel]
#   5 X_WORLD                Barycenter position along world x axis                     [deg]
#   6 Y_WORLD                Barycenter position along world y axis                     [deg]
#   7 A_WORLD                Profile RMS along major axis (world units)                 [deg]
#   8 B_WORLD                Profile RMS along minor axis (world units)                 [deg]
#   9 THETA_WORLD            Position angle (CCW/world-x)                               [deg]
#  10 FWHM_WORLD             FWHM assuming a gaussian core                              [deg]
#  11 ELONGATION             A_IMAGE/B_IMAGE                                           
#  12 ELLIPTICITY            1 - B_IMAGE/A_IMAGE                                       
         1 -10.5122      3.7920     39.7120   1.3175199706e+02   6.7459155471e+01    0.6736628    0.3688741 -51.06  0.003171306    1.337    0.252
         2  -9.3314     39.4170      7.3772   1.0207113661e+02   6.9908775328e+01     0.419032    0.2650581  -8.99  0.002529096    1.553    0.356
         3 -10.8065     39.0192     30.0618   1.1267280768e+02   6.6431208883e+01    0.7575631    0.3996827 -49.87  0.003349243    1.874    0.466
         4 -12.0376     43.9810     21.5053   1.0683273324e+02   6.7252667370e+01     1.090893     1.000142 -83.87  0.007213457    1.778    0.438
         5 -10.1809    103.5169     11.7571   8.1619718262e+01   5.7883462469e+01    0.4734521    0.4548552   2.17  0.003021591    1.133    0.117
         6 -12.1843     81.8228      8.3104   8.6230272331e+01   6.2800740720e+01      2.88407     1.391595   5.44   0.01078063    3.704    0.730
         7 -10.4379     71.2962      5.1340   8.8132315207e+01   6.5143399162e+01    0.6601052    0.3516735  37.96  0.002622477    1.738    0.424
         8 -11.4186    131.5173      3.3851   7.2127317817e+01   5.2048352503e+01      1.22035    0.6304007  57.54  0.005706638    1.661    0.398
         9 -10.9904    120.8836      3.8038   7.4339818607e+01   5.4614007135e+01    0.7586737    0.5645276  88.58  0.003374333    1.630    0.387
        10 -11.5620    109.0908      4.1534   7.7033217921e+01   5.7360925441e+01     1.717531    0.4264939  61.67  0.005628899    3.787    0.736
        11 -13.2920    169.8335     16.6780   7.0457575349e+01   4.0886117779e+01      2.25825     1.026247  61.79  0.009388549    1.939    0.484
        12 -13.8737    164.4858      5.6126   6.7666765103e+01   4.3394586224e+01     5.092627     1.740931  57.07    0.0194341    2.426    0.588
        13 -10.2971    111.9381     15.6159   8.1119380896e+01   5.5564661971e+01    0.5818314    0.2665665  46.09  0.002336715    1.983    0.496
        14 -10.3396    116.7319     18.2429   8.1025200272e+01   5.4159296289e+01     0.816226    0.3478503 -38.79  0.003301765    2.573    0.611
        15  -9.5500    117.5014     13.9904   7.9144323222e+01   5.4441137494e+01     0.308417    0.2274413 -35.54  0.001099304    1.476    0.323
        16  -9.7766     93.9607     17.5719   8.6755910276e+01   5.9293219702e+01    0.4527838     0.394374  81.08  0.002251571    1.517    0.341
        17 -10.9341    248.4781      6.5452   5.9443108273e+01   2.2120815181e+01    0.7239894    0.5910443 -28.56  0.004547953    1.364    0.267
        18 -10.3266    248.7862     15.8680   6.1570250636e+01   2.1015621292e+01    0.4354242    0.3693978  -8.88  0.002678718    1.507    0.336
        19  -8.7217     70.0658     13.8955   9.2814039822e+01   6.4349023688e+01    0.2903323    0.2509403  -4.73  0.001895924    1.076    0.071
        20  -8.3232     20.4015     14.2464   1.1475172952e+02   7.0979689638e+01    0.3669978    0.1843751 -33.69  0.002130746    1.651    0.394
        21  -9.8705     60.9634      2.3520   9.0413311092e+01   6.7270802860e+01    0.5603393    0.2969573  38.94  0.002934721    1.757    0.431
        22  -8.5115     49.3047      6.1841   9.7067856722e+01   6.8684543473e+01    0.2772003    0.1583809  18.88  0.001506448    1.913    0.477
        23  -8.4945     51.9453      1.9556   9.3736877003e+01   6.8787043156e+01    0.2239448    0.1692383   9.96  0.001260066    1.132    0.117
        24  -8.8925     60.5136      9.0491   9.3998463641e+01   6.6575965677e+01    0.3184972    0.2000349 -20.54  0.001097825    1.474    0.322
        25  -8.7595     55.5765      7.7976   9.5308901033e+01   6.7524805520e+01    0.3749203    0.2553727  61.76  0.002033025    2.538    0.606
        26 -10.1042    203.6382      4.5784   6.2773514991e+01   3.3277642588e+01    0.4431758    0.2280075 -31.54  0.001981702    1.954    0.488
        27  -9.2978    229.7255      6.1863   6.0821892355e+01   2.6589221214e+01    0.2791787     0.162959  64.39  0.001429766    1.677    0.404
        28 -10.1875    222.3146      4.4405   6.1014110981e+01   2.8585171935e+01    0.4868651    0.1896692 -29.17  0.002059165    2.516    0.603
        29  -9.8961    213.5609      5.0008   6.1937471179e+01   3.0712755949e+01    0.2905438    0.1946199  78.34  0.001547916    1.369    0.270
        30  -8.6222     26.4832      3.1126   1.0613612197e+02   7.2052828716e+01    0.2212272    0.1664858  -0.32   0.00158114    1.160    0.138
        31  -8.8848     16.6412      1.8383   1.1070745382e+02   7.3239533757e+01    0.2073483    0.1696644  28.49  0.001332033    1.621    0.383
        32  -8.1726     40.4440      1.4600   9.8451247787e+01   7.0535043999e+01     0.220061    0.1058821  38.61  0.001199237    2.139    0.532
        33  -8.4714     75.5154     60.0480   1.0952613567e+02   5.5900356402e+01    0.2152767    0.1250372 -44.56  0.001030462    1.584    0.369
        34  -9.7735     13.0523     77.7403   1.3638788571e+02   5.8929212748e+01    0.4356401    0.2492993 -36.73  0.002538975    1.875    0.467
        35  -8.1173     92.6794     57.1603   1.0283651731e+02   5.3459418208e+01     0.224707    0.1767772 -55.20  0.001042888    1.432    0.302
        36  -8.9877     66.0879     53.9103   1.1076971342e+02   5.8542763653e+01    0.5665908    0.2143569 -54.91  0.001984255    3.569    0.720
        37  -7.9101      9.5645     55.7467   1.3325958303e+02   6.3873240518e+01     0.162447   0.09532367 -73.30 0.0009499316    1.652    0.395
        38  -8.2302    198.1776     54.7904   7.7621881258e+01   2.8490371041e+01    0.2248733    0.1992231 -78.84 0.0006854284    1.133    0.117
        39  -8.0833     34.4835     52.4726   1.2243804390e+02   6.2658642018e+01    0.2244103     0.119406  27.82  0.001204059    2.176    0.540
        40  -9.8406     82.0297     47.1669   1.0270996494e+02   5.7205432998e+01    0.4764799    0.3619408 -41.99  0.002202007    1.302    0.232
        41 -10.0540     81.3729     40.2384   1.0026732810e+02   5.8504292762e+01    0.4473338    0.4243372  59.33  0.002781353    1.301    0.231
        42  -9.0372    111.7239     44.9822   9.2698399279e+01   5.1661382875e+01    0.3827118    0.2521857 -20.95  0.001798112    1.660    0.398
        43 -10.4736    185.7365    247.1982   1.2156914709e+02  -5.1522076224e-01    0.4457662    0.2388378  55.95  0.002347864    2.313    0.568
        44  -9.0551     12.3388     33.9926   1.2623029471e+02   6.8080586375e+01    0.4132629    0.2794981 -53.51  0.002096922    1.229    0.186
        45  -9.4345    107.9967     39.2100   9.1566399016e+01   5.3371614207e+01     0.452125     0.297414  12.67  0.002041835    2.014    0.503
        46  -9.8555    163.2813    244.3139   1.2514630568e+02   3.4910282475e+00    0.2389717    0.1504198  64.99 0.0009364791    2.094    0.522
        47 -10.1934     50.6457     35.4015   1.0987510515e+02   6.4086599769e+01    0.5945141    0.3787746 -51.34   0.00306483    1.710    0.415
        48 -10.6684    173.6770    243.0509   1.2313941888e+02   1.9685008896e+00    0.3223644    0.1924393  54.53  0.001491312    1.717    0.417
        49  -9.6143    205.8008    225.4086   1.1487252905e+02  -1.0267476384e+00    0.1997265    0.1017642  40.98  0.001037851    1.614    0.380
        50  -8.4278     27.4265     35.6367   1.1993249353e+02   6.6597934105e+01    0.2066322    0.1649209 -11.21  0.001024077    1.250    0.200
        51  -8.6134    209.3092    227.3148   1.1454878889e+02  -1.8508449444e+00    0.1232062   0.08073207  15.99 0.0004080498    1.631    0.387
        52  -8.9176    123.9993    206.0223   1.2759640468e+02   1.6215695262e+01    0.1838922     0.151582  57.85  0.001150727    1.018    0.018
        53  -9.1696    239.1555    203.1688   1.0527427888e+02  -3.7295723878e+00    0.1591311    0.1418777  36.04  0.001076475    1.335    0.251
        54 -12.6921    240.8284    133.5555   9.0790902137e+01   5.8869130862e+00     1.543237     1.155525  46.87  0.005122103    1.410    0.291
        55  -9.0369     40.8685    141.6156   1.3775776264e+02   4.2004538043e+01    0.2623458    0.1590198  67.57  0.001438922    1.698    0.411
        56 -11.3959     11.4554    139.4330   1.4468161687e+02   4.5205875118e+01    0.5120386    0.3449367 -82.11  0.003413226    1.150    0.131
        57 -10.7601     12.0481    129.1692   1.4356223944e+02   4.7447980115e+01    0.5337705    0.2071005 -80.37  0.002562929    2.228    0.551
        58 -10.1472     17.4026    125.6637   1.4182867708e+02   4.7824043469e+01    0.3437699    0.1620547  82.89  0.001655939    2.389    0.581
        59 -10.3705    225.0439     28.7142   6.6952493900e+01   2.5173265448e+01    0.4773922    0.4378263  30.58   0.00169142    1.319    0.242
        60  -8.6131     69.4275     37.5191   1.0341827125e+02   6.0987383858e+01     0.344772    0.2203389 -32.51  0.001841099    1.442    0.307
        61  -9.0365     10.6411     25.1574   1.2406807444e+02   6.9847358729e+01    0.3476112    0.1538828 -48.80  0.001972284    1.681    0.405
        62 -10.0966      3.0195    140.7259   1.4676613043e+02   4.5549519362e+01    0.3655362    0.1361598 -81.80  0.001821187    2.190    0.543
        63  -9.9211     10.0198    116.9851   1.4280827672e+02   5.0331345411e+01    0.2873644    0.1659943 -51.92   0.00137198    1.724    0.420
        64  -8.3569     72.5082    119.5056   1.2587265950e+02   4.3222325148e+01    0.1379932    0.1227916 -77.29 0.0008105882    1.011    0.011
        65  -8.6485     19.0411     22.0761   1.1876294438e+02   6.9774896502e+01    0.1539269    0.1388706 -75.40  0.001126616    1.622    0.383
        66  -8.9128    125.5114     29.0833   8.3155735085e+01   5.0766628824e+01    0.3508162    0.2771364 -40.57  0.001860918    1.364    0.267
        67  -7.5798    109.3299     21.3066   8.4101242051e+01   5.5507066815e+01    0.1475794   0.09651612  25.72 0.0007038374    1.659    0.397
        68  -9.9933     12.7951    119.5996   1.4236008323e+02   4.9544877655e+01    0.2317682    0.1515779  43.56  0.001291769    1.705    0.414
        69 -10.3456     17.7449    104.9527   1.3917066997e+02   5.2501371486e+01    0.5339204    0.3488612  85.26  0.003235473    1.520    0.342
        70 -10.0339     86.3232     31.1876   9.4940314463e+01   5.9004960169e+01    0.3608679    0.2478301   5.97  0.001811034    1.712    0.416
        71  -9.6287     30.0210    101.8491   1.3506710525e+02   5.2220018565e+01    0.3674223    0.2072965 -56.20  0.002039111    1.497    0.332
        72  -8.3846      8.6351     18.0275   1.2242478137e+02   7.1259082710e+01    0.1635557    0.1141536 -43.33   0.00115379    1.136    0.119
        73  -9.1314     64.2144     16.3530   9.6133118303e+01   6.5032166541e+01     0.253472    0.2344963  68.42 0.0009019712    1.576    0.366
        74 -11.6916     43.0291     82.9187   1.2724174399e+02   5.5287907531e+01    0.9981912    0.7343535 -34.67  0.004820565    1.432    0.302
        75  -9.2609      1.9896     88.6226   1.4167638420e+02   5.7163141097e+01    0.3821635     0.201879 -84.40  0.002183429    1.728    0.421
        76  -9.5091    104.6791     26.0195   8.7270589813e+01   5.5951510128e+01    0.5096473    0.4175924  46.34  0.002889561    1.190    0.159
        77  -7.9130    100.9865     83.4838   1.0873969358e+02   4.6646656324e+01    0.2068569    0.1277078  67.05 0.0008103711    2.568    0.611
        78  -9.8067     15.9781     64.1117   1.3265477086e+02   6.1705382924e+01     0.283739    0.1877077 -74.29   0.00130271    1.461    0.316
        79 -10.7364      4.1409     75.8420   1.3909669943e+02   5.9860087958e+01    0.6858404    0.4610479  77.78  0.004389973    1.709    0.415
        80 -10.1142     24.2689     65.6761   1.2991263682e+02   6.0774086185e+01    0.7957123    0.2124055 -49.39  0.003279444    2.802    0.643
        81 -10.9242     13.7931     72.0660   1.3508135224e+02   6.0126609436e+01    0.7187324    0.5121658  64.25  0.004594391    1.775    0.436
        82  -8.5570     98.0458     26.7579   8.9463821558e+01   5.7275415665e+01    0.2984096     0.188341  -7.69  0.001417961    1.879    0.468
        83  -9.0997    227.8240     78.6791   7.9549998211e+01   1.7448376249e+01    0.3650304    0.2586812  19.54  0.001677509    1.959    0.490
        84  -7.7377    204.4238     76.5043   8.2670397874e+01   2.3505445537e+01    0.1488289    0.1457588 -33.07 0.0001334923    1.046    0.044
        85  -9.1691     74.9834     67.8835   1.1224724431e+02   5.4410129041e+01    0.4698205    0.3291452 -10.30  0.002311968    1.914    0.478
        86  -9.2728     35.0236     79.2929   1.2915665034e+02   5.6882016448e+01     0.297142    0.1898171 -73.27  0.001280369    1.563    0.360
        87  -8.8754    249.7326     26.4343   6.3962725290e+01   1.9554004295e+01    0.2164093    0.1658937  -1.16  0.001168181    1.809    0.447
        88  -8.4785     34.0674     68.4945   1.2697352561e+02   5.9337571015e+01    0.2429823    0.1272899  13.89  0.001203579    2.625    0.619
        89  -9.4539     48.1724     61.9802   1.1998537526e+02   5.9267065754e+01    0.4307818    0.3022359  18.05  0.002487139    1.678    0.404
