#   1 NUMBER                 Running object number                                     
#   2 MAG_AUTO               Kron-like elliptical aperture magnitude                    [mag]
#   3 X_IMAGE                Object position along x                                    [pixel]
#   4 Y_IMAGE                Object position along y                                    [pixel]
#   5 X_WORLD                Barycenter position along world x axis                     [deg]
#   6 Y_WORLD                Barycenter position along world y axis                     [deg]
#   7 A_WORLD                Profile RMS along major axis (world units)                 [deg]
#   8 B_WORLD                Profile RMS along minor axis (world units)                 [deg]
#   9 THETA_WORLD            Position angle (CCW/world-x)                               [deg]
#  10 FWHM_WORLD             FWHM assuming a gaussian core                              [deg]
#  11 ELONGATION             A_IMAGE/B_IMAGE                                           
#  12 ELLIPTICITY            1 - B_IMAGE/A_IMAGE                                       
         1 -13.7329     44.1285    111.6677   1.0307676162e+02   4.8208515388e+01     2.554641     1.805876  76.59   0.01294338    1.869    0.465
         2 -14.4561     68.6700    144.1786   1.0173768674e+02   3.7158432903e+01     4.316506     2.139425  59.98  0.003280721    3.217    0.689
         3 -11.3285     53.6250     93.8207   9.5863791643e+01   5.1397498179e+01    0.5858295     0.443269  69.64  0.003004785    1.876    0.467
         4 -13.2468    196.8526     41.7727   4.3795855676e+01   3.0881943388e+01     1.155648    0.9573871 -38.65  0.003164115    1.226    0.185
         5 -13.7427    205.9421     32.8411   4.0440537063e+01   2.9913990930e+01     1.536471    0.9737313 -14.92  0.001325283    2.191    0.543
         6 -12.9431    230.5157      6.3224   3.2126172450e+01   2.7495254027e+01    0.8339487    0.6487098 -87.84   0.00464018    1.133    0.117
         7 -10.3966     62.7711      7.9550   6.1000926990e+01   6.5062591751e+01    0.2159147    0.1639996 -32.96  0.001352318    1.592    0.372
         8 -10.9804     47.8563      3.9169   6.4693125958e+01   6.8026335519e+01    0.3731574    0.1442677  27.62  0.001550342    3.141    0.682
         9 -10.3739     30.8121      2.3318   7.1453540049e+01   7.0737143627e+01    0.2163546   0.09738463  43.76  0.001095222    2.647    0.622
        10 -11.1673    111.6825    204.5211   1.0057565222e+02   1.6468917268e+01    0.4204252    0.2924702  82.60 0.0005114794    1.930    0.482
        11 -11.5382    139.6242    247.9417   1.0058786697e+02   3.9189901730e+00    0.4853195     0.337015 -50.38  0.002945303    1.720    0.419
        12 -15.4611     58.1375    185.4279   1.1055728800e+02   2.8496849812e+01     29.24594     10.62996 -81.07   0.08475222    5.429    0.816
        13 -16.1682     50.7958    201.8200   1.1404028366e+02   2.5652465939e+01     16.46512     6.665348  84.15   0.04501394    5.563    0.820
        14  -9.3403    148.4108    186.7858   8.9124016056e+01   1.3946465941e+01    0.2052518    0.1337459 -36.16 0.0009517104    1.666    0.400
        15  -9.0121     23.0637    185.9123   1.1872605682e+02   3.2239664686e+01    0.1882054    0.1595808  73.99 0.0007187088    1.089    0.082
        16  -8.6166     70.4800    184.8204   1.0751541909e+02   2.7030654510e+01    0.1884375    0.1265347 -69.50 0.0004086612    1.440    0.305
        17 -17.5487     10.8285    246.1172   1.2501556195e+02   2.0890747405e+01     5.398587     2.344436  25.96   0.01990663    3.222    0.690
        18  -8.7378     90.9941    182.4839   1.0216894757e+02   2.4616651449e+01    0.2093807    0.1786326 -70.43 -6.820881e-05    1.160    0.138
        19 -10.0316     99.1685    180.9983   9.9919353787e+01   2.3686114077e+01    0.3070664    0.2108184  31.49 0.0008392796    1.519    0.342
        20  -8.7245     93.8298    179.8545   1.0105839691e+02   2.4791926672e+01    0.1967362    0.1596494  73.00 0.0004397896    1.304    0.233
        21  -9.9720    187.8675    176.1491   7.8280472156e+01   8.8585141270e+00    0.3542575    0.3147027 -52.15  0.001768214    1.315    0.240
        22  -8.5949    148.5045    175.4900   8.6933097107e+01   1.6309704491e+01    0.2137392    0.1456039 -59.87  0.000599465    1.735    0.424
        23  -9.7358    146.5044    171.9862   8.6707236936e+01   1.7435372148e+01    0.2897128    0.2416765 -78.88 0.0007307303    1.503    0.335
        24  -8.6181     82.4266    194.7880   1.0599271350e+02   2.3065730449e+01    0.1818834    0.1217863 -53.75 0.0009397207    1.563    0.360
        25 -11.3909     62.1991    199.6934   1.1126512101e+02   2.4714630022e+01    0.4480751    0.2358923 -57.64 0.0009436997    1.917    0.478
        26 -13.1561     72.4817    153.9337   1.0237118352e+02   3.4212043098e+01    0.7214636    0.4988439 -59.38  0.001095926    1.346    0.257
        27 -10.0108     32.7901    204.5429   1.1817896014e+02   2.7082314582e+01    0.2402733    0.2022769  63.85 0.0006462584    1.115    0.103
        28 -10.0419    240.2005    169.1826   6.6811639913e+01   1.0247012914e+00    0.1710767    0.1541804 -40.02 0.0005206763    1.323    0.244
        29  -9.3214    185.1867    169.1037   7.7375569496e+01   1.0714374211e+01    0.2287911    0.1908073  -8.42 0.0006241463    1.202    0.168
        30 -10.2668     65.7148    194.6433   1.0987748210e+02   2.5399384779e+01    0.2747134    0.2295788  49.16 0.0006727657    1.165    0.142
        31  -9.2734    135.4079    165.6184   8.8103770925e+01   2.0914358998e+01    0.4493464    0.2185338  52.34   0.00127371    2.580    0.612
        32  -8.7928    133.0019    162.5284   8.8068499279e+01   2.2060833256e+01    0.3395716    0.2056028  57.67  0.001001847    2.132    0.531
        33 -11.6909    203.4454    198.9010   7.9600832516e+01   2.0465852781e+00    0.6049485    0.2591545  25.92  0.002272835    3.044    0.671
        34 -10.3847    110.4921    197.8759   9.9853367871e+01   1.8082930993e+01    0.2866885    0.1890355  17.85  0.001340468    1.969    0.492
        35 -10.7536    110.0101    187.4042   9.8314602431e+01   2.0470863175e+01    0.4648094    0.1508455 -48.39  0.001581453    3.255    0.693
        36 -11.5249     91.0424    151.9682   9.6942812177e+01   3.1917622833e+01     0.749329    0.5397457 -18.05   0.00343838    1.932    0.482
        37 -11.7585     72.1671    171.6595   1.0525653287e+02   2.9924959187e+01    0.5411954    0.3789396 -26.49  0.002626226    2.031    0.508
        38 -10.7402    133.9194    145.8407   8.4243713511e+01   2.5690756827e+01        1.186    0.3243222 -53.73  0.002954396    4.956    0.798
        39  -9.4128    174.8878    149.1145   7.5213885929e+01   1.6737761100e+01    0.2301475     0.212764 -78.23 0.0006217479    1.291    0.225
        40 -10.8427     40.5757    146.9543   1.1005977107e+02   3.9841023683e+01     0.327558    0.2917446 -35.61  0.001660477    1.282    0.220
        41 -10.2674    103.9066    138.2665   9.0576663533e+01   3.3092945711e+01    0.5961881    0.3639341 -22.00  0.002228865    2.665    0.625
        42 -11.6196     91.4853    137.8501   9.3993210519e+01   3.5304691345e+01    0.2937007    0.2639628 -32.16 0.0004888649    1.154    0.134
        43 -10.5772     44.3635    138.6500   1.0776335635e+02   4.1502825896e+01    0.2780643    0.2144531 -66.03  0.000699102    1.133    0.117
        44 -11.2562     75.9646    167.0909   1.0358472370e+02   3.0497578600e+01    0.3146412    0.2619311 -30.52   0.00172257    1.434    0.303
        45 -11.7265     44.5347    129.9950   1.0630801916e+02   4.3639113019e+01    0.3750045    0.3510944  34.21  0.001902037    1.216    0.177
        46 -12.0894     40.9374    125.7300   1.0667084591e+02   4.5075039231e+01    0.5242755     0.388413 -66.29  0.002616081    1.182    0.154
        47 -10.0140    135.8863    128.6111   7.9664901374e+01   2.9213658478e+01    0.4195328    0.1927715 -51.39  0.001308162    2.310    0.567
        48  -9.8626    112.7453    129.1231   8.6012565962e+01   3.3665573949e+01     0.386077     0.295884  -9.64 0.0008735619    1.667    0.400
        49  -9.1973    161.1620    128.6065   7.3449978564e+01   2.3890472111e+01    0.3712029    0.1743155 -54.69  0.001239928    2.793    0.642
        50 -10.2928     99.8585    125.1493   8.8735979723e+01   3.6961711379e+01    0.3272456    0.2597258  -7.61  0.001565634    1.544    0.352
        51 -11.0589    118.8841    123.4086   8.2914256661e+01   3.3821275571e+01    0.5459113    0.3960896  -8.53  0.002346826    1.898    0.473
        52 -10.0980    105.9653    130.8745   8.8328233800e+01   3.4500638446e+01    0.3525067     0.323093 -56.70  0.001145335    1.077    0.072
        53  -9.9229    135.0000    119.0873   7.7485605442e+01   3.1525230047e+01    0.4414044   0.08812163 -45.16  0.001047001    4.895    0.796
        54  -9.2098    108.5360    118.2624   8.4537212012e+01   3.7005553156e+01    0.2472366    0.2092131  33.62 0.0004603579    1.225    0.184
        55  -9.9259    231.3365    113.8297   5.6246391517e+01   1.2027051741e+01    0.2693265    0.2308609 -28.81 0.0007209007    1.079    0.074
        56  -8.6171    167.9865    112.9396   6.7912921772e+01   2.5641983373e+01    0.2877163    0.1642579 -61.41  0.001021603    2.669    0.625
        57 -10.8153    114.6581    109.1946   8.0416940907e+01   3.7897619403e+01    0.5133454    0.2843163 -43.57  0.001792238    1.751    0.429
        58 -10.5800    118.7550    109.5698   7.9361001932e+01   3.6993714295e+01     0.321362    0.2669908  89.79 0.0009448927    1.562    0.360
        59 -10.4911    119.9976    104.5074   7.7631620452e+01   3.7858624555e+01    0.4042257    0.2868483  -3.18   0.00169292    2.007    0.502
        60  -9.4035    205.6357    110.1506   5.9682642750e+01   1.7919636868e+01     0.265343    0.2130388  41.39 0.0007140959    1.352    0.261
        61  -9.7315    134.6274    104.6678   7.3725074615e+01   3.4734743886e+01    0.5713882    0.1462685 -40.14  0.001502536    4.129    0.758
        62  -8.2029    129.3340     96.6930   7.2877249680e+01   3.7553653688e+01    0.1558232       0.1261 -87.22  0.000480189    1.669    0.401
        63 -16.2861      2.4537    221.7833   1.2529098447e+02   2.6398016529e+01     12.19908          nan -73.19   0.01677682   12.170    0.918
        64 -12.1899     83.8899    159.6390   1.0026791812e+02   3.1151799664e+01     1.228013    0.7546596  73.93 0.0007490233    2.400    0.583
        65  -8.6906    193.7176    171.0544   7.5998408822e+01   8.7524946680e+00    0.2085255    0.1792424 -23.30 0.0008805585    1.092    0.084
        66  -8.5428    157.5242     82.5317   6.1918167032e+01   3.3906175081e+01    0.1496137    0.1480121 -51.09 0.0001270841    1.019    0.018
        67  -8.2864    157.4661     89.5392   6.3923778799e+01   3.2622689674e+01    0.1533611    0.1468491 -67.78 0.0008067899    1.091    0.083
        68 -12.9555    185.6708     50.6986   4.7734676789e+01   3.2308784525e+01     1.026076    0.8635101 -18.16  0.000814632    1.358    0.264
        69 -11.6083    163.4707    213.3430   9.0489315188e+01   6.1585017079e+00    0.4319843    0.3064748  36.69  0.002350134    1.292    0.226
        70  -8.1302     74.3037     55.3085   7.6532933506e+01   5.6417925794e+01    0.1428818    0.1004072  -3.10 0.0003469131    1.606    0.377
        71 -11.2010    107.5717    203.7581   1.0140468430e+02   1.7283285577e+01    0.5549959    0.2583492  53.92  0.001718122    2.596    0.615
        72 -10.6677     28.1599     35.6202   8.8131738614e+01   6.6212264941e+01    0.2128344    0.1571212 -27.71  0.001357725    1.102    0.092
        73 -11.0887    221.8741     30.2588   3.8120782258e+01   2.6656501608e+01     0.587763    0.2453327  45.75  0.002311139    3.709    0.730
        74 -11.0568    184.1672    212.7194   8.6042695788e+01   2.8498392781e+00     0.316595    0.2011996  36.37  0.001654976    1.466    0.318
        75  -9.5582    198.4537     23.5490   3.9005358574e+01   3.2744809843e+01    0.2441448    0.1250392 -29.90  0.001176237    2.068    0.516
        76 -11.2883     29.0917     19.3668   8.0783264481e+01   6.8730145908e+01    0.2923161    0.1304013 -30.72  0.001479474    2.043    0.511
        77  -9.9250    120.9459    195.4909   9.7036124494e+01   1.6881006567e+01    0.2443847    0.1929931 -83.04 0.0005835696    1.522    0.343
        78  -9.1376    189.6712     15.0195   3.7842575365e+01   3.5725810182e+01    0.1750452    0.1599405 -63.87 0.0005875013    1.111    0.100
        79  -9.6144     89.9381    212.4636   1.0655551535e+02   1.8110532935e+01    0.2363274    0.1850171 -75.86 0.0005310282    1.330    0.248
        80  -8.3725    103.6084    213.7155   1.0368439620e+02   1.5806797740e+01     0.131343    0.1034824  -2.75 0.0007003096    1.756    0.431
        81 -11.1100    193.2365    195.2748   8.0968604782e+01   4.3846715517e+00     1.122739    0.6248881 -64.53  0.003434835    5.800    0.828
