#   1 NUMBER                 Running object number                                     
#   2 MAG_AUTO               Kron-like elliptical aperture magnitude                    [mag]
#   3 X_IMAGE                Object position along x                                    [pixel]
#   4 Y_IMAGE                Object position along y                                    [pixel]
#   5 X_WORLD                Barycenter position along world x axis                     [deg]
#   6 Y_WORLD                Barycenter position along world y axis                     [deg]
#   7 A_WORLD                Profile RMS along major axis (world units)                 [deg]
#   8 B_WORLD                Profile RMS along minor axis (world units)                 [deg]
#   9 THETA_WORLD            Position angle (CCW/world-x)                               [deg]
#  10 FWHM_WORLD             FWHM assuming a gaussian core                              [deg]
#  11 ELONGATION             A_IMAGE/B_IMAGE                                           
#  12 ELLIPTICITY            1 - B_IMAGE/A_IMAGE                                       
         1 -15.2837      4.2017    140.6541   1.4132034148e+02   4.5253095323e+01     8.350477     1.047067 -72.21   0.02070186    7.781    0.871
         2 -13.6019    202.1573     28.3337   6.4492793626e+01   3.1522575532e+01     1.255142     1.178222  69.03  0.005869954    1.222    0.182
         3 -13.5931    218.2393     10.5170   5.8739727980e+01   2.9873552848e+01    0.8432579    0.7332785  76.69  0.002750798    1.221    0.181
         4 -12.3755     60.6797    172.6422   1.3166895505e+02   3.1969757005e+01    0.3032618    0.2456684 -47.15 0.0007196458    1.421    0.296
         5 -13.0506    240.9380    247.7616   1.0542189880e+02  -1.3215727505e+01     1.106918    0.5234665  23.85   0.00552549    2.215    0.549
         6 -12.7714      9.7723    207.1125   1.4609832107e+02   2.9881966034e+01    0.6594455     0.471412  31.64  0.002949037    1.848    0.459
         7 -14.5947      9.8997    241.6172   1.4830044410e+02   2.2813807253e+01     2.896419     1.409379  51.37   0.01836592    1.703    0.413
         8 -12.8806     42.4724    213.1779   1.4031324876e+02   2.4983506339e+01    0.7517543    0.4882671  75.07  0.002515109    1.346    0.257
         9 -11.5410    123.8815    249.6693   1.2822157368e+02   5.4310631839e+00    0.5572222   0.08078629  43.09  0.001581128    5.159    0.806
        10 -14.7910     30.5336    226.3991   1.4370512727e+02   2.3596567499e+01      1.03285    0.9006559 -72.36  0.007583579    1.437    0.304
        11 -10.7736    171.4028    246.2030   1.1837772086e+02  -2.0091436967e+00    0.1639114    0.1257879 -63.14 0.0007793605    1.705    0.413
        12 -10.0385    139.3399    246.3168   1.2474664743e+02   3.4375308030e+00     0.125483   0.09905409  10.71 0.0007048619    1.707    0.414
        13 -11.4570    104.8694    245.3020   1.3140485423e+02   9.3415224971e+00    0.2207939    0.1643908  86.18  0.001331349    1.392    0.282
        14 -11.0808    183.6325    238.8879   1.1482063340e+02  -2.8927064722e+00    0.2392067    0.1629867  28.98 0.0009763782    1.369    0.269
        15 -10.6411    233.8038    236.8231   1.0484706611e+02  -1.0682580501e+01     0.153992    0.1470518  14.89 0.0005781139    1.352    0.261
        16 -10.9635    176.7695    249.9970   1.1789480510e+02  -3.5226313323e+00    0.2519472    0.1445049  30.07  0.001294476    1.684    0.406
        17 -12.1191    111.7567    231.7886   1.2837982373e+02   1.0842316657e+01    0.5165454    0.1629367  44.90  0.001974874    2.707    0.631
        18 -12.1329     88.7468    226.9043   1.3246671513e+02   1.5557810977e+01    0.7207146    0.1705024  49.90  0.002269697    4.316    0.768
        19 -11.5095     57.9830    212.9697   1.3717922431e+02   2.3032444369e+01    0.6127824    0.2154078  58.71  0.002242182    3.624    0.724
        20  -8.8585    152.4205    213.1824   1.1704569542e+02   7.3635273273e+00    0.1708867    0.1366394 -69.71 0.0009107956    1.448    0.310
        21 -10.3045     53.5419    203.5460   1.3709252934e+02   2.5714166775e+01    0.3131292    0.1537061  70.16   0.00139372    2.423    0.587
        22 -12.0011     55.1649    197.7971   1.3611014817e+02   2.6803827117e+01    0.2905021    0.2270301 -70.13 0.0005082914    1.236    0.191
        23 -11.4803      4.8315    191.1012   1.4585504791e+02   3.3810788879e+01    0.3296194    0.1997499  72.90  0.000501583    1.435    0.303
        24 -11.2050      3.6923    183.7401   1.4550711132e+02   3.5533090732e+01    0.2692794    0.1989015  75.49 0.0007825087    1.169    0.145
        25 -12.2177     62.1158    189.3035   1.3356250642e+02   2.7833987265e+01    0.2719917    0.2337571 -77.25 0.0004501669    1.126    0.112
        26 -11.2204    157.6393    249.5683   1.2158165927e+02  -2.3099834293e-01    0.2413183    0.1746045  25.98  0.001388459    1.440    0.305
        27 -11.0540     73.4129    176.4268   1.2917329195e+02   2.9282445352e+01    0.2529889    0.2229732 -86.49 0.0003267458    1.022    0.021
        28  -9.3355     92.3518    170.0152   1.2354068350e+02   2.7876036983e+01    0.2054812    0.1715978 -77.43 0.0004912592    1.131    0.116
        29 -12.2070     81.2233    167.2366   1.2582753195e+02   3.0322164664e+01    0.7563267    0.5628316 -53.14  0.003983452    1.351    0.260
        30 -10.9058     94.6697    152.0410   1.1966513183e+02   3.1840694857e+01     0.349313    0.2722553 -55.32 0.0008243743    1.228    0.186
        31  -9.5650     98.1382    147.8453   1.1792256125e+02   3.2264063341e+01    0.2228312    0.2084701 -65.35  0.000378674    1.042    0.040
        32 -12.1026     83.1595    150.9534   1.2247261167e+02   3.3979604532e+01    0.3086102    0.2526237 -48.72 0.0005594867    1.242    0.195
        33 -11.9434     68.4057    143.4046   1.2500611017e+02   3.8000565953e+01    0.5385184    0.4201422  85.89   0.00161329    1.379    0.275
        34 -10.8892     64.6650    141.6958   1.2570594319e+02   3.8927634519e+01    0.3585753    0.2053008 -46.50 0.0009158426    1.761    0.432
        35 -10.1168    107.6779    137.0783   1.1309579774e+02   3.3142253789e+01    0.4846539    0.3078758 -19.84  0.001807465    2.825    0.646
        36 -10.6816     94.5120    134.4078   1.1607778197e+02   3.6127085804e+01    0.2622559    0.2322981 -33.57 0.0002748277    1.216    0.178
        37  -9.2442    105.4368    123.7440   1.1062796917e+02   3.6701626388e+01    0.1904524    0.1402016 -41.59 0.0002562942    1.363    0.266
        38  -9.6465     73.8796    118.8994   1.1851350298e+02   4.3085728848e+01    0.2082874    0.1915388 -76.13 0.0004993759    1.112    0.101
        39  -8.5442     60.5387    117.5713   1.2215900911e+02   4.5229608707e+01    0.1366606    0.1227676 -60.72  0.000118877    1.037    0.036
        40  -9.0555     66.0107    113.0186   1.1953292746e+02   4.5563789055e+01    0.1643744    0.1462663 -51.50  0.000957307    1.008    0.008
        41  -9.1722     54.7310    104.8145   1.2113354616e+02   4.8885227060e+01    0.1734325    0.1487767 -83.11 0.0004159483    1.324    0.245
        42 -10.2996    159.2439     77.2423   8.4498135578e+01   3.4667119328e+01    0.2112951    0.1760128 -79.19  0.000711264    1.344    0.256
        43  -9.0386     40.8938     66.4366   1.1598787125e+02   5.8487777266e+01    0.1622092    0.1177642  23.81 0.0005129473    1.504    0.335
        44 -12.7932     10.3386    120.7603   1.3721758864e+02   4.9375089402e+01    0.5625752    0.4203082  69.80  0.001681202    1.530    0.347
        45 -11.7710    198.5232    247.9902   1.1336864051e+02  -6.7940551128e+00    0.3081631    0.2657252 -23.24  0.002045804    1.274    0.215
        46 -12.9610     58.8064    175.4665   1.3250524508e+02   3.1543211506e+01    0.2872677    0.2721232 -66.42  0.000723134    1.230    0.187
        47 -11.2582     64.7668    248.6457   1.3930633000e+02   1.4726752132e+01    0.2938095    0.2053379  83.14 0.0009117814    1.262    0.207
