#   1 NUMBER                 Running object number                                     
#   2 MAG_AUTO               Kron-like elliptical aperture magnitude                    [mag]
#   3 X_IMAGE                Object position along x                                    [pixel]
#   4 Y_IMAGE                Object position along y                                    [pixel]
#   5 X_WORLD                Barycenter position along world x axis                     [deg]
#   6 Y_WORLD                Barycenter position along world y axis                     [deg]
#   7 A_WORLD                Profile RMS along major axis (world units)                 [deg]
#   8 B_WORLD                Profile RMS along minor axis (world units)                 [deg]
#   9 THETA_WORLD            Position angle (CCW/world-x)                               [deg]
#  10 FWHM_WORLD             FWHM assuming a gaussian core                              [deg]
#  11 ELONGATION             A_IMAGE/B_IMAGE                                           
#  12 ELLIPTICITY            1 - B_IMAGE/A_IMAGE                                       
         1 -15.1786    207.0619      9.2489   4.5108053690e+01   3.1123627448e+01      4.09887     2.235841  22.93   0.01709053    2.728    0.633
         2 -14.1849    171.9823     52.4816   6.2902101991e+01   3.4967690462e+01       1.7402      1.28566  32.94  0.005481407    1.510    0.338
         3 -14.0698    186.5176     38.2277   5.6160570661e+01   3.3173274458e+01    0.8851851    0.8173007  27.43  0.003171012    1.147    0.128
         4 -13.4092    246.9624    244.6913   9.0738087930e+01  -2.9347677527e+00    0.7932455    0.4412961 -12.32  0.005984495    1.793    0.442
         5 -18.0423     44.4992    239.5938   1.2409639876e+02   2.3048057810e+01     7.395343     6.021686  38.19   0.06382738    1.367    0.268
         6 -12.0313    151.6208    196.2601   9.9876788270e+01   1.5561853383e+01    0.3283507    0.1812379  36.67 0.0009951411    1.505    0.335
         7 -12.3700    153.8837    192.6101   9.8918635058e+01   1.5741269155e+01    0.4051801    0.3570974  42.83  0.002846705    1.146    0.127
         8 -10.4904     81.5772    195.4235   1.1392868606e+02   2.5936706588e+01    0.2419167    0.2188565 -44.97  0.001776936    1.468    0.319
         9 -12.1450    141.9556    189.7537   1.0084525262e+02   1.8055615714e+01    0.2917233    0.1906342  50.23  0.001497408    1.469    0.319
        10 -11.3558    153.5727    185.2132   9.7878760710e+01   1.6894814474e+01    0.3021367    0.2219906 -58.32   0.00129127    1.802    0.445
        11 -11.4292     99.0804    185.8291   1.0920430534e+02   2.5230436706e+01    0.4273142     0.207665  37.41  0.002210879    1.784    0.439
        12 -11.5410     99.3637    180.7391   1.0853076135e+02   2.6104744908e+01    0.2495763    0.2123474  29.58 0.0006061367    1.258    0.205
        13 -11.8632     70.1551    209.5520   1.1747588379e+02   2.4944805091e+01    0.2002945    0.1384704  59.50 0.0003694425    1.212    0.175
        14  -9.9162     94.0286    189.0918   1.1065363167e+02   2.5367912382e+01    0.1689506    0.1486423  25.64 0.0005765388    1.303    0.233
        15 -10.2417     75.1834    207.4501   1.1630898735e+02   2.4679310012e+01    0.2819082    0.2095559 -35.81  0.001387502    2.128    0.530
        16 -11.0724    204.3213    175.8567   8.6912563074e+01   9.8814522794e+00    0.2971518    0.2653211   2.13 0.0009757101    1.175    0.149
        17 -10.5521    196.7204    176.1038   8.8286513520e+01   1.1091354892e+01    0.2838674    0.2208411  40.49  0.001137616    1.287    0.223
        18 -10.3453    188.6605    175.4581   8.9621296551e+01   1.2510331307e+01    0.2458403    0.1817575 -38.89 0.0009247891    1.583    0.368
        19 -13.0256     60.1982    217.1012   1.1995811400e+02   2.4867259039e+01    0.3538813    0.2081229  78.01  0.002300198    1.788    0.441
        20 -11.9878     61.5892    205.5717   1.1887591039e+02   2.6650248872e+01    0.3771192    0.2775103 -32.94  0.001909545    2.318    0.569
        21 -12.7348     63.8102    197.7172   1.1781897652e+02   2.7766261561e+01     0.338224    0.2257636 -43.27   0.00134909    2.283    0.562
        22 -10.9628    229.9907    166.0034   8.0867909326e+01   6.9487195791e+00    0.1613062    0.1528644 -55.00 0.0009898877    1.666    0.400
        23 -10.4136      7.3658    162.0338   1.2785051966e+02   4.0428327945e+01    0.1927941    0.1370247 -84.41  0.001363431    1.301    0.231
        24  -9.1599      3.2736    162.0081   1.2878555269e+02   4.0752935943e+01    0.1491167    0.1196158  38.30 0.0007289798    1.363    0.267
        25 -19.0856     22.0998    100.1617   1.1905723805e+02   5.3064977042e+01     15.29505       1.0362 -73.13   0.02867204   12.756    0.922
        26 -10.6461    187.3535    154.3717   8.5978543905e+01   1.5716528553e+01    0.4437013    0.2012616  37.14  0.001995892    2.094    0.523
        27 -11.7900    133.8021    145.6300   9.5363580614e+01   2.6995380195e+01     1.088486    0.2928895 -53.90  0.003071542    5.730    0.825
        28 -10.7440    113.1717    151.4357   1.0117817183e+02   2.9486156996e+01    0.2375257    0.2002385  85.88 0.0004963593    1.309    0.236
        29 -12.6740     98.6577    152.0834   1.0474904911e+02   3.1714049021e+01    0.5551049    0.4574214  -9.05  0.003204415    1.690    0.408
        30 -10.7489    174.3069    148.8164   8.7387475638e+01   1.8948853629e+01     0.295835    0.2528424 -61.06  0.001343471    1.520    0.342
        31 -12.3098     54.3252    210.6214   1.2066473702e+02   2.6621716586e+01    0.2049125    0.1400494  48.18 0.0005009336    1.131    0.116
        32 -11.5641    143.9423    146.7536   9.3311199714e+01   2.4937176849e+01    0.4054945    0.2257778 -58.04  0.001809505    2.398    0.583
        33 -11.9773    194.0534    196.5013   9.2131467508e+01   8.9327423722e+00    0.8663242    0.5543905 -65.58  0.003715471    5.165    0.806
        34 -12.2680    108.7635    138.9915   1.0008277553e+02   3.2719053833e+01    0.5967003    0.3640276 -34.41  0.002747023    2.263    0.558
        35 -10.3353    115.8701    144.7186   9.9380011019e+01   3.0347471588e+01    0.2400178    0.1697609  86.02 0.0007360576    1.957    0.489
        36  -9.7882    128.0774    139.4917   9.5514489438e+01   2.9200743659e+01    0.2144537    0.1277667  42.44  0.001024004    1.564    0.361
        37 -12.5965     97.5718    137.8268   1.0269204093e+02   3.4828193468e+01    0.2682077    0.2462588  52.21 0.0006301757    1.056    0.053
        38 -11.6161    135.9427    128.6259   9.1456472153e+01   2.9814153371e+01    0.8575919    0.1975006 -48.70  0.002409269    4.976    0.799
        39 -11.6387    105.9219    130.8211   9.9279836206e+01   3.4898668581e+01     0.389963    0.3179363 -84.96    0.0011284    1.360    0.265
        40 -11.4569    103.6528    124.9757   9.8728477239e+01   3.6527402716e+01    0.2834701    0.2441283   2.62 0.0007998194    1.461    0.316
        41 -11.0908    115.8112    129.1405   9.6443369061e+01   3.3493508609e+01    0.3120977    0.2630355  -1.59 0.0009429589    1.503    0.335
        42 -10.4890    160.5150    127.5078   8.5724179678e+01   2.5158396422e+01    0.3370553     0.254921 -55.16  0.001729706    1.566    0.362
        43 -11.0618    120.6606    123.0475   9.3960343455e+01   3.3840026702e+01    0.4279887    0.2830936 -16.89  0.001806949    2.575    0.612
        44 -10.2855    110.8937    118.3997   9.5460231370e+01   3.6623693002e+01    0.2324109    0.2013879 -46.25 0.0003519399    1.207    0.171
        45 -10.5986    167.8567    112.7704   8.0745709318e+01   2.6191432044e+01     0.342378     0.274146 -89.31  0.001311074    1.765    0.433
        46 -11.7128    119.3475    110.5552   9.1478746322e+01   3.6655436439e+01    0.5787563    0.3622836  59.89  0.002568698    1.893    0.472
        47 -10.8962    134.5900    105.0453   8.6292231467e+01   3.4672652093e+01    0.4772437    0.1425276 -43.46  0.001500617    3.404    0.706
        48 -10.6185    205.1960    110.1635   7.3127766339e+01   1.8768074793e+01    0.3295217     0.204577  39.41  0.001057844    1.622    0.383
        49 -11.1049    158.4545    234.8386   1.0352339481e+02   9.4714294498e+00    0.2285308    0.1452279  36.67  0.001601265    1.169    0.145
        50  -9.3893    152.8509     81.2100   7.5503336350e+01   3.5059660664e+01    0.2050624    0.1747161  10.52  0.000408283    1.308    0.235
        51 -10.4230     45.6328    202.4322   1.2186050319e+02   2.9009353236e+01    0.1183517    0.0862063  48.75 0.0003197779    1.124    0.110
        52 -10.6651    161.1026    199.6633   9.8561677789e+01   1.3607913647e+01    0.1629903     0.159209  39.48  0.000385048    1.270    0.213
        53 -13.4314    191.1324     32.1474   5.3664823755e+01   3.2731247119e+01    0.5782902    0.5060982  11.67  0.001481186    1.247    0.198
        54 -10.9736    168.1069    233.0818   1.0166158882e+02   8.3504952965e+00    0.2198394     0.153446  45.09 0.0009420068    1.373    0.272
        55 -11.7637    203.5627    197.7154   9.0689893493e+01   7.3442861015e+00    0.2948712    0.2457097 -16.90  0.002152908    1.327    0.246
        56 -10.7264     72.0357    231.3463   1.1870730645e+02   2.1233377263e+01    0.1727277     0.117267  73.76 0.0009344367    1.493    0.330
        57 -12.7997    165.6584     66.0565   6.8302091357e+01   3.4506531785e+01      0.85515    0.6480134 -72.43 0.0007618758    1.679    0.405
