#   1 NUMBER                 Running object number                                     
#   2 MAG_AUTO               Kron-like elliptical aperture magnitude                    [mag]
#   3 X_IMAGE                Object position along x                                    [pixel]
#   4 Y_IMAGE                Object position along y                                    [pixel]
#   5 X_WORLD                Barycenter position along world x axis                     [deg]
#   6 Y_WORLD                Barycenter position along world y axis                     [deg]
#   7 A_WORLD                Profile RMS along major axis (world units)                 [deg]
#   8 B_WORLD                Profile RMS along minor axis (world units)                 [deg]
#   9 THETA_WORLD            Position angle (CCW/world-x)                               [deg]
#  10 FWHM_WORLD             FWHM assuming a gaussian core                              [deg]
#  11 ELONGATION             A_IMAGE/B_IMAGE                                           
#  12 ELLIPTICITY            1 - B_IMAGE/A_IMAGE                                       
         1 -14.2261     36.3727     56.0966   4.7265823465e+01   6.2549902367e+01     2.142192     1.335482   0.81  0.009884118    2.175    0.540
         2 -13.1100     79.9353     21.6803   1.8370798525e+01   5.9418628011e+01      1.58516    0.5351435  47.20   0.00178464    2.772    0.639
         3 -12.9361     51.0771     35.8592   3.3293443187e+01   6.3495245967e+01     1.845607    0.8418936  25.69  0.006106576    4.539    0.780
         4 -12.4418     52.2139     23.1660   2.7835206582e+01   6.5012921710e+01    0.7986479    0.7466405 -79.16  0.005043396    1.336    0.251
         5 -13.4380     51.2551     44.7766   3.6517303093e+01   6.2082876529e+01     1.021369    0.5260064  21.28  0.002127011    3.355    0.702
         6 -13.7668     80.6337     42.7467   2.5340401955e+01   5.6588518376e+01    0.9136394    0.7176691 -58.76  0.002526226    1.503    0.335
         7 -11.3686     40.8278     23.7402   3.2904000567e+01   6.7093691920e+01    0.9416653     0.709718  14.46  0.005726465    1.445    0.308
         8 -12.5770    232.3548     35.0909   1.6509200955e+00   2.7982911934e+01     0.785256    0.2438626 -59.59  0.003038367    3.386    0.705
         9 -13.1403    219.8964     27.7348   1.2300408720e+00   3.0757263796e+01    0.3272977     0.277528 -72.34 0.0007015576    1.237    0.191
        10 -12.7862    226.2704     22.5483   3.5994623457e+02   3.0301172183e+01    0.3212853    0.2037601  86.48  0.001552517    1.485    0.327
        11 -12.8701    244.4670     22.1667   3.5886511580e+02   2.7578789877e+01    0.5265418    0.2902023 -87.56   0.00320811    1.731    0.422
        12 -14.3783    244.3023      8.9442   3.5682109119e+02   2.8949700476e+01    0.9896364    0.3621757 -76.85  0.005822476    2.986    0.665
        13 -11.9800    227.2359      8.8676   3.5762223033e+02   3.1555237595e+01    0.4305807     0.155414 -63.85  0.001961214    2.439    0.590
        14 -11.6851    228.4738     15.2989   3.5861616245e+02   3.0712431736e+01     0.255001    0.2015014  74.66 0.0009604092    1.543    0.352
        15 -12.3697    221.5555     11.2874   3.5832399973e+02   3.2218649716e+01    0.4411657    0.2282351 -67.09  0.002882454    1.545    0.353
        16 -10.7004     31.3856     19.5493   3.5691162400e+01   6.9318206724e+01    0.4941325    0.4230404  65.44  0.002576241    1.553    0.356
        17 -12.3980      2.9702     27.5324   5.6947889305e+01   7.1903428052e+01     0.647101    0.3090221 -45.66  0.003348854    2.100    0.524
        18 -12.6885     25.4441     41.1828   4.7818560054e+01   6.6851264954e+01     1.057013    0.5335392 -39.32  0.005111652    2.178    0.541
        19 -13.1627      9.1332     40.5568   5.7414211023e+01   6.8910762906e+01      1.24431    0.6606038 -27.67  0.005780336    2.067    0.516
        20 -12.0597     11.8966     32.4890   5.2730771032e+01   7.0095672818e+01    0.4828416    0.2301743  28.79  0.001776372    1.808    0.447
        21 -11.3762    102.0081     16.7296   1.1834869004e+01   5.5108067265e+01    0.4449261    0.2077747 -17.00  0.001655598    4.048    0.753
        22 -11.2549    112.6771     22.5184   1.1631427370e+01   5.2154305871e+01    0.4005501    0.3246945 -21.22  0.002627557    1.633    0.388
        23 -10.9524    203.3468     18.0477   6.2451935594e-01   3.4564159539e+01    0.2800307    0.2172735  37.38  0.001224522    2.318    0.569
        24 -12.1220     60.9727     16.9554   2.2182590191e+01   6.3975939924e+01    0.3921565    0.2566198 -56.49  0.001871263    2.124    0.529
        25 -12.3609     67.0518     14.0199   1.9133413592e+01   6.3013962359e+01    0.3994871    0.2294329  66.62 0.0009807509    1.664    0.399
        26 -10.0065    112.7720     15.0289   9.4541977346e+00   5.2914328716e+01      0.18046     0.157789  18.60 0.0002928287    1.574    0.365
        27 -12.4937    116.5198      8.0800   6.9003995713e+00   5.2762991198e+01     0.388805    0.3460008  33.00  0.002016365    1.484    0.326
        28 -10.4035    150.2140     13.0787   4.0767011849e+00   4.5138375299e+01    0.1878202    0.1428025 -54.05 0.0008748554    1.298    0.230
        29 -10.4586    108.4986     11.2589   9.0444504333e+00   5.4220113804e+01    0.2416563    0.2314149  67.22  0.001798937    1.253    0.202
        30 -11.5719     38.1257     12.3329   2.9087059693e+01   6.9024140133e+01     0.194282    0.1640742  27.15 0.0003198197    1.121    0.108
        31 -11.2795    125.0050     11.9619   6.7913702573e+00   5.0556273145e+01    0.3571637    0.1354717  68.17  0.001161825    2.167    0.539
        32  -9.9250     88.6292     12.1639   1.3040001788e+01   5.8512552495e+01    0.1429237    0.1171721   1.34 0.0009277546    1.672    0.402
        33 -10.7679    144.0561      9.7216   3.9292920999e+00   4.6736811183e+01    0.2226263    0.1446225 -63.08  0.001215431    1.427    0.299
        34 -11.1564     78.5617      9.6920   1.4453417826e+01   6.0959805533e+01    0.2642106    0.1426501  54.83 0.0009948412    1.503    0.335
        35 -12.4452     77.0390      5.0990   1.3144198596e+01   6.1715789484e+01    0.3734273    0.2552807  35.40  0.001446492    1.680    0.405
        36 -11.8978     25.2919      9.7762   3.4344582239e+01   7.1609026269e+01    0.3123447    0.1718058  37.49  0.001748702    1.469    0.319
        37 -11.0929    194.3361      8.0105   3.5936184783e+02   3.7166262738e+01    0.1979223    0.1499595 -70.76 0.0007736048    1.047    0.045
        38 -12.0930     63.8820      7.4271   1.7471263249e+01   6.4346230620e+01     0.400411    0.2526445  60.15  0.001610368    1.286    0.222
        39 -11.3856     64.9902      3.2222   1.5473173762e+01   6.4495245713e+01    0.2285241    0.1813857  59.18 0.0003690753    1.003    0.003
        40 -12.3582    173.2035      6.0861   4.7429813641e-01   4.1262037592e+01    0.2885985    0.2116003 -23.64  0.001821122    1.936    0.484
        41 -10.6536     55.2472     10.9630   2.1664322054e+01   6.5804177089e+01    0.3078156    0.1926446 -65.34  0.001556262    2.756    0.637
        42 -10.8362     14.0010     12.0942   4.2407953235e+01   7.3058006538e+01    0.1716776    0.1350944  20.76    0.0011477    1.012    0.011
        43 -10.6420     49.5715      6.0000   2.1525618794e+01   6.7467246902e+01    0.4144592    0.1205172  51.17  0.001740989    2.544    0.607
        44 -12.1949     45.8968      2.6368   2.1358021171e+01   6.8535632589e+01     0.313707    0.2279455  -9.32 0.0003475194    1.767    0.434
        45 -10.2093     91.4929      6.9871   1.0729500577e+01   5.8366862541e+01    0.1608166    0.1125455 -43.73   0.00101248    1.654    0.395
        46 -10.2493    210.4633      6.0651   3.5803677244e+02   3.4562017512e+01     0.149579    0.1026127 -84.15  0.000780466    1.205    0.170
        47 -10.4113      3.1157      6.2606   4.7312071017e+01   7.5308990556e+01    0.2676217    0.1322962  14.33  0.001338923    2.184    0.542
        48 -10.1625    188.8925      5.2141   3.5918575548e+02   3.8418236568e+01    0.1542602   0.09715606 -69.86 0.0003204308    1.249    0.199
        49 -10.6723    213.4725      2.4585   3.5724766800e+02   3.4406989377e+01     0.193859    0.1299968 -49.40 0.0009511244    1.325    0.245
        50 -10.7073     70.4157      3.4807   1.4144699518e+01   6.3301647390e+01     0.298274    0.1817422  10.07  0.001572728    2.733    0.634
        51  -9.6400    142.0224      4.2192   2.8093224745e+00   4.7673876895e+01    0.1379143   0.07537679  76.01 0.0003446414    1.513    0.339
        52 -10.4825     56.1311      3.7639   1.8319199469e+01   6.6325930365e+01    0.3487853    0.1437681  63.94  0.001600492    2.299    0.565
        53  -9.5776    111.5175      3.5110   6.3069592799e+00   5.4264480547e+01    0.1186488    0.0934865  83.99 0.0002715553    1.037    0.036
        54 -10.2805    219.5921      1.6264   3.5679838808e+02   3.3481406648e+01    0.2877347   0.08279033  70.16  0.001612979    3.259    0.693
        55  -9.9820    154.7479      2.7018   1.2515986364e+00   4.5205486968e+01   0.09378926   0.07739779  57.85 0.0002193353    1.495    0.331
        56  -9.9061    126.6519      2.0636   3.9425241400e+00   5.1112020202e+01    0.1256288    0.1092245  -1.54 0.0004226898    1.683    0.406
        57 -11.3635     87.4790      1.3452   9.6077815837e+00   5.9742826869e+01    0.3341561   0.08795775  62.87 0.0005636065    2.717    0.632
        58 -14.0282    217.7591     69.4249   8.6995005076e+00   2.6031086431e+01    0.6501056    0.4052556 -87.36  0.002212356    1.842    0.457
        59 -12.1076     52.0524     86.9981   4.9257799923e+01   5.3827209656e+01    0.3297705    0.2386121  10.82 0.0009338316    1.498    0.333
        60 -12.4734     47.3208     85.9526   5.0970983107e+01   5.4768158209e+01     0.566255    0.2635711  23.16  0.001712483    2.311    0.567
        61 -13.2002    197.0565     80.7075   1.2999923716e+01   2.7806492510e+01    0.5125085    0.2068286 -41.64 0.0005855513    2.206    0.547
        62 -12.0910    203.8481     79.3758   1.1955740199e+01   2.6879383836e+01    0.2877115    0.1819606 -66.54 0.0009295966    1.585    0.369
        63 -12.2862    200.4592     75.5105   1.1618253564e+01   2.7983735029e+01    0.2837126    0.1640758  57.79  0.001751895    1.941    0.485
        64 -11.5805    148.1646     84.4834   2.1072376524e+01   3.6082473569e+01    0.3928667    0.2825922  80.51  0.001395875    1.588    0.370
        65 -12.6039    147.2989     79.2117   2.0026413229e+01   3.7111479382e+01    0.3071159    0.2384668 -51.63 0.0004091924    1.247    0.198
        66 -10.6346    106.0245     86.3471   3.0873595534e+01   4.4126023157e+01    0.2069703     0.174466  52.44  0.001161169    1.130    0.115
        67 -10.0809    207.4749     85.5040   1.2670981872e+01   2.5419708598e+01    0.1120653   0.09119997 -58.50 0.0003669614    1.006    0.006
        68 -11.2781    202.0941     84.9477   1.3195622088e+01   2.6361798352e+01    0.1740259    0.1417951 -57.25 0.0005146906    1.027    0.026
        69 -12.0713    162.1438     83.6465   1.8480708440e+01   3.3553181889e+01    0.3866042    0.3153754  83.47  0.002202616    1.239    0.193
        70 -12.7870    168.7175     79.1807   1.6501609783e+01   3.3026382786e+01     0.738037    0.3016159 -51.06  0.002151449    2.406    0.584
        71 -12.9423    248.8673     83.0851   8.1875216996e+00   1.9752837531e+01    0.2265816    0.1631249 -59.25 0.0006126472    1.116    0.104
        72 -12.0459    188.4511     83.0214   1.4525614784e+01   2.8922013839e+01    0.3410046    0.1937768  73.86  0.001363847    2.200    0.545
        73 -11.8781    138.4503     81.6895   2.2267844564e+01   3.8452353052e+01    0.4572403     0.372638  82.16  0.002629755    1.261    0.207
        74 -12.1662     36.0249     82.6108   5.5123177278e+01   5.7074467094e+01    0.6495891    0.3454023  20.02  0.002545858    1.883    0.469
        75 -11.1826     40.2476     81.8224   5.2992708537e+01   5.6688155461e+01    0.2585064    0.2122611  48.30 0.0006292593    1.345    0.256
        76 -13.4943     39.5631     77.2381   5.2075824663e+01   5.7786349999e+01    0.7669446    0.4986926  35.20   0.00032434    1.452    0.311
        77 -11.0571     17.4856     83.4864   6.4260332280e+01   5.8921572505e+01    0.3965381    0.1983963 -16.52  0.001497841    2.564    0.610
        78 -11.6522    239.0586     81.0340   8.7065957354e+00   2.1349844003e+01    0.2693618    0.1437403  60.81 0.0008016488    2.289    0.563
        79 -12.6846     11.2953     79.7160   6.6598882986e+01   6.0338745678e+01    0.4947358    0.2919161 -15.23  0.002173478    1.787    0.441
        80 -12.3129     93.0256     65.0043   2.8613304642e+01   5.0551809941e+01    0.6836079    0.4849641 -11.87  0.003325209    2.218    0.549
        81 -11.5051    123.5026     69.5579   2.2348775180e+01   4.3474494513e+01     0.502391     0.331982 -43.87  0.002700744    1.582    0.368
        82 -13.4722    117.5457     61.4564   2.1516708229e+01   4.5991385279e+01    0.5988404     0.497685 -21.88 0.0009217724    1.539    0.350
        83 -12.0611     98.5439     77.0707   3.0452003371e+01   4.7327504813e+01    0.5993301    0.4267707 -78.90  0.002094586    1.954    0.488
        84 -13.0097    101.3556     68.0439   2.7201858985e+01   4.8322023939e+01     1.598621    0.5284061  39.38  0.004797764    4.620    0.784
        85 -10.9412     84.0940     72.1271   3.3348173281e+01   5.1111550712e+01    0.4962915    0.2357364  41.69  0.001978465    1.988    0.497
        86 -10.9576     82.7678     79.5066   3.5864824883e+01   4.9993405575e+01    0.5261469    0.1820287  43.73  0.001885344    2.679    0.627
        87 -10.7483     86.8906     76.6485   3.3759635981e+01   4.9730190496e+01    0.4251007    0.2381832 -60.18  0.001503152    2.400    0.583
        88 -11.6627    232.2593     79.0322   8.9901476630e+00   2.2576393384e+01     0.250964    0.1404984  75.48  0.001199017    2.264    0.558
        89 -12.6857    217.2696     77.1564   1.0114460288e+01   2.5063012800e+01    0.2491586    0.2142198 -59.20  0.001204965    1.132    0.116
        90 -11.8914     74.3760     75.3382   3.7493476099e+01   5.2388750698e+01    0.6313425    0.4097324  33.81  0.002227856    1.514    0.340
        91 -10.9495     74.4086     70.5275   3.6076215412e+01   5.3287505248e+01    0.3271632    0.2364143 -25.24  0.001272026    1.732    0.423
        92 -10.5503     70.6105     70.7004   3.7461618859e+01   5.3973763560e+01    0.3023915    0.2127076  52.19 0.0009903861    1.431    0.301
        93 -13.6008     54.4010     72.9090   4.4364209064e+01   5.6419618787e+01      1.09211    0.7458277 -63.84   0.00536988    1.880    0.468
        94 -13.1157     34.8666     62.8372   5.0141441518e+01   6.1448303612e+01    0.9680489    0.4573711 -36.34  0.002479336    2.546    0.607
        95 -11.2925     38.6899     40.3978   4.0603412191e+01   6.4972999450e+01    0.8218848    0.3625119  28.12  0.003379798    2.543    0.607
        96 -10.4685    250.0320    249.7554   3.2835141207e+01  -3.7354921305e+00    0.1135506   0.07026855   9.91 0.0008902745    1.618    0.382
        97 -13.4986      6.1244     68.7788   6.7003567916e+01   6.3257163891e+01    0.9185929    0.7387751  16.51  0.005413769    1.204    0.170
        98 -12.6051     17.2157     63.4925   5.9539539512e+01   6.3456251264e+01     0.735418      0.35281  41.58 0.0005332917    2.393    0.582
        99 -12.4367     58.5200     61.2406   3.9109114313e+01   5.7941513774e+01    0.9315198    0.6208637 -79.05  0.004054769    2.857    0.650
       100 -11.7932    227.2829    242.3428   3.5225902370e+01  -1.1486488982e+00    0.3150564    0.2048903 -62.84  0.001745443    3.773    0.735
       101 -11.0578    180.4881    243.9745   4.3529501072e+01   2.4721877946e+00    0.1698689   0.09861137 -40.53  0.001011756    1.574    0.365
       102 -10.6833    218.8028    240.0786   3.6260463033e+01  -1.7345297781e-01    0.1534815    0.1257175 -21.31  0.000833571    1.259    0.206
       103 -12.3912     49.8580     55.0588   4.0685232117e+01   6.0578521739e+01    0.6097769    0.3622908 -66.76  0.002608129    2.984    0.665
       104 -10.6607     16.0352    238.4697   8.2157054231e+01   1.9587333908e+01    0.1765714   0.09815474 -15.49 0.0006673573    2.377    0.579
       105 -14.3648     77.0011     58.7176   3.1607070420e+01   5.4860386481e+01    0.8315613    0.7349984  34.62  0.004071265    1.104    0.095
       106 -13.4208     61.0243     43.2941   3.2089859048e+01   6.0482111929e+01    0.4422227     0.375459  61.79 0.0005992022    1.253    0.202
       107 -13.2322     64.1426     38.5086   2.9243944507e+01   6.0578806225e+01    0.7958299     0.597041  61.23  0.002020982    1.363    0.267
       108 -10.6312    245.6797    236.3395   3.1664965607e+01  -1.6619856993e+00   0.08483569   0.07387944 -42.07 0.0007050029    1.715    0.417
       109  -9.8555    218.7722    213.0779   3.2412057245e+01   3.8677927440e+00    0.1432947   0.07408944 -42.50 0.0007875463    1.610    0.379
       110 -12.1787    249.3105     73.1192   6.5745517230e+00   2.0974207804e+01      0.36956    0.1842143 -44.57  0.001005037    1.523    0.344
       111 -10.6301    244.4857     72.4159   6.8478335272e+00   2.1719802127e+01    0.1453661    0.1099042 -79.91 0.0006183124    1.324    0.245
       112 -14.4879    219.5732     53.5035   5.7351934061e+00   2.7793532848e+01      0.96437    0.5622827  74.52  0.006667755    1.832    0.454
       113 -11.4973    211.3891     21.5439   7.1292061154e-01   3.2826509687e+01    0.3964494    0.2388557  72.97   0.00291073    1.676    0.403
       114 -12.4947    245.4645     42.0273   1.9293674924e+00   2.5257677919e+01    0.5721052    0.3434041  61.61  0.004402524    2.133    0.531
       115  -9.6144    236.7258    146.0106   1.9507753168e+01   1.2353796376e+01    0.1317516   0.07391757 -43.38  0.000340374    1.365    0.267
       116 -13.0291    202.5617     69.0473   1.0173084448e+01   2.8531799432e+01    0.3754471    0.3036919 -86.35  0.001880616    1.194    0.162
       117  -9.7868    250.4600    131.9705   1.5720760933e+01   1.2841159535e+01    0.1498509   0.07660295 -44.28 0.0003277308    1.447    0.309
       118 -11.6872    229.2032    118.9625   1.6000448629e+01   1.7339776191e+01    0.1742333    0.1536988  59.30 0.0003988039    1.427    0.299
       119 -11.7500    234.5470     24.3969   3.5976478432e+02   2.8821902587e+01    0.2723379    0.1797148 -58.58 0.0009988343    1.097    0.088
       120 -10.9558    204.7392    118.4111   1.8987920253e+01   2.0825814880e+01    0.2849268    0.1486952 -53.77 0.0004664403    1.820    0.450
       121 -10.5870    246.6548    117.1815   1.3802631607e+01   1.5390540370e+01    0.1457876    0.1203218 -65.83 0.0004305225    1.267    0.210
       122 -13.0745    208.8390     68.0382   9.3309942025e+00   2.7636638796e+01    0.6078279    0.2061923 -41.34  0.001135992    2.526    0.604
       123 -13.0170    209.5650     59.2332   7.6534801749e+00   2.8679959676e+01    0.5203649    0.3384745 -74.91  0.003570335    1.488    0.328
       124 -10.4784    196.4030    111.7651   1.8931695124e+01   2.3148218285e+01    0.2652873    0.1862621 -30.70  0.001321829    1.578    0.366
       125 -12.2658    219.7763     37.5169   2.9310620596e+00   2.9675637058e+01    0.4709854    0.2193671 -69.57  0.001232115    2.239    0.553
       126 -11.0638    195.8883    107.3505   1.8181475049e+01   2.3935140546e+01    0.3071475    0.2856548  84.20   0.00213308    1.187    0.157
       127 -10.0198     85.9850    107.2806   4.2025919134e+01   4.3668198415e+01    0.2112919    0.1846549  34.40  0.000485413    1.100    0.091
       128 -12.7752    237.6667     50.7710   3.8624720119e+00   2.5367206093e+01    0.6646234    0.1388053 -47.14  0.003154096    3.225    0.690
       129 -13.6463    229.1053     46.3409   3.7529632811e+00   2.7178867734e+01    0.6958001    0.4198942 -70.26    0.0030339    1.472    0.321
       130 -10.3559    104.0720     75.1354   2.8432016742e+01   4.6547862695e+01    0.1993388    0.1782297  30.57 0.0003570052    1.223    0.182
       131 -12.3515     75.0602     41.5150   2.6633764495e+01   5.7925576273e+01    0.3078351    0.2316146  62.32 0.0006108979    1.290    0.225
       132 -12.3022    231.8743     73.1720   8.0418094692e+00   2.3407776873e+01    0.2741958    0.1231449  62.59  0.001679465    2.621    0.618
       133 -12.4313    197.0160     55.8591   8.2590255110e+00   3.1232556193e+01    0.3118094    0.1878968  74.01   0.00200869    1.711    0.415
       134 -12.6134    183.5888     61.0103   1.0749042892e+01   3.2926304195e+01    0.5834362    0.3341828  55.90  0.001749732    1.927    0.481
       135 -12.9271    190.4710     62.7121   1.0291565891e+01   3.1466002575e+01    0.7165149    0.4713473  25.98  0.003546735    3.831    0.739
       136 -11.6617    199.6016     63.0280   9.3552203839e+00   2.9843846380e+01     0.314876     0.173748  86.58  0.001156756    2.262    0.558
       137 -13.1532    191.4348     67.7373   1.1165133966e+01   3.0607453887e+01    0.5716959    0.4320711  12.02  0.001568655    2.720    0.632
       138 -12.4937    178.1432     71.8720   1.3645781111e+01   3.2387157370e+01    0.5682769    0.3367957 -89.56 0.0007492973    2.233    0.552
       139 -10.6372    170.9820     68.0205   1.3811287968e+01   3.4266348503e+01    0.2374899    0.1667728  56.85 0.0009900103    1.524    0.344
       140 -11.8942    167.9981     64.4312   1.3457074941e+01   3.5343829835e+01    0.3714369    0.3412546  80.68  0.001511144    1.173    0.148
       141 -11.4495    161.2644     66.1024   1.4784706869e+01   3.6394497756e+01    0.3114293    0.2396252 -41.54  0.001107416    1.365    0.267
       142 -11.8468    236.8851     66.7033   6.5379626521e+00   2.3516984752e+01    0.3439734     0.167004 -82.30  0.001828779    3.390    0.705
       143 -13.0235    229.7314     65.2668   6.8968807947e+00   2.4747926076e+01    0.3647423    0.1944365 -49.53  0.002460165    1.446    0.308
       144  -9.3862    136.7606     61.6713   1.7759617497e+01   4.1949145564e+01    0.3056411    0.2115709  57.78  0.001678745    1.387    0.279
       145 -10.9675    136.7849     57.5170   1.6731107468e+01   4.2550424497e+01    0.3156938    0.2016428  84.03  0.001240177    1.804    0.446
       146  -9.9411    142.5179     54.9551   1.5130714371e+01   4.1731132988e+01    0.2131528    0.1919411  16.12  0.001390159    1.543    0.352
       147 -10.4052    146.0563     52.4430   1.3962339578e+01   4.1353541832e+01    0.1911111    0.1724384  19.09 0.0005943986    1.549    0.355
       148 -11.0648    154.9082     64.9054   1.5481718290e+01   3.7810574643e+01    0.4816795    0.2247492 -45.91  0.001795963    2.044    0.511
       149 -11.4680    151.9169     59.2797   1.4657520987e+01   3.9215137788e+01    0.2428783    0.2139539 -32.56            0    1.384    0.278
       150 -11.3571    144.1491     67.3258   1.7813610600e+01   3.9596305120e+01     0.331765     0.273098  59.39  0.001528852    1.224    0.183
       151 -12.5552    146.1347     61.3327   1.6059928024e+01   4.0084108798e+01    0.7422314    0.4104786 -60.88  0.003722524    2.052    0.513
       152 -11.2289     15.3604    106.6897   6.9661052316e+01   5.3384440888e+01    0.2549169    0.2189348 -24.82 0.0003261765    1.103    0.093
       153 -11.1817     85.5701     64.5425   3.0670070604e+01   5.2152217370e+01    0.2766644    0.2463438 -74.96 0.0006889408    1.261    0.207
       154 -11.9457    248.6683     60.8190   4.6806880858e+00   2.2589212266e+01    0.2896412    0.1869803 -41.58  0.001637934    1.414    0.293
       155 -12.3867    242.5375     61.0839   5.1765938810e+00   2.3412884973e+01    0.2724029    0.1348218  62.66  0.001503035    2.408    0.585
       156 -11.0938    223.8954     61.8404   6.8144320761e+00   2.6069183352e+01    0.1995745    0.1207418 -56.49   0.00139714    1.317    0.240
       157 -11.6396    136.1429     71.7547   2.0338102527e+01   4.0530992470e+01    0.7395629    0.2722202  60.25  0.002870837    3.002    0.667
       158 -11.1944    102.3107     60.0233   2.4695336106e+01   4.9426463354e+01    0.2169181     0.174594  80.31 0.0004833335    1.318    0.242
       159 -11.6914     11.4259     25.2733   5.0157896313e+01   7.1382243097e+01    0.5250131     0.341174 -19.70  0.003014274    1.655    0.396
       160 -11.9825    160.5599    104.3590   2.3165123362e+01   3.0388123764e+01    0.3453819    0.2326096 -72.68  0.001357415    1.885    0.470
       161 -10.6044    209.2141    104.6499   1.5931477827e+01   2.2308570728e+01    0.3130113    0.1706825 -70.77  0.001520463    3.016    0.668
       162  -9.9669    185.2785    105.5791   1.9371265300e+01   2.5928663723e+01    0.1439726    0.1156485  41.87 0.0005022459    1.499    0.333
       163 -11.7463      1.6480     60.1409   6.7602228382e+01   6.5494931688e+01    0.2870386    0.1862223 -67.69 0.0006349066    1.734    0.423
       164 -12.2884      5.9773     56.1644   6.4030027153e+01   6.6040249877e+01    0.6676648    0.3850266  14.87  0.002953616    1.578    0.366
       165 -11.9324      6.0599     34.5760   5.7377620040e+01   7.0332782507e+01    0.3353909    0.2645727  -5.82   0.00105919    1.090    0.082
       166 -12.9578    121.1363    102.7137   3.1053328454e+01   3.8050959103e+01    0.4209216    0.3192573 -36.75  0.002241374    1.425    0.298
       167 -11.2246    167.1517     53.4105   1.1189871864e+01   3.7027144952e+01    0.3146381    0.2705239 -35.17  0.002189189    1.413    0.292
       168 -10.7509    156.9086     54.3455   1.2787283370e+01   3.8906393977e+01    0.2815923    0.1381737  60.47  0.001030233    1.962    0.490
       169 -10.5588    127.3015     58.5403   1.8744315823e+01   4.4378829917e+01    0.2328751    0.1894438  23.19 0.0009451409    1.718    0.418
       170 -10.7966     89.1587     59.1560   2.7996056597e+01   5.2313155725e+01    0.1842253    0.1552034  83.08 0.0004629055    1.316    0.240
       171 -12.0241    173.5986     57.0098   1.1139726427e+01   3.5314271872e+01    0.2081827    0.1733966  85.43 0.0002895436    1.129    0.114
       172 -11.4172     98.2898     53.9373   2.3956512779e+01   5.1214861516e+01    0.2693023    0.2481005 -63.62  0.000446036    1.172    0.147
       173 -10.9504    102.0032     53.4916   2.2894399590e+01   5.0492826713e+01    0.2919691    0.1681898  47.24  0.001146179    1.651    0.394
       174 -11.5128    245.4099     53.8960   3.8157763503e+00   2.3878897686e+01    0.1966893    0.1300916 -63.37 0.0009547914    1.185    0.156
       175 -10.0685     91.5185     54.9055   2.6049664850e+01   5.2494894645e+01      0.20862    0.1637503  54.70 0.0006162287    1.139    0.122
       176 -11.8321    181.8605     49.8517   8.6832055549e+00   3.4718036769e+01      0.31181    0.2482644  73.51 0.0009967467    1.276    0.216
       177 -10.8425    161.4527     51.2484   1.1463703303e+01   3.8425341977e+01    0.2418594    0.1829447 -73.11  0.001029198    1.209    0.173
       178  -9.9756    162.8102     47.4042   1.0432192455e+01   3.8662484721e+01    0.1694451    0.1060673  68.61 0.0003872412    1.516    0.340
       179 -10.7361    131.5170     51.9284   1.6263819315e+01   4.4440974359e+01    0.3551853    0.1918953 -65.92  0.001477991    2.497    0.599
       180 -11.9668    133.5020     46.6574   1.4577282797e+01   4.4741505071e+01    0.2688218    0.2117457 -89.93 0.0005425103    1.191    0.160
       181 -12.4861    126.4559     45.1682   1.5422340484e+01   4.6432505605e+01     0.349295    0.3093617 -89.39   0.00106309    1.044    0.042
       182 -10.5781    121.4975     42.7597   1.5688762981e+01   4.7811115242e+01    0.3508248     0.162214 -42.67  0.001437063    2.262    0.558
       183 -11.5125    133.0258     40.4198   1.3066541678e+01   4.5653141635e+01    0.3544435    0.2384094 -67.78   0.00167444    1.558    0.358
       184  -9.5440    111.6326     52.5866   2.0394359330e+01   4.8570956386e+01    0.1265836    0.1134871  78.42 8.337427e-05    1.029    0.029
       185 -12.4382    214.7196     44.3738   4.5255306730e+00   2.9687863043e+01    0.4495947    0.1784391 -38.68  0.002523227    2.331    0.571
       186 -11.0251    123.1544     53.7169   1.8298732569e+01   4.5954301736e+01    0.2283453     0.194998  88.11 0.0005825513    1.099    0.090
       187 -11.6428    249.4724     48.5766   2.7016180486e+00   2.3935828304e+01    0.2769603    0.1452988 -55.30  0.001607707    1.405    0.288
       188 -10.9353    191.5383     49.5150   7.5900106022e+00   3.3007886597e+01    0.1819519   0.08967283  55.78  0.001025606    2.326    0.570
       189 -11.2776    198.2000     47.2744   6.5047495435e+00   3.2116881563e+01    0.2444013    0.1493325 -24.86  0.001418985    2.549    0.608
       190 -12.5023    195.1322     33.7173   4.1927497059e+00   3.4279693487e+01    0.3792458    0.2489889 -24.75  0.002082149    2.256    0.557
       191 -11.8744    172.2269     44.0799   8.5676413340e+00   3.7259833425e+01    0.4470907    0.3384101 -41.16  0.002568175    1.421    0.296
       192 -11.4607    177.4075     39.1618   6.9656066155e+00   3.6881252342e+01    0.5189136    0.2183725 -62.58  0.002459336    2.812    0.644
       193 -11.6724    180.6234     37.1792   6.2268052841e+00   3.6515781228e+01    0.7277494    0.3230263 -87.52  0.003319759    3.295    0.697
       194 -10.8296    185.8492     37.8204   5.8418566535e+00   3.5472893767e+01     0.217515    0.1452402 -87.73 0.0009026959    1.375    0.273
       195 -12.1535    189.3061     34.5311   4.8658423612e+00   3.5230234832e+01    0.2714746     0.233508 -55.64 0.0005175033    1.256    0.204
       196 -11.3572    164.3899     30.8313   6.5841627664e+00   4.0376653686e+01    0.3802254    0.2042604 -72.98  0.001260946    2.002    0.500
       197 -12.3388    160.2073     38.4203   8.7548171475e+00   4.0306163442e+01    0.7224428    0.4449726  62.09   0.00443303    1.588    0.370
       198  99.0000    143.3357     45.8402   1.2794335451e+01   4.2796513757e+01    0.4534371    0.1956458  42.97  0.001793567    3.893    0.743
       199 -11.2507    147.9351     40.9103   1.0937285453e+01   4.2480261064e+01    0.4629652    0.2906297 -76.73  0.002641466    1.707    0.414
       200 -10.9993    151.9930     40.0134   1.0169924760e+01   4.1763065475e+01    0.1881333    0.1556449 -66.81 0.0003431456    1.118    0.106
       201  -8.5646     99.3696     44.9585   2.1018897700e+01   5.2286326331e+01    0.5251942    0.3253665 -83.51  0.002404365    2.558    0.609
       202 -12.2949    189.4338     43.4464   6.6090080149e+00   3.4141255140e+01    0.3184823    0.1969631 -73.57  0.001303803    1.537    0.349
       203 -11.9159    162.1234     57.8793   1.2843675944e+01   3.7394689137e+01    0.2989101    0.2820774  -8.19  0.002111558    1.454    0.312
       204 -12.8586    200.7241     38.6596   4.6493365472e+00   3.2721898155e+01    0.2780699    0.2611809  14.02  0.001466275    1.712    0.416
       205 -10.8618     87.4927     34.5249   2.0735474252e+01   5.6241152145e+01    0.2278176    0.1926863 -59.35  0.001062481    1.338    0.253
       206 -11.2576    131.5142     33.6404   1.1562985936e+01   4.6809890161e+01    0.2690074    0.1720575 -58.08 0.0005440773    1.603    0.376
       207 -10.0101    110.8699     39.3645   1.6819538392e+01   5.0547646757e+01    0.1955812   0.09774936  51.57 0.0009495667    1.863    0.463
       208 -11.1230    239.5594     32.1953   7.2839926205e-01   2.7221981601e+01    0.3288181     0.128043 -54.69  0.001252244    1.945    0.486
       209 -10.4390    241.2287     28.9648   1.1425633944e-01   2.7328553871e+01    0.1918522   0.08891479 -55.43  0.001108391    1.587    0.370
       210 -10.0585    121.9443     32.9068   1.2935944369e+01   4.8951242947e+01    0.1449668    0.1207715  76.83 0.0004261516    1.029    0.029
       211 -10.1755    112.2582     32.6102   1.4609751699e+01   5.1089133493e+01    0.3096283    0.1940276  36.05  0.001493272    2.198    0.545
       212  -9.1036    114.4372     28.4925   1.3029652484e+01   5.1100353797e+01    0.1694762   0.09970265  55.90 0.0009313388    1.542    0.351
       213 -11.9379     92.2790     33.6197   1.9236854886e+01   5.5320825403e+01    0.4482063    0.2871056  34.69  0.001964106    1.944    0.486
       214 -10.4844    184.8930     31.7135   4.7104540114e+00   3.6362561949e+01    0.1766775    0.1396307 -42.43 0.0007739058    1.404    0.288
       215 -11.2613    198.4036     27.0185   2.6516918429e+00   3.4459247997e+01    0.3367874    0.1023911 -42.47  0.001741455    2.625    0.619
       216 -11.6075    135.4318     27.0799   9.2988481542e+00   4.6739664669e+01    0.4452865    0.2330067 -67.58  0.001712973    2.287    0.563
       217 -11.7192    134.0364     21.2238   7.9984984622e+00   4.7678378531e+01    0.3269892    0.2041448 -88.82  0.001546572    1.544    0.352
       218 -10.9850    102.7451     29.0587   1.5458839417e+01   5.3591240181e+01    0.3588561    0.2538847 -70.71 0.0008695166    1.614    0.380
       219 -11.2286     97.4524     22.5479   1.4552130105e+01   5.5493764831e+01    0.2369411    0.1845535  58.45 0.0007179221    1.142    0.125
       220 -10.5296    101.9387     22.7221   1.3690360129e+01   5.4488444279e+01    0.2211754     0.182201 -53.08 0.0006261494    1.347    0.258
       221 -10.0489    211.4409    112.2404   1.7003876331e+01   2.0815459317e+01    0.1724707   0.09650752  53.71 0.0008768606    2.157    0.536
       222  -9.8358     90.2550     27.6208   1.7793566569e+01   5.6492249882e+01    0.1818062   0.09853878  52.81 0.0009368086    1.585    0.369
       223  -9.3282     80.3951     30.4138   2.1269891632e+01   5.8286131219e+01    0.1263575    0.1079749  62.33 0.0001266913    1.040    0.038
       224 -10.7259    168.1178     45.1896   9.2881514566e+00   3.7910735027e+01    0.3705808    0.1591421 -51.34    0.0017181    2.193    0.544
       225 -12.2146    158.9435     26.6735   6.2591016506e+00   4.1931050766e+01    0.2232666    0.1903921 -36.55  0.001289558    1.451    0.311
       226 -10.1980    153.9383     25.9551   6.6617386926e+00   4.3021126584e+01     0.228588    0.1227778 -80.56 0.0009452639    2.050    0.512
       227  -9.2000    120.6486     28.2956   1.1894956938e+01   4.9772559147e+01     0.127885   0.08316001 -79.78 0.0007033301    1.684    0.406
       228 -10.3122    148.1347     25.7829   7.3111637112e+00   4.4228117595e+01    0.2615921     0.119561 -42.10  0.001403493    2.139    0.533
       229  -9.6404    184.2143     26.0009   3.6277047286e+00   3.7131530280e+01    0.1297021   0.07702753 -43.11 0.0003808393    1.596    0.373
       230 -10.3433    144.6872    102.8723   2.5862307242e+01   3.3556444925e+01    0.2727266    0.2128439  49.73  0.001240646    1.322    0.244
       231 -10.2845    175.1253     24.4543   4.1320239684e+00   3.9010075833e+01    0.2482132     0.127804 -73.76  0.001409192    1.999    0.500
       232 -10.9987     20.7362     21.9844   4.2781916278e+01   7.0658118933e+01     0.361607    0.2111125 -46.19 0.0003154378    2.089    0.521
       233  -9.9292     19.7166     18.6110   4.1871618887e+01   7.1304922760e+01    0.1663555    0.1171641 -13.46 0.0006386297    1.598    0.374
       234 -10.3600    191.6657     24.2775   2.6635372199e+00   3.5959917545e+01    0.2154106   0.08244659  81.58  0.001080868    2.868    0.651
       235 -11.0604    123.5858     23.9261   1.0227675686e+01   4.9627174801e+01     0.238481    0.1705067  72.36 0.0008487522    1.187    0.157
       236 -10.2297    125.0883     20.4543   9.0625338724e+00   4.9677046487e+01    0.2347153    0.1195852  56.75   0.00126448    1.813    0.448
       237 -10.1634    180.8988     20.8866   2.8841279260e+00   3.8304958633e+01    0.1856254   0.09679861 -67.21   0.00111511    1.786    0.440
       238 -11.1790    162.2986     19.8739   4.3872985542e+00   4.2001745138e+01    0.3077671    0.1985796  87.32  0.001633101    1.345    0.257
       239 -10.1076    151.6936     20.9549   5.7568202655e+00   4.4023318877e+01    0.1592087    0.1323221 -71.75  0.001152653    1.109    0.098
       240 -11.2883     83.5056    102.0094   4.1542533453e+01   4.5258489992e+01    0.2406246    0.1902881  38.52   0.00122742    1.206    0.171
       241  -9.2228    200.4954     15.5826   3.6518472005e-01   3.5315842541e+01    0.1528755   0.09764051 -56.74 0.0001215052    1.250    0.200
       242 -11.2209    169.4583     98.4673   2.0417330297e+01   2.9805406594e+01    0.4437611     0.324481 -24.26  0.002537182    1.787    0.440
       243 -11.1495     72.4246     16.6995   1.8605991302e+01   6.1583009145e+01    0.2132258    0.2006885   5.33  0.001316582    1.289    0.224
       244 -11.2325    151.0114     97.8118   2.3515106738e+01   3.3275758862e+01      0.26025    0.2371199   6.37  0.001628058    1.371    0.271
       245 -12.6549     15.0655     47.4096   5.5999360224e+01   6.6974691330e+01    0.5410139    0.4683496  84.27  0.001968797    1.659    0.397
       246 -10.8357    212.9073     15.8655   3.5961337535e+02   3.3169082076e+01    0.1705457    0.1006593 -60.52 0.0003888731    1.292    0.226
       247 -12.3763    199.7721     96.4881   1.5634052982e+01   2.5013442118e+01    0.3305721     0.245125 -79.79 0.0007406438    1.495    0.331
       248 -11.5669    141.2032     96.8839   2.5229809616e+01   3.5290854490e+01    0.3787781    0.2892812  83.18  0.001363867    1.543    0.352
       249  -9.7834    154.5083     15.4738   4.1866980863e+00   4.4022100292e+01    0.1121943   0.09101557 -87.97 4.398408e-05    1.054    0.051
       250 -11.5785    160.0402     13.9765   3.2997101232e+00   4.3061312083e+01    0.1801217    0.1289424  84.99 0.0003035193    1.168    0.144
       251 -13.2947    128.7099     95.7521   2.7641624109e+01   3.7903943191e+01    0.5463149    0.4050172  64.57  0.001654411    1.441    0.306
       252 -12.8268    134.7615     94.0241   2.5913949025e+01   3.7042010616e+01     0.702934    0.4512331 -56.53  0.003187878    1.635    0.389
       253 -13.6286    126.7299     90.4515   2.6826147945e+01   3.9256588627e+01    0.8470197    0.4282057  44.73  0.003814514    2.020    0.505
       254 -12.2135    132.7734     87.4639   2.4793831163e+01   3.8592135299e+01    0.3841353     0.218662  53.75  0.001292733    1.745    0.427
       255 -12.6600    102.5091     96.4713   3.4404860146e+01   4.2862342746e+01    0.4249436    0.3457308  46.98 0.0009052473    1.183    0.155
       256 -11.5275     95.4718     90.0564   3.4789323182e+01   4.5490093194e+01    0.4792128    0.3740897  72.36  0.001808714    1.521    0.343
       257 -10.5315     85.6687     29.1525   1.9436403100e+01   5.7305523313e+01    0.3040705    0.1680077  48.27 0.0008176021    1.635    0.388
       258 -10.8072    249.4612     97.3491   1.0392211146e+01   1.7782824943e+01    0.1722068    0.1239387 -50.98  0.000182928    1.025    0.024
       259 -12.4025    183.8082     95.4320   1.7603560838e+01   2.7806316218e+01    0.5103941    0.3059526  60.39  0.001070643    1.863    0.463
       260 -10.4295     87.4806     97.8975   3.9238636467e+01   4.5410541207e+01    0.2542148    0.1900526  49.08 0.0007095276    1.325    0.246
       261 -10.6023     11.5201     98.0206   6.9962495260e+01   5.5871264313e+01    0.2131488    0.1354259 -65.35 0.0009286128    1.584    0.369
       262 -11.5239    160.2366     96.0775   2.1469654052e+01   3.1867364877e+01    0.2397807    0.1971453  72.47 0.0004375577    1.271    0.213
       263 -10.1953     16.7628     96.9751   6.7319863408e+01   5.5717058670e+01    0.1886224    0.1768669 -30.72 0.0001945095    1.054    0.051
       264 -11.6825    153.7682    100.0312   2.3482037112e+01   3.2377143466e+01    0.2741038    0.1721307 -59.90 0.0008501539    1.715    0.417
       265 -11.6334    117.0024     94.6812   3.0146300520e+01   4.0390222466e+01    0.2010474    0.1744423  50.94 0.0008008867    1.124    0.110
       266 -10.9263    249.8426     92.1521   9.5372251209e+00   1.8430750095e+01    0.3362436   0.09291361 -49.61  0.001631501    2.943    0.660
       267 -11.2189     44.4673     92.6490   5.3880481031e+01   5.3658256304e+01    0.4003765     0.221773 -13.07  0.001446925    3.050    0.672
       268 -12.7117    127.7754     78.4280   2.3666417349e+01   4.1141222035e+01     1.294783    0.7364473 -16.20  0.004043557    5.893    0.830
       269 -12.1360    190.3729     90.7120   1.5769521675e+01   2.7432981226e+01    0.2597004    0.2137394   2.28  0.001668463    1.908    0.476
       270 -10.7928    172.8131     90.6696   1.8279399177e+01   3.0480386329e+01    0.1952812    0.1807624  74.17 0.0005488981    1.156    0.135
       271 -13.3535    179.3994     81.6440   1.5470270351e+01   3.0711194358e+01    0.8848358    0.6162153  11.91  0.004295845    3.437    0.709
       272 -12.5035     59.4490     90.3466   4.7163946726e+01   5.1925935006e+01    0.3377145    0.2620367 -54.89  0.001753506    1.398    0.285
       273 -11.7625    207.6720     89.3729   1.3354196053e+01   2.4826932590e+01    0.1981245    0.1368131  59.58   0.00133703    1.669    0.401
       274 -10.0899     87.7150     89.5026   3.6999146015e+01   4.7087745368e+01    0.1925564    0.1303668  52.56 0.0009214457    1.506    0.336
       275 -12.3673    235.6215     86.1209   9.8586550762e+00   2.1146497301e+01    0.4937289    0.2723477  80.60  0.002254613    2.655    0.623
       276 -10.5839    185.6782     88.3061   1.5935672186e+01   2.8597934273e+01    0.1213375   0.08212574 -72.64  0.000453243    1.639    0.390
       277 -10.4462     69.8501     87.6077   4.2521757340e+01   5.0754145093e+01    0.3218147    0.1782689  47.59  0.001390067    1.854    0.461
       278 -12.5429     66.2891     82.4395   4.2419790319e+01   5.2451018717e+01    0.6237866    0.4787623  79.30   0.00205886    1.826    0.452
       279 -12.6220    221.7157     85.4911   1.1121035998e+01   2.3236247205e+01    0.3542179    0.1796033 -40.02  0.002140223    1.755    0.430
       280 -11.9012    113.7784     86.4117   2.8894351541e+01   4.2565974290e+01    0.4474559    0.2589204  57.16  0.002078661    1.807    0.447
       281 -12.3765    114.3736     79.9010   2.7088009611e+01   4.3611857371e+01    0.5194601    0.4179497 -73.32  0.002916004    1.380    0.275
