#   1 NUMBER                 Running object number                                     
#   2 MAG_AUTO               Kron-like elliptical aperture magnitude                    [mag]
#   3 X_IMAGE                Object position along x                                    [pixel]
#   4 Y_IMAGE                Object position along y                                    [pixel]
#   5 X_WORLD                Barycenter position along world x axis                     [deg]
#   6 Y_WORLD                Barycenter position along world y axis                     [deg]
#   7 A_WORLD                Profile RMS along major axis (world units)                 [deg]
#   8 B_WORLD                Profile RMS along minor axis (world units)                 [deg]
#   9 THETA_WORLD            Position angle (CCW/world-x)                               [deg]
#  10 FWHM_WORLD             FWHM assuming a gaussian core                              [deg]
#  11 ELONGATION             A_IMAGE/B_IMAGE                                           
#  12 ELLIPTICITY            1 - B_IMAGE/A_IMAGE                                       
         1 -15.4746     55.5801     71.4208   1.1802193771e+02   5.6682032229e+01     1.871109     1.594284  34.37  0.003816495    1.331    0.248
         2 -15.2744    119.3932     54.6547   9.1750810113e+01   4.8482086257e+01     1.471895    0.8439398  39.20  0.001895378    1.842    0.457
         3 -14.8460    166.5239     30.1218   7.3167697423e+01   4.0280631708e+01     1.138493    0.8479684  58.95  0.003089983    1.258    0.205
         4 -14.7846    122.7215     36.6417   8.4355100882e+01   5.0488027784e+01     1.133294    0.5817732  36.09  0.003047996    2.258    0.557
         5 -15.4127      6.3883     71.9587   1.3622770022e+02   6.0912182425e+01     1.347835    0.6801875 -59.81  0.003948216    1.470    0.320
         6 -15.7156    146.6236     30.7299   7.6953661264e+01   4.5363293622e+01     2.982343     1.243169  62.12   0.01137455    2.277    0.561
         7 -15.0528     84.3090     66.9425   1.0662612044e+02   5.3299845954e+01     2.418066     1.422575  -6.20    0.0082872    3.958    0.747
         8 -13.8012    232.2688      2.4719   5.7970153108e+01   2.6669481295e+01     1.525566     0.410129  64.47  0.005365753    3.241    0.691
         9 -13.9266    215.2555      9.5684   6.1134714962e+01   3.0045326087e+01    0.8086998    0.4507566  68.59  0.001510883    1.666    0.400
        10 -14.3674    215.2990     20.7061   6.4002006059e+01   2.8797951836e+01    0.9886703    0.5371351 -24.83  0.004586763    2.045    0.511
        11 -14.2013    218.6370     15.2977   6.2276577422e+01   2.8586215315e+01    0.8552748    0.5844667  53.43  0.003838822    1.606    0.377
        12 -14.5057    217.5840     42.0475   6.9327990474e+01   2.5546206113e+01     1.248684    0.6866305  65.70  0.005132701    1.795    0.443
        13 -15.3231     42.4078      8.2087   9.8711687085e+01   6.9607087997e+01      1.82793     1.187713  -0.63   0.01107663    1.537    0.349
        14 -13.7166      8.2122      3.0788   1.1393938290e+02   7.4065205557e+01    0.8223001    0.6638983  38.36  0.005073877    1.911    0.477
        15 -13.9007     25.2920     31.5305   1.1739188189e+02   6.7874051780e+01    0.8237466    0.6194144 -74.10  0.005069754    2.040    0.510
        16 -15.1517      8.3122     29.3319   1.2481636332e+02   6.9567623903e+01    0.8970512    0.7739959  25.94  0.006870746    1.501    0.334
        17 -15.6029     13.6033     20.6403   1.1891370321e+02   7.0779053419e+01     1.458699    0.7036696 -21.92  0.007544149    2.350    0.574
        18 -13.2864    222.7198     21.4443   6.3436520425e+01   2.6878895348e+01    0.5288658    0.4296946  21.87  0.001332058    1.674    0.403
        19 -15.7952     99.8152     12.8628   8.0725549135e+01   5.8633179253e+01      1.49848    0.7461315  52.90  0.003104162    1.821    0.451
        20 -12.5429    202.6646     11.4355   6.2861722497e+01   3.3008327443e+01    0.3497095    0.2921978 -61.82  0.001240823    1.128    0.114
        21 -12.1823    162.2713      8.8232   6.6991661178e+01   4.3724660086e+01     0.338473    0.2287685  87.72  0.001699767    1.526    0.345
        22 -11.7911    125.9320      8.6952   7.3031622170e+01   5.2958547150e+01    0.2452578    0.2021219 -13.67  0.001416126    1.312    0.238
        23 -12.4301    121.2458      4.2275   7.2232148982e+01   5.4495873595e+01    0.5377154    0.3008604 -81.96  0.002155592    3.120    0.679
        24 -11.7348    153.4837      8.1717   6.8064785819e+01   4.6061245625e+01     0.259647    0.1774929  67.18 0.0005335485    1.313    0.238
        25 -11.1298     67.6688      3.5551   8.6152033090e+01   6.6071821358e+01     0.260197    0.1612596   9.61  0.001349481    1.699    0.412
        26 -11.9222     26.6997      3.7611   1.0399971349e+02   7.2182469160e+01    0.2337102    0.1634667  -2.92 0.0006713094    1.252    0.202
        27 -15.4995    190.7485     25.3744   6.8153272934e+01   3.4514857523e+01     2.494821     1.491236 -86.31   0.01112826    1.926    0.481
        28 -13.6638    187.2657     13.1838   6.5069950369e+01   3.6781866907e+01    0.6448321    0.5625587  29.95  0.001796382    1.352    0.260
        29 -12.2992     80.9445      1.8239   8.1015408543e+01   6.3688154678e+01    0.5672504    0.1386044  52.51  0.002110748    3.307    0.698
        30 -10.9652     62.4812      1.5120   8.6952730601e+01   6.7209810529e+01    0.2082114    0.1576034  39.86 0.0007104306    1.292    0.226
        31 -11.1078     59.3325      1.6923   8.8215230134e+01   6.7738831523e+01    0.2064455    0.1554023  14.66  0.001189366    1.139    0.122
        32 -13.0525    164.4935    194.8010   1.1572960853e+02   1.0627090990e+01    0.6985907    0.4333116 -66.73  0.003207983    2.465    0.594
        33 -13.3662     78.9411    220.0714   1.3647175646e+02   2.0260159481e+01    0.5085862    0.2351369  57.62   0.00259234    1.963    0.491
        34 -14.7410     96.0358    236.8352   1.3485553993e+02   1.4739861800e+01     1.635635    0.8103346  61.90  0.008630194    2.020    0.505
        35 -13.2264     54.8517    247.0431   1.4296497314e+02   1.8618654516e+01    0.8405093    0.4486784  30.02  0.004705846    2.722    0.633
        36 -14.0691     27.4619    244.6209   1.4736516545e+02   2.2267166521e+01     1.040444    0.4649482  87.98  0.006408804    2.064    0.516
        37 -13.7514     10.2088    210.6006   1.4857648692e+02   3.0303756921e+01    0.7222586    0.5117804  49.10  0.005467019    1.403    0.287
        38 -13.0084     16.2674    197.3708   1.4673062025e+02   3.2336038271e+01    0.6102455    0.2232866 -61.54  0.002689696    2.884    0.653
        39 -12.4980     24.8299    217.2850   1.4633841521e+02   2.7536792857e+01    0.4909449    0.2648331  69.78  0.002978752    1.469    0.319
        40 -13.7737     25.6223    227.7593   1.4679095720e+02   2.5483437612e+01    0.6326985    0.3097134 -61.01  0.003809062    2.519    0.603
        41 -13.6892     20.4258    224.4449   1.4750680613e+02   2.6650503501e+01    0.4202999    0.3302151  77.47  0.001725861    1.190    0.160
        42 -11.8213      2.7710    249.9813   1.5145737253e+02   2.3915194471e+01    0.2785989    0.1356126  50.60  0.002026124    1.516    0.340
        43 -14.1598      9.2125    245.7912   1.5031543246e+02   2.3988186739e+01    0.7010314     0.331335  59.69  0.003183415    1.465    0.317
        44 -13.8784     30.1048    169.7292   1.4185631967e+02   3.6808805190e+01     0.775922    0.5202755 -41.57  0.003270952    2.232    0.552
        45 -14.9233     13.8301    158.7643   1.4454240372e+02   4.0762459616e+01     1.966743     1.002876 -41.78  0.009715782    3.269    0.694
        46 -14.3685     22.4034    181.1982   1.4443142935e+02   3.5095097165e+01    0.7484398    0.5659908 -64.86  0.003962838    1.479    0.324
        47 -15.0619      8.4751    183.4156   1.4739228824e+02   3.5927976987e+01      1.01825    0.8066234  79.90   0.00775861    1.122    0.109
        48 -14.4793     15.6911    175.4595   1.4540378346e+02   3.6959771915e+01    0.9733583     0.446012  59.10  0.004673436    1.962    0.490
        49 -10.9365    107.4557    193.2460   1.2754849651e+02   2.1153227122e+01    0.2304883    0.1246162 -55.25  0.001118485    2.012    0.503
        50 -10.6756     81.2489    193.3867   1.3318894866e+02   2.5238499264e+01    0.1884847    0.1001831  50.24 0.0009545251    1.658    0.397
        51 -13.0973     97.9648    187.2129   1.2878772023e+02   2.3955295898e+01    0.8275869     0.433882  59.25  0.003821872    2.004    0.501
        52 -13.3809     85.1309    179.8845   1.3065804261e+02   2.7536492091e+01    0.8701058    0.7006713 -72.54  0.005257545    1.230    0.187
        53 -12.3189     84.4986    173.5120   1.2993917576e+02   2.9031709880e+01    0.5180452    0.3404015 -47.03  0.002683932    1.868    0.465
        54 -12.2996    110.7461    182.5372   1.2528647879e+02   2.2812711181e+01    0.5072295    0.3458565   8.86   0.00219759    2.941    0.660
        55 -12.8700     48.5897    180.9976   1.3887697121e+02   3.2276394442e+01    0.5606248    0.3027887 -62.54  0.002974476    1.820    0.451
        56 -11.6812    122.4768    181.7530   1.2255163002e+02   2.0917996259e+01    0.4727134    0.2637974  76.13  0.001749086    3.337    0.700
        57 -11.6809    198.8517    183.1266   1.0672163581e+02   6.1091493672e+00    0.2670848     0.174033  35.73  0.001360531    1.427    0.299
        58 -12.5698    194.7833    177.1646   1.0636031035e+02   7.8916925569e+00    0.3992832    0.3330274 -51.58  0.001601874    1.403    0.287
        59 -12.7144    131.8182    173.0466   1.1899687191e+02   2.1007265995e+01    0.5043513    0.4390784  73.10  0.002859743    1.135    0.119
        60 -13.6149    123.9985    166.6052   1.1965012105e+02   2.3834093392e+01    0.7446964    0.4939148 -73.73  0.003510033    1.817    0.450
        61 -10.9652    177.4671    167.4939   1.0795290689e+02   1.3071455503e+01    0.1438691    0.1348249  34.21  0.000194843    1.004    0.004
        62 -12.8294    122.5968    155.3898   1.1791364221e+02   2.6541449479e+01    0.6065782    0.4145045 -43.32  0.002913316    1.637    0.389
        63 -11.8126     27.6185    158.8178   1.4141274107e+02   3.9489357780e+01    0.2803986    0.1895333 -86.24  0.001755577    1.206    0.171
        64 -12.8099     25.7384    155.6756   1.4154934312e+02   4.0378749775e+01    0.4206435    0.3402905 -20.07  0.002605711    1.931    0.482
        65 -11.2499    155.3171    157.5640   1.1072753174e+02   1.9562155326e+01    0.3471015    0.2033225  62.45  0.001394902    2.226    0.551
        66 -12.9006    111.9248    155.8808   1.2058674329e+02   2.8409343178e+01    0.6576949    0.3873385  77.10  0.002543117    2.766    0.638
        67 -12.6499     77.6174    157.1980   1.2922459394e+02   3.3756085266e+01    0.5395302    0.3191141  43.34  0.001252466    1.670    0.401
        68 -13.6094     74.5489    153.3302   1.2939986825e+02   3.5099189842e+01    0.7017468    0.5808872  35.41   0.00310156    1.388    0.279
        69 -12.9522    208.5902    154.6078   9.8990627427e+01   9.0084329886e+00    0.7542527    0.4356209  47.41  0.003447936    1.736    0.424
        70 -12.4143     85.6918    153.4051   1.2663145260e+02   3.3405881153e+01    0.5384116    0.3447234 -49.08  0.002675071    1.708    0.415
        71 -12.2458     41.8187    154.2361   1.3757945261e+02   3.9055885300e+01    0.3315272    0.1784342  72.45  0.001643011    2.029    0.507
        72 -12.2171    103.3267    150.0113   1.2163289471e+02   3.1268973724e+01    0.3983821    0.3274615 -32.20  0.001494583    1.539    0.350
        73 -12.5912      6.4508    148.3659   1.4539157739e+02   4.3664863716e+01    0.4449759    0.2757843  86.83  0.002838671    1.297    0.229
        74 -12.7998    244.4955    147.2772   9.1010149880e+01   3.1303303238e+00    0.4277174    0.2653628 -36.83  0.002181767    1.531    0.347
        75 -11.9523     55.5999    156.0776   1.3446048001e+02   3.7011976511e+01    0.3584232     0.276879  -8.42  0.001600726    2.160    0.537
        76 -12.1023     44.6090    145.3773   1.3581659519e+02   4.0797144826e+01    0.2238323    0.1969349 -71.05 0.0006434931    1.177    0.151
        77 -12.0711     38.5137    145.8012   1.3740161196e+02   4.1360772155e+01    0.2190077    0.1794206 -50.27 0.0007201555    1.431    0.301
        78 -11.0447    162.6846    142.6716   1.0585967939e+02   2.1046597353e+01    0.1541382    0.1213517   4.11 0.0003685624    1.675    0.403
        79 -11.3805    149.2698    140.8289   1.0852303727e+02   2.4318329087e+01      0.36891    0.2794384  75.99  0.001712841    1.631    0.387
        80 -11.5591     89.3712    140.7213   1.2349404378e+02   3.5776131651e+01    0.3084792    0.2176963 -12.97  0.001174352    2.604    0.616
        81 -13.6598     44.4363    137.0156   1.3475352937e+02   4.2775576194e+01    0.8806074    0.3885831 -54.59  0.004082796    2.145    0.534
        82 -10.8655     15.0147    139.0110   1.4251791718e+02   4.5104275099e+01    0.1766784    0.1395036 -89.85 0.0003808313    1.033    0.032
        83 -11.1987     56.6878    137.6751   1.3161234131e+02   4.1182235775e+01    0.2275843    0.1947331 -54.64  0.001088161    1.259    0.206
        84 -13.0564    246.2957    133.8528   8.7761499536e+01   4.8675665018e+00    0.5253344    0.3938594 -45.80  0.002723365    1.409    0.290
        85 -12.8816    223.3403    128.3204   9.0324694521e+01   1.0436937736e+01    0.6415248    0.5255798 -80.37  0.003319626    1.636    0.389
        86 -13.9099    231.7378    133.0214   8.9965258915e+01   7.9007749889e+00    0.8520411    0.5341814  52.85  0.004105184    1.754    0.430
        87 -14.0051    232.9541    127.2903   8.8441898992e+01   8.5917308848e+00    0.6881043    0.5886429  77.02  0.003809034    1.467    0.318
        88 -11.9220     62.6960    134.0862   1.2943667437e+02   4.1264769803e+01     0.403257    0.2651165  45.75  0.002145465    1.579    0.367
        89 -11.5700    137.1803    133.2556   1.0970557079e+02   2.8513901897e+01    0.3057294    0.2223589  25.90  0.000955659    1.698    0.411
        90 -12.5357    132.8878    129.6501   1.0993604054e+02   3.0206572963e+01    0.9212455    0.3853903 -46.75  0.003312899    2.410    0.585
        91 -10.3273     11.4414    134.4999   1.4297113148e+02   4.6410225649e+01    0.1204904   0.09177406 -87.56 0.0001343997    1.033    0.032
        92 -12.4241    110.6221    131.8414   1.1613812146e+02   3.4129512920e+01    0.5609858    0.4224474  20.70  0.002678308    1.741    0.425
        93 -14.6992    104.8278    123.0307   1.1573921690e+02   3.7240227321e+01      2.19753     1.035953  36.18  0.008489117    2.388    0.581
        94 -14.0892     89.3917    109.4754   1.1695387790e+02   4.3110076990e+01     1.363546    0.8170773  22.32  0.005720091    2.424    0.587
        95 -13.3506     85.3245    115.5658   1.1952840465e+02   4.2356880410e+01     1.017074    0.5872017  17.77  0.003954348    3.029    0.670
        96 -11.9357     60.6666    124.8028   1.2841792488e+02   4.3736335841e+01    0.3459322    0.2752095 -15.98  0.001832159    1.761    0.432
        97 -13.2592     62.3255    102.5762   1.2355789507e+02   4.8782632110e+01     1.259712      0.47469 -61.45  0.004844005    2.531    0.605
        98 -13.8031     28.2854    123.2449   1.3724198955e+02   4.7626076695e+01     1.015698    0.4584625 -59.91   0.00508509    1.837    0.456
        99 -13.8743     32.6330    111.7182   1.3433608110e+02   4.9933726685e+01    0.9320829    0.3008567 -67.81  0.003770787    2.608    0.617
       100 -14.3583     48.4785     96.5906   1.2666374670e+02   5.1864321211e+01     1.505802      1.03768  40.71  0.008450314    1.641    0.391
       101 -12.8613      4.0985    119.8826   1.4342872958e+02   5.0247623087e+01    0.4981664    0.3549947   8.42  0.002700258    1.993    0.498
       102 -14.3701      2.6893     96.9763   1.4124473418e+02   5.5527864872e+01     1.352295    0.4779358 -77.26  0.004928668    2.430    0.589
       103 -14.9368     18.0887    110.7894   1.3846522692e+02   5.1367084096e+01    0.9961253    0.8373175 -49.63  0.004895153    1.284    0.221
       104 -15.5830     25.4357     94.4881   1.3371619083e+02   5.4565598456e+01     1.801384     1.287409 -13.44    0.0108386    1.865    0.464
       105 -12.0204    180.8441    121.0744   9.6737599355e+01   2.1283475966e+01    0.3475942    0.2561947  41.72  0.001163365    1.379    0.275
       106 -15.2549    105.4553    108.9177   1.1220392466e+02   4.0367132829e+01     1.876202      1.34033 -35.12  0.008864179    1.566    0.362
       107 -11.8727     51.8243    117.4734   1.2965990455e+02   4.6565907221e+01    0.4559433    0.2024326 -80.93  0.001624211    3.490    0.713
       108 -10.7666    192.6715    117.3275   9.3377441958e+01   1.9251538890e+01    0.1576105    0.1213838 -76.41 0.0007050771    1.705    0.413
       109 -12.1761    176.7812    111.4927   9.5153901344e+01   2.4102388355e+01    0.4952553    0.3220743 -31.70  0.002130641    1.647    0.393
       110 -12.5062    121.0839    111.7950   1.0864091096e+02   3.6630218251e+01    0.4021735    0.2871128  64.63  0.001488436    1.642    0.391
       111 -12.3900     45.7468    109.9165   1.3011477369e+02   4.9041337126e+01    0.5501827    0.3088057 -43.79  0.002726804    1.910    0.476
       112 -11.3242    222.7786    109.6118   8.5937426100e+01   1.3737089791e+01    0.2005978    0.1429422  67.53  0.000950409    1.677    0.404
       113 -13.3972    122.5183    101.9559   1.0566397669e+02   3.8498856656e+01    0.7285596    0.4980454  44.71  0.003326726    1.491    0.329
       114 -12.9699    135.7589    103.2252   1.0253170531e+02   3.5346287438e+01    0.8896169    0.3890246  49.52  0.002772545    2.338    0.572
       115 -13.0206    137.1470     96.2700   1.0024296983e+02   3.6493298676e+01    0.5349249    0.4086577 -51.26  0.001478301    1.329    0.248
       116 -13.4276    249.0300     98.2504   7.9163376767e+01   9.8937838431e+00    0.6347084     0.277097 -35.81  0.002660528    2.016    0.504
       117 -12.3402    128.1373     95.9819   1.0250180332e+02   3.8568964531e+01    0.3543791    0.2360812  60.19  0.001531694    1.714    0.417
       118 -13.0176     98.4708     94.4776   1.1043829112e+02   4.4921092870e+01     0.755151    0.3593248  55.94  0.002684297    2.997    0.666
       119 -11.4403     76.0650     95.6966   1.1763153507e+02   4.8427922457e+01    0.2419393    0.1855021 -48.38 0.0001827952    1.207    0.171
       120 -13.8447    188.5813     84.3051   8.5430507952e+01   2.6278612091e+01     1.571573    0.7597613  58.69  0.001784237    2.153    0.536
       121 -14.8508    160.8978     80.5883   9.0009650293e+01   3.3883511334e+01     2.040723     1.309418  22.21  0.001488623    2.415    0.586
       122 -14.6207    170.6784     76.9561   8.6855279469e+01   3.2083862104e+01     1.110818    0.8539671  45.41  0.004934312    1.331    0.249
       123 -11.9669     89.6673     87.5544   1.1118962002e+02   4.8030707631e+01    0.4497677    0.2631776  50.89  0.001987604    1.971    0.493
       124 -13.2355    134.9479     79.5689   9.5864989710e+01   4.0357582295e+01    0.8891798    0.4442573  51.83  0.002563346    2.033    0.508
       125 -12.6905    132.5643     86.2472   9.8505660329e+01   3.9587241529e+01    0.4303921    0.3474273  43.84  0.001778327    1.255    0.203
       126 -12.4779    126.4738     85.7255   9.9956179348e+01   4.1064537566e+01    0.6705121    0.4501335  34.06  0.002953101    1.683    0.406
       127 -10.6329     78.9891     87.5071   1.1455470904e+02   4.9821453204e+01    0.1993574    0.1415091  38.04 0.0003924752    1.526    0.345
       128 -11.1724    185.0202    124.0543   9.6605276616e+01   1.9743755928e+01    0.3356665     0.246515  89.44 0.0009412917    1.992    0.498
       129 -13.2482    241.7933     83.9896   7.6763938788e+01   1.3662606934e+01    0.5551074    0.2875305  64.30  0.002422934    2.231    0.552
       130 -13.7318    238.3706     80.3715   7.6351709336e+01   1.4984426936e+01    0.7775949    0.4033165  69.89  0.003263262    2.420    0.587
       131 -10.9846     98.1930     83.9886   1.0753138623e+02   4.7255508847e+01    0.2233947    0.1962381 -83.82 0.0005746326    1.316    0.240
       132 -11.8495    235.5171    248.5188   1.1125081291e+02  -8.7569078193e+00    0.2410262    0.0882012  38.89  0.001223528    2.212    0.548
       133 -13.9186    131.9456     66.7757   9.2567700892e+01   4.3457993121e+01     1.403375    0.9167792  51.71  0.006324308    1.526    0.345
       134 -14.4680    101.3446     50.1627   9.5293151705e+01   5.3161439598e+01    0.9143435    0.6809649  58.98  0.002598392    1.554    0.356
       135 -14.1419    159.2339     44.4156   7.9076533095e+01   4.0274195638e+01     1.518383    0.4804465  51.76  0.004990346    2.895    0.655
       136 -13.9027    170.5387    242.2029   1.2171144785e+02   2.0620262665e+00    0.9588884    0.5939376  32.62  0.005710101    1.426    0.299
       137 -11.8067    249.3922    236.6386   1.0710560321e+02  -9.4626578243e+00    0.2456816    0.1324375 -44.36   0.00132858    3.063    0.674
       138 -11.7497     41.1556    249.8826   1.4541396541e+02   1.9801198088e+01    0.2382653    0.1263931 -85.45  0.001592771    1.790    0.441
       139 -13.9947    198.0741     70.8898   8.0007043957e+01   2.6162134766e+01     1.191695    0.6602841  41.66  0.003756302    2.140    0.533
       140 -12.2153    219.5300     74.9641   7.7690199409e+01   2.0215853036e+01    0.3246624    0.3076022 -53.64 0.0006308728    1.018    0.018
       141 -12.6441    217.1964     79.8437   7.9315157632e+01   1.9994737451e+01    0.5038785    0.4343026   4.36   0.00189026    1.379    0.275
       142 -13.1052    210.7854     77.2207   7.9637756158e+01   2.1973422037e+01    0.7039613    0.4833716 -75.60  0.002029902    1.871    0.466
       143 -12.1079    113.7688     80.7421   1.0195358352e+02   4.4828910688e+01    0.4117361      0.38088 -42.43   0.00147468    1.058    0.054
       144 -12.8241    201.4315    191.9946   1.0789556369e+02   4.1966130605e+00    0.4216476      0.33812 -12.73  0.001741178    1.328    0.247
       145 -13.9389      4.9502     64.1071   1.3528565803e+02   6.2693310238e+01    0.4988236     0.455297 -17.33  0.003417263    1.305    0.233
       146 -11.7562     90.9853     80.1630   1.0862146032e+02   4.9392824607e+01    0.3945224    0.3058611 -14.96   0.00181648    1.552    0.356
       147 -12.2707     41.9046     77.2165   1.2448801542e+02   5.6982024740e+01    0.3285996    0.2395983 -56.34 0.0006625021    1.167    0.143
       148 -12.3473    242.0203     72.2018   7.3871174129e+01   1.5408418083e+01    0.5015044    0.2727113 -71.08  0.001933845    2.979    0.664
       149 -13.2499    236.4028    230.0496   1.0820446854e+02  -6.8385140130e+00    0.3209951    0.2484905  60.81  0.001997384    2.215    0.549
       150 -12.1410    100.6800     64.3082   1.0051130779e+02   5.0753070940e+01     0.439689    0.3377324   3.20  0.002177322    1.595    0.373
       151 -11.5746    158.1172     63.8850   8.5519327826e+01   3.7527810244e+01    0.3887841    0.2028811 -45.32  0.001517372    2.005    0.501
       152 -13.2673     78.7257     60.9929   1.0652030827e+02   5.5429175094e+01    0.5420511    0.4773091  -9.23  0.002321958    1.130    0.115
       153 -12.2765     82.4065     57.2212   1.0395184417e+02   5.5521055496e+01    0.3687994    0.2112551 -47.12  0.001714008    1.744    0.427
       154 -14.0020    177.9383     57.4131   7.9634829307e+01   3.3472315314e+01    0.8552926    0.6496197 -60.70   0.00230922    1.421    0.296
       155 -12.4707     39.0330     60.5071   1.2109251158e+02   6.0884401204e+01     0.306998    0.2466603  68.26  0.001865492    1.732    0.423
       156 -12.4291     24.5764     60.2245   1.2672954263e+02   6.2253261095e+01    0.2907281    0.1854247 -54.97 0.0006553855    1.265    0.209
       157 -13.4890    249.1715     50.6763   6.7856507545e+01   1.6898363843e+01    0.6686824    0.4222533 -21.50  0.001568247    1.835    0.455
       158 -12.1856    230.1771     55.1689   7.1146962690e+01   2.0653646120e+01    0.4701473    0.2793419  79.30  0.002154161    1.933    0.483
       159 -10.6247     71.6914     45.2970   1.0333288740e+02   5.9508610145e+01    0.1422336    0.1208426 -10.99 0.0003004188    1.101    0.092
       160 -13.0247     69.4410     49.7147   1.0581835794e+02   5.9075524033e+01    0.8089857    0.4990969 -70.43  0.003095962    3.842    0.740
       161 -12.8051     65.2723     50.5818   1.0768017184e+02   5.9556425857e+01    0.4728216    0.3689619 -57.34  0.002690488    1.499    0.333
       162 -11.9595      5.8662     50.6959   1.3201549714e+02   6.5479315263e+01    0.2998399    0.1735984 -44.95  0.001351393    1.382    0.276
       163 -12.7827    147.1725    238.7280   1.2556358721e+02   6.3888212004e+00    0.4678038    0.3053837  73.55  0.002507715    2.182    0.542
       164 -11.8590     86.3510     49.5886   9.9847002657e+01   5.6198550583e+01    0.2560054    0.2225627  -7.49 0.0005558932    1.111    0.100
       165 -12.4996    211.3730     33.3378   6.7775561452e+01   2.8243589049e+01    0.5047768    0.3902788  61.44  0.001667826    1.307    0.235
       166 -13.6711     57.4685    203.8702   1.3918052832e+02   2.6356900582e+01    0.8483762    0.3335262 -76.09  0.003962501    2.638    0.621
       167 -13.2147     53.1227    214.5039   1.4092721816e+02   2.4793868154e+01    0.5838348    0.2416961  62.69  0.002848212    2.377    0.579
       168 -13.7105     67.6910    223.0445   1.3887991591e+02   2.1257669741e+01    0.6673142    0.5760605  32.74  0.004737967    1.572    0.364
       169 -14.8598     62.9171    215.0185   1.3909659031e+02   2.3430797342e+01     1.337098    0.6398829  53.76  0.007316733    1.731    0.422
       170 -10.8341    163.4896    225.4755   1.2071674240e+02   5.7026224061e+00    0.1276768    0.1048633  39.12 0.0002524475    1.027    0.027
       171 -12.1557    202.2220     46.4513   7.2555784461e+01   2.8813061368e+01    0.4085066    0.2651228  77.20  0.001811381    1.616    0.381
       172 -13.9123    112.0125     41.0238   8.8790890344e+01   5.2322296705e+01    0.7880524    0.5251519  11.74  0.001710216    1.996    0.499
       173 -13.4843      9.0541     42.9393   1.2863294422e+02   6.6882807362e+01    0.8006745    0.6105212  50.25  0.005476633    1.840    0.457
       174 -14.2192     97.4678    217.1282   1.3255538900e+02   1.8072683697e+01    0.6868355    0.5601825  21.10  0.004302804    1.719    0.418
       175 -13.0232     34.1331     32.9607   1.1385271816e+02   6.6752746457e+01    0.3749135    0.2828458  37.53  0.001881238    1.667    0.400
       176 -12.6338    144.9959    231.5071   1.2505799586e+02   7.8749190903e+00    0.3415724    0.2260548 -43.53  0.002019971    1.931    0.482
       177 -11.9139    248.3861    224.5493   1.0528128386e+02  -7.9835921214e+00    0.2165095     0.207376  -6.71  0.001636565    1.536    0.349
       178 -12.2944     85.2276    215.7497   1.3482143580e+02   2.0174081790e+01    0.2955866    0.1852184  49.46  0.001382954    1.332    0.249
       179 -12.6473    185.3132    213.5069   1.1471778015e+02   3.7572020337e+00    0.2687592    0.2277009 -80.63  0.001604476    1.689    0.408
       180 -13.5074    205.3661     40.2569   7.0411385811e+01   2.8860580825e+01    0.8009117    0.4047305  86.05  0.003042985    2.658    0.624
       181 -11.6477     25.6795     43.0181   1.2125474289e+02   6.5672715587e+01    0.1766364    0.1272312 -44.44  0.000441631    1.121    0.108
       182 -11.9949    238.6097    213.1953   1.0498112078e+02  -5.1456827578e+00    0.1686118      0.10311 -16.58 0.0009556714    1.722    0.419
       183 -13.0633    242.6914     36.1509   6.5068351015e+01   2.0306481890e+01    0.7820421    0.3670434  76.46  0.003395607    2.336    0.572
       184 -11.3484    245.3804     31.2349   6.3644228405e+01   2.0314785615e+01      0.28296    0.1716553 -38.85  0.001378293    1.481    0.325
       185 -12.4634    104.9561     35.6136   8.8677524236e+01   5.4674454817e+01    0.5389536    0.2658283 -26.15  0.002270786    2.184    0.542
       186 -12.9113     75.8956     37.5255   9.8741622726e+01   6.0107588104e+01    0.3574089    0.2590913  36.47 0.0009043721    1.398    0.285
       187 -12.2110     70.5009     36.5100   1.0028115885e+02   6.1192203115e+01    0.2824877    0.2159832  13.22 0.0007449758    1.338    0.253
       188 -13.1650     56.0756     27.7404   1.0215535550e+02   6.4854140755e+01     0.491105     0.305077  33.89  0.001707497    1.662    0.398
       189 -11.9145     45.4547     36.5061   1.1026445803e+02   6.4828595689e+01    0.2669163     0.192786 -26.18 0.0007560921    1.224    0.183
       190 -12.7382     47.3684     32.1718   1.0769342207e+02   6.5337937183e+01    0.3724492    0.2369387  -0.82  0.001781608    1.917    0.478
       191 -11.3319     51.4883     36.4315   1.0769943521e+02   6.4065368605e+01    0.3180783    0.1209825  34.79   0.00137805    2.846    0.649
       192 -10.6738     89.2766     30.3320   9.1251152963e+01   5.8692979784e+01    0.1389988   0.09794757   9.30 0.0001991754    1.600    0.375
       193 -12.3727     96.7863     27.3222   8.7696236281e+01   5.7567815694e+01    0.3414263    0.2821566  -6.81  0.001972227    1.188    0.158
       194 -11.2210     65.1566     24.5526   9.7148654410e+01   6.3913986913e+01    0.2873492    0.1792213   0.89  0.001439137    2.002    0.500
       195 -11.3891     75.8441     23.6614   9.2846036948e+01   6.2180889707e+01    0.3031662    0.1615267  53.05  0.001431883    2.205    0.547
       196 -11.0997    157.4434    213.2643   1.2010376274e+02   8.7242397635e+00     0.160086    0.1269798 -70.58 0.0009419137    1.598    0.374
       197 -11.6851    136.7952    211.4005   1.2395945538e+02   1.2667214538e+01     0.217593    0.1855586 -67.63 0.0009718124    1.341    0.254
       198 -11.2102     39.2491    210.8348   1.4327513088e+02   2.7188320828e+01    0.3180518    0.1094712  44.73  0.001606797    2.322    0.569
       199 -12.1643     80.2482    208.4891   1.3506174554e+02   2.2313103055e+01    0.3551653     0.175436  59.50  0.001779012    1.933    0.483
       200 -10.8546    149.9739    206.6802   1.2060441149e+02   1.1183912000e+01    0.2005824    0.1481666  42.19  0.001141629    1.176    0.150
       201 -11.8265     71.7879    206.3889   1.3654989558e+02   2.3931617491e+01    0.2600625    0.2038143  54.63  0.001711157    1.165    0.142
       202 -11.5366     70.7140     16.9579   9.1600212994e+01   6.3988806477e+01    0.2106995    0.1743183  36.00 0.0003966972    1.230    0.187
       203 -11.4544    186.5962    205.1818   1.1309219080e+02   4.8203405998e+00    0.1734993    0.1228377 -24.16 0.0007440269    1.681    0.405
       204 -12.7625     45.2575    197.5036   1.4107201537e+02   2.9174593231e+01    0.4183222    0.2283966 -77.85  0.002421859    1.664    0.399
       205 -12.1502     41.5125    201.0224   1.4210249410e+02   2.8893450485e+01     0.274796    0.1661027 -87.69  0.001505397    1.447    0.309
       206 -13.5037     39.3385    195.3279   1.4208134010e+02   3.0316087354e+01    0.5080261    0.3512323  81.57   0.00218704    1.171    0.146
       207 -11.3105    213.1933    200.7283   1.0728221025e+02   7.5890186471e-01    0.2493757    0.2277479 -13.00   0.00163305    1.188    0.158
       208 -12.1226    248.8347    194.9100   9.9931953265e+01  -4.4298585096e+00    0.3797294    0.1844012 -28.32  0.001919632    2.037    0.509
