#   1 NUMBER                 Running object number                                     
#   2 MAG_AUTO               Kron-like elliptical aperture magnitude                    [mag]
#   3 X_IMAGE                Object position along x                                    [pixel]
#   4 Y_IMAGE                Object position along y                                    [pixel]
#   5 X_WORLD                Barycenter position along world x axis                     [deg]
#   6 Y_WORLD                Barycenter position along world y axis                     [deg]
#   7 A_WORLD                Profile RMS along major axis (world units)                 [deg]
#   8 B_WORLD                Profile RMS along minor axis (world units)                 [deg]
#   9 THETA_WORLD            Position angle (CCW/world-x)                               [deg]
#  10 FWHM_WORLD             FWHM assuming a gaussian core                              [deg]
#  11 ELONGATION             A_IMAGE/B_IMAGE                                           
#  12 ELLIPTICITY            1 - B_IMAGE/A_IMAGE                                       
         1 -15.1701      9.1420    148.4545   1.4374512630e+02   4.3042748129e+01     7.935639     2.527161 -81.35   0.03055113    3.566    0.720
         2 -12.4469      2.5052     38.3444   1.2629290334e+02   6.6382943150e+01    0.8475834    0.2383619 -60.89  0.003188604    4.868    0.795
         3 -13.4549    198.2491     27.1386   6.8096728097e+01   3.2473259960e+01     1.473168     1.365505  26.90  0.007606433    1.336    0.251
         4 -13.4142    212.6022      9.0169   6.2026299572e+01   3.1074701474e+01    0.9682209    0.8118474  62.27    0.0032315    1.269    0.212
         5 -12.7323      3.1919      8.6331   1.1569952369e+02   7.1028783507e+01    0.9899088    0.3277137 -38.63  0.005508142    2.246    0.555
         6 -11.0458     98.0017    248.7001   1.3643516388e+02   1.0714295078e+01    0.2803783    0.2128288  48.49  0.001194346    1.247    0.198
         7 -12.2393    239.9386    248.5086   1.1024818048e+02  -1.2709041680e+01    0.8990269    0.2432229  35.77  0.003552704    3.378    0.704
         8 -12.3077    139.5078    249.0363   1.2885404419e+02   3.8580121694e+00     0.567066    0.4185978  28.96   0.00341267    1.557    0.358
         9 -11.8532    124.2692    249.6609   1.3175610680e+02   6.3121988034e+00     0.623814    0.1598496  44.90  0.002364787    3.104    0.678
        10 -10.1872      2.1948    249.8159   1.5227482537e+02   2.2889911681e+01    0.2087483    0.1520037  66.66  0.001722977    1.238    0.192
        11 -10.5858      2.7988    246.1587   1.5200672176e+02   2.3487947672e+01    0.1937906    0.1113353  77.61 0.0006864467    1.224    0.183
        12 -10.7232    101.4248    246.4697   1.3558215023e+02   1.0578148758e+01     0.229141    0.1565854  89.79 0.0005121453    1.538    0.350
        13 -10.6571     81.1247    248.7627   1.3943815845e+02   1.3261917657e+01    0.3096988    0.1576152  62.45   0.00168945    1.778    0.437
        14  -9.9422     45.9965    248.5744   1.4538952392e+02   1.8120192850e+01    0.2882433    0.1172436  83.87  0.001323575    3.146    0.682
        15 -10.9537     29.3267    248.5939   1.4807427437e+02   2.0150476533e+01    0.3552772    0.1980975 -66.54  0.002345409    1.929    0.482
        16 -10.5726    190.1508    246.1735   1.1894830578e+02  -4.3903205628e+00    0.1717988     0.138428  55.09 0.0007182761    1.353    0.261
        17 -11.8414     35.1496    244.9405   1.4690381510e+02   2.0134516474e+01    0.5289323    0.3395576 -68.26   0.00365749    1.690    0.408
        18 -11.3875     19.6251    242.9734   1.4925801986e+02   2.2292390150e+01    0.3185217    0.1382966  76.34   0.00180756    2.082    0.520
        19 -12.3277     11.9163    241.9002   1.5039864649e+02   2.3325583862e+01    0.3863161    0.2321014 -81.26  0.002791367    1.412    0.292
        20 -11.7757    151.7221    248.8392   1.2654505281e+02   1.8036236055e+00    0.5214453    0.2362142  45.67  0.002536083    1.807    0.447
        21 -14.4090    105.4560    229.5401   1.3290481079e+02   1.3088577981e+01     6.467636          nan  45.43   0.01204639   12.528    0.920
        22 -12.8159     47.4925    215.8258   1.4247884779e+02   2.4332696850e+01    0.8842333     0.788837 -31.86  0.005729583    1.879    0.468
        23 -11.8209    199.2113    246.6196   1.1732861123e+02  -5.9836391170e+00    0.4845971    0.3594189  85.49  0.002590988    2.622    0.619
        24 -10.0997    174.1251    222.9831   1.1837411378e+02   2.1378064433e+00    0.2984683     0.176544  50.99   0.00147434    1.632    0.387
        25  -8.6144    152.4967    213.0260   1.2112640271e+02   7.9640976155e+00    0.1776222    0.1379968 -54.65 0.0009778684    1.431    0.301
        26 -12.4957      9.7427    207.0045   1.4859943272e+02   3.0359302631e+01    0.6240879    0.3970653  36.20  0.002857385    1.952    0.488
        27 -11.6203     59.8106    199.2486   1.3843028040e+02   2.6250140922e+01    0.2656624    0.2154819 -71.59 0.0004720116    1.257    0.205
        28  -9.8283    193.0092    195.0200   1.0958596032e+02   3.5232548439e+00    0.6688343    0.3081592 -62.17  0.001608985    8.005    0.875
        29 -12.1143     13.6122    196.2754   1.4712570984e+02   3.2210921911e+01    0.2879874    0.1820238  64.02 0.0005918439    1.386    0.278
        30 -11.8947     66.2089    190.8278   1.3612567313e+02   2.7232781686e+01    0.2789645    0.2222912 -66.62 0.0004402221    1.273    0.214
        31 -10.7888     76.6592    177.8776   1.3212738921e+02   2.8667803201e+01    0.2461929        0.208 -77.77 0.0003941966    1.089    0.082
        32 -13.1576     63.2731    175.8718   1.3485286225e+02   3.1022997195e+01     0.510956    0.2787013 -47.30  0.002175664    2.240    0.554
        33 -12.8548     32.8067    233.2265   1.4647569441e+02   2.2638366979e+01    0.2814861    0.2307381  87.85 0.0007776892    1.266    0.210
        34  -8.7370     97.4944    174.5531   1.2685672870e+02   2.6146837721e+01    0.1431402    0.1255312  83.01 0.0001852202    1.032    0.031
        35 -11.6073     83.9755    169.0575   1.2911771701e+02   2.9601905859e+01    0.5735019    0.4984946 -42.07  0.003335521    1.396    0.284
        36  -9.4372     93.1205    167.4898   1.2670918394e+02   2.8508783592e+01    0.3029827    0.2249822  40.08  0.001158398    1.445    0.308
        37 -13.8877     37.9431    226.4281   1.4508795435e+02   2.3360678297e+01     0.751789    0.5401646  68.54  0.002400812    1.108    0.097
        38  -9.9768     97.2286    152.5730   1.2305474577e+02   3.1327395949e+01    0.2800398    0.2502103 -64.14 0.0007791881    1.086    0.079
        39 -11.9652     85.6012    151.7812   1.2580498743e+02   3.3413484149e+01    0.2980257    0.2482881 -45.18 0.0006677534    1.314    0.239
        40  -9.0336    100.0301    148.6128   1.2159208121e+02   3.1782430358e+01    0.1946428    0.1796318  53.53 0.0004086649    1.138    0.121
        41 -12.1277     67.3718    143.6314   1.2896448224e+02   3.8020148589e+01    0.6545479    0.4284329  66.85  0.002827251    1.809    0.447
        42 -10.8091     12.9413    232.7984   1.4971176463e+02   2.4930537909e+01    0.2272844   0.09623577  75.29  0.001256037    2.143    0.533
        43  -9.8355    108.8945    137.7270   1.1708700296e+02   3.2761049883e+01    0.4071082    0.2829788 -17.41  0.001503433    2.360    0.576
        44 -10.4014     96.1954    134.7923   1.1976397037e+02   3.5699967731e+01    0.2452632    0.2211912 -38.40 0.0003882276    1.197    0.164
        45 -10.9857     30.8364    131.3644   1.3636696544e+02   4.5075568069e+01    0.2686168    0.2050365  60.88 0.0008825014    1.457    0.314
        46  -8.8947     78.6651    131.2952   1.2369920565e+02   3.9325521685e+01    0.2200062    0.1542217  77.97  0.001007574    1.820    0.451
        47  -9.1530     56.3349    129.3179   1.2931922484e+02   4.2816094425e+01    0.1357825   0.09439817 -35.75 0.0004473622    1.697    0.411
        48 -11.9351     22.3521    126.8230   1.3789169886e+02   4.6861810574e+01    0.3782785    0.2553905  57.80  0.001413484    1.717    0.417
        49  -8.8834    106.3484    124.0426   1.1467371318e+02   3.6409855952e+01    0.1991975    0.1732274 -56.98 0.0003850083    1.093    0.085
        50  -9.8937    168.0103    113.3024   9.6628985285e+01   2.5572260309e+01    0.3256748    0.2631721 -88.75 0.0008683771    1.486    0.327
        51  -9.0696    203.4551    111.5236   8.8835498722e+01   1.7519716114e+01    0.1516712    0.1480314 -42.77 9.750594e-05    1.046    0.044
        52  -9.7573     54.3725    229.5078   1.4243858807e+02   2.0677583435e+01    0.2781994    0.1347475  66.54  0.001461695    1.977    0.494
        53  -9.9193    157.9937     76.5138   8.8817533044e+01   3.5120991683e+01    0.2341692    0.1477002  54.36 0.0005311033    1.554    0.357
        54  -8.3042     45.9579     69.0239   1.1884495936e+02   5.7184121403e+01     0.146665     0.122579 -33.75  0.000310969    1.009    0.009
        55  -9.5262     39.2359     65.7307   1.2025571277e+02   5.8525938616e+01    0.2454479    0.1752324  49.44  0.001454847    1.993    0.498
        56  -8.5981     31.6575     62.2783   1.2197956556e+02   5.9908387571e+01    0.1047467   0.09299098  79.60 0.0007006228    1.626    0.385
        57 -10.7985    173.2485    248.6771   1.2248578718e+02  -1.8730540077e+00    0.2702164    0.1718702  65.29   0.00139394    2.169    0.539
        58 -11.9340     10.4975     53.6105   1.2738745730e+02   6.3156046084e+01    0.4943482    0.2301351  40.54  0.002591586    3.321    0.699
        59 -11.3131    161.9276    248.8424   1.2463203425e+02   4.8285474969e-02    0.3224831     0.181341  52.31  0.001699878    1.651    0.394
        60 -10.8130    106.8697    248.2953   1.3478845051e+02   9.3866224125e+00    0.4027993    0.2005073  78.62  0.001636928    3.667    0.727
