#   1 NUMBER                 Running object number                                     
#   2 MAG_AUTO               Kron-like elliptical aperture magnitude                    [mag]
#   3 X_IMAGE                Object position along x                                    [pixel]
#   4 Y_IMAGE                Object position along y                                    [pixel]
#   5 X_WORLD                Barycenter position along world x axis                     [deg]
#   6 Y_WORLD                Barycenter position along world y axis                     [deg]
#   7 A_WORLD                Profile RMS along major axis (world units)                 [deg]
#   8 B_WORLD                Profile RMS along minor axis (world units)                 [deg]
#   9 THETA_WORLD            Position angle (CCW/world-x)                               [deg]
#  10 FWHM_WORLD             FWHM assuming a gaussian core                              [deg]
#  11 ELONGATION             A_IMAGE/B_IMAGE                                           
#  12 ELLIPTICITY            1 - B_IMAGE/A_IMAGE                                       
         1 -13.4172     91.5895     53.9258   7.5891775805e+01   5.4098291633e+01     2.260524     1.344702  50.60  0.007469286    1.887    0.470
         2 -13.1583     29.7223     24.5959   8.8905477245e+01   6.8389896711e+01     2.893186     1.656523 -19.68   0.01618937    1.733    0.423
         3 -12.4386      8.3347     26.0728   1.0035276887e+02   6.9950227875e+01    0.8767335    0.6206895 -20.70   0.00345282    1.219    0.180
         4 -11.5288     18.8374     78.8733   1.1029759642e+02   5.8345759930e+01     2.032024    0.5726101 -61.55  0.008239897    2.614    0.617
         5 -11.9728     35.0872     69.2350   1.0184777249e+02   5.9185571621e+01     1.802918     0.939657 -28.30  0.008459738    2.263    0.558
         6 -11.2619     99.9476      5.7173   5.4107881582e+01   5.8738434445e+01    0.3726158    0.2331824  28.76  0.000379274    1.580    0.367
         7 -12.2401     90.8198     22.1283   6.3544991735e+01   5.8991575300e+01     2.238679    0.7174999 -21.69   0.00721958    4.397    0.773
         8 -13.6400     69.2290     30.7411   7.4543562322e+01   6.1932802130e+01     2.265281     1.891309  68.07   0.01313569    1.848    0.459
         9 -13.5013      4.9206      9.4720   9.5407212258e+01   7.3024463752e+01    0.8736779    0.4696524 -25.68  0.002863046    1.542    0.352
        10 -12.6527      2.1768      1.9671   9.3448951078e+01   7.4389452845e+01    0.2450974    0.1889082 -11.64 0.0006974947    1.156    0.135
        11 -12.5243    103.7680     36.5879   6.5575522781e+01   5.4353264294e+01     1.872667     1.078017  18.08  0.006749295    2.535    0.606
        12 -13.1468    112.2616     11.7439   5.3629678719e+01   5.5389367120e+01     1.742064     1.280915  71.26  0.009601156    1.477    0.323
        13 -12.8665     18.3242     14.9020   9.0397864093e+01   7.1077969055e+01     1.556459     0.562306 -46.47  0.006665204    2.559    0.609
        14 -12.6105     15.7873     32.8767   9.9057036276e+01   6.8182456477e+01     0.986854    0.4341335 -44.97  0.001006719    1.735    0.424
        15 -11.5699     50.8008     25.0968   7.9445111836e+01   6.5678470694e+01    0.7261402    0.3924593 -17.36  0.001061116    2.131    0.531
        16 -11.1045    215.3869     22.3290   4.1079657372e+01   2.8752312798e+01     1.220271    0.4480006 -50.20  0.004823511    2.719    0.632
        17 -10.6211    181.7484     15.5875   4.3115656928e+01   3.7791769151e+01     1.350888    0.4189598  52.80  0.004867951    3.095    0.677
        18 -10.4814    164.3658      5.6451   4.2441154479e+01   4.3157556882e+01    0.6348244    0.4693998  55.11  0.002885576    1.273    0.214
        19 -10.1365    157.4109      5.2523   4.3257806889e+01   4.4943069019e+01    0.7075927    0.3016084 -13.06  0.002805633    3.259    0.693
        20  -8.2813    153.1194     25.8607   5.0495216190e+01   4.3914496667e+01     1.431634    0.6049733  44.44  0.005490231    2.540    0.606
        21 -10.6199    181.2662     31.7883   4.7808118245e+01   3.6038197604e+01      1.00473     0.556328 -46.12  0.004570999    1.839    0.456
        22 -10.7634    154.9988     16.9540   4.7312646425e+01   4.4420871438e+01    0.6423271    0.3049549  47.93  0.001452549    2.052    0.513
        23 -11.5362    168.2375     14.0138   4.4435188840e+01   4.1370221561e+01     1.089254     0.324639  53.20  0.003130253    2.986    0.665
        24 -10.2572    173.1913     10.4489   4.2723643399e+01   4.0476225289e+01     0.250542    0.2106443  52.46 0.0005162786    1.211    0.174
        25 -10.2868    149.1076     16.4339   4.8107087221e+01   4.5961031908e+01    0.4015771    0.3077921 -19.24  0.001328741    1.465    0.318
        26 -10.5108    151.9191      9.1720   4.5296567947e+01   4.5966253300e+01    0.5651582    0.3588895  -0.68  0.002181673    2.081    0.520
        27  -9.7382    131.8035     13.7218   5.0279819385e+01   5.0533739506e+01    0.3874601     0.235678  71.79  0.001354277    1.684    0.406
        28 -11.2407    131.7135     19.4361   5.2334514781e+01   4.9969587935e+01    0.8783644    0.2934375  56.42  0.003312535    2.486    0.598
        29 -10.2039     80.4638     19.9462   6.5869016742e+01   6.1331743639e+01    0.6083235    0.4676185  63.68  0.003450308    1.713    0.416
        30  -9.5301     71.1553     16.6358   6.7559263650e+01   6.3485575675e+01    0.2966272    0.2116589   6.67 0.0009469907    1.358    0.264
        31  -9.4332    232.5127     17.4673   3.8302465830e+01   2.5337068753e+01    0.4105671    0.1568184 -44.96  0.001373314    2.237    0.553
        32  -9.6048    205.1081     16.0110   4.0556851583e+01   3.1953418087e+01    0.3193586    0.2684923 -37.44  0.001937434    1.267    0.211
        33 -10.4657    212.9726     12.0980   3.8795619544e+01   3.0489184633e+01    0.5647717    0.2789105  78.17  0.002093605    1.938    0.484
        34 -10.3133    242.5157     13.6205   3.6620390842e+01   2.3550643456e+01    0.3985139    0.1938069  55.98  0.001967735    2.372    0.578
        35  -9.6432    221.5041     12.5714   3.8127611373e+01   2.8424933568e+01    0.3800952    0.2711194 -38.48   0.00195435    1.392    0.282
        36  -9.6934    225.7491      8.6789   3.6851291256e+01   2.7866543568e+01    0.2812619    0.1960352  43.54  0.001008822    1.903    0.474
        37 -10.5422     42.3958      3.6195   7.2600947470e+01   6.9750396976e+01    0.3286201     0.227647 -11.86 0.0008556679    1.248    0.199
        38 -10.1425     38.2589     10.5709   7.8147630228e+01   6.9466916153e+01    0.4329366    0.2055278 -24.96  0.001694444    2.023    0.506
        39  -8.7753     36.8996      6.2221   7.6540672646e+01   7.0209854437e+01    0.2092168    0.1606922  20.94  0.001188883    1.252    0.201
        40  -8.8229     86.0614     11.0746   6.0182887703e+01   6.1203150205e+01    0.3357254    0.1170546  44.82 0.0009489221    2.465    0.594
        41  -9.7383     77.5880      8.8047   6.1764166462e+01   6.3134402943e+01    0.2634402    0.2108968 -11.41 0.0005960154    1.238    0.192
        42  -8.7138     77.5030      4.5302   5.9799907429e+01   6.3567395664e+01    0.2091675    0.1283435  23.65  0.001131467    1.582    0.368
        43 -10.4183    199.8208      5.9398   3.8513555078e+01   3.4303458866e+01    0.5430332    0.3021928 -51.65  0.001407963    1.749    0.428
        44  -9.1850    250.6272      7.7941   3.4779136067e+01   2.2456738852e+01    0.1732387   0.08871363 -45.24 0.0009390515    1.625    0.385
        45  -9.8382    243.7852      5.6531   3.4801458491e+01   2.4160489021e+01    0.3877512    0.1968479 -23.55  0.001586935    2.454    0.593
        46  -8.8432    190.2396      7.7773   3.9977357903e+01   3.6474443407e+01    0.1840376    0.1386268  54.48 0.0007336868    1.372    0.271
        47  -9.8861    133.0798      4.9350   4.6933755944e+01   5.1026070653e+01    0.6098122    0.4697262  73.18  0.003505826    1.244    0.196
        48  -9.8549    139.6725      7.7187   4.6771769099e+01   4.9158103685e+01    0.2633239    0.1806175  49.38  0.000569753    1.325    0.245
        49 -10.4891    139.6233      3.9374   4.5492125482e+01   4.9499589534e+01    0.3956891    0.2419442  -8.41  0.001730112    2.001    0.500
        50  -8.8197    233.7239      6.9909   3.5832665285e+01   2.6236802531e+01    0.1727121    0.1421215 -65.63 0.0004144301    1.045    0.043
        51  -9.1864    211.3420      4.3339   3.7047199235e+01   3.1691883046e+01    0.2778838    0.1742382  37.92 0.0009724714    2.262    0.558
        52 -10.6191    207.1489      3.1244   3.7121549416e+01   3.2813396322e+01     0.565325    0.2546301 -55.21  0.002571557    2.233    0.552
        53 -10.0430    182.5840      5.3415   4.0152315837e+01   3.8614769629e+01    0.4797731    0.2921358 -75.91  0.002399376    1.755    0.430
        54  -9.4123    217.6717      5.1899   3.6708676617e+01   3.0110671727e+01    0.2581444    0.1917678  26.17  0.001286048    2.001    0.500
        55  -9.0978     67.5370      5.9985   6.3792726850e+01   6.5327515902e+01    0.1991077    0.1448582  14.20 0.0005134373    1.226    0.184
        56 -10.0708     71.4272      3.4373   6.1226588153e+01   6.4849597765e+01    0.3479451    0.2997239 -34.35  0.002295261    1.464    0.317
        57  -8.9915     29.6369      5.6949   7.9846189997e+01   7.1207744855e+01    0.1696462    0.1028577  -3.41  0.001005941    1.616    0.381
        58  -9.7161     84.0307      3.2090   5.7240836052e+01   6.2368581782e+01     0.301814    0.2597811  -1.99  0.001094393    1.180    0.152
        59  -9.3492    248.3131      1.6914   3.3657958078e+01   2.3611692587e+01    0.2510873    0.1488372  88.26  0.001466902    1.555    0.357
        60 -10.3314     22.6909    146.7269   1.1920019866e+02   4.1924470806e+01    0.2446512    0.1847834  84.66 0.0009591936    1.158    0.136
        61  -8.9031    211.2935    250.5577   9.2249942685e+01  -6.8189034827e+00    0.2268686   0.09382352  40.28  0.001135054    2.108    0.526
        62  -9.6536    161.5105    250.0012   1.0140002792e+02   8.1552791963e-01    0.2304259    0.1094077  33.50  0.001160865    1.845    0.458
        63  -9.1292    124.7740    249.9844   1.0836782005e+02   6.5209201439e+00    0.1999128    0.1237587  10.10 0.0008836878    3.584    0.721
        64 -10.4553     29.9683    142.3548   1.1682558228e+02   4.2313806618e+01    0.5304192    0.2190421 -66.17  0.002074013    1.958    0.489
        65  -9.5850     28.2213    136.8045   1.1660964130e+02   4.3814623626e+01    0.2602495    0.1420493 -63.58 0.0009270326    1.523    0.343
        66 -11.3694     16.1476    140.6622   1.2022973070e+02   4.3912035983e+01    0.6490135    0.3498035 -70.25  0.002918128    1.481    0.325
        67 -10.7589     14.4265    132.3686   1.1979159810e+02   4.6018383821e+01    0.3945305    0.2826757  -8.05  0.001268067    2.036    0.509
        68 -12.5528     11.8459    125.8054   1.1975670946e+02   4.7768827693e+01    0.6804494    0.4015142 -85.73 0.0003814291    1.494    0.330
        69 -11.8741      9.8806    108.9346   1.1825946063e+02   5.1908656263e+01    0.8977884    0.5581598 -46.83  0.004090563    1.561    0.359
        70 -11.5343     15.0895    102.6551   1.1576773531e+02   5.3058039813e+01    0.6674833    0.2750815 -56.96  0.002811718    1.862    0.463
        71 -10.1318     18.0381    121.7528   1.1753140051e+02   4.8287869192e+01    0.2387522    0.1749411 -74.66 0.0003597353    1.100    0.091
        72 -10.7309     19.7402    117.9680   1.1654075878e+02   4.9067923182e+01      0.36784    0.2437149 -81.99  0.001390929    1.337    0.252
        73  -9.4115     98.5336    139.8477   9.7739381078e+01   3.3836168698e+01    0.2314101    0.1976216  81.41 0.0005524099    1.235    0.190
        74  -9.1591     47.5851    139.3984   1.1169999197e+02   4.1218543944e+01    0.2733076    0.1467224 -65.30  0.001061001    1.603    0.376
        75 -10.2520     22.7956    136.7861   1.1806050406e+02   4.4294021763e+01     0.263772     0.190746 -50.02  0.001175371    1.455    0.313
        76  -9.9229      3.5886    136.3140   1.2301786529e+02   4.5846610638e+01    0.3076502    0.1932856  -9.35  0.001759363    2.543    0.607
        77 -10.3334    237.2154    135.8631   6.5614740169e+01   6.2568081670e+00    0.3454557    0.1729707  31.99  0.001390217    2.685    0.628
        78 -10.1237     63.7965    101.8079   9.9772396454e+01   4.8429444620e+01    0.9173352    0.5839741  43.66  0.004508103    1.770    0.435
        79  -8.7485     74.7264    106.9937   9.7493473909e+01   4.5643952466e+01    0.3733037    0.2615876  -4.34  0.001246414    2.088    0.521
        80 -10.8301     62.1677    134.2425   1.0681058012e+02   4.0720858084e+01     0.897414    0.3154489 -42.48  0.002726041    4.499    0.778
        81 -11.0707     68.5233    115.0657   1.0123862516e+02   4.4583130952e+01     1.116886    0.5119241 -55.53   0.00465548    1.926    0.481
        82 -10.3963     76.4998    102.0470   9.5730831571e+01   4.6554905073e+01    0.5595163    0.3280098  22.14   0.00241774    2.207    0.547
        83 -11.2241     76.6772     96.0798   9.4150761969e+01   4.7927222663e+01    0.8780913    0.6048614  56.58  0.004185324    1.830    0.454
        84 -10.8529     73.4431     89.5037   9.3461586197e+01   4.9934775869e+01    0.8643259    0.2904806  40.47  0.003037438    3.229    0.690
        85 -11.2073     63.1566    124.1882   1.0469794661e+02   4.3070436732e+01     0.705448    0.4088741  50.13  0.002238629    1.958    0.489
        86 -10.0358     61.1800    120.7638   1.0462971304e+02   4.4169386734e+01    0.3114505    0.2552103 -40.99 0.0008720543    1.275    0.216
        87  -8.7164     66.5031    134.5244   1.0563310329e+02   4.0077050317e+01    0.1416756    0.1265458 -77.16 7.381709e-05    1.013    0.013
        88  -9.8742     55.3360    133.1366   1.0855902340e+02   4.1851269010e+01    0.2818828    0.1941604  32.43  0.001492507    1.638    0.390
        89 -11.2810     34.6982    131.2553   1.1409577289e+02   4.4557243853e+01     1.094836    0.3455785 -73.49  0.001352231    3.282    0.695
        90  -9.2411     41.5039    128.5603   1.1177111560e+02   4.4534533367e+01    0.2112014    0.1828562  78.21 4.925563e-05    1.163    0.140
        91 -11.4157     46.8405    124.9767   1.0964993398e+02   4.4842931030e+01    0.7029566    0.4099962 -73.94  0.003449428    1.626    0.385
        92  -9.7206     50.5359    125.4954   1.0865437188e+02   4.4299848651e+01    0.2335923     0.180241 -33.02  0.000657308    1.526    0.345
        93 -10.5946     40.5705    122.7358   1.1112514092e+02   4.6057384731e+01    0.5633202    0.3169017 -66.55  0.002001217    1.511    0.338
        94 -11.5733     43.8604    115.5381   1.0891755170e+02   4.7476789446e+01    0.7503448    0.5143008 -15.88  0.003608502    2.053    0.513
        95  -9.8686     29.0985    119.8116   1.1405430423e+02   4.7856813904e+01    0.3438439    0.2081971  30.18  0.001526431    1.924    0.480
        96 -10.3995     28.7982    129.9834   1.1557113664e+02   4.5414662474e+01    0.4287631    0.2158587 -56.57   0.00196542    1.724    0.420
        97  -9.4457     22.4542    128.0670   1.1709060069e+02   4.6421502051e+01    0.2917663    0.2125979   9.46  0.001259479    1.855    0.461
        98  -9.6171     73.4679    129.7973   1.0276431024e+02   4.0269557356e+01    0.3267172    0.2192491  81.49  0.001173325    1.934    0.483
        99  -8.3596    150.3321    128.7189   8.1669598452e+01   2.6172973475e+01    0.1576494    0.1258908  84.95 0.0003893119    1.609    0.379
       100 -10.2934     56.0638    126.6406   1.0723538967e+02   4.3363525362e+01    0.3733071    0.1969905 -59.28  0.001202596    1.643    0.391
       101  -8.9166     74.4966    125.0016   1.0151357879e+02   4.1299447906e+01    0.1975766    0.1927616  68.79 0.0004316801    1.103    0.094
       102  -8.2385    131.5076    124.4739   8.5379224562e+01   3.1156522174e+01    0.1553001    0.1530395 -36.81 6.081276e-05    1.024    0.023
       103 -10.3836     91.7982    121.4996   9.5689625900e+01   3.9430117499e+01    0.4990511    0.3826996 -34.13  0.002462944    1.443    0.307
       104 -11.2397     75.4930    120.0255   1.0018375186e+02   4.2372378652e+01    0.2601184    0.2471728  52.17  0.000325443    1.134    0.118
       105  -9.4131     53.5076    120.5163   1.0688917366e+02   4.5177590931e+01    0.1392373    0.1207238 -61.31   0.00013319    1.048    0.046
       106  -9.8491    116.3209    116.4095   8.7457069176e+01   3.6117508364e+01    0.2899404    0.2685961 -18.84 0.0006586512    1.153    0.133
       107  -9.1162    104.8184    116.2737   9.0676892603e+01   3.8366816023e+01    0.3142601    0.2027739 -62.65  0.001354235    1.701    0.412
       108 -10.7220     33.9746    119.3040   1.1253330126e+02   4.7539380083e+01    0.3781063    0.3116707 -68.05 0.0009903378    1.023    0.023
       109  -9.0089     28.2503    115.8875   1.1371726716e+02   4.8881276615e+01    0.1786253    0.1360925 -64.20 0.0002799861    1.093    0.085
       110  -8.5002    142.3574    114.8337   8.0118982543e+01   3.0977111622e+01    0.2190201    0.1979156  59.45  0.000778367    1.152    0.132
       111  -9.0817    108.7020    114.9363   8.9231452582e+01   3.7948044774e+01    0.2240522    0.2029533 -54.32  0.001165222    1.067    0.063
       112  -9.3813     97.4679    115.2841   9.2569520906e+01   3.9939465326e+01    0.3168346    0.2633574 -28.70 0.0009623634    1.320    0.243
       113 -10.3039     96.7195    109.4527   9.1344796528e+01   4.1453513176e+01    0.4733014    0.3589315 -55.37  0.001719897    1.273    0.214
       114  -9.3565     82.8143    114.9574   9.6858712885e+01   4.2483141520e+01    0.2437906    0.2201466  26.10 0.0008895117    1.221    0.181
       115 -10.3627     32.8956    110.2158   1.1138329997e+02   4.9844840906e+01    0.6207385    0.2396859 -55.55  0.002724938    2.069    0.517
       116 -10.5020     37.3139    109.1361   1.0981068771e+02   4.9693691282e+01    0.4870153    0.3835747 -82.09  0.001838783    1.236    0.191
       117  -9.8333     61.2612    110.5550   1.0253355376e+02   4.6654871825e+01    0.4839966    0.3001554 -40.33  0.002319203    1.691    0.409
       118  -9.2658    131.3145    110.6705   8.1879901197e+01   3.4311064816e+01     0.161296    0.1265294 -87.07  0.000290782    1.676    0.403
       119  -9.2545    117.0715    108.4547   8.5180094160e+01   3.7794178700e+01    0.4344882    0.2026349 -31.44  0.001333548    3.426    0.708
       120  -8.9911     23.5468    108.7322   1.1405023186e+02   5.0992654198e+01    0.2248786    0.1567852  30.10  0.001278721    1.708    0.414
       121  -9.4804    113.1896    107.5509   8.6037917997e+01   3.8780900987e+01    0.3548262    0.2373968 -53.84 0.0006539407    1.507    0.336
       122 -10.7160    105.9774    101.7364   8.6561580633e+01   4.1520776568e+01    0.7010759    0.5087954  86.53  0.002977987    2.097    0.523
       123  -9.2181     46.0385     98.2839   1.0484769748e+02   5.1415689270e+01    0.3041905    0.2042832  42.29  0.001002381    1.721    0.419
       124  -9.8817     51.5112     92.6352   1.0172269033e+02   5.2138904813e+01    0.4330863    0.2438174 -43.59  0.001975239    1.652    0.395
       125  -8.5579     50.6794     97.6558   1.0315700893e+02   5.1048703927e+01    0.2223965    0.1930706 -19.40 0.0006583365    1.268    0.212
       126  -9.2673     55.2132     96.5667   1.0138803236e+02   5.0771495497e+01     0.321026    0.1954788   5.03  0.000987731    2.465    0.594
       127 -10.4318     53.6841    100.9073   1.0288116500e+02   4.9922106497e+01     0.583657    0.2766411 -45.41  0.001501517    1.992    0.498
       128 -10.1972     48.4142    102.7978   1.0501736389e+02   5.0074909487e+01    0.5468531    0.2717823 -43.75  0.002455154    1.983    0.496
       129 -11.4406    142.5787    101.4834   7.6438045702e+01   3.3805330017e+01    0.6431966     0.366433  30.08  0.002363405    2.373    0.579
       130  -9.3936    132.5138     98.0254   7.8067567587e+01   3.6806782847e+01    0.3686173    0.2656043 -61.63   0.00128249    1.629    0.386
       131 -12.4456     37.3297     92.3784   1.0654301444e+02   5.3699919415e+01     1.628043     1.370159  -1.70  0.007157676    1.393    0.282
       132 -12.5672    118.0876     68.7119   7.3002140977e+01   4.5912532618e+01     1.472289    0.9106393  47.41  0.004782705    1.624    0.384
       133 -13.1099     29.4777     59.2218   1.0132515505e+02   6.1846890424e+01     1.382457    0.7898902   7.69  0.007297928    2.153    0.536
       134 -12.1834     55.0592     66.1788   9.3228371398e+01   5.7621553764e+01     1.332927     0.817728 -41.53  0.006862284    1.433    0.302
       135 -11.1834     77.8719     61.5030   8.3269792684e+01   5.5177931260e+01    0.5316699    0.3663526  30.68  0.002717662    1.516    0.340
       136  -8.9578    235.6679    249.3130   8.7747811637e+01  -1.0092828729e+01   0.09915505   0.08626273  40.52 0.0007044755    1.679    0.404
       137  -9.2793    182.0086    249.5214   9.7478862217e+01  -2.2966493822e+00    0.1956154   0.09717121  36.24  0.001039113    1.621    0.383
       138  -9.5400    108.4157    249.2142   1.1137495426e+02   9.1151494502e+00    0.1521536     0.108583 -86.94 0.0009599017    1.660    0.398
       139  -9.4655    148.4593    247.4681   1.0355627680e+02   3.2413853900e+00    0.1232943     0.099039  40.92 5.686978e-05    1.016    0.016
       140  -9.3628      3.9963    245.9163   1.2954127593e+02   2.2709808561e+01    0.2093133    0.1054621 -65.02  0.001363379    2.338    0.572
       141 -10.5581    142.0378    244.3519   1.0439818901e+02   4.7418929205e+00    0.2925974    0.2699884  -5.26  0.001668983    1.316    0.240
       142  -9.0636    188.2183    243.6666   9.5472709144e+01  -2.4465021828e+00    0.1800112   0.09265878  31.47 0.0005811029    1.673    0.402
       143 -11.6071     32.6455     42.2883   9.4510973391e+01   6.4948606643e+01    0.8028924    0.7451435  -8.05  0.005651908    1.238    0.192
       144  -9.3485    241.6527    239.0624   8.5064636134e+01  -9.7145154137e+00    0.2326022    0.1398024  24.25   0.00143528    1.379    0.275
       145 -12.5555     47.4167     39.3110   8.6896991405e+01   6.3811313464e+01    0.9129547    0.4014162  26.92  0.002498358    2.551    0.608
       146 -12.0043     56.6196     37.4634   8.2306302282e+01   6.2869519504e+01    0.4938647    0.3530142 -12.06  0.001332545    1.365    0.267
       147  -8.8202    119.6484    239.3221   1.0814332955e+02   9.0919447553e+00    0.1312282   0.08129909  62.77 0.0007047984    1.750    0.429
       148 -10.0372     14.6466    237.8280   1.2744171418e+02   2.3124811078e+01    0.2986363    0.1078774 -88.43  0.001556199    2.644    0.622
       149  -9.4020    158.6585    102.3036   7.2755684036e+01   2.9905300536e+01    0.2552519    0.1930241 -78.13  0.001101397    1.772    0.436
       150  -8.9789     55.8517    238.1170   1.2019536695e+02   1.8379648070e+01    0.1429071    0.1263053 -86.76  0.001068239    1.330    0.248
       151 -10.2432      4.4998     98.7317   1.1855142484e+02   5.4621710711e+01    0.4151763    0.2159993  83.84  0.001724777    2.274    0.560
       152 -10.6051      3.3783     88.8013   1.1749347225e+02   5.6982561375e+01    0.8508264    0.2319857 -61.48  0.002821385    2.385    0.581
       153  -9.7217      7.0675     85.3021   1.1568640826e+02   5.7594798200e+01    0.2432633    0.1617313  -3.74  0.000984314    1.920    0.479
       154  -9.2191     10.7244     99.4453   1.1667632870e+02   5.4095789690e+01    0.2007792    0.1597966 -87.46 0.0005677769    1.220    0.180
       155 -10.1841     87.5676     96.7689   9.0837629870e+01   4.6002971980e+01    0.4341408    0.3880405 -40.05  0.002360745    1.055    0.052
       156  -9.9225     83.4944     89.9348   9.0257740470e+01   4.8243298686e+01    0.3868743    0.2635337  42.47  0.001222096    1.591    0.371
       157  -9.7793     82.8399     85.7195   8.9265727381e+01   4.9294236363e+01    0.3494253     0.230554 -21.05  0.001548985    1.959    0.489
       158 -10.0248     88.0000     89.9975   8.8818082910e+01   4.7465764405e+01    0.4418263    0.2006848 -49.85 0.0009730503    2.087    0.521
       159 -10.4525     91.3131     87.7579   8.7110740206e+01   4.7381894746e+01    0.4413398    0.3598359  88.60 0.0008425706    1.641    0.391
       160 -10.7600    115.9765     95.0262   8.1765226239e+01   4.1012738913e+01    0.4623848    0.3804739  44.79  0.002295095    1.252    0.201
       161  -8.5921     93.5753     97.5175   8.9160093877e+01   4.4785712205e+01    0.1502873    0.1395188 -39.30  0.000112327    1.021    0.021
       162 -10.2133    133.3178    102.2480   7.9046998188e+01   3.5721967783e+01     0.470065    0.3077571 -45.89   0.00129621    1.508    0.337
       163  -9.5639    189.5758     93.8925   6.3865621856e+01   2.4160310671e+01    0.3014981    0.2446326   0.84 0.0009176989    1.527    0.345
       164  -9.4738    124.2600     92.6820   7.8754467468e+01   3.9757778578e+01    0.4289913    0.2680265  81.71  0.001368352    3.734    0.732
       165 -11.1114    119.0061     87.1125   7.8565637026e+01   4.2063492061e+01     0.412857    0.3899587  66.80  0.001272841    1.144    0.126
       166  -8.8358    104.0942     92.2444   8.4452245561e+01   4.4010052434e+01    0.4337377    0.2343977  22.14  0.001483942    3.137    0.681
       167  -8.6299    214.3884     90.2014   5.8482781852e+01   1.8989563117e+01    0.2288378     0.124822 -44.96 0.0009647438    1.740    0.425
       168  -8.7220    194.0066     89.5218   6.1857199911e+01   2.3895195575e+01    0.2201639      0.15085  54.06 0.0004118093    1.506    0.336
       169  -8.9398    187.3454     89.4427   6.3093759370e+01   2.5512123528e+01    0.1914886    0.1510013  71.07 0.0003943273    1.402    0.287
       170  -9.5160    106.7880     87.2740   8.2175889399e+01   4.4558896981e+01     0.407871    0.2004777 -40.89  0.001022177    2.003    0.501
       171  -9.2298    145.4733     87.4974   7.1683499023e+01   3.5999767287e+01    0.4405169    0.1517425  48.12  0.001384894    2.892    0.654
       172 -10.1182    146.5382     82.9776   7.0075509420e+01   3.6630858129e+01    0.5321412    0.3250639 -30.46  0.001423383    1.781    0.439
       173 -11.2310    145.2307     76.1696   6.8319990212e+01   3.8234257276e+01    0.9818053    0.5692606  32.43  0.002466897    2.219    0.549
       174 -11.1869    136.5083     81.4954   7.2126410184e+01   3.9282336527e+01    0.8437012    0.5315017 -12.21  0.003147487    2.551    0.608
       175  -9.4195    133.0114     80.0000   7.2570725316e+01   4.0383833508e+01    0.3178268    0.2109498  50.77 0.0006940303    1.531    0.347
       176 -12.2604    102.2537     75.9908   8.0055988074e+01   4.7816382101e+01     1.485478     0.855633 -44.87   0.00644112    1.702    0.413
       177  -9.8144     56.9816     85.7554   9.8114453031e+01   5.3071850699e+01    0.5176732    0.3014712  -3.72  0.002113928    2.977    0.664
       178  -9.7933     51.9236     86.0231   9.9965317281e+01   5.3627472657e+01     0.308849    0.2229705 -25.59 0.0008197065    1.514    0.340
       179  -9.2774     52.1471     81.9285   9.8830015890e+01   5.4536009566e+01    0.3009692    0.2545124  -0.01  0.000811602    1.307    0.235
       180  -8.4338    189.7784     86.3727   6.1796085871e+01   2.5478451420e+01    0.1571196    0.1099392 -58.33 0.0004916599    1.591    0.371
       181  -8.7999    155.3645     86.1050   6.8913151756e+01   3.3909806954e+01    0.3428782    0.1929852  22.05  0.001045023    3.723    0.731
       182  -9.7493    161.6727     82.0411   6.6296188020e+01   3.3145841681e+01    0.2958398    0.2653777  50.68 0.0004201515    1.120    0.107
       183  -9.4040    157.8805     81.0000   6.6834459728e+01   3.4266772786e+01    0.3452116    0.2098651  49.12 0.0008221044    1.642    0.391
       184 -10.3073    122.9444     80.3267   7.5379146122e+01   4.2593129667e+01    0.3674949    0.2986559  31.07  0.001171252    1.290    0.225
       185  -9.6596    168.9634     78.2365   6.3622779159e+01   3.2047255851e+01    0.3636687    0.3022117  49.19   0.00150604    1.214    0.177
       186  -9.8301    189.9143     77.3116   5.9290879015e+01   2.7036356222e+01    0.4869593    0.2569159  38.67  0.001816708    2.447    0.591
       187  -9.8623    156.0728     96.2210   7.1661735196e+01   3.1748348792e+01    0.4072448    0.2339955 -35.45  0.001049596    1.792    0.442
       188  -8.2969     47.4746     78.4648   9.9614906538e+01   5.5858344250e+01    0.1365777    0.1149743 -41.34 0.0001834227    1.033    0.032
       189  -9.5428      5.2431     77.1042   1.1493012125e+02   5.9556612075e+01    0.2364378    0.1833791  69.32  0.001553486    1.589    0.371
       190  -9.5406      3.8502     72.6318   1.1463428619e+02   6.0629138146e+01    0.2504926    0.1180813 -57.72 0.0008805497    1.542    0.351
       191  -9.3046     70.1717     76.2864   9.0790781274e+01   5.3364396276e+01    0.2973205    0.2303759 -20.71  0.001282274    1.354    0.261
       192  -9.3523    248.0306     76.3061   5.0284689430e+01   1.3857076808e+01    0.2543705    0.1107918 -58.10 0.0008989661    3.354    0.702
       193 -10.9743     43.5408     51.7838   9.3121266871e+01   6.1948170719e+01    0.6103299    0.3982475 -29.51  0.003400299    1.412    0.292
       194  -8.7721    204.2747     75.5698   5.6349261346e+01   2.3843031494e+01    0.2041252    0.1370908  47.72 0.0009436187    1.604    0.377
       195 -12.1140     71.2160     68.7353   8.8060997851e+01   5.4802381875e+01     1.651476    0.8712628  46.65   0.00719829    2.329    0.571
       196  -9.7151    166.8534     73.3244   6.2621600632e+01   3.3442810543e+01    0.3536322    0.2287185 -57.42  0.001491489    1.824    0.452
       197  -9.1572    164.4638     68.4963   6.1679285777e+01   3.4874295940e+01    0.2790288    0.2147879 -59.92 0.0006062005    1.436    0.304
       198  -8.2361    220.6709    237.6732   8.8549228590e+01  -6.5664337478e+00    0.1265533   0.07830846   8.10  0.000346528    1.705    0.413
       199 -11.3706    138.3963     69.1730   6.7792349235e+01   4.1151692552e+01    0.6623049    0.4211113  52.42 0.0007330298    1.569    0.362
       200  -9.7442    140.3194     52.1298   6.1770332817e+01   4.3549804789e+01    0.3798105    0.2757106  55.53 0.0007253529    1.340    0.254
       201 -10.7764    147.0436     34.9274   5.4603385666e+01   4.4332833324e+01     1.326805     0.304085  54.32  0.004064669    3.513    0.715
       202 -10.2252    136.3727     42.5990   5.9452072304e+01   4.5937576296e+01    0.5554577    0.3275232 -50.42  0.002395293    2.041    0.510
       203 -11.4731    149.0434     65.9344   6.4238476140e+01   3.9140864666e+01    0.9053985    0.6002416 -33.98   0.00394466    1.537    0.349
       204 -11.4673    141.8655     44.7986   5.8976342435e+01   4.4270743320e+01    0.4732678    0.3592981   9.89 0.0005000376    1.613    0.380
       205 -10.3990    145.4048     48.6914   5.9497441674e+01   4.2820460216e+01    0.4019964    0.2840881  41.79  0.000852055    1.430    0.301
       206 -10.4030    143.6826     58.0449   6.2942346394e+01   4.1781601862e+01    0.3286681    0.2760657  43.29 0.0004206516    1.174    0.148
       207 -12.5545    147.3345     53.8337   6.0755666221e+01   4.1553792606e+01    0.5795708    0.3969436  46.67  0.000267655    1.431    0.301
       208  -9.2969    176.9239     68.9412   5.9338826393e+01   3.1681072398e+01    0.3098764    0.2437766 -60.69  0.001177732    1.360    0.265
       209  -8.9523    220.9981     68.7800   5.2051767388e+01   2.0989363937e+01    0.1886367     0.175007 -84.90  0.001089161    1.084    0.078
       210  -8.8241    248.5037     68.4096   4.8408524139e+01   1.4956741428e+01    0.1341704     0.116683 -53.63 9.335764e-05    1.017    0.016
       211  -9.0402    131.8895     67.0754   6.8754043500e+01   4.3067582189e+01     0.242491    0.1813693  17.78 0.0007530163    1.637    0.389
       212  -8.5306    226.0000     65.9742   5.0662656777e+01   2.0272844621e+01    0.2434459   0.07498137 -34.07 7.915132e-05    3.027    0.670
       213  -8.5078    172.3340    237.3411   9.7577649346e+01   9.8484213737e-01    0.1283083   0.08887067   9.15  0.000705113    1.754    0.430
       214  -9.0409     10.2306     63.7751   1.1036194335e+02   6.2249721732e+01    0.3788064    0.1635926 -44.85  0.001948829    1.848    0.459
       215  -8.7982      6.5906     47.0297   1.0780529133e+02   6.5990950528e+01    0.2107156   0.09755685 -64.70 0.0006709622    2.001    0.500
       216  -9.1567      4.3898     51.1926   1.0984690076e+02   6.5243434306e+01    0.2717847    0.1450705 -39.63   0.00159793    1.539    0.350
       217  -9.1381      8.3564     58.6748   1.0995875008e+02   6.3455535492e+01    0.2200125    0.1353697  50.83  0.001231897    2.414    0.586
       218 -10.2762      3.3161     56.5111   1.1155793877e+02   6.4173826712e+01    0.2686473    0.2606432  82.14  0.001117346    1.334    0.250
       219 -10.0308    167.8621     62.7120   5.9258263043e+01   3.4988082453e+01    0.5309457    0.3707159 -23.35   0.00243583    1.610    0.379
       220 -11.2739    154.6811     44.1278   5.6096458270e+01   4.1160231659e+01    0.7610425    0.5892351  84.31  0.003492272    1.447    0.309
       221 -10.6142    160.9245     52.8767   5.7624693776e+01   3.8293497042e+01    0.5307754    0.3566516 -17.93  0.002269491    1.790    0.441
       222 -10.1812    130.7640     61.7175   6.7278458009e+01   4.4274249780e+01    0.5709578    0.3511683  78.65  0.002093909    2.899    0.655
       223 -10.5341    137.7693     59.2089   6.4712910359e+01   4.3028911985e+01    0.3631261    0.2672969  15.90 0.0004028016    1.713    0.416
       224  -9.2439    207.0651     60.9465   5.2049265720e+01   2.5509444810e+01    0.2930906    0.1913628 -44.61 0.0008177666    1.445    0.308
       225  -9.7065    172.6835     47.5673   5.3821690279e+01   3.6096711729e+01    0.4088586    0.3057939  49.29  0.002047469    1.346    0.257
       226  -9.6340    180.4035     43.6848   5.1383870636e+01   3.4684779778e+01    0.2914634    0.2513851   6.40 0.0007909901    1.404    0.288
       227 -11.7651    183.6805     54.4954   5.3964141493e+01   3.2286077321e+01     1.033462     0.511528 -53.26  0.003963426    2.395    0.582
       228 -10.0630    174.2707     56.6607   5.6241503624e+01   3.4332671987e+01    0.6173547    0.3436133  -8.47   0.00210009    3.450    0.710
       229  -9.3430    234.0464     59.9132   4.8151459359e+01   1.9364546037e+01     0.204786    0.1792979 -59.74            0    1.019    0.019
       230  -9.0590    201.2639     59.8356   5.2626683133e+01   2.7093365870e+01      0.21907    0.1889086 -71.39 0.0006590614    1.143    0.125
       231  -8.8890    212.6081     58.8960   5.0713775314e+01   2.4487912874e+01    0.2930771    0.1415603 -23.59  0.001107922    2.677    0.626
       232 -10.6073    193.8902     54.7815   5.2389756572e+01   2.9683489548e+01    0.5572765    0.3932814  36.05  0.002651322    1.743    0.426
       233  -8.7018     20.9957    232.3221   1.2607225002e+02   2.3502397390e+01    0.1520824    0.1082699  64.63 0.0005322393    1.075    0.070
       234 -10.1341     71.0019     53.0982   8.2758386373e+01   5.7903777322e+01    0.5295587    0.2632948 -42.59  0.002257928    1.900    0.474
       235 -10.5967    133.5114     53.6986   6.3904752240e+01   4.4953259567e+01    0.6566316    0.3882749  -8.73  0.001851107    2.684    0.627
       236  -9.5024    121.2691     35.9440   6.0664199368e+01   5.0484505291e+01    0.6522163    0.2352644  56.04  0.002357447    2.651    0.623
       237 -10.2304    121.1926     54.0128   6.7150220533e+01   4.7795829865e+01    0.5057169    0.3990979 -17.14   0.00256785    1.348    0.258
       238 -10.5256    117.5957     48.9753   6.6335604117e+01   4.9427451284e+01    0.5956165    0.3997036  -1.08  0.002307675    2.008    0.502
       239  -9.9325    117.9048     42.2299   6.3817526551e+01   5.0381615381e+01    0.4323131    0.2894434 -30.72  0.002105368    1.533    0.348
       240  -8.8129     12.3910     56.6159   1.0777240733e+02   6.3662152130e+01    0.2376413    0.1039189  24.40  0.001217254    2.659    0.624
       241  -8.8449    244.1673     55.0967   4.5835519352e+01   1.7835131726e+01    0.1903793    0.1804536  -8.09  0.000534132    1.297    0.229
       242 -10.1260    234.0493     54.9157   4.6952473667e+01   2.0094987057e+01    0.3064829     0.254168 -72.22  0.001791644    1.148    0.129
       243  -9.6625     51.2274     53.2546   9.0473930251e+01   6.0730726085e+01    0.2812116    0.1890417  -8.99 0.0007925913    1.706    0.414
       244 -11.4693     57.9522     48.4821   8.6058281091e+01   6.0733894628e+01     0.625055    0.5667277  26.77  0.003131648    1.268    0.212
       245  -9.8158     63.9997     47.0185   8.3136199044e+01   6.0110302802e+01    0.2689122    0.2313176  -2.74 0.0008999255    1.069    0.064
       246 -10.8393     66.4099     43.0524   8.0674789552e+01   6.0429686251e+01    0.4353423    0.3014089 -42.84   0.00236819    1.483    0.326
       247  -9.3394    238.3559     52.1415   4.5796108001e+01   1.9530838752e+01    0.2091597    0.1769079  60.08 0.0005553336    1.326    0.246
       248  -8.6378      9.8983     52.1841   1.0770512474e+02   6.4741800837e+01    0.1593301    0.1064799 -34.23 0.0004031945    1.304    0.233
       249  -8.8024    212.0181     50.7573   4.8690131265e+01   2.5830289968e+01    0.3399291    0.1625184 -39.90   0.00145389    1.922    0.480
       250  -8.3420    126.6928     51.2581   6.4762260575e+01   4.6961724627e+01    0.1404521    0.1169415 -82.47  0.000527569    1.520    0.342
       251 -10.1365    228.5705     49.8039   4.6367509520e+01   2.2071656234e+01    0.2777643    0.1976521  71.82 0.0002713256    1.443    0.307
       252  -8.2728     16.6174     50.6875   1.0436418337e+02   6.4627845407e+01    0.1339714   0.06959432 -32.19 0.0007022289    1.810    0.447
       253 -10.0266    192.8809     49.4271   5.1063689711e+01   3.0724043867e+01    0.3437846    0.1814115  66.95   0.00145928    1.925    0.481
       254  -9.2062     21.2159     49.0366   1.0185194851e+02   6.4630427298e+01    0.1643812    0.1323308 -39.54 0.0003551389    1.036    0.034
       255  -9.5078    202.6530     47.6930   4.9165865378e+01   2.8548132331e+01    0.2223413    0.1644675  32.53 0.0006339423    1.747    0.428
       256  -9.6679    207.2058     46.0449   4.8106429917e+01   2.7665863514e+01     0.403897     0.183181  62.98  0.001193892    2.157    0.536
       257  -8.5834    187.3117     48.6600   5.1711128990e+01   3.2232526682e+01    0.1561142    0.1051909 -65.95 0.0007045823    1.695    0.410
       258  -9.3000    127.6860     45.4260   6.2480147984e+01   4.7621897010e+01    0.3476591    0.2514402  -5.22  0.001659184    1.669    0.401
       259 -10.0992    249.1874     44.0104   4.2782800986e+01   1.8298575819e+01    0.3176489     0.195308 -29.81 0.0004000717    1.676    0.403
       260 -10.0801    219.7247     42.7954   4.5691531296e+01   2.5108928036e+01      0.32951    0.1991301 -45.79  0.001130171    1.518    0.341
       261  -9.0637     12.6591    231.9474   1.2749523024e+02   2.4426631873e+01    0.2278069   0.08865695  53.55  0.001312649    1.939    0.484
       262  -9.4171     16.7375     44.1919   1.0237956764e+02   6.5933963522e+01    0.1980263    0.1311872 -46.17 0.0002302485    1.187    0.157
       263  -9.2340    190.6694     42.7149   4.9527757239e+01   3.2225656441e+01    0.4048472    0.1913815 -41.17  0.001002443    2.037    0.509
       264 -10.3747    166.0891     53.6849   5.6872656973e+01   3.6862905126e+01    0.7407234    0.3779942 -55.46  0.002658318    2.596    0.615
       265  -8.5232    224.6782     41.6958   4.4841075704e+01   2.4096013913e+01    0.1295851    0.1051709  31.52 0.0006368028    1.635    0.388
       266  -8.3617    197.4120     41.5202   4.8233381752e+01   3.0703682913e+01     0.137656     0.132712  89.45 0.0001178442    1.085    0.078
       267  -9.0465    224.1568     56.1164   4.8461482168e+01   2.2179946178e+01    0.1943577    0.1886783   3.55 0.0004396016    1.227    0.185
       268  -8.7269    235.4456     39.7291   4.3193393237e+01   2.1893050130e+01    0.1764454    0.1262591 -22.53 0.0009463775    1.644    0.392
       269  -9.5183    173.6273     39.4811   5.1247332578e+01   3.6983376387e+01     0.296684    0.2340839  40.21 0.0008367311    1.380    0.276
       270  -8.3042    226.7125    231.6718   8.6475421450e+01  -6.6823919559e+00    0.1240309   0.07888396   4.92 0.0003467469    1.614    0.380
       271  -9.6116    210.9592     17.6687   4.0373103700e+01   3.0352620507e+01    0.3845175     0.183619  59.06    0.0011805    2.047    0.512
       272 -10.4254    212.9051     30.5547   4.3406841337e+01   2.8343222757e+01    0.6180592    0.4531405  32.65  0.003247382    1.864    0.464
       273 -10.5997    215.7904     35.4091   4.4301738874e+01   2.7030053674e+01    0.4369124    0.3952308 -79.76  0.001766277    1.043    0.041
       274  -9.1053    202.2349     37.8901   4.6608108864e+01   2.9996863241e+01    0.2329097    0.1737978  86.08 0.0006089018    1.334    0.250
       275  -9.0295    197.9382     37.3429   4.7029113838e+01   3.1132635626e+01    0.2109182    0.2012043 -12.23 0.0005731577    1.220    0.180
       276  -9.7305    199.7361     33.1041   4.5653824203e+01   3.1236422233e+01    0.3843358    0.2266005 -58.76  0.001512996    1.801    0.445
       277  -8.9160    219.6120    230.8280   8.7621928394e+01  -5.5152891257e+00    0.1457307    0.1124115 -37.42 0.0004366456    1.591    0.372
       278  -9.7489    136.0117    229.7132   1.0370094282e+02   8.1517581224e+00    0.2439074    0.1569077 -23.77  0.001183313    2.685    0.628
       279  -9.0943    202.1181    228.9769   9.0570955652e+01  -2.5562802493e+00    0.1874114    0.1522436  20.44 0.0004047649    1.008    0.008
       280  -9.6010    147.3776     23.9486   5.0892075930e+01   4.5583020562e+01    0.3108866    0.2602272 -48.01  0.001740566    1.290    0.225
       281  -9.5282    146.6690     29.2982   5.2803844847e+01   4.5132896745e+01    0.4699081    0.2743526  66.69  0.001641798    1.686    0.407
       282  -9.0009     41.2267    221.5747   1.2170898424e+02   2.3356870989e+01    0.1779758    0.1258792 -59.52 0.0007617695    1.735    0.424
       283  -9.1303     13.5448    212.4996   1.2631926771e+02   2.8148271896e+01    0.1136713   0.08286186  75.83 0.0001071122    1.004    0.004
       284  -9.7497    179.7719     25.0132   4.6068008367e+01   3.7237986008e+01    0.4691377    0.2604698 -76.12  0.001279054    2.414    0.586
       285  -8.9956    124.0164    205.9821   1.0291327509e+02   1.4576456012e+01    0.1930166    0.1703295  52.14            0    1.005    0.005
       286  -9.4713    233.6735    200.1317   7.9612229370e+01  -3.4045560815e+00    0.2366834    0.1076663 -41.73  0.001076981    2.449    0.592
       287  -9.3973     27.3132    193.4682   1.2237027131e+02   3.0767427216e+01    0.2183112    0.1674986 -85.34  0.001218849    1.146    0.127
       288  -9.4039     32.9440    192.0786   1.2108580192e+02   3.0477938367e+01    0.1780578    0.1314446 -52.07 0.0007387417    1.714    0.416
       289  -9.3666     11.2629    192.5965   1.2556962028e+02   3.2512378412e+01    0.2091059   0.09164298  38.56  0.001156207    2.193    0.544
       290 -11.7715    192.2981     32.4567   4.6452384197e+01   3.3171499945e+01    0.3705634    0.3182035 -39.81 -9.990666e-06    1.201    0.168
       291 -10.6098    245.1749     33.6688   4.0843620515e+01   2.0532264077e+01    0.4881869    0.2784397  70.74  0.002421672    1.794    0.443
       292 -10.5583    235.7601     32.7111   4.1522314517e+01   2.2740482501e+01    0.4336444    0.3719464  18.15  0.001714422    1.634    0.388
       293 -10.2050    238.2041     26.4179   3.9843181614e+01   2.2984363379e+01    0.4860716    0.2510696  56.16  0.002361227    2.156    0.536
       294  -9.7777    135.9341     33.2155   5.6309149254e+01   4.7314452329e+01    0.5411034    0.3041973  22.24  0.001782196    2.731    0.634
       295 -10.3235    219.2440     35.2821   4.3875962858e+01   2.6225053574e+01    0.4225761    0.2314177 -54.83  0.000896493    1.801    0.445
       296  -8.5810      4.4032     33.4647   1.0488133511e+02   6.8801292514e+01    0.1178746   0.08414056 -39.62  0.000210905    1.042    0.041
       297  -9.8851    173.2088     30.6007   4.8667196049e+01   3.8234602161e+01    0.3973787    0.2616912  32.51  0.001516472    1.921    0.479
       298  -9.0995    228.0072     31.0020   4.1894725235e+01   2.4725705187e+01     0.253511    0.1664823 -75.79 0.0007771451    1.539    0.350
       299  -9.7964    227.6014     27.0782   4.1000939685e+01   2.5310197965e+01    0.4022645    0.2345707  45.34  0.001947294    2.262    0.558
       300  -9.8437    203.2370     29.1051   4.4160357461e+01   3.0875225924e+01    0.5025721    0.2579719 -10.78  0.001882061    3.528    0.717
       301  -8.8714    204.4844     21.9957   4.2162868119e+01   3.1424142570e+01     0.238659    0.2124575  33.38  0.001435841    1.387    0.279
       302  -8.6263    201.7195     20.2837   4.2026710594e+01   3.2299411500e+01    0.2208908    0.1762281  58.72 0.0004198914    1.299    0.230
       303 -10.1883    167.6542     29.2098   4.9118309618e+01   3.9820551392e+01    0.2736524    0.2287315  72.90 0.0003473535    1.122    0.109
       304  -9.1085    166.9983     25.4853   4.8086438024e+01   4.0430770873e+01    0.2753966    0.1801883 -55.84  0.001332737    1.687    0.407
       305  -8.1784    220.6248     29.2624   4.2240425747e+01   2.6666620724e+01    0.1428469    0.0886914 -69.97 0.0006981782    1.665    0.399
       306  -8.5898    215.6650    189.6578   8.0940860780e+01   1.1957685199e+00    0.1445109   0.09648517   3.21 0.0007050587    1.760    0.432
       307 -11.1178    128.2144     23.9349   5.4680006548e+01   5.0323356230e+01     1.047632    0.2017339  48.26  0.001161114    4.426    0.774
       308 -10.1879    123.7027     22.6729   5.5207121563e+01   5.1552258803e+01    0.3174963    0.2323336  22.84  0.001017654    1.481    0.325
       309  -8.6745    245.3225    187.3331   7.5087542752e+01  -3.3770786128e+00    0.1364753   0.08787065   0.91 0.0007050207    1.704    0.413
       310  -8.9089    186.5440     26.5000   4.5567482221e+01   3.5350457292e+01    0.2620271    0.1333039 -31.61  0.000939459    2.014    0.503
       311  -9.0662    185.2596     23.6925   4.4949268571e+01   3.6004948902e+01     0.193485    0.1712009  76.45 0.0001616236    1.056    0.053
       312  -8.4008    140.4882     23.4286   5.2003151282e+01   4.7365554133e+01    0.1417572    0.1262982  49.81 7.799851e-05    1.043    0.041
       313  -9.9570     10.5400    185.1081   1.2523056284e+02   3.4196797880e+01    0.3054337    0.2151166   4.35  0.001888289    2.451    0.592
       314  -9.2758     74.7953     18.6531   6.7204466692e+01   6.2568835018e+01     0.238264    0.1808247  44.39 0.0006123817    1.347    0.258
       315  -8.4867     18.3349    182.6776   1.2343158934e+02   3.4022761313e+01    0.1293397    0.0689676  67.23 0.0006229799    1.708    0.415
       316  -8.0225     74.6509     15.6986   6.5911524843e+01   6.2947966490e+01    0.1893961    0.1229692 -17.32 0.0005620113    1.523    0.344
       317 -10.2527    247.5481     19.0681   3.7413176775e+01   2.1823036545e+01    0.5396077    0.1964814  78.67  0.002254982    3.038    0.671
       318  -9.4566    230.4025     20.2205   3.9124668979e+01   2.5494939814e+01    0.3256001    0.2063622 -71.81  0.001763341    1.521    0.343
       319 -10.2974      1.6983    179.1653   1.2667031906e+02   3.6238261257e+01    0.3497351    0.1070299 -78.41  0.001597994    2.605    0.616
       320 -10.6582    189.0126     19.4157   4.3282636305e+01   3.5549784584e+01    0.2587659    0.2176581  60.98 0.0003636759    1.189    0.159
       321  -9.3650    101.0221     18.9154   5.9297370547e+01   5.7187175804e+01    0.1961049    0.1706148  27.15            0    1.021    0.020
       322  -8.8438     80.0082    176.9708   1.0879741679e+02   2.7935427302e+01    0.2102335    0.1634164 -35.63 0.0009654115    1.713    0.416
       323  -8.2095     65.4548    173.4588   1.1181059359e+02   3.0802181209e+01    0.1341497    0.1163443  84.67 0.0001363365    1.010    0.010
       324  -9.3857    198.2512     16.3668   4.1385972007e+01   3.3592811003e+01    0.2372966    0.1951546  39.13  0.001376673    1.465    0.318
       325  -9.8103    246.4888    171.4881   7.1708051777e+01  -1.1822463949e+00    0.2360141    0.1102189 -43.90  0.001031084    2.373    0.579
       326  -9.2038     26.2830    179.5745   1.2147252761e+02   3.3949535042e+01    0.2099382    0.1237749 -58.77  0.001194245    1.764    0.433
       327 -10.8378     32.3951    166.2354   1.1885392469e+02   3.6397348886e+01    0.2378048    0.2250667  76.53 0.0002527189    1.244    0.196
       328  -8.8399    193.9528     14.7449   4.1435109299e+01   3.4831810987e+01    0.2237113    0.1296842 -75.00  0.001018641    1.923    0.480
       329 -10.0027     67.4466     12.9960   6.7189320839e+01   6.4585589673e+01    0.2691672    0.1755426  48.09 0.0006855231    1.611    0.379
       330  -9.1794     46.9848    165.7544   1.1531555949e+02   3.4925109236e+01    0.1623212    0.1079857  36.52  0.000894887    1.628    0.386
       331  -9.4521     18.9783    165.5204   1.2190663297e+02   3.7845229306e+01    0.1639597    0.1150757  38.30  0.001030076    1.585    0.369
       332  -8.5953     13.2676    165.3668   1.2319496442e+02   3.8376947941e+01    0.1189001   0.07554436 -56.99 0.0003454649    1.657    0.397
       333  -9.9626      1.9552    158.8487   1.2525388552e+02   4.0753365965e+01    0.4513069    0.1379343 -85.58  0.001415727    3.153    0.683
       334  -9.5251     22.8013    159.1861   1.2043440166e+02   3.8971485597e+01    0.1685444    0.1295315 -59.38 0.0009589457    1.364    0.267
       335  -9.7736     18.7037    158.6564   1.2135836363e+02   3.9460328482e+01    0.1921015    0.1244842 -48.23   0.00111367    1.825    0.452
       336  -9.6660     28.7012    158.2002   1.1891683770e+02   3.8650459155e+01    0.1901721    0.1708529  57.41 0.0003044805    1.244    0.196
       337  -8.9544    248.6769    154.6908   6.7831434585e+01   1.0769332763e+00    0.1379754   0.09563772   0.25 0.0005807592    1.649    0.394
       338 -10.6085     20.3188    152.0005   1.2033443735e+02   4.0880917695e+01    0.2640533    0.1877515 -77.40  0.001240702    1.145    0.127
       339 -11.2571     14.6629    151.4677   1.2166394285e+02   4.1480788791e+01    0.4354364    0.3442713  65.32   0.00168395    1.237    0.191
       340  -9.8158     35.6756    151.2258   1.1641125804e+02   3.9621017942e+01    0.3644951    0.1894396  61.14  0.001749107    2.140    0.533
       341  -9.7607     30.6909    151.6942   1.1772524973e+02   4.0003255456e+01    0.2661674     0.189337 -61.51 0.0007133991    1.326    0.246
       342  -9.8242     45.3909    150.6994   1.1385299731e+02   3.8711200693e+01    0.2672067    0.1946706 -54.83 0.0005661347    1.388    0.279
       343  -8.9719      7.9669    151.5949   1.2328614389e+02   4.1974805052e+01     0.203686    0.1305586 -70.05 0.0006246527    1.304    0.233
       344  -9.3914     67.4158    148.2250   1.0769386702e+02   3.6587055014e+01    0.2004031    0.1241526 -77.98 0.0009459438    1.659    0.397
       345  -9.4241     45.0396    144.7692   1.1315058561e+02   4.0190382779e+01    0.4051466    0.2118622 -31.65  0.001587847    3.601    0.722
       346  -9.9162     40.2300    146.7226   1.1467962195e+02   4.0235427451e+01    0.3291057    0.2008107 -40.67  0.001404802    2.075    0.518
       347 -10.5077     38.1595    143.0773   1.1475255812e+02   4.1335136497e+01    0.3373861    0.2756632  40.71  0.001232188    1.377    0.274
       348  -9.0313     10.7859    144.3952   1.2195650749e+02   4.3443752280e+01    0.1880803    0.1542748  10.91 0.0006432509    1.677    0.404
       349 -10.2828      6.3204    142.5664   1.2289860831e+02   4.4197877491e+01    0.2581734    0.1740019  87.55 0.0004881324    1.239    0.193
       350 -10.3348      5.2666    147.3266   1.2357236975e+02   4.3163429575e+01    0.2391765    0.1918374 -80.75 0.0005583524    1.086    0.079
       351  -9.5502      1.3618    147.7177   1.2454207841e+02   4.3345176118e+01    0.1647985    0.0839773 -70.31  0.000326573    1.545    0.353
