#   1 NUMBER                 Running object number                                     
#   2 MAG_AUTO               Kron-like elliptical aperture magnitude                    [mag]
#   3 X_IMAGE                Object position along x                                    [pixel]
#   4 Y_IMAGE                Object position along y                                    [pixel]
#   5 X_WORLD                Barycenter position along world x axis                     [deg]
#   6 Y_WORLD                Barycenter position along world y axis                     [deg]
#   7 A_WORLD                Profile RMS along major axis (world units)                 [deg]
#   8 B_WORLD                Profile RMS along minor axis (world units)                 [deg]
#   9 THETA_WORLD            Position angle (CCW/world-x)                               [deg]
#  10 FWHM_WORLD             FWHM assuming a gaussian core                              [deg]
#  11 ELONGATION             A_IMAGE/B_IMAGE                                           
#  12 ELLIPTICITY            1 - B_IMAGE/A_IMAGE                                       
         1 -13.9109      3.2967    104.6501   1.2609495607e+02   5.2762657811e+01     1.697275    0.2389441 -70.47  0.006167647    4.090    0.755
         2 -13.2937    205.7383     34.1433   5.4904185260e+01   2.8927780799e+01     1.299321     1.168645  72.03  0.005982063    1.118    0.105
         3 -13.2365      4.3046      5.3922   1.0487255806e+02   7.3692109142e+01     1.032072    0.5545335 -56.70  0.006310337    1.660    0.397
         4 -13.7964    223.3745     15.7149   4.7657706817e+01   2.6533801652e+01     1.205274    0.9310166  29.63  0.001526863    1.544    0.352
         5 -11.4301    166.8993    243.8581   1.0711353704e+02   5.5542321721e+00    0.2747992    0.1432382  27.09  0.001528367    2.239    0.553
         6 -11.5853    177.1896    249.4374   1.0606929370e+02   3.3727813597e+00    0.5555985    0.1579159  34.37  0.002126444    4.226    0.763
         7 -11.4976    169.5232    248.3786   1.0720046512e+02   4.6330254389e+00    0.3757466    0.1711064  29.80  0.001973299    2.456    0.593
         8 -11.2031    142.8954    248.8415   1.1163929689e+02   8.5168396108e+00    0.3622738    0.1697972  56.61  0.001995021    2.330    0.571
         9 -12.5378    151.6713    246.9082   1.0998418062e+02   7.4644826410e+00    0.5126164    0.3437344  35.11  0.003642377    1.279    0.218
        10 -12.5942    118.9995    237.3403   1.1451565407e+02   1.3536151164e+01    0.6153016    0.3789674  34.23  0.002050368    1.624    0.384
        11 -11.0543    116.4062    249.8150   1.1609846098e+02   1.2184873618e+01    0.4597601    0.1967751  40.36  0.001964998    1.832    0.454
        12 -13.4590    123.1577    247.8269   1.1480631901e+02   1.1498732018e+01     1.271708    0.5079554  44.00   0.00725454    1.815    0.449
        13 -10.8683    110.1069    247.8340   1.1696255655e+02   1.3329701712e+01    0.3513941    0.2032778  45.30  0.002225582    1.278    0.218
        14 -11.5520    100.0027    247.9570   1.1863300420e+02   1.4693076293e+01    0.4963607    0.3145746  40.21  0.003567624    1.393    0.282
        15 -11.7054     89.6419    224.9048   1.1847112946e+02   1.9540953048e+01    0.4426941    0.2737691  48.37  0.003000369    1.256    0.204
        16 -10.1102     90.9841    220.0229   1.1780050099e+02   2.0139571275e+01    0.1920936    0.1388673  46.88 0.0007348735    1.196    0.164
        17 -10.6341     97.2334    239.2793   1.1838447175e+02   1.6312562273e+01    0.2621056    0.1431666  58.14  0.001185064    1.540    0.351
        18 -11.8294     87.6010    248.4716   1.2069377974e+02   1.6262562461e+01    0.6556638     0.236938  42.98  0.002914447    2.030    0.507
        19 -12.2315     88.6771    238.9403   1.1979414887e+02   1.7511636436e+01    0.6199428    0.3677922  75.55  0.004168714    1.802    0.445
        20 -10.9481     82.6057    239.8707   1.2087851043e+02   1.8168509236e+01    0.3354687    0.1707468  59.70  0.001041412    1.659    0.397
        21 -10.6941     84.1480    230.3036   1.1987776904e+02   1.9428551801e+01    0.2078475    0.1791904 -64.46  0.001061074    1.557    0.358
        22 -12.5434    102.9792    238.0392   1.1730815164e+02   1.5705098885e+01    0.5507228    0.3963393  54.27  0.001954109    1.030    0.029
        23 -12.3766    102.1523    230.4151   1.1677161647e+02   1.6955216836e+01    0.7416394    0.3451554  35.90  0.003193656    2.131    0.531
        24 -11.4793     59.8479    245.8679   1.2498060608e+02   2.0092287337e+01    0.5057405    0.2484587  57.37  0.003495706    1.506    0.336
        25 -11.2622     48.5928    216.3133   1.2502736235e+02   2.6125268011e+01     0.617594    0.2219933  61.55  0.003158636    2.686    0.628
        26 -12.9458      2.8781    189.9298   1.3168256884e+02   3.5388636332e+01     1.491579    0.3025999 -81.70  0.006311179    4.425    0.774
        27 -12.9693     31.9656    231.4514   1.2866464791e+02   2.5449788322e+01     1.083273    0.9761286 -15.88  0.009151525    2.187    0.543
        28 -14.9358     25.7840    219.2806   1.2908475228e+02   2.8086384441e+01     1.532043     1.251769 -20.67    0.0115006    2.652    0.623
        29 -10.3274    243.9837    240.4886   9.4275551489e+01  -5.4753971838e+00    0.1367331   0.08280873  52.99  0.000810531    2.587    0.613
        30 -10.8083     74.1207    237.1682   1.2209351585e+02   1.9663343063e+01    0.2661294    0.1453697 -68.02 0.0008766703    2.114    0.527
        31 -12.0352    134.7870    234.5092   1.1151541167e+02   1.1605078535e+01    0.3822631    0.2731256 -65.11  0.002705672    1.832    0.454
        32  -9.1999     48.6837    237.4167   1.2628230704e+02   2.2676782418e+01    0.2019719   0.06007652  45.28  0.001120279    2.291    0.563
        33 -10.0617    129.6161    236.2279   1.1258567464e+02   1.2138305022e+01    0.1214675    0.1066627 -46.21 0.0009443696    1.556    0.358
        34  -9.5186     54.9407    235.4684   1.2515133169e+02   2.2259943327e+01    0.2004015   0.09478902  62.03  0.001291722    1.728    0.421
        35 -11.0127    113.5658    230.7588   1.1481599994e+02   1.5275595339e+01    0.2106299    0.1843088 -78.12  0.001111733    1.385    0.278
        36 -11.2307     68.3187    245.6443   1.2361301549e+02   1.9107082145e+01    0.3603842    0.1971166  88.51 0.0006481955    2.006    0.502
        37 -10.2886    249.7623    230.9758   9.1988655847e+01  -5.4453168437e+00    0.1269668   0.08128043 -16.60 0.0007258977    1.643    0.391
        38 -11.0966    135.8117    240.9683   1.1201752696e+02   1.0576856703e+01    0.1925807    0.1608477  81.82  0.001137497    1.424    0.298
        39 -10.0500    153.8726    229.9764   1.0769407212e+02   9.2986949822e+00    0.1688835    0.1339112  43.77 0.0003512315    1.037    0.036
        40  -9.5844    123.3042    229.7962   1.1301681913e+02   1.3988191082e+01    0.1616331    0.1228587  72.08 0.0006634779    1.381    0.276
        41  -9.5022     56.5639    228.4989   1.2444736074e+02   2.3176643778e+01    0.2010009   0.08990157 -82.32  0.001197033    2.461    0.594
        42 -11.0785     79.1980    225.3495   1.2033839630e+02   2.0863603573e+01     0.310654    0.1849735 -80.08   0.00168721    1.850    0.460
        43  -9.2173     77.4435    220.5603   1.2026052014e+02   2.1870283989e+01    0.1637077    0.1152356  47.68 8.271142e-05    1.223    0.182
        44 -10.6261    136.3974    224.8449   1.1016686038e+02   1.2721551816e+01    0.2720386    0.1598544 -43.33  0.001360557    2.328    0.570
        45  -9.2830     56.4754    250.5134   1.2577755350e+02   1.9800675793e+01     0.175063    0.1075974  53.90 0.0008018708    1.138    0.122
        46  -9.1321     64.9849    224.3278   1.2272821334e+02   2.2835614712e+01    0.2218987    0.1548831 -43.68  0.001478636    2.540    0.606
        47  -8.9572     45.8003    225.2522   1.2605777523e+02   2.4949198831e+01    0.1202907     0.102657  72.29  0.000428292    1.294    0.227
        48 -10.1070     99.0665    223.7915   1.1670420738e+02   1.8411814412e+01    0.1923372    0.1353529  34.87 0.0006474883    1.525    0.344
        49  -9.9700    246.0000    221.0226   9.1037162181e+01  -3.9870773255e+00    0.1582971   0.05900849 -28.71 0.0008075665    2.978    0.664
        50 -10.0305    141.6189    219.7280   1.0863177795e+02   1.2646565395e+01    0.2439608    0.1878766 -55.45  0.001690741    1.636    0.389
        51 -10.3005     71.0743    219.0075   1.2126515855e+02   2.2948773482e+01     0.363956    0.1829418  65.42  0.002162673    1.899    0.473
        52 -10.9818    108.1904    217.4404   1.1444031261e+02   1.8104725836e+01    0.4322867    0.1804607  59.30  0.001662305    2.896    0.655
        53  -8.9242     60.0930    220.5053   1.2330569385e+02   2.4063784851e+01    0.1489128   0.08344168  45.61 0.0003836832    1.455    0.313
        54  -9.7929    116.7121    216.0187   1.1273284952e+02   1.7061333090e+01    0.2710251    0.1817946  26.16  0.001121724    1.915    0.478
        55 -10.0112     87.1413    211.9722   1.1776023018e+02   2.1998935995e+01    0.3334586    0.1820775  76.57  0.001857676    2.221    0.550
        56 -10.6326     62.9745    208.8144   1.2192446379e+02   2.5703292109e+01    0.2919845    0.2264974  46.16  0.001163025    1.308    0.235
        57  -9.7856     65.4398    205.4458   1.2120072773e+02   2.5986911600e+01    0.3457048    0.1070183  44.10  0.001260492    2.477    0.596
        58  -9.6675     58.6897    212.3633   1.2296902113e+02   2.5612423406e+01    0.2059219    0.1087639  54.56 0.0008495264    1.478    0.323
        59 -10.2644     55.6120    209.3605   1.2330335953e+02   2.6502680590e+01    0.3758894     0.157485 -72.40  0.002136335    2.433    0.589
        60  -8.7937    110.7984    211.5533   1.1333736012e+02   1.8665167318e+01    0.1617227   0.08661518  52.02 0.0003719003    1.557    0.358
        61  -9.6382     99.3858    209.7308   1.1527058609e+02   2.0647009958e+01    0.2528171    0.1300775  71.38 0.0007517986    2.680    0.627
        62  -8.5011     74.2707    208.6349   1.1983466547e+02   2.4296797380e+01     0.117193   0.06736428  69.00 0.0006998359    1.660    0.398
        63  -9.6927    106.9056    203.4731   1.1317767006e+02   2.0592046201e+01    0.1918713    0.1633726 -66.07 0.0005599107    1.381    0.276
        64  -9.2403     91.1568    204.6690   1.1630306594e+02   2.2685969750e+01    0.2984659    0.1041599  32.75  0.001139124    4.122    0.757
        65  -8.7170     72.6786    203.2849   1.1966372401e+02   2.5442264476e+01    0.1186386   0.06715257  63.90 0.0004415491    1.595    0.373
        66  -9.3093     74.2778    199.9693   1.1906137016e+02   2.5823786735e+01    0.1760948    0.1412379 -60.64 0.0002800145    1.547    0.354
        67 -13.3704      8.0125    211.3771   1.3168853489e+02   3.1135822748e+01      1.23349    0.7109823 -62.42  0.008922548    2.219    0.549
        68  -9.2070     96.8726    199.1433   1.1462900654e+02   2.2827663943e+01    0.1719726    0.1296674  64.44 0.0002993953    1.141    0.124
        69 -13.7477      5.8644    245.4772   1.3321728727e+02   2.5840663746e+01    0.9791335    0.5058801  57.13  0.007967543    1.272    0.214
        70 -12.0336     52.1008    192.5924   1.2267937729e+02   2.9943969436e+01    0.3946609    0.2773652  56.98  0.001329672    1.166    0.143
        71  -9.8537    250.0050    194.0172   8.5905316683e+01  -1.8732360476e+00    0.1969568    0.1168297  13.55   0.00113692    1.668    0.400
        72 -10.4113     30.6631    193.4065   1.2679435808e+02   3.2152701712e+01    0.1689296    0.1069996 -73.64 0.0006801937    1.558    0.358
        73  -9.7522     25.8372    192.6709   1.2764429929e+02   3.2776739808e+01    0.2037981     0.146112  83.63  0.001119666    1.137    0.121
        74  -9.0555     21.9700    193.0460   1.2837815480e+02   3.3087244282e+01    0.1323314    0.1152892 -69.59 0.0003723068    1.533    0.348
        75  -9.8242     19.1768    188.8202   1.2865660103e+02   3.4138205687e+01    0.3361732    0.1287722 -89.74  0.001349892    2.488    0.598
        76  -9.3340    191.7056    191.6938   9.5432262128e+01   8.2172270501e+00     0.155451    0.1354215  52.16  0.000566913    1.287    0.223
        77  -8.5923     72.5939    192.7464   1.1870977127e+02   2.7361154587e+01    0.1014214   0.08971124  11.48 0.0006948212    1.717    0.418
        78  -8.3311     38.6103    192.2802   1.2522977079e+02   3.1523840854e+01    0.1198875   0.05869789  62.01 0.0007000918    1.741    0.425
        79 -13.8556     26.5084    247.3807   1.3022179737e+02   2.3542831490e+01      1.88969    0.6982126  33.49   0.01070558    3.267    0.694
        80 -10.4320      9.9499    187.0327   1.3026670434e+02   3.5314218214e+01    0.2458533       0.1158  85.27  0.001550057    1.774    0.436
        81 -10.5877     70.9299    187.0508   1.1848644305e+02   2.8644320808e+01    0.2384816    0.1424558  43.77            0    1.507    0.336
        82 -11.8439     58.8130    185.0980   1.2072718470e+02   3.0553065879e+01    0.2186128    0.1885092  79.55 0.0004233066    1.155    0.134
        83  -9.1026     29.4222    184.4586   1.2645273800e+02   3.3958852644e+01    0.2578897    0.1484604 -58.45  0.001331808    2.094    0.522
        84  -8.6590    107.4533    185.5147   1.1091536404e+02   2.3670132756e+01    0.1248072    0.1040388  61.44 0.0001261716    1.020    0.020
        85  -9.9724     36.9342    180.3070   1.2469150483e+02   3.3978601447e+01    0.2232129    0.1391705 -71.22 0.0006637048    1.556    0.357
        86  -8.5310     65.6653    181.7347   1.1902708753e+02   3.0341853624e+01   0.09826196   0.09307351 -11.98  0.000288116    1.585    0.369
        87  -9.3319     27.0516    179.4185   1.2657786502e+02   3.5162959106e+01    0.1750115     0.121727 -78.31 0.0006483647    1.344    0.256
        88  -9.6241     80.9563    178.5566   1.1553605225e+02   2.8911710158e+01    0.1878524    0.1577569 -58.37 0.0003135023    1.424    0.298
        89  -8.6811     12.3074    178.3433   1.2937083696e+02   3.6747568074e+01   0.09542822   0.07211161 -60.05 0.0007043256    1.692    0.409
        90  -8.8654    111.2841    177.6402   1.0907684957e+02   2.4515251663e+01    0.1753229     0.109747  36.35 0.0009392929    1.618    0.382
        91 -10.8526     70.3874    173.2362   1.1716384175e+02   3.1391867735e+01    0.2212632    0.2121136  88.42 0.0005001755    1.294    0.227
        92 -11.6131    248.3625    172.4151   8.2187555276e+01   7.9902344098e-01    0.4579014    0.3005085   7.57   0.00266771    1.501    0.334
        93 -11.9057      9.9394    156.8412   1.2857394659e+02   4.1191615253e+01    0.6788555      0.21268  73.82  0.002654437    4.360    0.771
        94 -11.3029     12.3445    153.3893   1.2783557784e+02   4.1697461868e+01    0.3164733    0.1422919 -84.65  0.001363143    1.864    0.464
        95 -11.8744     11.6227    171.3320   1.2910903040e+02   3.8164198697e+01    0.9566363    0.2255659  58.65  0.003840686    4.357    0.770
        96 -11.7884     12.1831    167.1961   1.2875354920e+02   3.8929201448e+01    0.3560556    0.2097337  32.92   0.00239585    1.934    0.483
        97 -11.2798      9.6046    164.2124   1.2909624090e+02   3.9739067651e+01    0.2787905    0.1707226 -61.36  0.001889822    1.805    0.446
        98 -10.4252     55.0770    172.2409   1.2029409680e+02   3.3519448649e+01    0.2516713    0.1805313  72.59  0.000667474    1.185    0.156
        99  -9.4544     51.6402    171.2684   1.2092404451e+02   3.4121059987e+01    0.1988921    0.1243545  62.90 0.0004959524    1.402    0.287
       100 -10.9818      2.4034    172.1050   1.3094883636e+02   3.8780764728e+01    0.2988971    0.1289504  67.26  0.001055609    1.934    0.483
       101 -11.8393     39.0282    167.8607   1.2327149468e+02   3.6217119419e+01    0.2521351    0.2148718 -70.04 0.0003759969    1.355    0.262
       102  -9.8901     17.9321    172.1767   1.2790936175e+02   3.7439442859e+01    0.1760493    0.1106772  68.28  0.001221834    1.268    0.211
       103  -9.6765     91.6084    168.4383   1.1202454346e+02   2.9353507441e+01    0.2181699    0.1648497  56.72 0.0005308019    1.170    0.146
       104 -11.9554     78.8327    164.9482   1.1437045785e+02   3.1905821360e+01    0.5364388    0.4302067  42.90   0.00345865    1.296    0.228
       105 -12.1222    245.3460    162.3875   8.0708271320e+01   2.5133104698e+00    0.5723205      0.25761 -39.64  0.002627119    2.634    0.620
       106 -10.9340    249.5696    161.2780   7.9812659151e+01   1.9133721963e+00    0.3272187    0.2169534 -21.54  0.001911494    1.436    0.303
       107 -10.9809    247.9953    157.4997   7.9301481381e+01   2.6475343339e+00    0.3130321    0.1633087  41.41  0.001601659    1.808    0.447
       108  -9.8110     68.1111    166.1443   1.1686232659e+02   3.3115037658e+01     0.183425    0.1468688  76.04 0.0004720266    1.063    0.059
       109  -9.9781     27.2537    171.4971   1.2598920860e+02   3.6693399399e+01    0.2433359     0.171821 -59.29 0.0009678343    1.687    0.407
       110 -10.0849     24.0709    162.0896   1.2596089699e+02   3.8885301293e+01    0.1550596    0.1314047 -81.61 0.0005398036    1.254    0.202
       111  -9.2189     66.9536    161.4442   1.1657483143e+02   3.4227689054e+01    0.1681909    0.1102789  42.70 0.0003140723    1.488    0.328
       112 -10.5481     82.5303    157.7133   1.1260250211e+02   3.2861045456e+01    0.3817729    0.2304688  53.11  0.002080965    1.544    0.352
       113 -11.0533     21.8300    156.2049   1.2599603178e+02   4.0294878413e+01     0.312746     0.165289 -75.32  0.001914912    1.608    0.378
       114 -10.2810     26.2526    155.1236   1.2495020106e+02   4.0108038735e+01    0.2479737    0.1237532  45.17 0.0008988805    1.852    0.460
       115  -8.5985    228.4418    155.4626   8.2103863186e+01   6.4620213470e+00    0.1310555     0.114776  12.28 0.0001113659    1.043    0.041
       116 -10.5467     32.1504    153.7911   1.2353726871e+02   3.9814144985e+01    0.2259336    0.1868037 -66.03  0.000457185    1.355    0.262
       117  -8.8961     47.3138    154.2743   1.2018502583e+02   3.8107647340e+01    0.1045439   0.08907974 -45.83 0.0002204341    1.560    0.359
       118 -11.2395    249.3728    151.0042   7.7751413362e+01   3.2061728650e+00     0.331341    0.2712552 -14.57  0.002096087    1.157    0.135
       119  -9.2237     54.2285    151.6463   1.1832108428e+02   3.7862157085e+01    0.2056768    0.1292237 -53.19 0.0007725043    1.804    0.446
       120 -11.1561    240.8412    150.4946   7.9010397263e+01   4.8161813931e+00    0.2621632     0.198002   6.75  0.001300979    1.240    0.194
       121 -10.8120     93.0263    149.9363   1.0905716915e+02   3.2905772161e+01    0.2725225    0.2622819  69.08 0.0009316945    1.159    0.137
       122 -11.0502     23.5729    150.0400   1.2512579879e+02   4.1414827596e+01    0.3145887    0.1502853  52.51  0.001804437    1.915    0.478
       123  -8.4949     47.6561    150.3147   1.1968647823e+02   3.8905278230e+01    0.1292535   0.07489308  68.19 0.0007047696    1.712    0.416
       124 -10.2723     80.9155    148.4506   1.1167634672e+02   3.5032442461e+01    0.2326087    0.2022479  79.97 0.0007568764    1.011    0.011
       125 -11.9137     68.3517    143.9060   1.1402427612e+02   3.7744018722e+01    0.6164427    0.3748653  73.70  0.002425961    1.845    0.458
       126 -13.5119      6.5536    143.3002   1.2841490218e+02   4.4241773819e+01    0.7326723    0.5351824 -86.18  0.005425667    1.103    0.093
       127 -12.0451    243.9567    121.0171   7.2057505042e+01   8.1321918696e+00    0.5423961    0.3375271 -49.16  0.002607087    2.103    0.524
       128 -11.4851    239.2965    120.2416   7.2606784689e+01   9.1692772358e+00    0.5113534    0.2275254 -18.47  0.001940473    2.860    0.650
       129 -12.0464    247.9692    142.3405   7.6149002511e+01   4.5540478183e+00     0.523764    0.4277757  -1.37  0.003242473    1.071    0.066
       130 -12.9240    248.2375    134.7148   7.4458894755e+01   5.4880310018e+00     1.356858    0.4754942 -25.74  0.005182458    2.982    0.665
       131  -8.9195     96.5598    146.0275   1.0760641080e+02   3.3168205075e+01    0.1848861    0.1249823 -62.12 0.0003650726    1.484    0.326
       132  -9.9152    133.0844    140.9831   9.8162311473e+01   2.7780708683e+01     0.308511     0.200616 -59.02 0.0009861577    1.716    0.417
       133  -9.4476     44.8037    139.8221   1.1918478202e+02   4.1474955580e+01    0.1734707     0.120268  74.34 0.0005064014    1.338    0.252
       134 -12.7622     16.0691    120.9438   1.2430134908e+02   4.8296640056e+01    0.5760035     0.255047  85.28  0.002822501    2.396    0.583
       135  -9.4522    235.9684    146.0099   7.8864260369e+01   6.3128192251e+00    0.2114386    0.1417321  13.08 0.0004886784    1.596    0.373
       136  -9.8578    106.7827    135.6408   1.0334080083e+02   3.3663180824e+01    0.3342929    0.2496246  -4.16  0.001614281    2.254    0.556
       137  -8.9484     93.4543    133.4025   1.0621200042e+02   3.6353223195e+01    0.1315049    0.1226323  80.47 0.0001993274    1.042    0.041
       138  -9.9318     44.2688    130.0066   1.1813045272e+02   4.3684108477e+01    0.1737116    0.1345577 -82.96 0.0004570329    1.097    0.088
       139  -9.3071     58.8312    127.8290   1.1410464432e+02   4.2487341661e+01    0.1734497     0.130778  77.85 0.0003721986    1.285    0.222
       140 -11.6939     13.8832    127.7990   1.2549015725e+02   4.6973492504e+01    0.1942847    0.1664582  -5.78  0.001425611    1.718    0.418
       141 -12.4248      3.1425    132.8987   1.2846848425e+02   4.6673089723e+01    0.4536308    0.2552129  78.61  0.001732058    1.506    0.336
       142  -8.8341     41.2704    123.3592   1.1804801600e+02   4.5477567422e+01    0.1536035    0.1044416  48.55 0.0008167652    1.505    0.336
       143  -8.4583    104.6569    122.7524   1.0135185033e+02   3.6782592392e+01    0.1310482    0.1110383   2.17 0.0002643441    1.571    0.364
       144  -8.6408     50.3202    122.6592   1.1557353138e+02   4.4649764574e+01     0.133115   0.08416635  73.66 0.0007049994    1.717    0.418
       145 -10.0711    249.7909    117.7715   7.0427991125e+01   7.4174845762e+00    0.2486378    0.2153745 -19.74 0.0008158517    1.105    0.095
       146 -12.3435    247.5545    112.5271   6.9551166468e+01   8.5606273952e+00    0.6207632    0.5345491  11.01  0.003009312    1.097    0.089
       147 -11.0068    248.8787    105.2920   6.7659696395e+01   9.2657887464e+00    0.4219908     0.239188  42.26  0.002045345    1.831    0.454
       148 -12.5417    248.6744     99.5910   6.6334115206e+01   1.0073459373e+01    0.6950358     0.518186  -1.80  0.003784135    1.385    0.278
       149  -9.2160    168.0085    113.0413   8.4055241546e+01   2.5862853813e+01    0.2451839    0.1887194 -84.09  0.001132458    1.834    0.455
       150 -12.6876     13.1674    101.1994   1.2296911889e+02   5.2879397583e+01    0.5265461    0.3869367  17.42  0.003576197    1.804    0.446
       151  -9.8553     29.5278    108.5002   1.1925869582e+02   4.9943270240e+01    0.2200848   0.08042401 -59.53  0.000569207    2.238    0.553
       152 -13.3174      8.7435    111.7929   1.2531607535e+02   5.0841018445e+01    0.7545736    0.2418884 -76.88  0.003461312    2.542    0.607
       153 -10.7825    231.9159    116.5981   7.2937062537e+01   1.1191851776e+01     0.242404    0.1836689 -11.61 0.0007811792    1.296    0.228
       154 -10.8995     74.0832    244.4151   1.2260126514e+02   1.8576789384e+01    0.2515794    0.2077219 -82.60  0.002145346    1.449    0.310
       155  -9.5051    161.4605     79.5025   7.6372502602e+01   3.3465821745e+01     0.151621    0.1501793  -3.59 0.0002008768    1.016    0.016
       156  -9.6174     32.6420    115.6783   1.1934416078e+02   4.8047099432e+01    0.1213013   0.08189177 -43.82 0.0001061389    1.767    0.434
       157 -11.0754    198.1399    245.7656   1.0222059834e+02   6.5229149546e-01    0.1982439    0.1431448  33.74  0.001033584    1.010    0.010
       158 -12.0032    180.4151    243.5510   1.0483818419e+02   3.5487520064e+00    0.4285547    0.1633772  36.69  0.002220008    2.129    0.530
