#   1 NUMBER                 Running object number                                     
#   2 MAG_AUTO               Kron-like elliptical aperture magnitude                    [mag]
#   3 X_IMAGE                Object position along x                                    [pixel]
#   4 Y_IMAGE                Object position along y                                    [pixel]
#   5 X_WORLD                Barycenter position along world x axis                     [deg]
#   6 Y_WORLD                Barycenter position along world y axis                     [deg]
#   7 A_WORLD                Profile RMS along major axis (world units)                 [deg]
#   8 B_WORLD                Profile RMS along minor axis (world units)                 [deg]
#   9 THETA_WORLD            Position angle (CCW/world-x)                               [deg]
#  10 FWHM_WORLD             FWHM assuming a gaussian core                              [deg]
#  11 ELONGATION             A_IMAGE/B_IMAGE                                           
#  12 ELLIPTICITY            1 - B_IMAGE/A_IMAGE                                       
         1 -11.9066      5.7928     30.5905   1.1098504442e+02   6.7895225171e+01    0.6332976    0.4367829 -39.47  0.003044683    1.367    0.269
         2 -11.0181     10.0899     15.4603   1.0320163546e+02   6.9656641225e+01    0.2343303    0.1383573  -6.67 0.0006161108    1.498    0.333
         3 -11.7037      4.0774     17.9459   1.0707335320e+02   6.9847895338e+01    0.3949908    0.2471594 -12.64  0.002239384    1.279    0.218
         4 -11.6261    129.5062     24.7706   6.8643483046e+01   4.8596523771e+01    0.4207962    0.2775648 -40.18   0.00194839    1.726    0.421
         5 -11.1782     84.6872     20.5410   7.7545552436e+01   5.8300266845e+01    0.4803037     0.256299  37.01  0.002596103    1.687    0.407
         6 -11.9050     60.9735     23.1790   8.5719759454e+01   6.2207213215e+01     0.467659    0.3093823 -53.61  0.002529231    2.810    0.644
         7 -11.8932     20.8090     18.5180   9.9537140234e+01   6.8201365621e+01    0.4076115    0.3942999  44.18  0.001997266    1.922    0.480
         8 -10.1162     34.8841     16.1254   9.2571485853e+01   6.6816157754e+01    0.3545657    0.1863024 -14.97  0.002030704    2.030    0.507
         9 -10.5957    167.1547     16.1905   6.0370342973e+01   4.1039839574e+01    0.3276844    0.1741143  88.48  0.001596436    2.166    0.538
        10 -10.1695     91.0822      7.1942   7.1279933862e+01   5.8272134143e+01    0.3221728     0.148862  55.79  0.001697996    1.814    0.449
        11 -11.2260     75.9598     15.0530   7.8016811505e+01   6.0455261737e+01    0.4072237    0.2503135  -1.30  0.001843648    1.911    0.477
        12 -11.8990     70.4701     14.5465   7.9437626199e+01   6.1486696533e+01    0.3277404    0.2100135  -9.02  0.001304165    1.697    0.411
        13 -12.1957     81.2505      6.8168   7.3587866550e+01   6.0197740664e+01    0.4942516    0.2617162  33.76  0.002793221    1.746    0.427
        14 -10.4368     64.5111     13.9705   8.1051847503e+01   6.2573250537e+01    0.2478811    0.1386388  12.78 0.0008253136    2.143    0.533
        15  -9.8044     50.9488     11.0416   8.4412743863e+01   6.5057314015e+01    0.2133891    0.1208138   7.92 0.0008537864    1.997    0.499
        16 -10.4691    100.3864     12.9346   7.1046015894e+01   5.5924763010e+01    0.2500079    0.1747877  15.80  0.001531263    1.617    0.381
        17 -10.5883     55.0847     13.3900   8.3920349103e+01   6.4179539764e+01     0.207084    0.1688148  23.20 0.0006714598    1.100    0.091
        18 -10.7279     26.3900     13.9729   9.5218664286e+01   6.8117957735e+01     0.191962    0.1276785   5.18 0.0003168191    1.251    0.201
        19 -10.4245     10.9743      9.9346   1.0046747181e+02   7.0256539053e+01     0.371501     0.235238  37.75  0.002505322    2.197    0.545
        20 -11.8405     22.9755      7.8741   9.4094810056e+01   6.9200350252e+01    0.4085013    0.3810426  -5.23  0.002714384    1.677    0.404
        21 -13.0697     31.9745      2.0606   8.7758045264e+01   6.8649725520e+01    0.2823429    0.1590956  31.88 0.0006044799    1.470    0.320
        22 -10.9752     27.0349      3.4824   9.0421273195e+01   6.9157647961e+01    0.2520847    0.1575508  12.28  0.001217234    1.334    0.250
        23 -12.2360     12.0171      2.2719   9.6596656515e+01   7.1017893129e+01    0.5881491    0.3184084  14.22  0.002526921    1.622    0.383
        24 -11.1004     16.9663      1.6570   9.4019204604e+01   7.0544494844e+01    0.1789472    0.1213314  13.08  0.001345318    1.138    0.121
        25 -10.7930    118.1303     11.9128   6.7023250886e+01   5.2305783432e+01    0.2543416    0.2127758 -40.51 0.0009543012    1.422    0.297
        26 -11.8955    115.9782      3.1058   6.4776432241e+01   5.3489121784e+01     0.407881    0.1981158 -25.10 0.0003926413    2.449    0.592
        27 -11.4252     74.1744      7.0679   7.5580799941e+01   6.1488516232e+01    0.2543108    0.1842031  -5.90 0.0003198022    1.469    0.319
        28  -9.7375      5.0972     11.6600   1.0402693870e+02   7.0585421582e+01    0.1512705    0.1014953  -2.94  0.001125665    1.148    0.129
        29 -10.4680     59.7260     10.3394   8.1172721625e+01   6.3717405236e+01    0.2037828    0.1525192  44.68 0.0006391566    1.341    0.254
        30  -9.9832    108.0666      9.5170   6.8286168404e+01   5.4637075096e+01     0.210495    0.1690984   4.74  0.001413201    1.429    0.300
        31 -10.1260    128.1426      8.8744   6.4315336645e+01   5.0406555182e+01    0.1807016     0.147616  87.54 0.0005348771    1.286    0.222
        32 -10.0888    178.6255      8.7114   5.7221746347e+01   3.9228524992e+01    0.1212511   0.07814999  49.55 0.0007020063    1.723    0.420
        33 -10.1978    123.3333      7.6355   6.4795905520e+01   5.1553431890e+01    0.2565089     0.134424  37.32  0.001334206    2.092    0.522
        34 -10.3223    228.8705      5.5457   5.1883480832e+01   2.8866257123e+01    0.2116641    0.1264801 -71.88 0.0004224703    1.403    0.287
        35 -10.0923    176.7067      4.4318   5.6471697383e+01   4.0061218977e+01    0.1762128    0.1410215  29.06 0.0009791757    1.762    0.432
        36  -9.6259    146.3260      4.3050   6.0239000375e+01   4.6798865606e+01    0.1223666   0.07648534  44.95 0.0002191271    1.646    0.393
        37  -8.9630    139.3129      1.6868   6.0558650737e+01   4.8558227999e+01    0.1175664   0.08179516 -77.13 0.0004528169    1.635    0.389
        38 -10.0130    217.5298     16.5084   5.4902087060e+01   2.9979433260e+01    0.2010995   0.08634612  61.60 0.0009630907    2.206    0.547
        39 -10.8798    250.4280    245.8568   9.5649152135e+01  -1.4184561779e+01    0.4245989    0.1329739 -37.41  0.001865838    2.889    0.654
        40  -9.9806     72.6284    250.0758   1.3211023013e+02   1.1776487852e+01    0.1976344    0.1780863  -6.99  0.001261238    1.629    0.386
        41 -11.7837     27.8999    246.9665   1.4049664503e+02   1.8247871432e+01    0.8014573    0.3424705  83.87  0.003643649    2.726    0.633
        42 -13.4001     20.0750    248.4256   1.4203532043e+02   1.8838899945e+01     1.457523    0.7258723  70.44   0.00802674    1.838    0.456
        43 -12.7920      5.8830    244.9188   1.4434376678e+02   2.1091215821e+01    0.9651682    0.4099508 -77.27  0.005029587    1.999    0.500
        44 -11.2363    235.3317    216.6986   9.3182302611e+01  -7.6325493930e+00    0.3528596    0.1859126 -28.46  0.001720766    1.892    0.472
        45  -9.6075    174.0180    220.0000   1.0603146561e+02   1.4910128211e+00    0.2311651   0.07642704  38.18 0.0007997774    2.924    0.658
        46  -9.4192    249.3178    227.2997   9.2596368732e+01  -1.1256262964e+01    0.1262705   0.08121907  -8.33 0.0004006853    1.617    0.382
        47 -10.7930      9.5553    216.9977   1.4175264464e+02   2.6768113236e+01    0.2861468    0.1701748  73.01  0.001031253    1.481    0.325
        48  -9.5636     38.1791    217.5857   1.3594623774e+02   2.3509177765e+01    0.1532072     0.125647  25.28 0.0005664476    1.594    0.373
        49 -10.4048     31.1514    215.8064   1.3725522186e+02   2.4743524472e+01    0.2349674    0.1795011  41.92  0.001459625    1.424    0.298
        50  -9.8014    194.5347    215.5005   1.0090091537e+02  -1.0982793975e+00    0.1379662    0.1256759  -4.95 -1.166358e-05    1.003    0.003
        51  -9.4181    136.9566    216.0000   1.1353485398e+02   8.7889814665e+00    0.2373755   0.07880066  38.14 0.0007945726    2.888    0.654
        52 -10.7492    241.5357    211.6709   9.1130053568e+01  -7.6627077626e+00    0.2725637    0.2361558 -64.93  0.001694466    1.673    0.402
        53  -9.7481    170.3004    213.3264   1.0563419195e+02   3.4748420637e+00     0.145383    0.1089685  -8.49 0.0003936372    1.637    0.389
        54 -11.0143     21.3846    212.3737   1.3898073578e+02   2.6613036558e+01    0.3486723     0.178814  62.01  0.001784719    1.915    0.478
        55 -10.1819    208.9713    212.0777   9.7346514843e+01  -2.8146441213e+00    0.2062709    0.1816388  -9.34 0.0004749963    1.026    0.026
        56  -9.9732      2.2938    212.3320   1.4283799845e+02   2.8512111750e+01    0.1720967    0.1626585  81.76 0.0005067646    1.352    0.260
        57 -12.0176      5.3075    207.9413   1.4190785325e+02   2.9231028261e+01    0.6512582    0.2877482  84.98  0.003081409    2.286    0.563
        58 -11.3964     18.6772    202.8550   1.3870080215e+02   2.9112158368e+01    0.4136404    0.2317079 -62.76 0.0008519265    1.632    0.387
        59  -9.8780    223.0726    201.2229   9.2550650421e+01  -3.0602467143e+00    0.3270394    0.2199312 -76.40  0.001315309    3.597    0.722
        60 -10.2074    175.3078    202.6893   1.0256589552e+02   4.7807865932e+00    0.2327597    0.2183673  75.79 0.0005554186    1.234    0.190
        61  -9.6412     34.6119    201.0704   1.3504125487e+02   2.7817517748e+01    0.1811239    0.1415686 -79.12 0.0005382939    1.104    0.094
        62  -9.4248    227.1390    196.8486   9.0945072395e+01  -2.8979663546e+00    0.1896939     0.145733  -9.66 0.0006956574    1.350    0.259
        63  -9.7214    203.8727    195.4909   9.5180309158e+01   1.2007894230e+00    0.3610724    0.1331974  31.83  0.001196122    3.631    0.725
        64  -9.6705    215.4758    194.5356   9.2705000819e+01  -5.7621033369e-01    0.1400026    0.1231874 -18.81 -2.837462e-06    1.035    0.034
        65 -10.5231    187.2289    190.5387   9.7634061131e+01   5.1548720190e+00    0.3231671   0.09957752 -37.22 0.0008876588    4.416    0.774
        66  -9.3212    245.6825    190.6762   8.6436466458e+01  -4.6224888199e+00    0.1348298   0.09179683 -12.91 0.0006369043    1.670    0.401
        67  -9.1895      1.5247    188.4464   1.4111936546e+02   3.4090934699e+01     0.124048    0.0960487 -86.49 0.0001975969    1.007    0.007
        68 -11.1387     15.9173    182.5603   1.3735467083e+02   3.4225634689e+01    0.4057918    0.2146248  83.94  0.001973585    1.986    0.496
        69  -9.9707    167.0054    183.5001   1.0063333690e+02   1.0453842403e+01    0.2270455    0.1488203  40.29 0.0006581903    1.554    0.356
        70  -9.8240     58.6734    182.3123   1.2701609666e+02   2.9458100467e+01     0.148214   0.09902672  72.08 0.0007041731    1.664    0.399
        71  -9.6761      1.9708    180.2947   1.4030609374e+02   3.5981161737e+01    0.1679661    0.1392273  88.89 0.0006028351    1.088    0.081
        72 -10.1452    244.2579    178.3934   8.4300603213e+01  -2.1967813575e+00    0.2538572    0.1382942 -33.10  0.001191711    1.716    0.417
        73 -10.8397    224.2418    178.3526   8.7831910182e+01   1.0619165278e+00    0.2520117    0.2200543 -49.39 0.0004644981    1.182    0.154
        74  -9.0934     36.4385    178.4868   1.3200686673e+02   3.3130967147e+01    0.1361965    0.1141139 -80.06 0.0003418691    1.011    0.011
        75 -10.1932    200.1659    176.8068   9.2163614428e+01   5.6301500625e+00    0.2037748    0.1671009 -12.93 0.0005781095    1.332    0.249
        76  -9.7202     70.1912    177.5936   1.2339048672e+02   2.9047714325e+01    0.1778703    0.1432622  15.67 0.0005042824    1.571    0.364
        77  -9.7294     46.4791    177.4490   1.2938331511e+02   3.2225970628e+01     0.138752    0.1199008 -81.15 0.0001800235    1.005    0.005
        78 -10.9718     18.2488    173.1177   1.3579414162e+02   3.6305566981e+01    0.4292904    0.1941778  63.94  0.001785591    2.941    0.660
        79  -9.3438     75.0151    170.9927   1.2105734608e+02   3.0009876683e+01    0.2346072    0.1711263 -31.35  0.001118263    1.739    0.425
        80  -9.1602    210.3000    166.2981   8.7981814377e+01   5.9123837430e+00    0.1430424    0.1099917 -10.43 0.0003407045    1.577    0.366
        81 -10.7847     36.6667    166.1351   1.3032498612e+02   3.6185838574e+01    0.3639008    0.1860004  48.98  0.001675122    2.170    0.539
        82 -10.7814     36.9704    162.0228   1.2967089689e+02   3.7182142156e+01    0.3695483    0.1708923 -50.19  0.001620289    2.081    0.519
        83 -11.2972     36.9187    157.8446   1.2908164628e+02   3.8233673995e+01    0.2352556     0.178218 -71.07 0.0003123654    1.134    0.118
        84  -9.7676     67.1767    165.1479   1.2214187895e+02   3.2629167660e+01    0.2044192    0.1626604  78.19 0.0007311155    1.339    0.253
        85 -10.7730     51.7633    163.5452   1.2598966961e+02   3.5080008493e+01     0.343704    0.2101244 -58.18  0.001655269    1.449    0.310
        86 -10.4597     48.0363    159.8076   1.2640175267e+02   3.6478524586e+01    0.2598936    0.2175844 -72.29  0.001245446    1.048    0.045
        87 -10.5470     44.6565    162.8732   1.2777075976e+02   3.6105184831e+01    0.3417406    0.1549369 -71.09   0.00140572    2.138    0.532
        88  -9.6075    200.5552    162.7431   8.9136035572e+01   8.4745095318e+00    0.1985688    0.1343546 -53.71 0.0004830349    1.503    0.335
        89 -10.2272    247.4973    158.5033   7.9845375842e+01   9.4474321132e-01    0.1355093    0.1138046 -44.02 0.0008100017    1.058    0.055
        90  -9.8463    238.6192    158.6800   8.1332000849e+01   2.3871997908e+00    0.1402017    0.1020931  -8.47 0.0003133907    1.827    0.453
        91 -11.3223     22.3773    156.5328   1.3274219754e+02   4.0004907067e+01    0.4191448    0.3965517  63.42  0.002620369    1.216    0.178
        92  -9.0827    147.5026    156.4986   9.9459463410e+01   2.0509740008e+01    0.1571363    0.1512517 -70.86 0.0008104592    1.034    0.032
        93 -10.3349     12.0102    153.2298   1.3502056239e+02   4.1705405490e+01    0.2778883     0.174421   2.59  0.001480405    2.343    0.573
        94 -10.3515    178.2163    151.5593   9.1324392603e+01   1.5316545707e+01    0.2778085    0.2084018 -47.28 0.0005672207    1.268    0.211
        95 -10.8251     18.3250    146.5592   1.3248004181e+02   4.2813665130e+01    0.2799154    0.1936062 -13.74  0.001130228    1.993    0.498
        96  -9.9287    207.0256    146.0769   8.4294015202e+01   1.0666162139e+01    0.2245565     0.207529 -47.16 0.0006944993    1.015    0.015
        97 -10.1520     41.2105    146.2229   1.2609820315e+02   4.0673141708e+01     0.193629    0.1671555 -56.94 0.0003792281    1.075    0.070
        98 -10.8553     12.4348    145.6966   1.3395264064e+02   4.3504082711e+01    0.4279751    0.1917473 -86.81  0.000961459    2.830    0.647
        99  -9.8859     49.6179    141.6944   1.2292177528e+02   4.0837057021e+01    0.2735789    0.1801695 -35.56 0.0009773787    1.710    0.415
       100  -9.5844    239.9705    140.7777   7.7478451613e+01   5.5383336755e+00    0.1585799    0.1150128  48.76 0.0004868969    1.615    0.381
       101 -10.4795     16.2485    139.7758   1.3210208330e+02   4.4638398384e+01    0.2695449    0.1240937   4.84  0.001097661    3.779    0.735
       102 -10.0792     56.9797    138.1500   1.2012175533e+02   4.0805625492e+01    0.4238109    0.2572836  78.52  0.001708282    2.713    0.631
       103  -9.6380    236.5563    138.5190   7.7558505565e+01   6.5758146178e+00    0.1392628    0.1191682 -44.87 0.0001802897    1.027    0.026
       104  -9.1984     87.7574    138.0043   1.1114720330e+02   3.6308808674e+01    0.1883855    0.1218064 -54.70  0.000281337    1.452    0.311
       105 -10.6769      9.2611    136.7203   1.3361785119e+02   4.5911083033e+01     0.233581    0.1755089 -47.28 0.0002247274    1.279    0.218
       106 -10.5296      2.7890    136.2610   1.3534190453e+02   4.6468511849e+01    0.2710942     0.126609 -61.88  0.001050876    1.619    0.382
       107 -10.6668     21.1607    135.8017   1.3012964842e+02   4.5195874263e+01    0.2281367    0.1875549 -69.20 0.0007336986    1.049    0.047
       108  -9.2178    122.6784    135.3232   1.0087615913e+02   3.0544346112e+01    0.1609091    0.1244824  86.09 0.0004656863    1.678    0.404
       109  -9.3240    250.3179    134.3021   7.4596325086e+01   4.9351826975e+00    0.1268802    0.1001468 -15.08 0.0007024336    1.622    0.384
       110 -10.0715    107.0073    133.2472   1.0463006369e+02   3.4068203829e+01    0.2697221    0.2245667 -49.03 0.0009077455    1.152    0.132
       111 -10.4124     33.1203    133.6978   1.2632016373e+02   4.4610332559e+01    0.3189577    0.2196248 -61.90  0.001746349    1.227    0.185
       112 -10.9684     37.5058    130.5003   1.2445732643e+02   4.4946342850e+01    0.3474523    0.2638039 -59.70  0.001707177    1.126    0.112
       113 -11.6213     33.3493    126.0433   1.2490000702e+02   4.6443921499e+01    0.3139286    0.2470792  66.06 0.0008859621    1.535    0.348
       114  -9.7571     53.2610    133.0181   1.2022411984e+02   4.2541047194e+01    0.2138704    0.1597778 -54.71   0.00101834    1.179    0.152
       115  -8.9532    227.3208    131.7296   7.7639278986e+01   9.5864173587e+00    0.1373067     0.103854 -75.48 0.0003626381    1.566    0.361
       116 -10.2882     74.0152    129.6375   1.1331981714e+02   4.0526982869e+01    0.2861345    0.1989564 -48.31  0.000810675    1.327    0.246
       117  -8.9726      6.6191    126.2677   1.3289352316e+02   4.8583661161e+01    0.1213543   0.08677283  67.01 0.0006989684    1.689    0.408
       118 -10.9569      2.4147    123.8169   1.3376136089e+02   4.9430395915e+01     0.575471    0.1170369 -59.58   0.00219931    2.933    0.659
       119  -9.9481     81.7512    125.4259   1.1006275188e+02   4.0341037754e+01    0.2411462    0.1891182  19.66 0.0008769658    1.450    0.310
       120 -11.2009     10.5449    122.4064   1.3115690434e+02   4.9224073977e+01    0.2690032    0.2340083 -76.88  0.001183262    1.149    0.130
       121  -9.5113    219.5497    124.5060   7.7384669436e+01   1.2492146252e+01    0.1439002    0.1266175 -54.12 0.0002848573    1.005    0.005
       122  -9.6231     20.2106    121.7897   1.2814382321e+02   4.8637034793e+01    0.1875932    0.1270177 -41.99  0.001059963    1.384    0.277
       123  -9.0201     64.6998    120.2639   1.1405497273e+02   4.4125312727e+01    0.1343962    0.1104454  75.39 0.0002748466    1.516    0.341
       124  -9.8534     33.2790    118.7773   1.2355980684e+02   4.8185040179e+01    0.1865848    0.1324438 -40.73 0.0007155793    1.316    0.240
       125 -12.0075     17.2934    115.8999   1.2802403223e+02   5.0252120170e+01    0.4427398    0.2603627 -53.12  0.001643881    1.367    0.269
       126 -12.3945     15.4819    109.1397   1.2738770096e+02   5.1951052334e+01    0.5896282    0.4585981  54.60 0.0007394072    1.632    0.387
       127 -11.2292     21.3778    103.3365   1.2435130717e+02   5.2813169223e+01     0.234673    0.1800901 -13.99  0.001028222    1.423    0.297
       128  -9.5875    220.4523    117.0050   7.5617001811e+01   1.3751367089e+01    0.2173383    0.1251733 -46.13  0.000455119    1.543    0.352
       129  -9.5833     86.4049    116.5065   1.0653424943e+02   4.1675066441e+01    0.1479213    0.1372985 -44.03 9.038662e-05    1.022    0.021
       130 -10.2426     51.1841    115.0299   1.1712493012e+02   4.7116666528e+01    0.3419056    0.1703842 -55.56  0.001524945    1.767    0.434
       131  -9.2998    214.4235    115.5109   7.6282866306e+01   1.5260239808e+01    0.1432443    0.1278367 -53.46  0.000182062    1.044    0.042
       132  -9.0659    166.3199    115.6877   8.5500494148e+01   2.5609949145e+01    0.1575405    0.1193328 -82.76 0.0003437749    1.649    0.394
       133 -10.1510     35.1467    114.1697   1.2205861780e+02   4.9084830966e+01    0.2648745    0.1726318 -60.16  0.001101586    1.350    0.259
       134 -11.8862     35.4209    108.4074   1.2077458033e+02   5.0391732359e+01    0.4122359    0.2874636  87.72 0.0008828973    2.052    0.513
       135 -11.6431     22.8790    106.8814   1.2456367474e+02   5.1886522648e+01    0.3292677    0.3007284  81.46  0.001337369    1.310    0.236
       136 -10.7825    249.0314    111.9629   7.0326358469e+01   9.2043224467e+00    0.2095703    0.1691685 -55.26  0.000598161    1.026    0.026
       137  -9.0996    223.3509    111.7346   7.4021606576e+01   1.4162481860e+01    0.1408585    0.1014908 -78.16 0.0006984675    1.618    0.382
       138 -10.6644     55.9211    108.7177   1.1416495002e+02   4.7987243390e+01    0.4400338    0.2261737 -40.15  0.001941283    1.909    0.476
       139 -12.1415      3.0937    100.3507   1.2982193738e+02   5.4750181454e+01    0.2708387    0.2381961 -65.65  0.000429715    1.167    0.143
       140 -10.7479      1.7484     94.2900   1.2917334473e+02   5.6159051681e+01    0.3933179   0.09509467 -57.39  0.001094799    2.636    0.621
       141 -10.4052      6.4447    106.7836   1.2986104985e+02   5.3105572679e+01    0.2727038    0.1921594 -75.86  0.001653741    1.403    0.287
       142 -11.0318      2.5100    105.4150   1.3088365259e+02   5.3652574656e+01    0.2431937    0.1852597 -66.64 0.0001776441    1.154    0.134
       143 -10.9912    243.5161    104.4972   6.9577385148e+01   1.1549822686e+01    0.2112429    0.1798517 -11.36 0.0006424195    1.659    0.397
       144 -10.0088    223.3298    103.9967   7.2366607767e+01   1.5595590834e+01    0.2009251    0.1554917 -51.50 0.0004222794    1.140    0.123
       145 -10.9270    247.6794    102.1552   6.8554323271e+01   1.1181266988e+01     0.218255    0.1711183 -88.69 0.0007687943    1.362    0.266
       146 -10.4773     35.3807    101.3452   1.1924473999e+02   5.1995476433e+01    0.2815003     0.228212  44.63  0.001559488    1.507    0.337
       147  -9.7466    119.7448    101.4361   9.3057481490e+01   3.8711263123e+01    0.2075305    0.1427576  31.97  0.000775994    1.608    0.378
       148  -9.4745     43.6096    101.1560   1.1643690479e+02   5.1168196380e+01    0.1888478    0.1062873 -45.69 0.0003276111    1.537    0.350
       149 -10.7838     61.9284     98.7928   1.0975166416e+02   4.9404261134e+01    0.5668605    0.3032302 -27.63   0.00233296    2.463    0.594
       150 -10.8734     66.2327     98.1836   1.0818151366e+02   4.8928892641e+01    0.4818962    0.2077872 -38.06  0.001860315    2.501    0.600
       151  -9.6816     50.2480     99.7250   1.1386781985e+02   5.0713453500e+01    0.2359003    0.1349991 -25.83   0.00105558    2.146    0.534
       152 -10.2038     30.1289     98.0869   1.2029245760e+02   5.3225672866e+01    0.1893383    0.1574546 -43.33 0.0003318595    1.005    0.005
       153 -10.5758     92.5769     96.6616   9.9477308466e+01   4.4973963865e+01    0.2887675    0.1330815 -41.58  0.001133775    2.149    0.535
       154 -10.9009     20.1782     96.3235   1.2330730969e+02   5.4470449152e+01    0.2837881    0.1622805 -64.03  0.001497231    1.646    0.392
       155  -9.9310    141.9650     96.7630   8.6191374022e+01   3.4881350332e+01    0.2033265    0.1247237  48.67 0.0008815561    1.623    0.384
       156  -9.7756     57.4646     96.5098   1.1064306346e+02   5.0502211470e+01    0.1377723    0.1225547 -32.56 -5.958089e-05    1.008    0.008
       157  -9.5308    249.5130     95.4942   6.7001423553e+01   1.1989002221e+01    0.1322794     0.107186 -60.42 -7.488231e-05    1.009    0.009
       158  -9.3790     42.2855     95.3854   1.1550161570e+02   5.2584785546e+01    0.1452931   0.08587797 -31.33  0.000700966    1.743    0.426
       159 -10.7508     22.9544     86.7290   1.2019509656e+02   5.6312836320e+01    0.2863105    0.1807208 -45.25 0.0009426351    1.290    0.225
       160 -10.2360     31.3670     92.2214   1.1851760100e+02   5.4389802767e+01    0.3473923    0.1692959 -60.82  0.001625784    2.023    0.506
       161 -11.2233     25.6480     91.6674   1.2038761349e+02   5.5029537012e+01    0.2735001    0.2185716 -14.80 0.0008529217    1.270    0.213
       162  -9.1760     98.7483     93.3602   9.6722673850e+01   4.4519021979e+01    0.1415788    0.1151982 -76.86 0.0006955786    1.613    0.380
       163  -9.6096    178.1616     91.8433   7.7233833038e+01   2.7632632368e+01    0.1849468    0.1733021   6.58            0    1.301    0.231
       164  -9.5239    104.1863     91.8841   9.4730149858e+01   4.3777680494e+01    0.1998634    0.1669563  -7.05            0    1.331    0.249
       165 -11.6333     11.1742     90.9750   1.2529297932e+02   5.6295849762e+01    0.3846634    0.2168648  20.85  0.002167534    2.057    0.514
       166 -10.3041    158.2532     90.2045   8.0810693029e+01   3.2470547734e+01    0.2670816    0.1855122 -39.00  0.001268835    1.483    0.326
       167 -10.5587     48.9852     86.7702   1.1097578017e+02   5.3637182239e+01    0.6819027     0.185144 -47.79  0.002365285    3.091    0.676
       168 -11.4587     43.7057     83.0389   1.1183263129e+02   5.5026326029e+01    0.6879339    0.3908655  49.26  0.003202944    2.665    0.625
       169  -9.1401     21.3037     91.3270   1.2183142647e+02   5.5467854339e+01     0.135282   0.07696335 -34.63 0.0004302971    1.646    0.392
       170 -10.5669     96.2599     90.4265   9.6629500133e+01   4.5574078721e+01    0.4122097    0.2400988   8.58   0.00138995    3.749    0.733
       171  -9.2955    135.3194     90.3373   8.6057979634e+01   3.7594353811e+01    0.1516097    0.1184702   7.19 0.0004446453    1.707    0.414
       172  -9.0872    103.6824     88.7038   9.3972874692e+01   4.4504192613e+01    0.1466681    0.1125071   1.66 0.0003578752    1.609    0.379
       173 -10.8980      4.3939     86.0614   1.2665916576e+02   5.7773799464e+01    0.4025058    0.1963436 -53.11  0.002207432    1.543    0.352
       174 -11.9680     12.4381     78.6065   1.2211273094e+02   5.8808495361e+01    0.4100909    0.2123408 -36.14  0.001309864    1.688    0.408
       175 -11.8185      7.4278     73.7693   1.2284721187e+02   6.0123044475e+01    0.4276944    0.2661217   2.28  0.002591748    1.778    0.438
       176 -10.4169    112.0927     85.6261   9.0735766935e+01   4.3423485926e+01    0.3269012    0.2448982  72.53  0.001561365    1.795    0.443
       177 -10.6852     66.8223     85.2405   1.0444977955e+02   5.1542805817e+01    0.2880415    0.1975382 -22.19 0.0008460176    1.579    0.367
       178  -9.7829     14.8820     83.9957   1.2246351242e+02   5.7518908759e+01    0.1946289    0.1542585   3.96  0.001282699    1.384    0.277
       179  -9.1443    173.3679     83.3017   7.6028896240e+01   3.0266639132e+01    0.1449199    0.1141984  23.25 0.0007033556    1.740    0.425
       180 -10.4877    118.0169     82.7106   8.8308759885e+01   4.2745775375e+01    0.2801619    0.2106042 -30.09 0.0008886752    1.416    0.294
       181 -10.2666     29.4975     81.7678   1.1661924010e+02   5.6765667541e+01    0.2086759    0.1686497   6.57 0.0009200235    1.304    0.233
       182  -9.8998     74.6877     81.3174   1.0071563221e+02   5.1102840820e+01    0.1297855    0.1120709  85.49 0.0006318683    1.643    0.391
       183 -12.2165     21.7081     78.0375   1.1853858088e+02   5.8215121296e+01    0.4765591    0.3430669 -58.01  0.001664044    1.384    0.278
       184 -10.4444    151.0955     77.7534   7.9058266350e+01   3.6340475152e+01    0.3737357    0.2661148  52.83  0.001865316    1.359    0.264
       185 -10.8886     90.6698     77.4212   9.4513148159e+01   4.9096564332e+01    0.4456304    0.3725714  72.40  0.002419135    1.605    0.377
       186  -9.8369     70.8213     79.2113   1.0136757817e+02   5.2118677828e+01    0.1889805    0.1483886  -7.64 0.0005205172    1.320    0.242
       187 -12.0362     57.9057     74.2984   1.0431266587e+02   5.4950268050e+01    0.4518606    0.3476243  65.85 0.0004838233    2.116    0.527
       188 -11.9469     62.4788     71.7020   1.0193637980e+02   5.4784969734e+01    0.3359747    0.2989787  -7.82  0.000724627    1.027    0.026
       189  -9.7947    122.0552     76.4727   8.5471203089e+01   4.3013807598e+01    0.2194926    0.1370033  48.78  0.001018814    1.553    0.356
       190 -11.0437    102.9478     73.5225   8.9735222575e+01   4.7464381120e+01    0.3871945    0.2753216 -62.81  0.001656033    1.932    0.482
       191 -12.3472     44.7598     75.3148   1.0930492447e+02   5.6440420392e+01    0.2461431    0.2137102  14.89 0.0003347801    1.213    0.176
       192 -11.5900     37.9587     70.3387   1.1037625454e+02   5.8168556837e+01    0.5740147    0.4623452  68.91  0.003358595    2.074    0.518
       193  -9.9074     33.8602     75.4371   1.1334159307e+02   5.7613692686e+01    0.1949617    0.1426835 -41.09 0.0005367128    1.174    0.148
       194 -10.8827    138.7605     74.9000   8.0998865081e+01   3.9622151246e+01    0.2588713    0.2204081  83.04            0    1.294    0.227
       195 -10.7301    109.0739     74.7333   8.8390225682e+01   4.6026407653e+01    0.2627797    0.2484934 -67.11  0.001182249    1.194    0.162
       196 -11.0296      3.1058     78.8867   1.2561221864e+02   5.9345337949e+01    0.2632625    0.2477127 -27.54  0.001071489    1.237    0.192
       197  -9.3853    150.6429     72.2841   7.7688820444e+01   3.7371431411e+01    0.1469261    0.1091667 -85.86 0.0007019484    1.671    0.401
       198 -10.3416     83.9722     72.3239   9.5033502829e+01   5.1216044671e+01    0.1861786    0.1632179  23.33 0.0002780055    1.099    0.090
       199 -11.3940     76.5421     70.9159   9.6972637457e+01   5.2734563668e+01    0.4667835    0.3403305  60.37  0.002399776    1.964    0.491
       200 -10.4069     77.2344     63.8733   9.4533528685e+01   5.3837901948e+01    0.3774252    0.2320932 -35.72  0.001006051    1.613    0.380
       201  -9.2415    212.6007     70.2982   6.6632515906e+01   2.3662886960e+01    0.1463111   0.09179956 -76.57  0.000699967    1.816    0.449
       202  -9.0962    168.0012     70.2129   7.3735358537e+01   3.3721240184e+01    0.1821951    0.1088783  58.69 0.0003381513    1.607    0.378
       203  -9.9281    160.9867     69.7293   7.4934793742e+01   3.5416442796e+01    0.1925178    0.1732615  65.90 0.0002870414    1.061    0.057
       204 -10.2778    144.8357     69.6530   7.8206452084e+01   3.9128200146e+01     0.258078    0.1940811   0.44  0.001094336    1.913    0.477
       205 -11.5729     94.7243     67.8200   9.0372024443e+01   5.0034856458e+01    0.4434527    0.2944527 -23.03  0.001746129    1.698    0.411
       206  -9.6003     68.7716     69.8587   9.9219023427e+01   5.4172014980e+01    0.1815511    0.1575243 -25.03 0.0003299952    1.094    0.086
       207  -9.6018     68.6994     66.7236   9.8262592440e+01   5.4738246857e+01    0.2103431    0.1133458 -33.34 0.0002646617    1.868    0.465
       208 -11.8170     50.4305     68.4576   1.0521481567e+02   5.7035187285e+01    0.4220033    0.2699498  -4.83  0.001963214    1.861    0.463
       209 -10.2783    123.0459     68.4567   8.2898642916e+01   4.4162161859e+01    0.2603661    0.2000846 -43.85  0.000637203    1.376    0.273
       210  -9.7731    120.3179     65.0361   8.2571952697e+01   4.5302815238e+01    0.1864284     0.181936 -17.89 0.0004084788    1.074    0.069
       211 -12.3136     17.8340     67.0736   1.1715643215e+02   6.0691981307e+01     0.585216    0.3154674  -3.32  0.001143329    2.228    0.551
       212 -10.7191     20.2768     61.8246   1.1473426967e+02   6.1479116511e+01    0.4841266    0.2486427  46.18   0.00224329    3.545    0.718
       213 -11.5240     31.0525     66.0603   1.1174973552e+02   5.9696215925e+01    0.5087314    0.2728416 -26.86   0.00173152    1.905    0.475
       214 -12.1100      3.9225     65.0053   1.2207157964e+02   6.2062696972e+01    0.3802441    0.3198376  76.88  0.001516981    1.828    0.453
       215  -9.3982    128.5830     71.5458   8.2439479119e+01   4.2445836887e+01    0.1392964    0.1340647  73.64 4.709473e-05    1.066    0.062
       216 -10.7079     50.9809     63.5035   1.0347753344e+02   5.7854717495e+01    0.3036462    0.1811934 -27.65  0.001126766    1.660    0.397
       217 -11.9206     61.9243     60.4094   9.8569991631e+01   5.6853653509e+01    0.7092872    0.3375669  28.90  0.003257311    2.230    0.552
       218 -10.2986    139.2107     65.7975   7.8363338634e+01   4.1021652761e+01    0.1898901     0.159856  29.53 0.0004317712    1.307    0.235
       219 -10.5677     99.7970     64.3233   8.7821614963e+01   4.9636253661e+01    0.2264633    0.1908455 -17.50  0.000622059    1.220    0.180
       220  -9.8993     41.8613     64.4555   1.0715576131e+02   5.8817994187e+01    0.1800159    0.1462746 -27.61 0.0005911911    1.076    0.071
       221  -9.6473    216.2049     64.5607   6.4912899406e+01   2.3792000743e+01    0.2407217    0.1226473  69.96  0.001124708    2.049    0.512
       222  -9.0456    196.6494     64.2659   6.7557960828e+01   2.8130479546e+01    0.1405579   0.09502046 -79.76 0.0006985606    1.619    0.382
       223 -10.9711     84.4871     61.8109   9.1575581906e+01   5.2916771944e+01    0.3947744    0.2363433  41.51  0.001987192    1.620    0.383
       224 -11.9943     87.0958     54.1803   8.8309433470e+01   5.3637324114e+01    0.5990272    0.2615032 -31.68  0.002059405    2.527    0.604
       225 -10.7436     12.6175     51.7841   1.1490281883e+02   6.3906552783e+01    0.3128634    0.1828355 -53.95  0.001837374    1.755    0.430
       226 -10.5256     11.1000     62.7051   1.1863107409e+02   6.2029972133e+01    0.1903033    0.1841403 -53.43 0.0003994545    1.383    0.277
       227 -12.3597      5.2368     53.4325   1.1846370739e+02   6.4136739969e+01    0.7619387    0.3017313 -57.53  0.003746746    2.545    0.607
       228 -11.1346     11.0267     44.5123   1.1332617458e+02   6.5274739819e+01    0.3953716    0.2008486 -30.87  0.001407033    1.669    0.401
       229 -10.5547      7.0004     41.2504   1.1403434993e+02   6.6117371627e+01    0.2586137    0.1176467 -41.92 0.0007999705    1.737    0.424
       230  -9.9571    201.2930     61.9601   6.6363848773e+01   2.7450506228e+01    0.1816211     0.155526 -64.20 0.0002902313    1.093    0.085
       231 -10.7662     45.2724     50.7389   1.0143455292e+02   6.0743516916e+01    0.3590924     0.199032 -27.61  0.001912361    1.771    0.435
       232 -11.4917     29.7046     60.8546   1.1072688705e+02   6.0786476938e+01    0.5901048    0.2088395  20.13  0.002423193    3.507    0.715
       233 -12.7239     37.1280     51.3021   1.0477341418e+02   6.1640757653e+01    0.7280096    0.4978046 -11.57  0.003559332    1.386    0.279
       234 -10.0651     43.8456     57.1742   1.0410907311e+02   5.9858557382e+01    0.1945958    0.1567965 -13.23 0.0002930182    1.053    0.050
       235 -10.9837    128.6518     57.2382   7.8291637038e+01   4.4690007505e+01    0.3387605    0.2521451   6.35 0.0009497427    1.803    0.445
       236 -10.4829     47.6604     58.3552   1.0305760432e+02   5.9178307428e+01    0.2606728    0.2216144 -51.77  0.001417962    1.489    0.328
       237 -10.7606    123.1363     56.4425   7.9342678591e+01   4.6014699458e+01    0.2477423    0.2078981 -61.42 0.0009215762    1.388    0.279
       238  -9.8151    114.7268     57.3669   8.1677950591e+01   4.7678362832e+01    0.1918785    0.1165507  42.07 0.0002921031    1.567    0.362
       239  -9.6548     22.6870     57.7676   1.1258000227e+02   6.2006875680e+01    0.1651962   0.08449882  33.90 0.0008757656    2.297    0.565
       240 -10.9228     99.9596     55.8024   8.5106088223e+01   5.0934665974e+01    0.4364262     0.202981  53.66  0.001847593    2.324    0.570
       241 -10.1974     75.1324     55.9946   9.2656996186e+01   5.5471419121e+01    0.1900544     0.170824   2.67 0.0003450268    1.045    0.043
       242  -9.9866     62.3499     54.5357   9.6483922933e+01   5.7749993402e+01    0.2581078    0.2125861  70.50  0.001488247    2.018    0.505
       243  -9.9553    120.0275     53.0103   7.9059316336e+01   4.7185203711e+01    0.2122994    0.1500183  26.84 0.0003486172    1.621    0.383
       244  -9.9229    116.6581     53.2958   7.9961684886e+01   4.7865892488e+01    0.2699682    0.1800168 -65.41  0.001028903    2.293    0.564
       245 -11.7779    128.5290     50.3270   7.6303401241e+01   4.5707786042e+01    0.4677359    0.3258914  -1.54  0.001464919    2.053    0.513
       246  -9.2229    143.6715     52.6983   7.3776807286e+01   4.1979273616e+01    0.1381121    0.1011529  30.16 0.0007032325    1.645    0.392
       247 -10.4464    103.8604     45.8671   8.0894116002e+01   5.1563414538e+01    0.2255981    0.1923641 -27.26 0.0007398383    1.261    0.207
       248 -10.7846     69.9643     50.3652   9.2474964248e+01   5.7193285857e+01    0.3292743    0.2811174  73.17  0.001933026    1.817    0.450
       249 -10.5902     81.7352     50.0079   8.8568416414e+01   5.5227905086e+01    0.1790977    0.1592806  10.25 0.0004166636    1.023    0.023
       250 -10.2346    220.9276     48.9716   6.1067839188e+01   2.5101270449e+01    0.1873231    0.1531327 -76.33  0.001198877    1.006    0.006
       251 -11.4496    153.1476     47.9785   7.0675696386e+01   4.0469550903e+01     0.489034    0.2641501  57.07  0.001695542    1.668    0.401
       252  -9.8927    113.7742     48.2910   7.9139936435e+01   4.9178961538e+01    0.2075942    0.1629013  69.85 0.0006720375    1.451    0.311
       253  -9.2562     78.5050     47.4586   8.8718682271e+01   5.6167987221e+01    0.1296224    0.1119427  14.26 9.699883e-05    1.014    0.014
       254  -9.9839     62.3027     47.3322   9.4047278603e+01   5.8863573759e+01    0.2424349    0.1480375  29.00  0.001330621    1.557    0.358
       255 -10.7108     59.7286     45.2298   9.4218117271e+01   5.9566263913e+01    0.2709202    0.1858022  13.43  0.001300119    1.447    0.309
       256 -10.4154    142.6589     45.7022   7.2038418671e+01   4.3168180151e+01    0.2745732     0.206185 -77.00 0.0008488982    1.603    0.376
       257  -9.6651     18.2322     46.1546   1.1078207376e+02   6.4407047738e+01     0.140582    0.1281737 -24.01 0.0004406561    1.332    0.249
       258  -9.4752    233.4150     45.5015   5.9019186149e+01   2.2992828386e+01    0.1235244   0.09941912 -73.26 9.829251e-05    1.028    0.028
       259 -10.6680     86.0765     44.6402   8.5452526548e+01   5.5192554717e+01    0.3022761    0.1690646 -14.43  0.001387181    2.458    0.593
       260 -10.2149     51.2572     44.9680   9.7192546948e+01   6.0837249985e+01    0.1886612    0.1532312   1.99 0.0003248196    1.040    0.038
       261 -11.1779     52.0942     41.0313   9.5485122849e+01   6.1293968998e+01    0.2416666    0.2296549  23.61 0.0006307779    1.394    0.282
       262 -10.4826    121.9155     42.7855   7.5548328513e+01   4.8163318752e+01     0.306374     0.254239  82.24  0.001806277    1.385    0.278
       263  -8.8941    175.2912     43.6901   6.5891861227e+01   3.5960073431e+01    0.1344128   0.09237101 -74.42 0.0004610445    1.584    0.369
       264  -9.6572    110.5843     41.7143   7.7879528477e+01   5.0719023210e+01    0.2175719    0.1531331  72.44 0.0005495223    1.780    0.438
       265 -11.2894     97.9395     31.8657   7.7887834392e+01   5.4501486308e+01      0.26789    0.2026961  36.84 0.0004062365    1.168    0.144
       266 -10.9759    101.0346     28.3576   7.5951826755e+01   5.4270840412e+01    0.2547332    0.2130718 -68.43 0.0002940172    1.613    0.380
       267 -11.0160     97.3431     40.9846   8.1047737592e+01   5.3512607560e+01    0.3603023    0.2105345  40.85 0.0008661907    1.553    0.356
       268 -11.7643    101.8230     36.8362   7.8516948855e+01   5.3132413109e+01    0.5665249    0.2551334  38.17  0.001945978    2.283    0.562
       269 -11.8694     96.9878     36.8750   7.9791609550e+01   5.4097621404e+01    0.2574272    0.2412672  36.96 0.0003624202    1.117    0.105
       270 -11.1867     67.6485     39.6942   8.9543456294e+01   5.9089700018e+01    0.6613558    0.3362871   1.88  0.002202817    5.253    0.810
       271 -10.3252     23.6553     41.3073   1.0686702887e+02   6.4685566593e+01    0.2132668    0.1947661  28.10 0.0009992626    1.542    0.351
       272 -11.6779     20.5228     37.8583   1.0699817038e+02   6.5525110306e+01    0.2515053    0.1776194 -20.85 0.0005681122    1.136    0.120
       273 -12.6876     25.4679     36.0810   1.0425381955e+02   6.5300925179e+01     0.450313    0.3596214  23.54  0.003112749    1.418    0.295
       274  -9.5375    220.4490     41.5237   5.9599004853e+01   2.6236817153e+01    0.1256892    0.1024144 -78.51 5.499595e-05    1.012    0.012
       275  -9.8700    184.0316     41.5017   6.4095754323e+01   3.4257477566e+01    0.1909771    0.1158727  67.56 0.0004267174    1.494    0.331
       276 -10.9415     89.4238     39.4898   8.2746353052e+01   5.5242256053e+01    0.3050714    0.2074323 -42.56 0.0008676044    1.743    0.426
       277 -10.0207    226.0474     40.0290   5.8703781505e+01   2.5263624069e+01    0.2020726    0.1195855 -70.73 0.0006174744    1.622    0.384
       278 -12.2178     80.5070     36.6192   8.4378226088e+01   5.7262854165e+01    0.6492631    0.4396036 -54.56  0.003470539    2.299    0.565
       279  -9.6630     85.0245     35.0065   8.2484603168e+01   5.6630711133e+01    0.1645842    0.1416433  55.33 0.0004728352    1.327    0.247
       280 -10.2199     42.5823     38.8017   9.8283474423e+01   6.2905281519e+01    0.4485469    0.3648914 -28.39  0.002401575    1.288    0.224
       281  -9.4466     61.8474     37.8263   9.0845212893e+01   6.0273886451e+01    0.1458841    0.1359765  -1.69 0.0002615814    1.251    0.201
       282 -10.5749     10.1608     25.2325   1.0701356100e+02   6.8329865312e+01    0.2898706    0.1742951  12.50 0.0006909504    1.532    0.347
       283 -11.0456     18.3666     31.9252   1.0580615873e+02   6.6621706941e+01    0.3435312    0.2632819   9.12  0.002498772    1.232    0.188
       284 -11.3603     10.5339     34.6770   1.1026718215e+02   6.6897003151e+01    0.6638625    0.2519992   8.57  0.002806435    4.047    0.753
       285 -12.4121    226.4616    246.2249   1.0007912204e+02  -1.1171970072e+01     0.553206    0.3926997 -12.35  0.003411538    1.312    0.238
       286 -10.7239    181.2338    248.6130   1.0936237227e+02  -4.9697876596e+00    0.2950183    0.1528475 -36.28  0.001412275    2.135    0.532
       287 -10.4080      8.1408     20.8418   1.0627177452e+02   6.9115653954e+01    0.2148777    0.1222027 -30.86 0.0009692613    1.446    0.309
       288 -10.2167     38.2162    247.9919   1.3864221438e+02   1.6795661886e+01    0.1853398    0.1252707 -50.03  0.001083024    2.026    0.507
       289  -9.3009    127.5109     36.4692   7.2457424697e+01   4.7722771209e+01    0.1306947    0.1153549  53.03 0.0001343952    1.008    0.008
       290  -9.8621    129.9201     33.3518   7.1053000200e+01   4.7558289004e+01    0.3284142      0.13347 -48.31  0.001294651    3.388    0.705
       291  -9.5172    206.1892     33.8039   5.9581343467e+01   3.0317948116e+01    0.1529025    0.1348646  67.16  0.000233152    1.294    0.227
       292 -10.0541    150.5083     34.5037   6.7547322455e+01   4.2792575400e+01     0.130439     0.114327  68.58 0.0008106121    1.009    0.009
       293  -9.2672     34.4221     34.4446   9.9932505402e+01   6.4539530742e+01    0.1177615   0.09137145  -5.36 0.0003320197    1.024    0.024
       294  -9.5795     65.2538     33.3791   8.8074378251e+01   6.0302697828e+01    0.1713818    0.1072012  48.46 0.0009567045    1.762    0.432
       295  -9.6711     60.4230     33.5366   8.9777380676e+01   6.1058292468e+01     0.120471    0.1011539   9.90 8.783323e-05    1.037    0.035
       296 -11.2394    177.6679     31.2358   6.2556622979e+01   3.6993754086e+01    0.3784584    0.1915901 -56.85  0.001802027    2.238    0.553
       297 -10.0837    145.0497     32.0646   6.7840415327e+01   4.4317886319e+01    0.1895258    0.1665509  69.23 0.0003486498    1.017    0.017
       298  -9.8375    125.0589     33.0000   7.1944005118e+01   4.8668953333e+01    0.2197368   0.06568512  57.84 0.0008027561    2.945    0.660
       299 -10.2703     56.1895     31.0654   9.0347932601e+01   6.2026955867e+01    0.2433918      0.14527 -17.13  0.001378427    1.760    0.432
       300 -10.1052     42.6479     31.8209   9.5673845979e+01   6.3863796863e+01    0.1860293    0.1325676  14.97 0.0006042352    1.221    0.181
       301 -11.3682     50.2920     28.9673   9.1693622656e+01   6.3168350777e+01    0.3653693    0.2074179 -18.39 0.0007683272    1.846    0.458
       302  -9.9397    139.8498     29.4469   6.8049189418e+01   4.5787758432e+01    0.2326689    0.1676817   1.36   0.00110195    1.950    0.487
       303  -9.6916     82.8189     30.2056   8.1459068999e+01   5.7609823793e+01    0.2373386    0.1643765  78.48  0.001181961    2.740    0.635
       304  -9.7439     80.0960     26.1362   8.0816457300e+01   5.8569584717e+01    0.2015684    0.1535851 -54.92 0.0007992135    1.959    0.490
       305  -9.9162    153.5353     28.9385   6.5571461412e+01   4.2751101418e+01    0.1720278     0.126281 -36.46 0.0004351191    1.535    0.349
       306 -10.8875    214.6394     27.4169   5.7350004946e+01   2.9296157084e+01    0.2218668    0.1662792 -79.61 0.0001768997    1.106    0.096
       307 -10.2282    210.9669     24.5022   5.7132452664e+01   3.0434561258e+01    0.2298167    0.1049535  76.51  0.001132065    2.060    0.514
       308 -10.0156    200.6562     27.8227   5.8932855198e+01   3.2270270662e+01     0.169776    0.1321935  76.03 0.0002581272    1.154    0.134
       309  -9.1457    192.2965     28.3255   6.0014838839e+01   3.4056083472e+01    0.1166271   0.09237797  43.08 0.0002489003    1.627    0.385
       310  -8.9124    120.2339     27.9989   7.1456706989e+01   5.0277710161e+01    0.1344027    0.1074771 -25.45 0.0008211361    1.429    0.300
       311 -11.0638     70.7760     25.8573   8.3533299401e+01   6.0263987406e+01    0.4833062    0.2316176  36.83  0.002394145    1.868    0.465
       312 -10.9651    147.9769    245.0496   1.1572737700e+02   9.9284402564e-01    0.2137825    0.1613436  -7.36  0.001139342    1.727    0.421
       313 -10.8135    129.4455     19.0468   6.7001981246e+01   4.9189721064e+01    0.2392555    0.2067415 -69.19 0.0009210049    1.321    0.243
       314  -9.6443     16.4737     26.7215   1.0470524160e+02   6.7548419474e+01    0.1445155   0.08381145 -26.01 0.0003057678    1.453    0.312
       315  -9.4011    146.1567     26.1570   6.6049018646e+01   4.4730605017e+01    0.1673857     0.135017 -85.92 -0.000430966    1.292    0.226
       316 -10.3950     87.9037     25.2586   7.8313005843e+01   5.7198730318e+01    0.3128862    0.2402813  86.51    0.0011071    2.078    0.519
       317  -9.5396    115.4363    244.7201   1.2259745925e+02   6.3530085896e+00    0.1707541    0.1258652 -46.46 0.0007682605    1.569    0.363
       318  -9.6128    197.4292     25.4543   5.8787953160e+01   3.3262272551e+01    0.1240335    0.1011777 -86.88 0.0001279935    1.009    0.009
       319  -9.0983    220.3259     24.3025   5.6167586869e+01   2.8474956848e+01    0.1085997   0.08790468  51.81 0.0004318691    1.641    0.391
       320 -10.1795    173.7182     24.1505   6.1407316289e+01   3.8709059263e+01     0.209114    0.1457194  80.65 0.0002879247    1.283    0.221
       321  -9.3138    158.8320     24.3466   6.3562131385e+01   4.2058818354e+01    0.1790791   0.09618458  56.99 0.0003699854    1.625    0.385
       322 -12.3355     74.2844    238.4247   1.3052687899e+02   1.4005953044e+01    0.6660621    0.5108306 -68.27  0.003982139    1.334    0.251
       323 -11.5344     37.6337    242.8446   1.3833185565e+02   1.7955607377e+01    0.4050863    0.1803097  37.35  0.002033362    2.210    0.548
       324  -9.7026     24.8225     26.8653   1.0108759347e+02   6.6679569387e+01    0.1381869    0.1197814  -4.10 0.0004771206    1.296    0.229
       325  -9.5318    120.5612     21.3000   6.9370292505e+01   5.0903766978e+01    0.1498271    0.1194132   2.89 0.0006360133    1.503    0.334
       326  -9.7424    113.9960     20.7968   7.0570714161e+01   5.2359995087e+01    0.2028051     0.137873  88.30 0.0006360754    2.060    0.515
       327 -10.0040     66.0107     21.4702   8.3418963523e+01   6.1559019879e+01    0.1849648    0.1016414  43.58  0.001039563    1.616    0.381
       328 -10.5919     46.1365     20.8576   9.0095141173e+01   6.4738893129e+01    0.2252823    0.1466804  31.88 0.0006236722    1.362    0.266
       329 -10.1267    162.2355     19.4555   6.1839344041e+01   4.1810571216e+01    0.1962334    0.1582623  -4.07 0.0007584267    1.724    0.420
       330  -9.8911    227.5554     19.3819   5.4557583538e+01   2.7566223831e+01    0.2234409   0.09666616  78.84  0.001121941    2.189    0.543
       331 -10.8577    156.5129    241.0627   1.1330545366e+02   3.4882064208e-01    0.1941824    0.1339508 -48.68  0.001030511    1.583    0.368
       332 -11.0331     35.6815    239.6713   1.3844530246e+02   1.8873766724e+01    0.3137826     0.209641 -38.81  0.001696172    2.546    0.607
       333 -10.2215    108.2395     17.4055   7.0744226106e+01   5.3898850204e+01    0.2608417    0.1272445  56.20 0.0008512546    1.721    0.419
       334  -9.3941     50.3212    240.3092   1.3562045165e+02   1.6896765155e+01    0.1126902   0.09741706 -40.64 0.0004139101    1.645    0.392
       335 -10.4722    195.8214    238.2853   1.0468850375e+02  -5.4447127894e+00    0.2798483    0.2060101  14.68  0.001593652    1.334    0.250
       336 -10.7644     31.2622    237.4990   1.3912245926e+02   1.9870668112e+01    0.2926953    0.1859155  87.66  0.001110396    1.374    0.272
       337 -10.3388     29.1606    232.8860   1.3915427341e+02   2.1122386021e+01    0.2803396    0.1663474  53.70  0.001206876    1.497    0.332
       338 -11.7900    236.5861    247.0561   9.8343603261e+01  -1.2631588853e+01    0.3749966    0.2243744  25.59  0.002197457    1.592    0.372
       339 -10.3168    159.9017    235.8863   1.1175862407e+02   7.7531582765e-01    0.2137586    0.1784606   4.53 0.0006610528    1.287    0.223
       340 -10.2858    177.6072    234.8200   1.0783972874e+02  -1.9387556989e+00    0.2610836    0.1984055   3.06 0.0008657519    1.456    0.313
       341 -11.1822    153.5061    234.1762   1.1285475517e+02   2.1755753751e+00    0.2853204    0.2168602 -29.31   0.00106112    1.500    0.333
       342  -9.8146     30.5212     12.9415   9.3039066928e+01   6.7730015739e+01     0.161389    0.1194899   9.07 0.0004916009    1.040    0.038
       343  -9.7294    231.4512    235.4673   9.7281960929e+01  -1.0169522392e+01    0.1266799    0.1028862  -7.45 0.0001861536    1.031    0.030
       344  -9.6917    142.0171    232.2275   1.1503845162e+02   4.5003125228e+00    0.1871463    0.1073806  37.56 0.0003914329    1.621    0.383
       345  -9.6402     85.6811    232.6848   1.2743281914e+02   1.3568965512e+01    0.1256153    0.1069387 -22.20  0.000415601    1.653    0.395
       346 -10.5801     88.8907    241.3906   1.2780127241e+02   1.1202061573e+01    0.2593301    0.1624854 -45.70  0.001312863    2.021    0.505
       347  -9.8382     24.0346    232.3241   1.4010710507e+02   2.1829704969e+01    0.1676658    0.1333826  73.99 0.0005462956    1.062    0.058
       348  -9.8827     79.9255    231.4810   1.2852824638e+02   1.4699556904e+01    0.1978953     0.121031  42.24 0.0004401762    1.529    0.346
       349  -9.2077     58.3146    230.2925   1.3299353029e+02   1.8038133016e+01     0.116961    0.1014792 -36.77 0.0003088442    1.596    0.373
       350  -9.9374     26.6993     18.6294   9.7011197476e+01   6.7529863695e+01    0.1792166    0.1044408  -2.37  0.001087084    1.729    0.422
       351  -9.4622    139.9955     13.5409   6.3647340509e+01   4.7382614731e+01    0.1846803    0.1041873  66.47 0.0004475067    1.512    0.339
       352 -10.8943      1.4581    244.9807   1.4512308127e+02   2.1527225460e+01    0.2494099   0.09003677 -77.34  0.000486133    2.331    0.571
       353 -10.1679    190.4821    227.0339   1.0382058413e+02  -2.5929603529e+00    0.3812467    0.1263738 -43.42   0.00141184    3.039    0.671
       354 -10.1114    109.3958    242.9889   1.2365358162e+02   7.6720170043e+00    0.2489966    0.1904381  69.33  0.001242452    1.355    0.262
       355 -10.0590    129.7827    226.8591   1.1689827933e+02   7.6898488693e+00    0.3003662    0.1664134  58.34   0.00125356    2.287    0.563
       356  -9.9540     87.5135    227.4848   1.2638101712e+02   1.4442378416e+01    0.1376093    0.1208683  70.45 0.0008103247    1.010    0.010
       357 -10.4546     66.8203    226.6501   1.3078746906e+02   1.7682764518e+01    0.3548621    0.1578892  49.71  0.001254706    2.120    0.528
       358 -10.9315    120.0385    226.4917   1.1901490478e+02   9.4137549502e+00    0.2111027    0.1300683  39.60 0.0004539101    1.522    0.343
       359  -9.9234    181.0000    224.9315   1.0542270675e+02  -6.4320536887e-01    0.2172673   0.07705599 -46.57 0.0007971135    2.906    0.656
       360 -10.6794    123.6697    221.4623   1.1743011630e+02   9.8941984639e+00    0.5352051    0.2951864  47.71  0.002396383    1.770    0.435
       361  -9.2876     80.3381    223.6448   1.2747619766e+02   1.6398328260e+01    0.1504198   0.09321124  69.91 0.0007041761    1.806    0.446
       362  -9.5653     13.3684    221.7536   1.4136465788e+02   2.5317140520e+01    0.1647419   0.09194617 -69.82 0.0005879084    1.578    0.366
       363 -10.2565    142.0511    220.7580   1.1317952200e+02   6.8760232960e+00    0.2659912    0.1946371  21.33  0.001328055    1.540    0.351
       364  -8.6109     40.2968     11.3326   8.8449377212e+01   6.6600983875e+01    0.1165389   0.06959943   9.62 0.0007028924    1.643    0.391
       365  -9.4668    250.4802    219.4608   9.0980545944e+01  -1.0165556200e+01    0.1260095     0.100595 -15.84 0.0008088908    1.027    0.026
