#   1 NUMBER                 Running object number                                     
#   2 MAG_AUTO               Kron-like elliptical aperture magnitude                    [mag]
#   3 X_IMAGE                Object position along x                                    [pixel]
#   4 Y_IMAGE                Object position along y                                    [pixel]
#   5 X_WORLD                Barycenter position along world x axis                     [deg]
#   6 Y_WORLD                Barycenter position along world y axis                     [deg]
#   7 A_WORLD                Profile RMS along major axis (world units)                 [deg]
#   8 B_WORLD                Profile RMS along minor axis (world units)                 [deg]
#   9 THETA_WORLD            Position angle (CCW/world-x)                               [deg]
#  10 FWHM_WORLD             FWHM assuming a gaussian core                              [deg]
#  11 ELONGATION             A_IMAGE/B_IMAGE                                           
#  12 ELLIPTICITY            1 - B_IMAGE/A_IMAGE                                       
         1  -9.2934    110.9212     40.3155   2.2971663353e+01   5.2029525836e+01     1.158852    0.7647707 -20.62  0.005366906    1.799    0.444
         2 -12.0499    104.4022     13.4529   1.3861373295e+01   5.7006795024e+01    0.5289909     0.360756  -4.62  0.002685761    1.813    0.448
         3 -12.3587    105.6678     20.5257   1.6488069804e+01   5.5927389610e+01    0.4262706    0.3485901  -2.56 0.0004783243    1.410    0.291
         4 -11.7759    164.2690     27.7511   8.5097536308e+00   4.0076083992e+01    0.4780906    0.3220752 -53.75 0.0004715557    1.464    0.317
         5 -11.9536     20.2613     21.9491   5.4006783421e+01   7.2333477667e+01    0.5508733    0.3530555 -28.24  0.001729172    1.445    0.308
         6 -11.8809     35.4261     18.0860   4.2380749080e+01   7.1032333874e+01    0.6925484    0.3432424 -29.71  0.003167163    2.147    0.534
         7 -10.2899      1.1785      8.3754   6.1677763728e+01   7.6508587121e+01    0.3229854    0.0617364 -54.03  0.001199399    3.950    0.747
         8 -11.7027      6.6920     10.4563   5.8175364633e+01   7.5716595870e+01    0.5860206     0.445502  31.95  0.003539258    1.587    0.370
         9 -11.5704     12.8783      8.1815   5.1977415835e+01   7.5535867055e+01     0.666181    0.2164441 -50.63  0.002745283    3.400    0.706
        10 -12.2649     16.4586     12.8962   5.1971350717e+01   7.4356506311e+01    0.7564341     0.317272 -32.44   0.00342836    2.510    0.602
        11 -12.2282     22.9442     10.9866   4.6259198240e+01   7.3905442427e+01    0.5327342    0.3586691  -5.92  0.002332169    1.498    0.332
        12 -11.6056    179.1818     20.7626   4.6924180264e+00   3.7165447209e+01    0.7681905    0.2457035  50.96   0.00266735    3.785    0.736
        13 -10.8864     68.2418     19.2632   2.7275158370e+01   6.4827807733e+01    0.3266212    0.3009019 -59.96  0.001614948    1.356    0.262
        14 -12.0236    165.1206     17.7498   5.4266765377e+00   4.0994533457e+01    0.5486376    0.2910258  45.85  0.002466584    2.248    0.555
        15 -11.1147     85.9593     14.3722   1.8974720735e+01   6.1415762453e+01    0.4576384    0.3679194  -3.24   0.00177492    1.374    0.272
        16 -10.7237     89.3262      8.1855   1.5183363301e+01   6.1240283135e+01    0.3412006    0.1914523 -18.09  0.001082252    2.050    0.512
        17 -12.2898    227.6832     15.0815   3.5914997486e+02   2.6729034903e+01    0.4370134    0.2295697 -68.17   0.00136576    1.801    0.445
        18 -11.6171    127.2324     16.4779   1.0501645168e+01   5.0867838944e+01    0.3503221    0.2499254  46.47 0.0009360488    1.408    0.290
        19 -12.9941    134.8187     14.8761   8.6662008310e+00   4.9070410692e+01     1.047184    0.4365682  78.11  0.003945073    2.655    0.623
        20 -10.7835    148.2462     15.3919   6.8580296260e+00   4.5547927088e+01    0.5111433    0.1590797  49.33  0.001718965    3.559    0.719
        21 -12.3914    192.3682      8.6983   2.2738577397e-01   3.5271532743e+01    0.7688643    0.4177365  -5.06  0.003347293    3.301    0.697
        22 -12.2092     49.1135     13.0416   3.2204718145e+01   6.9453818823e+01    0.5720142    0.2549698  46.49  0.002598641    2.117    0.528
        23 -12.3454    212.1916      9.3343   3.5889113922e+02   3.0674043910e+01    0.5276357    0.3494079 -10.61  0.002512151    2.162    0.538
        24 -10.6412     64.3285     10.1793   2.4059516553e+01   6.6756361799e+01    0.2306745    0.2050947  39.86 0.0003926985    1.085    0.078
        25 -10.0160     63.0950      6.4512   2.2499199318e+01   6.7422801196e+01    0.3677103    0.1624059  61.00  0.001550402    2.477    0.596
        26 -11.1067    164.8060      4.5099   1.5606507060e+00   4.2393310009e+01    0.3359614    0.2155936  30.99  0.001508737    2.206    0.547
        27 -11.5515    168.9256      9.5252   2.6006720953e+00   4.0885591799e+01    0.4607973    0.2205228  57.15   0.00159277    2.056    0.514
        28 -10.7047    163.4910      9.9706   3.3069490999e+00   4.2204823307e+01    0.2409106    0.1994215 -39.49 0.0008357589    1.276    0.216
        29 -11.8488    152.6928      8.0370   3.9469853303e+00   4.5132543137e+01    0.4849266    0.3027063  37.04  0.002385718    2.034    0.508
        30 -11.1619    157.4987      6.9984   3.0732530940e+00   4.4005818102e+01    0.3730795    0.2150443   1.76  0.001659555    2.808    0.644
        31 -11.4447    146.7510      7.3390   4.4492773867e+00   4.6720431018e+01    0.4832884    0.2366599  42.53  0.001636238    2.497    0.600
        32 -12.0832    185.1629      7.3003   4.6370317271e-01   3.7125491456e+01    0.5103463    0.3177255  -0.55  0.002496446    2.588    0.614
        33 -11.9362    183.4836      4.5014   3.5986132347e+02   3.7800672413e+01    0.3827235    0.2574539  19.37   0.00197805    2.374    0.579
        34 -11.9958    233.6897      2.7629   3.5611554489e+02   2.6775588639e+01    0.4196984    0.2136504 -55.03  0.001145278    1.567    0.362
        35  -9.6314     78.0263      7.5163   1.8023388629e+01   6.3981285232e+01    0.2011679     0.120994  60.02 0.0005850449    1.527    0.345
        36 -11.7006    176.1410      5.5886   7.9265412486e-01   3.9481371826e+01    0.3285999    0.1942814 -84.05  0.001218168    1.607    0.378
        37 -11.5851    243.7640      4.5848   3.5597482321e+02   2.4580153374e+01    0.3491679    0.1462911 -60.52  0.001835554    2.053    0.513
        38 -10.0820    245.7421      1.3533   3.5522059726e+02   2.4521958601e+01    0.1745858   0.09971651  77.61 0.0003280533    1.787    0.440
        39 -11.9300    137.8495      4.1913   4.5497435869e+00   4.9294403812e+01    0.5307975    0.2322263  69.60 0.0004424138    1.952    0.488
        40 -12.6098    133.1945      2.3721   4.5459559849e+00   5.0649679571e+01    0.8302596    0.2839415  72.44  0.001310084    2.570    0.611
        41 -11.3350    113.1478      2.4147   7.6364093209e+00   5.5799075278e+01    0.3675677    0.2286471  85.83  0.001270039    1.661    0.398
        42 -10.7004     41.5371      3.9369   3.0570494032e+01   7.1980295931e+01    0.3481963    0.2026904  18.27  0.001758444    1.969    0.492
        43 -10.9730    218.5122      3.5719   3.5715127229e+02   2.9877857094e+01    0.2197411    0.1756454 -68.12 0.0007546064    1.021    0.020
        44 -11.7927    207.4876      2.5296   3.5760051901e+02   3.2405626105e+01    0.3993216    0.2146133 -79.95  0.001861942    1.746    0.427
        45 -11.0729    223.6549      2.6140   3.5663473198e+02   2.8874164330e+01    0.2298528    0.1626212 -61.41 0.0005770557    1.127    0.112
        46 -10.6555      2.0398      2.0932   5.7431653835e+01   7.7560958467e+01    0.2469258     0.144757 -28.63  0.001231255    1.467    0.318
        47 -10.5675    105.4478      1.9191   8.8352868611e+00   5.7794595561e+01     0.264495     0.174211  87.75 0.0009649435    1.626    0.385
        48  -9.9943     64.3782      2.0478   1.9595897256e+01   6.7579384768e+01    0.1684584    0.1492972   8.56 0.0005060489    1.146    0.128
        49 -10.1755    152.0454      1.4577   1.9609799520e+00   4.5889873979e+01    0.2054958    0.1156912  75.55 0.0005373466    1.552    0.356
        50 -10.1207     74.0909      3.0824   1.6967957775e+01   6.5305713367e+01    0.3511366     0.169807  62.83  0.001603975    1.961    0.490
        51 -10.0734     78.9851    115.0508   5.6870950767e+01   4.3151083985e+01    0.2334652    0.2286065 -26.66 0.0009685273    1.060    0.057
        52 -11.0450    248.7403    249.3139   4.2870412014e+01  -8.3650160924e+00    0.2309316    0.2096179  59.26  0.001667265    3.028    0.670
        53 -11.3932     26.9804    106.0206   7.4091176503e+01   5.2196500364e+01    0.7854847    0.3696496 -24.11  0.002836339    3.552    0.718
        54 -11.4028     24.6738    103.3204   7.4559321687e+01   5.3094605394e+01    0.4885506    0.2356524  50.58  0.002057865    2.434    0.589
        55 -11.3608     22.1771    114.3666   7.7091194727e+01   5.0431844565e+01    0.4674219    0.2844997  -3.42  0.002220786    2.177    0.541
        56 -11.5031     27.8597    113.0448   7.4826255485e+01   5.0291039012e+01    0.4524093     0.306226  47.02  0.001433902    1.550    0.355
        57 -10.0732      7.5033    114.5106   8.2390003093e+01   5.1428677966e+01    0.2406448    0.1928989  89.97   0.00075015    1.121    0.108
        58 -12.1279      2.5748    111.6420   8.3869232337e+01   5.2440872552e+01    0.4645217    0.3163229 -88.80  0.001351835    1.315    0.240
        59 -11.4485      4.3451    105.5113   8.2620757325e+01   5.3913469668e+01    0.3994408    0.3061937  17.96  0.002109827    1.499    0.333
        60 -10.8503    249.5095    112.0204   1.8108706327e+01   9.6453537138e+00    0.2005286     0.102947 -34.33  0.001037169    1.606    0.378
        61 -10.0751     48.9257    112.1418   6.6902699617e+01   4.8287621168e+01    0.2267904    0.1901736  63.87 0.0008800065    1.257    0.204
        62 -11.0218     15.8123    109.4889   7.8803184119e+01   5.2180684610e+01    0.3304542    0.1953029  40.72  0.001346581    1.779    0.438
        63 -11.5433     79.9346    108.0797   5.4900167384e+01   4.4727774962e+01    0.3967617    0.3203643  15.54 0.0008215876    1.407    0.289
        64 -10.8776     36.0107    102.7155   7.0029224296e+01   5.2193346235e+01    0.4571114    0.2651922  -2.68  0.001696578    2.463    0.594
        65  -9.4985     85.9420    103.5131   5.1691718384e+01   4.4779478258e+01    0.2245158    0.1517864  37.83 0.0004910097    1.482    0.325
        66 -11.2173     51.7678     99.8457   6.3296540378e+01   5.1092086691e+01    0.4755446    0.2973701 -34.51  0.001610477    1.857    0.462
        67 -11.3439     17.2110    100.6578   7.7083249250e+01   5.4362250420e+01    0.2436818    0.2195012 -75.26 0.0004297152    1.023    0.022
        68 -11.9271      8.9655     96.9311   7.9844920065e+01   5.5851627110e+01    0.4316537    0.4030702  52.48 0.0005423482    1.179    0.152
        69 -11.7797    248.6659     97.6527   1.5219338074e+01   1.1872241632e+01    0.2622007    0.1954139  -0.71  0.001548683    1.762    0.432
        70  -9.2871    210.3000     98.2798   2.0502345493e+01   1.8955114808e+01    0.1303057    0.1052919   5.99 0.0003504962    1.543    0.352
        71 -10.6533     78.2666     96.8964   5.2628607417e+01   4.7757464030e+01    0.5231807    0.2585005  48.76  0.001960109    2.300    0.565
        72 -10.8364     79.2994     92.5175   5.1060475972e+01   4.8624685866e+01    0.6162418    0.4465234  48.07  0.002895565    1.444    0.307
        73 -12.0865     67.2117     95.1647   5.6241145266e+01   5.0029797322e+01    0.4463342    0.3881682  15.02  0.001200042    1.231    0.187
        74 -10.4831     31.2747     96.6814   7.0797738376e+01   5.4218170238e+01    0.4066803    0.2614249  63.64  0.001928141    1.899    0.473
        75 -12.0248    126.0358     94.5710   3.6875403182e+01   3.8485534228e+01    0.2676524    0.2545103 -43.86  0.000183018    1.064    0.060
        76 -11.5316     42.4192     90.7431   6.4997909255e+01   5.4555380639e+01    0.4103009     0.223007  37.57 0.0008450151    1.919    0.479
        77 -11.6207     22.9632     94.4905   7.3802813309e+01   5.5511154329e+01     0.327137    0.2898611  -9.06  0.001179098    1.246    0.197
        78 -11.2315     19.3055     92.3209   7.4952790904e+01   5.6349764441e+01    0.2179956    0.1749977 -51.88  0.000825571    1.148    0.129
        79 -10.5645     43.2261     94.3854   6.5478646430e+01   5.3539168348e+01    0.3268105    0.2515649  29.27  0.001720177    1.369    0.269
        80 -10.5919     35.4924     92.5698   6.8262874702e+01   5.4852198995e+01    0.2847233    0.2289212  80.73 0.0009411131    1.389    0.280
        81 -10.4259     50.2599     91.6227   6.1991766579e+01   5.3366539835e+01    0.3400466    0.2293375  26.99  0.001641341    1.562    0.360
        82 -10.8321     98.2612     90.9896   4.4108684170e+01   4.5315148989e+01    0.2750842     0.222415  41.95  0.000236072    1.227    0.185
        83 -11.8191      6.4131     88.2557   7.9744722116e+01   5.8196808982e+01    0.6184037    0.3748586   1.55  0.003235227    1.957    0.489
        84 -10.9651     26.8925     86.0650   7.0584687660e+01   5.7324981334e+01     0.527936    0.4867431 -22.14  0.002072407    1.130    0.115
        85 -10.5720     19.1350     86.3071   7.3994974592e+01   5.7891759990e+01    0.3827377    0.2129162   5.15  0.001799075    2.177    0.541
        86 -10.2614     90.1846     86.1776   4.5378039680e+01   4.8034820920e+01    0.4633094    0.2459334 -51.31  0.001834236    1.942    0.485
        87  -9.6809     67.1217     88.3481   5.4450688420e+01   5.1704360138e+01    0.2162374    0.1802648 -37.61 0.0006953466    1.205    0.170
        88 -10.4938     52.0848     87.0474   6.0109805006e+01   5.4261139858e+01    0.2150352    0.1999134 -56.28 0.0003570147    1.046    0.044
        89 -11.5858     44.7291     84.5567   6.2558103469e+01   5.5825718211e+01    0.5793377    0.4199626  21.96  0.001874354    1.473    0.321
        90  -9.9699     37.2984     85.8255   6.6038411664e+01   5.6365715557e+01    0.2865287    0.1745362  30.83 0.0006481499    1.718    0.418
        91 -12.4519     75.9235     79.5692   4.8499810853e+01   5.2248954104e+01    0.7711383    0.5507603  72.85  0.003361318    2.064    0.516
        92 -10.0888    143.1057     84.3507   2.9582061606e+01   3.6556257091e+01    0.2083523    0.1921594  64.64 0.0004829165    1.082    0.076
        93 -10.1390    112.0202     82.9753   3.7402960656e+01   4.4086695663e+01    0.4649324    0.1891616  56.74  0.001399767    3.388    0.705
        94 -10.3604     67.1643     81.4987   5.2473917436e+01   5.3325431912e+01    0.3376678    0.2643764  -7.88  0.001649777    1.527    0.345
        95 -11.2543     53.1921     76.6010   5.6791014597e+01   5.6634624028e+01    0.4866468    0.3674304 -68.34  0.002460043    1.465    0.317
        96  -9.5639     52.4978     72.5386   5.5887521201e+01   5.7687910517e+01    0.1958057    0.1343406  39.61 0.0001809453    1.535    0.349
        97  -9.5984     92.4714     71.5259   3.9922723670e+01   5.0739055867e+01    0.2211485     0.148669 -55.26 0.0007997176    1.674    0.403
        98 -10.3992     89.2246     77.7073   4.3074522076e+01   5.0101774390e+01    0.4149623    0.2529633  50.61  0.001694593    1.744    0.427
        99 -10.2289     94.3406     76.1738   4.0827447026e+01   4.9372744677e+01    0.3201494    0.2580237  35.98  0.001020095    1.243    0.195
       100 -10.2119     58.1818     77.7975   5.5029107744e+01   5.5619466357e+01    0.2123421      0.20232  85.56   0.00063853    1.162    0.139
       101 -10.2406     46.7994     76.0412   5.9412042612e+01   5.7638374676e+01    0.3473397    0.2002904 -45.45  0.000925982    1.648    0.393
       102 -11.2756    249.0039     76.0091   1.0612818221e+01   1.4874899369e+01    0.2084551    0.1274015 -66.81   0.00112054    1.995    0.499
       103 -11.3444     14.2549     74.5593   7.4021009138e+01   6.1169685079e+01    0.3816672    0.2708274 -87.59  0.002067911    1.520    0.342
       104 -11.2266     27.2272     73.0792   6.7588069027e+01   6.0521464533e+01    0.4939749    0.3068357  -6.44  0.001779563    1.970    0.492
       105 -10.7053     34.6382     71.6549   6.3744428609e+01   6.0132519018e+01    0.4616478    0.2092987  41.62  0.001895227    2.541    0.606
       106 -10.6376     41.1516     72.6277   6.0994202877e+01   5.9160240979e+01     0.326606    0.2240995   4.88  0.001606777    1.708    0.414
       107 -11.3879     40.8393     69.0139   6.0109523574e+01   6.0053895788e+01    0.2880949    0.2874119   6.78 0.0004690474    1.112    0.101
       108 -10.9300      2.1554     71.3593   7.9175091959e+01   6.2607872957e+01    0.3828946    0.2103062 -61.57  0.002006379    1.486    0.327
       109  -9.8629     80.6941     72.3514   4.4390809309e+01   5.2951854622e+01    0.3343046    0.1810449 -40.29  0.001363073    1.913    0.477
       110 -10.5677    122.8880     68.9284   2.9873890894e+01   4.4320508876e+01     0.405165    0.2121675  47.55  0.001589628    1.864    0.464
       111 -10.0634     78.1956     67.7936   4.3785789582e+01   5.4406724525e+01    0.2509127    0.1705339  83.07 0.0009556278    2.847    0.649
       112 -10.3681     13.8404     67.5009   7.2794369580e+01   6.2924919623e+01    0.3652793    0.1341044  12.48  0.001449889    3.167    0.684
       113 -10.6034     96.8114     65.8236   3.6519159217e+01   5.0951860083e+01     0.267356    0.2578166 -28.85 0.0002701366    1.059    0.056
       114 -10.9828     92.6006     62.7051   3.6821554843e+01   5.2480144057e+01     0.399015    0.2711687  56.86 0.0009079422    1.607    0.378
       115 -10.9943     13.7236     56.8463   7.0403394636e+01   6.5473777198e+01    0.4844998    0.1964483 -43.86  0.001249379    2.169    0.539
       116 -12.5557      6.1236     61.9096   7.5536207784e+01   6.4717138070e+01    0.6295685    0.4134814  -8.03  0.003530388    1.672    0.402
       117 -10.6225      9.5008     56.5128   7.2593628428e+01   6.5816052905e+01    0.2513718    0.2228578  70.00  0.001347614    1.345    0.256
       118  -9.8639    201.8022     64.6142   1.3527737918e+01   2.6041984298e+01     0.180938    0.1273393  83.48 0.0002557562    1.595    0.373
       119  -9.8359    159.0832     62.8212   1.9837034592e+01   3.6452733776e+01    0.2035777    0.1606927  44.45 0.0004138617    1.360    0.265
       120 -10.0697     51.1607     56.8070   5.1300736576e+01   6.1404162323e+01    0.3204855    0.1893127 -39.27  0.001078386    1.672    0.402
       121 -11.6473     47.3354     59.7378   5.4124836339e+01   6.1322710309e+01    0.6476585    0.2841921  44.84  0.002493165    2.797    0.642
       122 -10.9236     40.7508     57.0173   5.6386038677e+01   6.2804790441e+01    0.3531481    0.2151691  38.60  0.001661616    1.773    0.436
       123  -9.8781     84.4873     62.0338   3.9419107061e+01   5.4329635467e+01    0.2293486    0.1471802 -44.95  0.001029743    1.602    0.376
       124 -11.1100     43.2972     61.7562   5.6717006028e+01   6.1418131750e+01    0.3723163    0.2284676 -60.14  0.001767815    1.720    0.419
       125  -9.7517    113.5285     60.9345   2.9739057043e+01   4.8021559655e+01    0.2296296    0.1518945 -36.46   0.00102575    1.578    0.366
       126  -9.2542     65.2907     61.6623   4.6783563994e+01   5.8074629303e+01    0.1416413    0.1176934  85.65 0.0007023585    1.641    0.391
       127 -11.3187     31.4028     53.0491   5.9835098520e+01   6.4790271224e+01    0.7321891    0.3551143  14.27   0.00312454    2.506    0.601
       128 -10.9449     25.9995     59.4953   6.4644203102e+01   6.3871290727e+01    0.6350502    0.2444085  23.74  0.002609202    2.696    0.629
       129 -11.3193     25.2737     55.8340   6.3955344443e+01   6.4782500268e+01    0.4820711    0.3183203  -9.07  0.001782967    1.698    0.411
       130 -11.3701     72.8675     47.3317   3.8190908734e+01   5.9482436207e+01     1.202435    0.3885061 -50.64   0.00335485    5.041    0.802
       131 -10.3505     87.9986     55.7872   3.5868482064e+01   5.4790180962e+01    0.5241391    0.1909873 -33.72  0.001654069    3.487    0.713
       132  -9.2012    124.7069     56.3192   2.5203961949e+01   4.6096820417e+01    0.1530976    0.1167402 -74.21 0.0007012749    1.606    0.377
       133 -10.0275    118.3056     56.3161   2.6838800582e+01   4.7672545571e+01    0.3017457    0.1836554  77.19  0.001151168    2.432    0.589
       134  -9.6010     66.9941     55.3482   4.3744702470e+01   5.9068625277e+01    0.2857508    0.1449628 -31.43   0.00110512    2.437    0.590
       135 -11.7119     76.9123     52.8446   3.8802559392e+01   5.7652166508e+01    0.4439499    0.3308983  -2.85 0.0003730439    1.677    0.404
       136  -9.5692    100.6194     55.2980   3.1532617540e+01   5.2060601714e+01    0.1546737    0.1194093 -89.14 0.0003251358    1.763    0.433
       137 -10.7024     60.5794     51.4125   4.4984423089e+01   6.0993300820e+01    0.5560006    0.2574922 -54.86  0.002105886    2.785    0.641
       138 -10.6344     61.5552     46.7140   4.2673168397e+01   6.1733597704e+01    0.3842713    0.2414227 -25.72  0.001775332    1.834    0.455
       139 -10.9756     46.8435     48.8282   5.0396983517e+01   6.3716288536e+01    0.5034209    0.3183573 -13.43  0.001646569    2.098    0.523
       140 -12.0669     43.0728     44.4959   5.0586345237e+01   6.5140505891e+01    0.6023833    0.4079908  29.23  0.001294327    1.477    0.323
       141  -9.8242     10.8099     51.7532   7.0708640422e+01   6.6845509627e+01    0.1559124    0.1458074  73.70 0.0003570803    1.281    0.219
       142 -10.9391    243.9514     51.4474   5.8469535074e+00   1.9105390734e+01    0.1643033    0.1165897  78.11 0.0008438681    1.566    0.361
       143  -9.9853    144.9430     50.3170   1.8722801249e+01   4.1958003976e+01    0.2403695    0.1910798  -9.68 0.0006590707    1.562    0.360
       144 -10.2318    122.7685     44.7613   2.1653307893e+01   4.8414133990e+01    0.2758749     0.253639  82.45 0.0007508272    1.091    0.083
       145 -11.9025    117.2291     45.4958   2.3272097613e+01   4.9687747649e+01    0.7761255    0.5342441   5.05  0.003378392    2.162    0.537
       146 -10.8022    120.4433     40.5124   2.0677987797e+01   4.9624866324e+01     0.269408    0.2242152  42.82 0.0005866365    1.203    0.169
       147 -11.6123    119.1415     36.9290   1.9673417981e+01   5.0460316168e+01    0.4752806    0.3380837 -87.00  0.001063174    1.759    0.431
       148  -9.5003    189.3195     49.7582   1.1351883668e+01   3.1058212075e+01    0.1762682    0.1250873 -27.98 0.0002978142    1.510    0.338
       149 -10.8342    155.0258     48.9546   1.6400594919e+01   3.9604954612e+01    0.2680649    0.2103824 -21.42 0.0003521518    1.465    0.318
       150  -9.3925     55.4744     50.4657   4.6918211370e+01   6.2042662961e+01    0.1416961    0.1290538  -6.40 0.0001255674    1.023    0.023
       151 -10.2064     82.3913     47.5609   3.4669520967e+01   5.7480173153e+01    0.4284001    0.2119739 -23.62  0.001510742    3.116    0.679
       152  -9.6984      1.8700     48.8114   7.5066061594e+01   6.7994078512e+01    0.1597845    0.1451637  60.03  0.001066728    1.338    0.252
       153  -9.8200     51.9824     48.2988   4.7699869417e+01   6.3039330647e+01    0.1927734    0.1677209  17.61 0.0003952137    1.115    0.103
       154 -11.0798     20.9260     45.8910   6.3233187212e+01   6.7406521864e+01    0.3825572    0.2356069 -49.49  0.001280735    1.423    0.297
       155 -10.1578     13.3010     46.2223   6.7757144843e+01   6.7938445024e+01    0.2599017    0.1519547 -39.92  0.001032316    1.505    0.336
       156  -9.2506    113.3323    249.3339   6.8293508835e+01   8.4955190731e+00    0.1187017   0.08595857   2.32 0.0007052226    1.731    0.422
       157 -10.9239     31.6848     45.0272   5.6864077173e+01   6.6496265185e+01    0.4230444     0.217736  22.67  0.001475678    2.039    0.510
       158 -10.9765     26.2920     42.8161   5.9078291921e+01   6.7554142866e+01    0.2788366    0.2275397 -66.58  0.001097062    1.434    0.303
       159 -10.6282     23.2297     37.4120   5.8839308948e+01   6.8997475969e+01    0.4809578    0.1937452  35.89  0.002071084    2.735    0.634
       160 -10.3397    155.9871     42.1989   1.4153492824e+01   4.0321879851e+01    0.2559528    0.2175437 -26.47  0.000742018    1.302    0.232
       161  -9.3472    145.3090     43.2956   1.6394035000e+01   4.2891812309e+01    0.1460302    0.1100623  32.95 0.0003286659    1.590    0.371
       162  -9.2665    140.0524     43.7650   1.7560730521e+01   4.4168781511e+01    0.2030199    0.1181329  63.57 0.0008840651    1.644    0.392
       163 -10.5087     98.2734     41.4197   2.6948809077e+01   5.4919207409e+01    0.2640128    0.2300116  67.64 0.0005563376    1.201    0.168
       164  -9.8867     56.7254     41.9699   4.2865401704e+01   6.3472797980e+01    0.1888451    0.1781639   0.77 0.0006110795    1.070    0.066
       165 -10.5663     17.9459     40.7828   6.3260114675e+01   6.8774740700e+01    0.2580476    0.1685552 -51.01  0.000797982    1.364    0.267
       166 -10.9644     78.6769     34.6235   3.0585735732e+01   6.0412607201e+01    0.6248664    0.4705153 -24.41  0.003292796    1.409    0.290
       167 -11.0398      9.3925     30.6623   6.5091434443e+01   7.1576658044e+01    0.5122984    0.2854288   3.65  0.002727393    1.910    0.477
       168 -10.4492      3.2138     39.2289   7.1855399449e+01   7.0098618757e+01    0.3117345    0.1513694  38.10  0.001510727    2.591    0.614
       169 -11.0426      4.5285     35.7683   7.0010923930e+01   7.0789990979e+01    0.3123829    0.3047074  34.64   0.00148123    1.272    0.214
       170 -10.8997     60.8821     36.4452   3.8557385922e+01   6.3710721474e+01    0.4123492     0.284416 -15.19  0.001228318    1.686    0.407
       171 -10.6795    175.5543     34.4500   8.9607309730e+00   3.6430926406e+01    0.3821073    0.2020176 -55.30 0.0009803656    1.972    0.493
       172 -11.3423    177.3509     29.1129   7.2305183678e+00   3.6646466773e+01    0.3846787    0.2086555  48.11  0.001381266    2.151    0.535
       173 -10.5171    153.2434     35.9402   1.2659342252e+01   4.1860959761e+01    0.2640686    0.1940356  60.66  0.000327447    1.297    0.229
       174  -9.9150    219.9822     35.7551   4.4698496687e+00   2.5964293484e+01    0.1543295    0.1021988  76.48 0.0004143415    1.550    0.355
       175 -11.3560     50.0325    248.9076   8.1451940277e+01   1.6526803207e+01    0.3700027   0.08593085  46.10  0.001550497    2.955    0.662
       176  -9.6308     28.5144    100.5264   7.2591682306e+01   5.3483149539e+01    0.1931692    0.1269385 -84.57 3.233668e-05    1.591    0.371
       177 -12.4821    104.6045     32.6242   2.1649441509e+01   5.4675794116e+01    0.7223604    0.3451096  43.22            0    2.135    0.532
       178 -12.3340    114.0335     24.9809   1.6328708340e+01   5.3300039699e+01    0.8256129    0.3379074  57.73  0.002388954    2.116    0.528
       179 -11.9036    158.2354     29.2553   9.8114760351e+00   4.1426905489e+01    0.4962114    0.3104815  80.75  0.001033226    1.602    0.376
       180 -10.1691     67.5087     32.1156   3.3757638177e+01   6.3137405826e+01    0.2919747    0.2099352  27.78  0.001518862    1.390    0.281
       181 -10.1743    240.1932     32.5742   2.0884546100e+00   2.2184418580e+01    0.1555733    0.1054591  61.59 0.0009493357    1.729    0.422
       182 -10.0458    216.9726     32.0389   3.8668436077e+00   2.7069475123e+01    0.1725288    0.1515733  27.35 0.0003442464    1.560    0.359
       183 -10.5054    183.2429     32.1942   7.3772966759e+00   3.4829903642e+01     0.194326    0.1411748 -66.82 0.0004967056    1.317    0.241
       184 -12.2652     58.0698     29.8997   3.6778762182e+01   6.5319944039e+01    0.3795839    0.2912481   3.09  0.001200006    1.387    0.279
       185 -11.6544     49.1521     30.2701   4.1205356243e+01   6.6842015502e+01    0.6477575    0.2882387  34.75  0.002302921    2.245    0.554
       186  -9.8773    135.7855     30.5461   1.3923391270e+01   4.7041812377e+01    0.2263749    0.1664299 -36.49  0.001048175    1.431    0.301
       187 -11.9272     26.6005     28.5768   5.3042369632e+01   7.0383231311e+01    0.4491698    0.3034048 -56.88  0.002103304    1.744    0.426
       188  -9.2734     22.6184     31.7515   5.6923486180e+01   7.0206732112e+01    0.1335835   0.08562657 -15.00 0.0004426677    1.652    0.395
       189 -12.5789    125.5484     27.6051   1.4864037412e+01   5.0042441834e+01    0.4618315    0.3701949 -82.26 0.0008117185    1.337    0.252
       190  -9.6869    196.9791     28.9965   5.0205517085e+00   3.1947358933e+01    0.1619366    0.1390481 -67.03 0.0005486441    1.012    0.012
       191 -10.8246    230.2001     27.2671   1.6811990690e+00   2.4831619990e+01    0.2537226     0.181854  57.64  0.001146233    1.679    0.405
       192 -10.5591    188.8144     27.3324   5.4377943250e+00   3.4075349462e+01    0.3251891    0.1957334  52.82  0.001234395    1.849    0.459
       193 -10.0487     97.9947     26.9862   2.1136759552e+01   5.7034746080e+01    0.2696157    0.1905563 -28.46  0.001370538    1.533    0.348
       194  -9.8596     34.6913    245.3494   8.4384481998e+01   1.8868407470e+01    0.1263247   0.06081663  56.49 0.0007044034    1.710    0.415
       195 -11.2516    182.6769     25.3013   5.5583590154e+00   3.5794340377e+01    0.2414037    0.2234458  79.89 0.0007443853    1.145    0.126
       196 -11.4838    143.9569     25.4214   1.0779151134e+01   4.5551142028e+01    0.3886677    0.2095444  82.11  0.001649255    2.065    0.516
       197 -11.3364    126.8717    241.7074   6.4614682447e+01   7.8906311124e+00    0.2424808    0.1348372  36.36  0.001341931    1.428    0.300
       198 -10.0593     13.9675     22.7226   5.8701963241e+01   7.2807060380e+01    0.1844672    0.1398962 -18.03            0    1.155    0.134
       199 -11.8181    154.5206     24.0192   8.7223323675e+00   4.2994775615e+01    0.4005188    0.2235064 -89.46   0.00174524    2.059    0.514
       200 -10.1091    155.3128     20.6858   7.5700945098e+00   4.3167424462e+01    0.1908065    0.1615163  39.88 0.0004392588    1.363    0.266
       201 -11.9411    135.7224     22.5682   1.1184948444e+01   4.8009000131e+01    0.6447739    0.2694182  62.33  0.002614369    2.086    0.521
       202 -10.4560     59.8892     22.4973   3.2321683317e+01   6.6095798021e+01    0.3340658    0.1784494 -29.88  0.001567776    1.977    0.494
       203 -10.4472     38.7094     22.3149   4.2758958487e+01   6.9850077428e+01    0.2441403    0.1769085 -25.47 0.0006641429    1.327    0.247
       204 -10.9763    146.8385    238.5043   6.0047383542e+01   5.6209607996e+00    0.3072215    0.2411781  79.00   0.00185492    2.116    0.527
       205 -11.3171    186.5085     15.0360   2.3979377957e+00   3.6010359692e+01    0.2476782    0.1900827 -88.53 0.0003826532    1.168    0.144
       206 -10.9340     67.4452    241.0426   7.7263979550e+01   1.5892067301e+01    0.2176179    0.1551012  20.66 0.0007442617    1.539    0.350
       207 -10.0819    167.4034    238.2417   5.5832745518e+01   2.8152487643e+00    0.1386732    0.1189692 -49.24 0.0009425868    1.601    0.376
       208  -9.8757     49.2964    238.3215   8.0941300135e+01   1.8561268517e+01    0.1031461    0.0908966 -15.79 0.0007020023    1.618    0.382
       209 -10.0581      5.5787     22.4678   6.4608283443e+01   7.3508752117e+01    0.1902418    0.1581358 -34.48 0.0001276507    1.065    0.061
       210 -11.0057      8.8768     19.8790   6.1080125689e+01   7.3781281380e+01    0.2881665     0.187081 -17.47            0    1.445    0.308
       211  -9.6426     15.4191    233.7659   8.7792328434e+01   2.3012741459e+01    0.1418572   0.09633511 -73.01 0.0009440151    1.664    0.399
       212 -11.4076     73.4305    238.6846   7.5788476481e+01   1.5579475345e+01    0.5227929    0.2113357  35.78  0.002556027    1.899    0.473
       213  -9.6729    246.3352    230.6922   4.0435968244e+01  -6.0625530318e+00   0.09066895   0.08203968   8.35 0.0007041827    1.674    0.403
       214  -9.7042     75.5093    224.4853   7.4079967401e+01   1.8014209498e+01    0.1285245    0.1047384  46.34 4.305084e-05    1.002    0.002
       215  -9.4776    248.6736    223.6871   3.8958145246e+01  -5.5078612567e+00    0.1157927   0.06573064  -1.46 0.0006438292    1.665    0.399
       216  -9.7740     46.8296     20.2882   3.7329192953e+01   6.8839301980e+01    0.1979473    0.1619678  49.94 0.0008967682    1.446    0.308
       217 -10.0492    143.5358    215.9533   5.7661849102e+01   9.8302961882e+00    0.1813142    0.1032233 -23.79 0.0008094931    2.606    0.616
       218  -9.4267    164.4693    211.5268   5.2494530540e+01   7.4088011899e+00    0.1309298    0.1105098  18.29 0.0003101843    1.021    0.021
       219  -9.9233     74.7441     19.2742   2.4894308343e+01   6.3416254924e+01    0.1911909    0.1444898  21.63 0.0009018982    1.367    0.268
       220 -10.0843    152.1689    206.1747   5.4291381393e+01   1.0222526901e+01    0.1811223    0.1545081  52.63  0.001082265    1.382    0.276
       221 -10.3429     79.2416    204.8713   7.1211338123e+01   2.1523292882e+01    0.3377693    0.1851392  76.93   0.00145346    2.699    0.630
       222  -9.2510     61.3335    206.6898   7.5746521855e+01   2.3499601821e+01    0.1418298   0.08111914  57.41 0.0007043187    1.675    0.403
       223 -11.4525    238.1004     16.3178   3.5874693487e+02   2.4461361336e+01    0.2221213    0.1560037  80.41  0.001021157    1.460    0.315
       224 -10.1285    138.8087    198.7976   5.6124447174e+01   1.3700659186e+01    0.1880468    0.1576341  54.80 0.0009886737    1.341    0.254
       225 -10.2464    211.0949     16.0292   5.5587775558e-01   3.0206867009e+01    0.1855297    0.1538851 -63.72 0.0003080423    1.028    0.027
       226 -11.1882      4.7740    184.5818   8.8033117973e+01   3.4362590897e+01    0.5246969    0.2647063  57.22  0.002820234    1.679    0.404
       227 -10.0991    175.6332    180.1872   4.4745885515e+01   1.1040960018e+01    0.1922201    0.1209158 -30.45 0.0009470799    1.660    0.397
       228  -9.6485     69.2091    169.0118   6.9469958709e+01   3.1097241729e+01    0.2005305    0.1613009  -3.13 0.0008502275    1.608    0.378
       229 -10.8097    120.8736     11.6180   9.8308105920e+00   5.2996443085e+01    0.3226354    0.1196145  67.35  0.001121322    2.381    0.580
       230 -10.5813      9.1195    166.9151   8.5973383954e+01   3.8162233535e+01    0.2077305    0.1445729  62.27   0.00100789    1.253    0.202
       231 -10.8388    205.3104    163.5193   3.5643049701e+01   8.9337503511e+00    0.2538795     0.216618 -47.12 0.0008691275    1.388    0.279
       232 -10.2616     14.2218    159.4973   8.4081245606e+01   3.9558116326e+01    0.2415138     0.159431 -85.34  0.000781243    1.358    0.264
       233 -10.5099    104.3879    154.4473   5.7209398565e+01   2.9068760470e+01     0.300506     0.267953  76.08  0.001594852    1.194    0.163
       234 -12.7988     22.9596    148.5707   8.0635506263e+01   4.1544290527e+01    0.5106545     0.295467 -40.94  0.001655948    2.162    0.537
       235 -10.4493     16.8034    147.8848   8.2426103048e+01   4.2240781325e+01      0.30429    0.1655862 -77.18 0.0004143148    1.651    0.394
       236  -9.8743    142.4680    152.4910   4.6803584498e+01   2.2465024083e+01    0.2729933    0.1337793  49.29  0.001034042    2.255    0.556
       237 -10.9931     47.3356    146.8481   7.2959623234e+01   3.9470282355e+01    0.5716797    0.3779531 -33.12  0.002697096    1.982    0.496
       238 -10.0927    104.0271    147.3913   5.5959327163e+01   3.0808534811e+01    0.2227653    0.2034552 -58.33  0.001179347    1.132    0.116
       239 -10.5646     33.1050    144.4525   7.7095987248e+01   4.1637371174e+01    0.2664114    0.2092476 -86.62 0.0007534255    1.179    0.152
       240 -11.4422      3.7006    142.4337   8.5940933458e+01   4.4568967343e+01    0.5611522    0.2625691  40.44  0.002520867    2.028    0.507
       241 -11.6980     80.4110    138.6862   6.1308430114e+01   3.6957779227e+01    0.2803024    0.2533864  47.14 0.0002895202    1.080    0.074
       242 -10.0460     40.5025    137.9918   7.3949303618e+01   4.2529332593e+01    0.2122977     0.131298 -73.40 0.0006537645    1.536    0.349
       243 -11.2183     24.1263    136.9594   7.9111799855e+01   4.4408042166e+01    0.3186904    0.2754706 -39.65 0.0009528841    1.316    0.240
       244  -9.9632     20.7841    134.1942   7.9899011054e+01   4.5405333391e+01    0.2368067    0.2055581 -87.82  0.001312148    1.024    0.023
       245  -9.4883     32.2192    137.4275   7.6557123053e+01   4.3534703732e+01    0.1884632    0.1199157  40.80  0.000545134    1.550    0.355
       246 -10.4106     12.4699    135.3176   8.2678469962e+01   4.5763995659e+01     0.376427     0.133321 -48.92  0.001432265    3.155    0.683
       247  -9.9996     73.4865    133.0430   6.2434015446e+01   3.9472477770e+01    0.2311211    0.1458202 -61.85 0.0007465002    1.576    0.366
       248 -10.6442     30.1846    132.5975   7.6636082213e+01   4.4982705911e+01    0.2938917    0.2325754 -30.98 0.0008548566    1.496    0.332
       249 -10.0397     10.2472    126.5764   8.2610198854e+01   4.8156164934e+01    0.1695225    0.1281068  -7.25 0.0009572111    1.651    0.394
       250 -11.1461    104.2508    122.4815   5.0524297069e+01   3.6747263759e+01    0.3485383    0.3112828  40.03 0.0009966181    1.106    0.096
       251  -9.1171     84.7050    123.2487   5.6812451074e+01   4.0126949470e+01    0.1501955    0.1152593  65.78            0    1.484    0.326
       252 -11.0198    216.1042     20.4140   1.2032256448e+00   2.8616735983e+01    0.2754592    0.2259063  48.50  0.001450894    1.569    0.363
       253  -9.2489     67.7051    123.2972   6.2454211776e+01   4.2841236132e+01     0.152335    0.1121644  68.57 0.0002750269    1.566    0.361
       254  -9.3318     56.3331    121.7260   6.6053496591e+01   4.4850200695e+01    0.1518733    0.1065795  62.24 0.0003829893    1.597    0.374
       255  -9.8619     44.6233    119.8459   6.9834289657e+01   4.6794492255e+01     0.214246    0.1750073 -76.18 0.0005646627    1.169    0.144
       256 -10.1279     43.4889    115.9844   6.9582862230e+01   4.7932262783e+01    0.2827448     0.213773  70.18 0.0008211615    1.439    0.305
