#   1 NUMBER                 Running object number                                     
#   2 MAG_AUTO               Kron-like elliptical aperture magnitude                    [mag]
#   3 X_IMAGE                Object position along x                                    [pixel]
#   4 Y_IMAGE                Object position along y                                    [pixel]
#   5 X_WORLD                Barycenter position along world x axis                     [deg]
#   6 Y_WORLD                Barycenter position along world y axis                     [deg]
#   7 A_WORLD                Profile RMS along major axis (world units)                 [deg]
#   8 B_WORLD                Profile RMS along minor axis (world units)                 [deg]
#   9 THETA_WORLD            Position angle (CCW/world-x)                               [deg]
#  10 FWHM_WORLD             FWHM assuming a gaussian core                              [deg]
#  11 ELONGATION             A_IMAGE/B_IMAGE                                           
#  12 ELLIPTICITY            1 - B_IMAGE/A_IMAGE                                       
         1 -14.5766     68.3772    144.1730   1.1082010124e+02   3.7300662245e+01     4.863749      2.34394  72.20   0.00692468    3.940    0.746
         2 -14.1087    217.1167     15.2170   4.3426935009e+01   2.8719284943e+01     1.285762      1.03547  29.99  0.002715038    1.603    0.376
         3 -13.8080    194.4112     37.6721   5.2369177321e+01   3.1717427863e+01     1.554835     1.068996  24.16  0.004218052    2.008    0.502
         4 -14.1000    202.6511     31.1020   4.9369578076e+01   3.0457271708e+01     1.714526     1.418814  -0.44  0.007168144    1.495    0.331
         5 -11.7880      2.1448     24.9120   1.0712551461e+02   7.0091166262e+01    0.4923258   0.07481722 -52.80  0.001991538    3.327    0.699
         6 -12.4611      2.5145      6.1691   9.9597431436e+01   7.3367314737e+01     1.019232    0.1903324 -50.37  0.004054224    3.953    0.747
         7 -11.0992     43.3604      4.2952   7.7647290238e+01   6.9428164569e+01    0.2148129    0.1773789 -11.31 0.0006375643    1.159    0.137
         8  -9.8493     54.3225      4.6997   7.3248590455e+01   6.7738759928e+01    0.1054796    0.0964672 -46.20 0.0002608525    1.628    0.386
         9 -12.4198    210.2705     23.2300   4.6279879278e+01   2.9495730438e+01    0.4873757    0.4029476  38.72   0.00107765    1.434    0.303
        10  -8.9182    237.5919    207.5113   8.5730537664e+01  -4.8914509005e+00    0.1232388    0.1012801  10.22 0.0001170841    1.031    0.030
        11 -12.4151     92.1518    234.7120   1.1671838947e+02   1.4938678276e+01    0.4757799    0.2936573 -65.46  0.001411945    1.824    0.452
        12 -15.0183    108.0961    247.8778   1.1513296254e+02   1.0395554423e+01      5.98946     2.423847  30.37  0.006937528    4.991    0.800
        13 -11.9324     71.3641    175.6871   1.1450217434e+02   2.9656488465e+01    0.2841619    0.2490713 -50.77 0.0007811944    1.434    0.302
        14  -9.2626    150.5292    182.4622   9.8072359453e+01   1.4862663820e+01    0.1413246    0.1266036  58.61 0.0008076198    1.075    0.070
        15  -9.2982     99.5128    180.5120   1.0890474404e+02   2.4347032550e+01    0.1353586    0.1186261  73.18 4.778003e-05    1.009    0.009
        16 -10.3361    210.8297    179.0734   8.5198001709e+01   3.8717875392e+00    0.2797337     0.166784  20.14  0.001259309    2.091    0.522
        17  -9.9020    143.9689    179.0000   9.8874909155e+01   1.6785370059e+01    0.2417633   0.07504934  42.60 0.0008077351    2.979    0.664
        18 -13.5908     40.9355    209.6855   1.2398707836e+02   2.6403800808e+01    0.6396585    0.4736737  81.01  0.001318324    1.073    0.068
        19  -9.4171    167.3164    175.1994   9.3169705285e+01   1.3001740042e+01     0.417482     0.237944 -74.87  0.001237062    5.403    0.815
        20 -16.2188     12.0756    241.2945   1.3067558508e+02   2.3692754738e+01     2.292099     1.712706  52.37    0.0131357    1.411    0.291
        21  -9.4760     97.0928    191.1755   1.1089168916e+02   2.2487217527e+01    0.1821383    0.1765248 -82.00 0.0008701417    1.258    0.205
        22 -10.5104    195.2318    168.9445   8.6181903609e+01   8.5933953204e+00    0.3284408    0.3059721  52.46 0.0007943389    1.180    0.152
        23 -11.7113     34.8124    166.9413   1.2161375006e+02   3.6093587856e+01    0.3760558    0.2723339  58.24  0.001361543    1.300    0.231
        24  -9.8306    145.5965    168.1889   9.6544266515e+01   1.8656556166e+01    0.1956359    0.1370863 -38.38 0.0004566478    1.627    0.385
        25 -13.4436     67.9650    162.0346   1.1351388662e+02   3.3198632907e+01    0.5651714    0.4344618 -40.41  0.001198141    1.727    0.421
        26  -9.2585    190.2850    160.6776   8.5449786313e+01   1.1074561410e+01     0.139065    0.1171227 -84.39 0.0004270867    1.597    0.374
        27 -15.5898      7.3125    200.3683   1.2950374051e+02   3.1756539419e+01     4.298823     1.035383 -80.24  0.008109337    3.604    0.723
        28 -10.9367    133.6493    144.3166   9.4523928653e+01   2.6121806969e+01     1.163682    0.2697344 -54.90  0.002518433    7.129    0.860
        29  -9.8379    175.0239    149.0013   8.6105478587e+01   1.6490535307e+01    0.2336379    0.1876258  88.77  0.000557342    1.660    0.398
        30 -11.8217     54.2661    147.4955   1.1483590008e+02   3.8341297380e+01    0.4499409    0.2794586 -60.40  0.002442481    1.482    0.325
        31 -10.7132     39.1571    146.3660   1.1839300794e+02   4.0323823428e+01    0.2653698    0.2165973  69.00 0.0008475849    1.182    0.154
        32 -10.3065    100.3885    143.8171   1.0264171686e+02   3.2445795893e+01    0.3309738    0.2617772 -47.41  0.001432952    1.342    0.255
        33  -9.7147    103.3313    140.3480   1.0122676295e+02   3.2743302671e+01     0.275446    0.2264022 -25.71  0.001258269    1.570    0.363
        34 -12.4121     88.2676    142.9255   1.0555163833e+02   3.4655721047e+01    0.4124478    0.3085618  21.64  0.002108377    1.772    0.436
        35 -10.7750     33.3030    144.1708   1.1955776134e+02   4.1435048850e+01    0.2690775    0.1395326 -68.86  0.001423328    1.586    0.369
        36 -11.5509     28.6075    143.6423   1.2063687168e+02   4.2013761872e+01    0.3426815    0.2587564 -12.68  0.002073865    2.145    0.534
        37  -9.7581     36.0261    140.2425   1.1841853197e+02   4.2076070290e+01    0.1684227    0.1446861  86.73  0.000427001    1.093    0.085
        38  -9.2055     79.4690    139.5103   1.0720654393e+02   3.6818083245e+01    0.1405454    0.1242359 -83.86 7.361027e-05    1.009    0.009
        39  -9.7324     30.3417    133.3116   1.1899704964e+02   4.4253248411e+01    0.1240357   0.08340019 -46.54  0.000704595    1.698    0.411
        40 -10.1255    110.7653    131.8999   9.7575627727e+01   3.3367833905e+01    0.3079056    0.2374232   8.57  0.001094266    1.874    0.466
        41 -10.0196    105.9276    130.7225   9.8582494626e+01   3.4526729110e+01    0.3182913    0.2515105  77.33  0.001127276    1.414    0.293
        42 -10.6828    159.8754    128.7310   8.4765304499e+01   2.3928663140e+01    0.3786229    0.2251565 -30.88  0.001508614    2.010    0.502
        43 -10.7278    135.8378    129.4355   9.0666049469e+01   2.8974954723e+01    0.3713802    0.1307423 -46.44  0.001204832    2.828    0.646
        44 -12.6554     86.7755    158.9254   1.0860062235e+02   3.1170004373e+01      1.04764    0.7714299 -69.09  0.001129968    1.283    0.221
        45 -10.9715     98.1189    128.3632   1.0014507143e+02   3.6458753865e+01    0.2897845     0.250884 -31.98 0.0007388094    1.339    0.253
        46  -9.4880    126.1595    127.7440   9.2693588454e+01   3.1340714777e+01    0.2572985     0.165448  86.20 0.0009432705    2.749    0.636
        47 -10.3432    117.0491    126.2040   9.4678477584e+01   3.3492901538e+01    0.2856468     0.228698 -69.44  0.001420699    1.300    0.231
        48 -11.8265     22.6939    118.3969   1.1911200770e+02   4.8421099922e+01    0.4476169     0.185629 -61.65  0.002200221    1.878    0.467
        49  -9.7052    107.5197    120.1262   9.5798311844e+01   3.6705469294e+01    0.2025201    0.1966729  74.83 0.0003701215    1.060    0.057
        50 -11.6595     80.4705    165.7010   1.1110241664e+02   3.0582114404e+01    0.3333614    0.2613259 -86.74 0.0004049551    1.174    0.148
        51 -10.1424    167.7565    112.8116   7.8951022183e+01   2.5420956628e+01    0.3922577    0.2923909 -69.57  0.001268416    1.704    0.413
        52  -9.8546    134.6949    112.4994   8.6773644281e+01   3.2967305926e+01     0.285001    0.1396495 -45.51  0.001069171    2.004    0.501
        53  -9.9097    205.3767    110.2374   7.0562501239e+01   1.7093236145e+01    0.3112106    0.2133131  45.32 0.0009744206    1.513    0.339
        54 -10.5922     22.4245    108.7643   1.1785768374e+02   5.0696613141e+01    0.1842605   0.08924057 -60.88 0.0005213519    1.619    0.382
        55 -11.4555     42.2600    104.6766   1.1133402153e+02   4.9855704615e+01    0.3163258    0.2384099  52.83  0.001054331    1.513    0.339
        56  -8.9798    164.5452    206.2107   9.9170690245e+01   7.9664667600e+00    0.1604215    0.1273623 -26.94 0.0004714816    1.521    0.342
        57 -10.6266    138.0594    171.3320   9.8805761123e+01   1.9463239454e+01    0.2807492     0.217126 -64.45  0.001253599    1.400    0.286
        58 -10.0218    242.6603    102.3272   6.2308252588e+01   1.0126501786e+01    0.1478578    0.1057271 -62.79 0.0001977104    1.733    0.423
        59  -8.8511     91.4556    102.5327   9.6060659508e+01   4.3658322860e+01    0.1479191    0.1344002 -74.15 0.0008058876    1.107    0.097
        60  -9.9845    134.4460    102.7489   8.4236611306e+01   3.5146339762e+01    0.3776293    0.1512388 -41.78  0.001086189    2.494    0.599
        61 -11.2992      2.2257     81.6284   1.2000124389e+02   5.8235486915e+01    0.4294071   0.06553542 -68.08  0.001479309    4.026    0.752
        62  -8.9085    184.3292     77.3218   6.5629432633e+01   2.8141116366e+01    0.1610919    0.1223271  18.45 0.0007048917    1.693    0.409
        63  -9.3563     24.9569     82.3552   1.1257993726e+02   5.6611136908e+01    0.1610417    0.1409469 -56.54   0.00047025    1.102    0.093
        64  -9.2334     54.0495     65.2988   9.8035846565e+01   5.7489702339e+01    0.1732222    0.1605986 -29.76 0.0003925732    1.099    0.090
        65  -9.1448      1.6703     63.3346   1.1707851217e+02   6.2295623826e+01    0.1111545   0.07944528  78.20 0.0007052063    1.726    0.421
        66  -9.4493    107.9449    203.4888   1.1022773064e+02   1.8271449829e+01    0.1905561    0.1134581  43.56 0.0004426657    1.506    0.336
        67 -10.1832     13.4815     59.9702   1.1191707591e+02   6.2375436115e+01    0.1854486    0.1674447 -32.46 0.0004262106    1.216    0.178
        68  -8.9547     37.4400     56.5473   1.0167314807e+02   6.1176350048e+01    0.1280322    0.1032831 -41.45 8.187754e-05    1.012    0.012
        69 -11.6272    146.5327     50.9214   6.5229680538e+01   4.2154347646e+01    0.6421124    0.3998494 -81.48  0.001991438    2.953    0.661
        70 -14.4272     67.7423    244.3015   1.2180751655e+02   1.6672818815e+01     2.923929    0.7352824  48.39  0.009409743    2.834    0.647
        71 -11.7108    193.3311    194.0683   9.1424442316e+01   4.7166614526e+00    0.7920335    0.4774031 -59.65  0.003556319    2.734    0.634
        72 -10.5634     77.5897    235.7042   1.1941684587e+02   1.6831972222e+01    0.2516983    0.1384697  81.04  0.001437471    1.998    0.500
        73 -11.0947    148.0444     44.3502   6.2680017244e+01   4.2779629364e+01    0.3159105    0.2721674 -77.52  0.000463427    1.320    0.243
        74  -9.5368    143.7681     40.9549   6.2436029828e+01   4.4350040985e+01    0.2202809    0.2129913  59.69 0.0002920877    1.042    0.040
        75 -16.2678     40.8702    191.5296   1.2256686146e+02   3.0101977449e+01     8.696031     3.202288  69.49   0.03340479    3.919    0.745
        76 -12.0835     66.6427    181.2737   1.1620118121e+02   2.9079550592e+01     0.391059    0.2764141 -41.57  0.001542661    2.059    0.514
        77 -10.8893    189.5256     15.1414   4.6483570254e+01   3.5728416088e+01    0.2773432    0.2014185 -68.11 0.0008045628    1.418    0.295
        78 -10.5648     71.0131    230.1110   1.2011940096e+02   1.8728162240e+01    0.3585937    0.1473847  38.62 0.0008497631    2.330    0.571
        79 -11.2516    183.7193    215.6517   9.6962133896e+01   3.0581564857e+00    0.2638561    0.1849258  47.96  0.001524409    1.355    0.262
