#   1 NUMBER                 Running object number                                     
#   2 MAG_AUTO               Kron-like elliptical aperture magnitude                    [mag]
#   3 X_IMAGE                Object position along x                                    [pixel]
#   4 Y_IMAGE                Object position along y                                    [pixel]
#   5 X_WORLD                Barycenter position along world x axis                     [deg]
#   6 Y_WORLD                Barycenter position along world y axis                     [deg]
#   7 A_WORLD                Profile RMS along major axis (world units)                 [deg]
#   8 B_WORLD                Profile RMS along minor axis (world units)                 [deg]
#   9 THETA_WORLD            Position angle (CCW/world-x)                               [deg]
#  10 FWHM_WORLD             FWHM assuming a gaussian core                              [deg]
#  11 ELONGATION             A_IMAGE/B_IMAGE                                           
#  12 ELLIPTICITY            1 - B_IMAGE/A_IMAGE                                       
         1 -12.9045    201.4649     34.4220   5.6539437262e+01   3.0306975190e+01     1.407813      1.24866  28.11  0.007164724    1.214    0.176
         2 -13.4552    217.8359     17.0143   4.9438306405e+01   2.8065050932e+01     1.421271     1.002618  29.13  0.007047074    1.737    0.424
         3 -11.5529      2.1178      4.7762   1.0852772014e+02   7.4100727005e+01    0.7354578    0.2516544 -54.72   0.00383622    2.087    0.521
         4 -11.6039      1.6208     18.0213   1.1350124799e+02   7.1567771347e+01    0.3992211     0.324699  80.37 0.0004357109    1.627    0.385
         5 -11.6655      2.4690     14.5070   1.1191433339e+02   7.2220845791e+01    0.3886676    0.2615615 -31.26  0.002552774    1.368    0.269
         6  -9.3667     89.7574    245.5751   1.2076762496e+02   1.6685906434e+01    0.1493569   0.06781288  50.26 0.0004987653    1.574    0.365
         7 -14.8983     10.3572    206.8911   1.3178884196e+02   3.1880448545e+01     10.67686     4.187573 -87.36   0.03757008    2.222    0.550
         8 -13.9530     32.6656    216.4105   1.2845036855e+02   2.8071713460e+01     1.856696    0.5603181  37.20  0.009841514    2.926    0.658
         9 -10.9205    133.0296    230.6963   1.1213468120e+02   1.2696613356e+01    0.3141262    0.1136324  37.13  0.001472003    2.595    0.615
        10  -9.3761     88.4811    221.4981   1.1908984521e+02   2.0500948845e+01    0.1111909   0.08373967  58.22 0.0002748223    1.018    0.018
        11 -13.0534     11.5923    237.7617   1.3270514522e+02   2.6719538984e+01     1.385188    0.5332518  71.75  0.009191652    2.081    0.519
        12  -9.9812    225.9425    200.8306   9.1860371070e+01   1.4929085984e+00    0.2893008    0.2085336 -52.25 0.0009137412    2.334    0.572
        13 -11.2659     55.4200    192.1196   1.2277842724e+02   2.9827927740e+01    0.2409109    0.2158612 -60.95  0.000612469    1.546    0.353
        14 -11.9447      5.5338    185.2738   1.3173954270e+02   3.6167920296e+01    0.4878133    0.2219938  58.23  0.002016829    1.672    0.402
        15 -11.4600     62.0493    184.6093   1.2084801328e+02   3.0430182708e+01    0.2295289    0.2023082 -79.18 0.0004597443    1.322    0.243
        16 -10.5042     73.0473    172.7968   1.1742560368e+02   3.1302323107e+01    0.2114481    0.1801894 -85.47 0.0003767799    1.178    0.151
        17 -12.8613     59.3713    170.1822   1.2005266005e+02   3.3571083565e+01    0.4166242     0.252689 -49.99   0.00157226    2.195    0.544
        18 -11.5262     81.1417    164.3361   1.1470509820e+02   3.1879734849e+01    0.5040925    0.4494515  67.88  0.003454624    1.118    0.106
        19 -10.0977     22.9336    156.4960   1.2666886988e+02   4.0243538529e+01    0.1513621   0.09915014  41.63 0.0008475165    1.564    0.360
        20  -9.5865     94.8750    149.3065   1.0953001468e+02   3.2925234512e+01    0.2530981    0.2159993  43.14 0.0007916481    1.234    0.189
        21 -11.6950     83.2163    148.0629   1.1207728878e+02   3.4942469428e+01    0.2568049    0.2209916 -58.30 0.0006145432    1.299    0.230
        22 -12.1355     67.4976    143.8161   1.1522532257e+02   3.8016630213e+01    0.6562314     0.398127  66.33  0.002944357    1.699    0.411
        23 -13.0476      9.3986    248.2827   1.3335656963e+02   2.5335668301e+01     2.358955    0.4951812  34.79   0.01078571    5.281    0.811
        24  -9.0702    108.0656    134.9579   1.0397928726e+02   3.3771789909e+01    0.2040308    0.1708613  -9.18  0.000531162    1.692    0.409
        25  -8.5540     98.2404    145.5538   1.0815431811e+02   3.3176434266e+01    0.1669809    0.1254031  32.28 0.0003039873    1.521    0.342
        26 -10.0013     94.7022    132.2428   1.0678180484e+02   3.6572697397e+01    0.2180181    0.2131515 -40.44 0.0006119524    1.224    0.183
        27  -8.9905    105.5123    122.4927   1.0222059027e+02   3.6873346866e+01    0.1383703     0.129694  84.40 2.963793e-05    1.010    0.010
        28  -9.6799     53.3982    118.1808   1.1522857748e+02   4.5407166713e+01    0.1864402    0.1068497 -80.73 0.0009537474    1.736    0.424
        29  -9.5525    167.7272    112.6326   8.5134360638e+01   2.6235277884e+01    0.3504035    0.2658987 -85.92  0.001087541    1.878    0.468
        30  -8.4566    203.4772    111.4799   7.7672929995e+01   1.8340954190e+01    0.1475432    0.1362226  13.31 0.0001362378    1.034    0.033
        31 -13.5106     42.2065    206.1221   1.2621101944e+02   2.8816779268e+01     1.286038    0.7735055  56.36  0.001306089    1.262    0.208
        32 -10.8821    243.1948     94.0725   6.6783891352e+01   1.2121082817e+01    0.2761294    0.1815856 -43.78  0.001369069    1.608    0.378
        33  -8.9395    160.4968     79.4798   7.7767731971e+01   3.3988428606e+01    0.1533203    0.1495715  19.31 0.0003064777    1.020    0.019
        34 -12.5507     26.4061    223.8704   1.2984702045e+02   2.7478183290e+01    0.3263483    0.2616392 -64.43 0.0007431849    1.813    0.448
        35 -11.4339      2.3268     51.0020   1.2087987915e+02   6.4639210008e+01    0.4154004    0.1728866 -75.12   0.00214942    2.035    0.509
        36 -10.1656    161.6570    249.5882   1.0932194114e+02   5.9875971995e+00    0.2262941   0.07804186  39.52  0.001152517    2.201    0.546
        37 -10.2903    139.1225    247.9663   1.1285458205e+02   9.4961951586e+00    0.2300765    0.1349644 -37.50  0.001459062    2.819    0.645
        38 -11.1014      1.6391     28.4884   1.1641891786e+02   6.9443240785e+01      0.42488    0.1345624 -69.18  0.001914149    2.767    0.639
        39 -11.4012     20.5821     27.1802   1.0687612892e+02   6.8568194337e+01    0.5310448    0.2203952  42.88  0.002439612    3.670    0.728
        40  -9.4795     56.6886    240.2246   1.2577792525e+02   2.1580151051e+01    0.1945582    0.1031892  65.10  0.001000281    1.505    0.336
        41 -10.2077    133.9732    247.4835   1.1365719615e+02   1.0304733921e+01    0.1746672   0.07884575  43.13  0.001037554    1.605    0.377
