#   1 NUMBER                 Running object number                                     
#   2 MAG_AUTO               Kron-like elliptical aperture magnitude                    [mag]
#   3 X_IMAGE                Object position along x                                    [pixel]
#   4 Y_IMAGE                Object position along y                                    [pixel]
#   5 X_WORLD                Barycenter position along world x axis                     [deg]
#   6 Y_WORLD                Barycenter position along world y axis                     [deg]
#   7 A_WORLD                Profile RMS along major axis (world units)                 [deg]
#   8 B_WORLD                Profile RMS along minor axis (world units)                 [deg]
#   9 THETA_WORLD            Position angle (CCW/world-x)                               [deg]
#  10 FWHM_WORLD             FWHM assuming a gaussian core                              [deg]
#  11 ELONGATION             A_IMAGE/B_IMAGE                                           
#  12 ELLIPTICITY            1 - B_IMAGE/A_IMAGE                                       
         1 -14.3610    148.6830     59.0846   8.9844906239e+01   3.9989277147e+01     1.303696    0.9170152 -17.25  0.002839002    1.557    0.358
         2 -14.8475    159.3985     44.2140   8.2740368002e+01   3.9600728673e+01     1.427098     1.032713 -23.04   0.00381192    1.425    0.298
         3 -14.6635    172.1471     12.0806   7.0213008534e+01   4.0175460682e+01      1.26963    0.9918838  45.26  0.004563496    1.241    0.194
         4 -12.8894    189.9492     14.3965   6.8496533037e+01   3.5413514724e+01    0.4830169    0.3450051 -10.28  0.001921731    1.609    0.378
         5 -11.1609    167.4782    245.9691   1.2592985922e+02   3.4314670423e+00    0.1420428    0.1156767 -41.18 0.0005303692    1.575    0.365
         6 -20.2663     80.8711    180.2075   1.3409718519e+02   2.7916427754e+01     15.15151     6.199567 -65.01   0.06943578    2.488    0.598
         7  -9.9948     18.6578    198.6585   1.4788877783e+02   3.1479188716e+01   0.09579643    0.0736637 -54.31 0.0007048481    1.778    0.438
         8 -13.2547    144.9999    190.1803   1.2220450823e+02   1.5740799809e+01    0.5454624    0.4683531  22.50  0.002650561    1.252    0.202
         9 -11.7121     12.8420    242.2166   1.5113133794e+02   2.4411434577e+01    0.1370652     0.107441  80.92  0.001232021    1.257    0.204
        10 -13.9732    201.2206    163.7941   1.0598958959e+02   9.6932605728e+00     3.426217      1.13029 -50.66  0.007539815    9.451    0.894
        11 -13.3463    206.2689    178.0091   1.0789114181e+02   6.4857396718e+00    0.6331037    0.3824751  25.80  0.003098355    1.742    0.426
        12 -12.1324    203.5067    175.0270   1.0782774155e+02   7.4642618495e+00    0.3671862    0.2679282 -34.86  0.001231096    1.455    0.313
        13 -11.8791    203.8034    170.5403   1.0687434693e+02   8.1123874352e+00    0.5467551    0.2591325  33.14  0.002218976    2.236    0.553
        14 -10.5258    150.8574    240.3077   1.2812341690e+02   6.7879296582e+00     0.171447    0.1470918  77.23  0.001073954    1.388    0.280
        15 -12.2785    199.2191    178.9536   1.0941488742e+02   7.6569097741e+00    0.4979389    0.3184721 -62.74  0.001770083    2.957    0.662
        16 -13.5179    195.6705    169.6094   1.0825728366e+02   9.8248756363e+00    0.4714233    0.4440598 -25.91  0.001369634    1.176    0.150
        17 -12.6460    193.8076    164.9603   1.0767763998e+02   1.0953275743e+01    0.3741226    0.3347597  31.69  0.001226511    1.074    0.069
        18 -11.7646    167.9646    240.0841   1.2509043677e+02   4.1294517814e+00    0.1777891    0.1399309  38.97 0.0003386661    1.007    0.007
        19 -10.6176    160.8373    239.9300   1.2632209291e+02   5.2749716139e+00    0.2187733    0.1389014  32.05  0.001347816    1.443    0.307
        20 -12.5274    165.5871    172.2495   1.1483319115e+02   1.5170155591e+01    0.2948966    0.2291078  75.19  0.001534302    1.733    0.423
        21 -12.3252    230.2898    167.1130   1.0128846764e+02   3.6511138430e+00    0.3739297    0.2006795 -47.02  0.001660539    2.543    0.607
        22 -11.0027     28.4491    239.0205   1.4861688684e+02   2.3369243226e+01    0.1339319   0.07855542 -87.74 0.0007153937    1.501    0.334
        23 -14.0095    163.7177    156.6004   1.1213895209e+02   1.8396734763e+01    0.5676076    0.4869844  74.09  0.002052544    1.392    0.281
        24 -13.2437    159.6683    150.9714   1.1184176657e+02   2.0268745177e+01    0.4708852    0.3134455 -19.38  0.002106485    2.058    0.514
        25 -12.4494    134.6513    109.1171   1.0791940256e+02   3.3790476308e+01     1.171888    0.1780985 -45.01  0.002564381    6.588    0.848
        26 -14.5590    134.3287    147.4263   1.1678942810e+02   2.5921494139e+01     1.798068    0.5675161 -56.51  0.004927198    5.191    0.807
        27 -15.3661    143.4590    144.3761   1.1406296308e+02   2.4782418945e+01      1.12484     0.935802 -61.90  0.004643898    1.312    0.238
        28 -10.0354      3.5181    158.4593   1.4803399671e+02   4.0717081818e+01      0.10831   0.08192491 -88.30 8.590391e-05    1.040    0.039
        29 -11.1888     29.0962    156.8338   1.4253378331e+02   3.8895151889e+01    0.2510227    0.1723543 -75.03 0.0008883504    1.219    0.180
        30 -12.1603     21.6927    237.3719   1.4957123872e+02   2.4332291328e+01    0.1674888    0.1149304  86.23  0.001376024    1.222    0.182
        31 -11.3565     17.2367    153.4855   1.4477453033e+02   4.0663200239e+01    0.3072641    0.1957238 -48.04  0.001660303    1.917    0.478
        32 -11.0280    192.4120    153.2133   1.0547850876e+02   1.3219324281e+01    0.1946811    0.1347936 -46.87 0.0007234221    1.629    0.386
        33 -12.8659    173.9355    148.8336   1.0832303895e+02   1.7775707164e+01    0.4148166    0.3463158 -39.63  0.001506758    1.247    0.198
        34  -9.8957      8.2793    149.3314   1.4633638225e+02   4.2255498853e+01    0.1071118   0.06920648 -56.85 0.0003650585    1.604    0.377
        35 -12.1109     27.3059    145.5675   1.4177906862e+02   4.1477123666e+01    0.2970034    0.2737352 -70.62  0.001123099    1.251    0.201
        36 -12.1145    174.0571    140.5678   1.0646272124e+02   1.9280760735e+01    0.2720648    0.2105703 -58.16 0.0008017305    1.548    0.354
        37 -10.4958     18.5286    148.4819   1.4403561258e+02   4.1616683976e+01     0.194401     0.147947  16.94  0.001343694    1.858    0.462
        38 -14.5791    135.5516    129.3799   1.1261555297e+02   2.9412309064e+01     2.075172    0.4619841 -49.43  0.005365178    5.102    0.804
        39 -13.1891    160.5514    128.0965   1.0651416303e+02   2.4518758498e+01    0.4902193    0.3693396 -45.44  0.001734287    1.364    0.267
        40 -12.3068     23.5426    218.1322   1.4823679464e+02   2.7440770256e+01    0.2858604    0.1392736 -67.68  0.001869867    2.033    0.508
        41 -10.8924     18.1887    221.3884   1.4929273267e+02   2.7395558297e+01    0.1414138   0.09979647 -85.99 0.0004765433    1.273    0.214
        42 -10.2525    218.2711    219.6373   1.1319006931e+02  -1.3488757859e+00    0.1034476   0.09644194  72.57 0.0003799736    1.655    0.396
        43 -12.1525    207.3019    210.6947   1.1364619493e+02   1.6104045427e+00     0.214999    0.1871839  41.59  0.001097684    1.277    0.217
        44 -11.0605     30.8027    206.2660   1.4625158556e+02   2.8854998857e+01    0.1783283    0.1665715 -81.94 0.0009222882    1.449    0.310
        45 -13.0693     11.6151    205.9907   1.4953771701e+02   3.0771207818e+01    0.4042805    0.2252336  33.21  0.002765974    2.134    0.531
        46 -11.5518     24.0428    106.9734   1.3775596780e+02   5.0274838959e+01     0.268219    0.1851618  14.99  0.001252712    1.933    0.483
        47  -9.9716    146.0000    245.9055   1.2963533302e+02   6.7581764972e+00    0.1440353   0.06633893 -50.85 0.0007750932    2.780    0.640
        48 -12.0590    127.0518    249.5450   1.3328200065e+02   9.0939870194e+00    0.1642175    0.1513711  80.41 0.0004679308    1.263    0.208
        49 -10.9048    205.4499    110.1756   9.2770195422e+01   1.7831800948e+01    0.3248473    0.2090327  40.21  0.000950386    1.592    0.372
        50 -12.9939     47.9138     92.6348   1.2824836346e+02   5.1270193026e+01    0.4425626    0.2969518  13.17   0.00189445    1.964    0.491
        51 -12.8464    139.3680    200.5766   1.2493478731e+02   1.4886381812e+01    0.5621471    0.3057083  47.22 0.0008479839    1.632    0.387
        52 -11.5089      4.2387     89.8893   1.4091337503e+02   5.5382846934e+01    0.2809255    0.1495034 -11.68  0.001534802    2.957    0.662
        53 -10.7006    103.7918     82.0113   1.0869977397e+02   4.5431300439e+01    0.2261621    0.2026204  31.68 0.0003591466    1.169    0.144
        54 -10.7643    142.9778     80.5502   9.7883805900e+01   3.7598929631e+01    0.2422199    0.2009712 -33.38 0.0006068312    1.184    0.156
        55 -10.9888    135.4227    196.1824   1.2506834661e+02   1.6325756962e+01    0.2447848    0.2058836  73.03  0.001232627    1.261    0.207
        56 -10.5481    159.6720    247.9210   1.2751658065e+02   4.3850344077e+00    0.1938145    0.1224174  36.38 0.0003838268    1.303    0.232
        57 -13.0746    163.3728     35.6856   7.9209916030e+01   3.9744251724e+01    0.4558218     0.396538   4.73 0.0008787171    1.207    0.171
        58 -10.7996     13.4147     59.8915   1.3253677461e+02   6.1276774499e+01     0.162571    0.1522473 -64.31 0.0004211853    1.234    0.190
        59 -11.7266    149.4861     35.9160   8.1979320631e+01   4.3179322241e+01     0.568529    0.3128011  80.10  0.002053752    3.096    0.677
        60 -10.3312     15.5708    246.8114   1.5093255708e+02   2.3409846998e+01    0.1581503   0.06904732  87.08  0.001048051    2.057    0.514
