#   1 NUMBER                 Running object number                                     
#   2 MAG_AUTO               Kron-like elliptical aperture magnitude                    [mag]
#   3 X_IMAGE                Object position along x                                    [pixel]
#   4 Y_IMAGE                Object position along y                                    [pixel]
#   5 X_WORLD                Barycenter position along world x axis                     [deg]
#   6 Y_WORLD                Barycenter position along world y axis                     [deg]
#   7 A_WORLD                Profile RMS along major axis (world units)                 [deg]
#   8 B_WORLD                Profile RMS along minor axis (world units)                 [deg]
#   9 THETA_WORLD            Position angle (CCW/world-x)                               [deg]
#  10 FWHM_WORLD             FWHM assuming a gaussian core                              [deg]
#  11 ELONGATION             A_IMAGE/B_IMAGE                                           
#  12 ELLIPTICITY            1 - B_IMAGE/A_IMAGE                                       
         1 -14.3477    234.3542     63.2072   2.5698794493e+01   2.1494990240e+01     3.520885     1.275494 -40.44   0.01684715    2.224    0.550
         2 -13.9710    240.8468     43.9727   2.0955938403e+01   2.2493839667e+01     2.270617    0.9880149 -31.58   0.01000912    1.822    0.451
         3 -12.7170    250.2439     66.1422   2.4898232840e+01   1.8492007161e+01     1.711657    0.1448292 -31.71  0.004343263    5.846    0.829
         4 -10.2751    199.5692     62.1371   2.9179415154e+01   2.8213865207e+01    0.7338209    0.2046158 -26.46  0.002390779    4.142    0.759
         5 -13.5176    236.1761     32.4870   1.8787412433e+01   2.4516269369e+01     1.820411     1.105373  24.03  0.009740067    2.905    0.656
         6 -14.9209    245.3757    140.7870   4.0417069993e+01   1.0245955592e+01     4.571899     1.459701 -38.91   0.02076278    2.906    0.656
         7 -11.8549    147.0918     34.0500   2.8380018215e+01   4.3694296966e+01    0.6001251    0.2036164 -28.01  0.002177439    2.960    0.662
         8  -9.6999    188.5325     14.7036   1.7949551524e+01   3.5917344823e+01    0.3571839    0.1249158 -20.65  0.001423322    3.179    0.685
         9 -14.1147    245.4150     99.4786   3.2262601416e+01   1.5339401806e+01     2.585979    0.8941613 -34.15  0.007111297    2.244    0.554
        10  -9.4510    209.0109      9.7059   1.5270761664e+01   3.1979373371e+01    0.3015016     0.150203  -2.51  0.001310772    3.549    0.718
        11 -10.2898    237.2312    191.1911   5.0558930154e+01   5.1362533328e+00    0.1401567    0.1147338 -17.50 0.0009344101    1.372    0.271
        12 -10.4411    232.3586    189.0294   5.0940412120e+01   5.9528294408e+00    0.2460966   0.08739419 -33.00  0.001243702    2.479    0.597
        13 -12.1064    244.4076    184.8476   4.8437591997e+01   5.0640016009e+00    0.3679254    0.2098287  -1.01  0.002321007    1.720    0.418
        14 -10.7735    226.4227    185.0647   5.1193775673e+01   7.1424705379e+00    0.2450946    0.1522026  36.11  0.001318325    1.829    0.453
        15  -9.4210    211.3339    185.6518   5.3761698200e+01   8.9430727593e+00   0.09882417   0.09568713 -46.99 0.0007048303    1.774    0.436
        16 -11.6133    238.6898    181.8908   4.8774208995e+01   6.0685118547e+00    0.2597577    0.1800293   6.32  0.001443002    1.232    0.188
        17 -10.6144    218.5383    180.0197   5.1585824166e+01   8.7621198299e+00    0.2577185     0.195001 -71.39   0.00122216    4.596    0.782
        18 -11.5520    224.3731    176.5044   5.0031020574e+01   8.4746021700e+00    0.3394997    0.2585667  54.01  0.002139553    2.403    0.584
        19 -12.1210    248.6473    172.3944   4.5706738085e+01   6.0283236295e+00    0.4494207    0.2356532 -19.78   0.00206629    1.614    0.381
        20 -10.9370    195.7076    171.3973   5.3967397578e+01   1.3023012971e+01    0.2271869    0.2169684 -76.65  0.001542221    1.717    0.418
        21 -11.0741    225.4006    170.2136   4.8748969413e+01   9.1502248391e+00    0.2560625    0.1935952 -36.12  0.001542161    1.530    0.347
        22 -10.8653    215.4755    170.1466   5.0325705231e+01   1.0465290765e+01    0.2526591    0.1797708 -47.27  0.001018438    1.998    0.500
        23  -9.3016    238.4958    249.4846   5.9133950000e+01  -1.2432739279e+00    0.1009341   0.06620052   1.72 0.0002377568    1.024    0.023
        24 -12.0573    238.5431     76.4213   2.8160976630e+01   1.9223292009e+01    0.6603567    0.3756636 -27.65 0.0008400317    1.493    0.330
        25  -9.6629    240.6656    244.3430   5.8102861564e+01  -9.4025934693e-01   0.08359446    0.0704129   7.91  0.000705043    1.761    0.432
        26 -12.0055    244.5584     71.1305   2.6451446367e+01   1.8849061225e+01    0.6642265    0.2933996 -40.89  0.001684711    1.859    0.462
        27  -9.1818    211.3258    214.3288   5.8431053966e+01   5.3127625811e+00    0.1189257   0.06749911  -1.36 0.0007050369    1.702    0.412
        28 -11.7956    227.7480    161.8939   4.6871993252e+01   9.9175365885e+00    0.3967005    0.2037911 -33.49  0.002268313    1.717    0.417
        29  -9.7663    167.4967    161.9808   5.7681649193e+01   1.8733000900e+01    0.1734515     0.118469 -63.37 0.0008104574    2.639    0.621
        30 -11.0632    211.1228    159.2343   4.9016815507e+01   1.2558418463e+01    0.3350974    0.1561787  44.98  0.001648209    2.623    0.619
        31 -11.1861    223.3011    154.3350   4.6139676107e+01   1.1512584570e+01     0.298466    0.1900716  54.45  0.001656554    2.613    0.617
        32 -10.4638    191.0518    149.8979   5.0689047919e+01   1.6937398917e+01    0.2958793     0.165675 -49.85  0.001398808    2.437    0.590
        33 -10.0504    155.3366    149.8460   5.7895823934e+01   2.2821846639e+01     0.274635    0.1242799 -49.38  0.001104252    2.657    0.624
        34 -11.4592    211.1184    145.6286   4.6374147592e+01   1.4468715352e+01    0.4113783    0.2406149 -42.09  0.002157208    1.821    0.451
        35 -13.0015    245.2679    121.6014   3.6724112920e+01   1.2636735943e+01     1.612823    0.7208694 -42.44  0.008378756    2.268    0.559
        36 -10.2735    195.1525    133.7376   4.6616819979e+01   1.8744599195e+01    0.3304052    0.1714033 -39.85  0.001619355    1.859    0.462
        37 -10.0178    176.0000    131.4761   4.9663601867e+01   2.2399370427e+01    0.2945425   0.07242263 -38.78 0.0009297226    3.894    0.743
        38 -11.5950    227.1278    130.1604   4.0834975707e+01   1.4186999609e+01    0.3208784    0.2343643 -56.38  0.001745475    2.024    0.506
        39 -10.3772    214.2912    123.1079   4.1254782920e+01   1.7150654006e+01     0.292781    0.2325975 -61.04  0.001731258    1.789    0.441
        40 -10.8782    224.4041    119.8378   3.9102839551e+01   1.5986494482e+01    0.2852661    0.2234196 -76.26  0.001705944    2.175    0.540
        41  -9.2854    206.8730    115.7442   4.0799381880e+01   1.9431475684e+01    0.2374322    0.1510311 -53.03  0.001225321    2.052    0.513
        42  -9.9862    224.0176    114.3858   3.8013616657e+01   1.6779902614e+01    0.2755791    0.2407845 -85.90  0.001524779    1.671    0.401
        43 -10.2138    219.5018    109.2042   3.7529240355e+01   1.8216469412e+01    0.2871127     0.187014 -39.46  0.001077494    1.420    0.296
        44 -10.2709    224.4034    106.2403   3.6228693481e+01   1.7804967621e+01    0.4615673    0.1764937 -45.05  0.001499866    2.935    0.659
        45  -9.0249    168.6801    103.6771   4.4579541623e+01   2.8412968318e+01     0.143784    0.1058543   6.44 0.0007045062    1.673    0.402
        46  -9.6245    192.4447    100.7746   3.9663241435e+01   2.4229663398e+01    0.4379968     0.225134 -57.62  0.001655516    3.574    0.720
        47 -13.5268    234.3550    122.0942   3.8214892579e+01   1.4164978381e+01      2.03491    0.3871768 -40.30  0.006441465    5.345    0.813
        48 -10.3113    221.6587     98.5405   3.4917900773e+01   1.9286580432e+01    0.3627037    0.1552573 -40.85    0.0011988    2.116    0.527
        49 -10.8637    152.5703     93.6419   4.5257285720e+01   3.3452860153e+01     0.656305     0.122414 -39.97  0.001717863    4.997    0.800
        50 -10.6618    217.2480     90.8377   3.3774931627e+01   2.1075948826e+01    0.4502478    0.2599724 -48.98  0.002035541    1.867    0.464
        51  -9.8146    216.5912     84.8114   3.2491026374e+01   2.1989454776e+01    0.2463897    0.1489679 -45.28  0.001354642    1.592    0.372
        52 -10.0122    187.3755     87.0468   3.7134652311e+01   2.7257928434e+01    0.5470963    0.2623634 -52.97  0.002180964    2.868    0.651
        53  -9.4863    170.9233     88.3582   4.0249901336e+01   3.0437476348e+01    0.3586531     0.197559 -58.44  0.001426925    2.766    0.638
        54  -9.2949    209.6326     85.2745   3.3491716695e+01   2.3202465156e+01    0.2523547    0.1006399 -35.58  0.001120786    2.125    0.529
        55  -9.6258    172.0264     81.0452   3.8127321092e+01   3.1340748834e+01    0.2223188    0.1638298 -63.96 0.0008894608    1.662    0.398
        56 -11.5012    215.5659     76.3085   3.0659594903e+01   2.3281496756e+01    0.6143837    0.2492062 -46.20  0.002699518    2.524    0.604
        57  -9.6219    161.5009     77.6013   3.9081352401e+01   3.4162781242e+01    0.2911308    0.1814873 -60.59  0.001277237    2.145    0.534
        58  -9.4912    172.5311     75.0106   3.6424492917e+01   3.2142851096e+01    0.2210316     0.127404 -35.16   0.00103919    1.626    0.385
        59  -8.7510    204.5244     73.5045   3.1358218027e+01   2.5746738893e+01    0.1286109     0.111502 -41.08 0.0003197756    1.060    0.056
        60 -11.6726    220.7182     65.6893   2.7621465411e+01   2.3655464202e+01    0.6857164    0.1702799 -41.96  0.002554909    3.433    0.709
        61 -10.4144    218.6711     60.3322   2.6593674955e+01   2.4685955238e+01    0.3161466    0.1688713 -53.01  0.001564934    1.987    0.497
        62 -10.2605    228.8404    206.3988   5.4323114773e+01   4.2977004969e+00    0.1902873    0.1648025 -31.82   0.00145823    1.809    0.447
        63  -9.0757    204.4137    205.1773   5.8190257015e+01   7.2580561812e+00     0.146439    0.1004992 -37.63 0.0009511149    1.740    0.425
        64 -10.1468    124.7480     62.7318   4.2382144269e+01   4.5061824135e+01     0.243568    0.1105144 -46.19 0.0008987685    2.412    0.585
        65  -9.3046    179.4813     59.5219   3.1147225699e+01   3.2815479096e+01    0.2565353    0.1007518 -41.25   0.00103403    2.341    0.573
        66 -10.6225    150.1051     59.8365   3.6035231654e+01   3.9489219236e+01    0.2296364    0.1915033 -65.50  0.001235082    1.291    0.225
        67  -9.8079    209.4784     57.9709   2.7008505138e+01   2.6746114739e+01    0.2613586    0.1373426 -30.61  0.001014053    1.680    0.405
        68 -11.9259    143.1757     56.3537   3.6276752351e+01   4.1654203515e+01    0.5738625    0.2470819 -45.58  0.002180622    2.481    0.597
        69 -11.3570    131.1583     57.0925   3.9020036203e+01   4.4436041938e+01    0.3620159    0.2326117 -47.83  0.001516804    1.649    0.393
        70 -10.2310    160.8754     56.0503   3.3008972665e+01   3.7507241222e+01    0.2258197    0.1798896 -62.13 0.0008943666    1.328    0.247
        71  -9.0366    193.5299     55.2400   2.8161891836e+01   3.0341512806e+01    0.1842034    0.1208367 -15.87 0.0009534061    1.729    0.422
        72  -9.8100    187.2209     52.5331   2.8231718252e+01   3.2032433003e+01    0.3492552    0.2260934  -9.79  0.001743482    1.963    0.491
        73  -9.8954    209.2557     51.5951   2.5484194255e+01   2.7555379715e+01    0.2416945    0.1515127 -33.03  0.001085721    1.392    0.282
        74 -10.6944    159.6618     67.5666   3.6577476102e+01   3.6118585370e+01    0.2894328     0.171828 -36.74  0.001225077    1.612    0.380
        75 -11.9041    149.6876     49.4795   3.2902542714e+01   4.1069286591e+01    0.4828387    0.2972014 -38.32  0.002309497    1.580    0.367
        76  -9.8633    202.7622     43.0642   2.4034955648e+01   2.9869211475e+01    0.3048011    0.1984715 -39.74  0.001748414    1.336    0.252
        77 -11.4462    241.7989    201.7823   5.1599568275e+01   3.4194223064e+00    0.2939819    0.2413209 -53.37  0.002003996    2.807    0.644
        78  -9.0352    210.3861     47.1595   2.4291722674e+01   2.7847067606e+01    0.1900724   0.09076498 -39.81 0.0009485174    1.762    0.432
        79 -10.1456    178.4539     35.7572   2.4703689223e+01   3.6005942265e+01    0.4429795    0.1343381 -29.35  0.001659139    2.977    0.664
        80 -10.8040    230.1540    197.7815   5.2731438216e+01   5.1617455070e+00    0.2282292    0.1618691  31.92  0.001561769    1.668    0.401
        81 -10.1258    126.2117     35.4121   3.2526602558e+01   4.8760236858e+01    0.2063843    0.1351699  77.80 0.0009522848    1.671    0.402
        82 -10.2143    187.0291     31.0918   2.2495776400e+01   3.4591411449e+01    0.4477783     0.207245 -54.15  0.002013241    2.273    0.560
        83  -9.8271    194.4617     26.4881   2.0571162901e+01   3.3444206649e+01    0.3904063    0.1290402 -50.64    0.0015145    3.120    0.680
        84 -11.5688    167.5543     32.0713   2.4936292511e+01   3.8960451690e+01    0.6427998    0.2401634 -33.85  0.002647686    2.380    0.580
        85  -9.6394    160.0000     22.4698   2.2937918759e+01   4.1816167399e+01    0.2853996   0.07419254 -24.72 0.0009313067    3.907    0.744
        86 -10.1321    129.0000     19.4889   2.6186845100e+01   4.9907744511e+01    0.2974652   0.07979699 -24.08  0.000939403    3.972    0.748
        87 -10.6513    247.8171    196.0273   4.9790493558e+01   3.4203274903e+00    0.1566711    0.1225392 -13.92  0.001238739    1.294    0.227
        88  -9.5548    220.8151    194.6299   5.3703787591e+01   6.6280114478e+00    0.1492354   0.09498088  35.85 0.0009539061    1.813    0.448
