#   1 NUMBER                 Running object number                                     
#   2 MAG_AUTO               Kron-like elliptical aperture magnitude                    [mag]
#   3 X_IMAGE                Object position along x                                    [pixel]
#   4 Y_IMAGE                Object position along y                                    [pixel]
#   5 X_WORLD                Barycenter position along world x axis                     [deg]
#   6 Y_WORLD                Barycenter position along world y axis                     [deg]
#   7 A_WORLD                Profile RMS along major axis (world units)                 [deg]
#   8 B_WORLD                Profile RMS along minor axis (world units)                 [deg]
#   9 THETA_WORLD            Position angle (CCW/world-x)                               [deg]
#  10 FWHM_WORLD             FWHM assuming a gaussian core                              [deg]
#  11 ELONGATION             A_IMAGE/B_IMAGE                                           
#  12 ELLIPTICITY            1 - B_IMAGE/A_IMAGE                                       
         1 -12.2062    208.3500     49.2609   2.8972001957e+02   5.9575880894e+00   0.04745819   0.03441198 -67.43  0.005147626    1.425    0.298
         2 -12.8833    222.4023      3.3713   2.8927304807e+02   6.3997816055e+00    0.1682413   0.05744907  19.58    0.0106071    4.408    0.773
         3 -12.8499    171.8395     38.0785   2.9007252542e+02   6.3060081190e+00   0.05928478   0.03644704 -62.58  0.002149846    1.632    0.387
         4 -13.3564    181.7375     28.0420   2.8989590071e+02   6.3617124544e+00   0.06945156   0.05058278 -65.39  0.004690013    1.398    0.285
         5 -13.1934    189.0156     16.3468   2.8973925063e+02   6.4521849225e+00   0.04753204   0.04238728  14.55  0.001585813    1.148    0.129
         6 -13.1752    193.0668      4.4454   2.8961858658e+02   6.5644154066e+00   0.08972438   0.03384367  32.54  0.007115118    2.502    0.600
         7 -12.6837      5.9815      5.5141   2.9179156086e+02   7.6747119586e+00   0.07206333   0.04784981  19.78    0.0074534    1.597    0.374
         8 -12.1298    163.9834     13.0131   2.9000794856e+02   6.6412524503e+00   0.04581208   0.02611887  45.23  0.003774389    1.864    0.464
         9 -11.8021    170.2151      9.5385   2.8991433777e+02   6.6436326256e+00   0.02524838   0.02204205 -61.00  0.003019584    1.142    0.124
        10  -8.4421    134.9704     48.2761   2.9056203145e+02   6.4105605772e+00  0.008724174  0.008475122  -5.16 0.0004112441    1.035    0.034
        11 -13.0980    169.5162    248.7532   2.9140068010e+02   3.8960920400e+00    0.1218669   0.03703228  19.93   0.00681731    5.570    0.820
        12 -12.9371    148.3625    247.9899   2.9163995985e+02   4.0317241679e+00    0.1007357   0.03958682  15.57  0.006589514    4.200    0.762
        13 -10.7702    121.5327    248.6736   2.9195369759e+02   4.1846203050e+00   0.01557566   0.01452661 -68.87 0.0009276936    1.084    0.078
        14 -14.3939     12.3285    207.9785   2.9296485074e+02   5.3062059798e+00    0.3252521    0.1798594 -39.27   0.01990409    2.041    0.510
        15 -13.0100     74.0717    202.3111   2.9221664798e+02   5.0026920917e+00   0.05073116   0.04900488 -23.73  0.004550428    1.038    0.037
        16 -13.8010     83.9371    164.5822   2.9187047557e+02   5.3782125124e+00     0.160235    0.0543924  34.42  0.006502685    2.728    0.633
        17 -10.9832     87.6634    179.4855   2.9191917960e+02   5.1842620713e+00   0.01630566   0.01132342 -45.45 0.0008094875    1.451    0.311
        18  -7.8935     60.2571    179.2842   2.9223467340e+02   5.3505591556e+00  0.006547812   0.00489828 -30.27 0.0006865293    1.478    0.323
        19 -13.7596     68.0661    144.4705   2.9193008075e+02   5.7048180526e+00    0.1920071    0.0906039  41.97   0.01679178    2.182    0.542
        20 -10.5175    227.8331    171.8958   2.9025420105e+02   4.4302156347e+00   0.01517261  0.008413744 -48.80   0.00143628    1.783    0.439
        21 -16.1282     31.0626    244.3905   2.9297170967e+02   4.7749145696e+00    0.2022333    0.1425784   4.75   0.01592553    1.678    0.404
        22  -9.0524     35.8270    171.3306   2.9246818013e+02   5.5881762865e+00   0.01106464  0.007588824  30.92 0.0004800134    1.447    0.309
        23  -9.8080    138.4471    172.3799   2.9128872189e+02   4.9617136274e+00    0.0158689   0.01259417  41.93  0.001799469    1.279    0.218
        24  -8.1240      1.6868    167.3308   2.9283838596e+02   5.8379774862e+00  0.006965375  0.005007957  64.41 0.0004298381    1.676    0.403
        25  -9.5539      5.7016    161.6520   2.9275706925e+02   5.8794615113e+00   0.01231472   0.01118547 -17.91 0.0005095932    1.146    0.127
        26  -8.6990      1.4600    162.0140   2.9280835156e+02   5.9005804975e+00   0.01083988  0.008868703  60.50 0.0006029477    1.344    0.256
        27 -11.3437     84.4148    185.0842   2.9199117979e+02   5.1392260131e+00   0.02450463   0.01744285 -11.86   0.00173809    1.745    0.427
        28 -12.6028      7.5284    227.1216   2.9313766891e+02   5.1142619061e+00   0.05271154   0.03022961 -32.01  0.001992519    2.209    0.547
        29  -9.7723     22.2630    156.6528   2.9253479058e+02   5.8382426494e+00   0.01672008   0.00782886  30.37  0.001362504    2.083    0.520
        30 -12.5886     24.1374    220.7349   2.9290665579e+02   5.0887840895e+00   0.04867522   0.03078355 -10.89  0.001816069    2.233    0.552
        31 -15.2200     63.9801    213.8379   2.9240406824e+02   4.9302619801e+00    0.4305789    0.1110193  38.44   0.02902446    3.606    0.723
        32 -10.0954    132.4255    141.6245   2.9116854349e+02   5.3519065534e+00   0.04326166   0.01783914 -75.71  0.002790987    4.357    0.770
        33 -11.5716     98.0374    145.2333   2.9158824917e+02   5.5165695777e+00   0.01361473   0.01196872   9.02 0.0004368395    1.184    0.156
        34 -13.4705     18.6442    229.8967   2.9302628310e+02   5.0159978984e+00   0.03775319   0.03388606  65.11  0.002016311    1.188    0.158
        35  -9.0679    206.3298    196.3298   2.9065303918e+02   4.2783977709e+00  0.007126451  0.004923675 -27.04  0.000315981    1.714    0.417
        36  -9.7547    115.9769    133.5349   2.9130871295e+02   5.5437095197e+00   0.01463102   0.01192237 -29.73 0.0007462244    1.310    0.237
        37 -10.3656    104.1521    130.2457   2.9142511498e+02   5.6524774379e+00   0.01416855   0.01254102  -2.50 0.0005961825    1.195    0.163
        38  -8.1285    196.0498    128.9358   2.9035533789e+02   5.1156239733e+00  0.007511348  0.007442941 -52.32 0.0002969037    1.011    0.011
        39 -10.3934      2.3913    126.6879   2.9258041225e+02   6.3019296408e+00   0.01549136   0.01177903 -39.36  0.001711596    1.362    0.266
        40  -8.5936    128.4904    124.1689   2.9110625412e+02   5.5764426554e+00  0.009529648  0.006392543 -58.22 0.0008634756    1.461    0.315
        41  -8.8694    135.0000    123.0404   2.9102404853e+02   5.5503581714e+00   0.01114712  0.003745427 -61.82 0.0008048866    2.959    0.662
        42  -9.1549    111.0815    121.6944   2.9129222268e+02   5.7093668248e+00   0.01007303  0.009026854 -89.06 0.0003435562    1.194    0.162
        43 -10.5272    241.7950    120.1759   2.8977336574e+02   4.9409564608e+00    0.0132933   0.01089474  27.34 0.0005097167    1.225    0.184
        44  -8.6861    168.5806    113.9430   2.9057982605e+02   5.4533035605e+00   0.01117512  0.008755896  51.26 0.0006605552    1.359    0.264
        45  -9.3492    120.0688    126.2332   2.9121634360e+02   5.6032146429e+00   0.01181999  0.009613984 -60.18 0.0007550557    1.220    0.180
        46  -8.6548     87.3233    192.0144   2.9200022154e+02   5.0419958001e+00   0.01462552  0.006842473  50.93  0.001160165    2.746    0.636
        47 -10.2762     30.0565    108.1479   2.9214604571e+02   6.3503091440e+00   0.01901366  0.009637023  22.88  0.001692138    2.110    0.526
        48  -9.3989     66.6012    104.7752   2.9170229999e+02   6.1706236912e+00  0.009453087  0.006450219 -76.41 0.0009544262    1.667    0.400
        49  -8.6275      2.6077    104.0000   2.9243826989e+02   6.5618904436e+00   0.01470693   0.00376341  27.36 0.0009344012    3.932    0.746
        50 -11.8182     54.9690     92.9348   2.9176387001e+02   6.3765163256e+00   0.03780281   0.02084098 -41.96  0.003512217    1.955    0.488
        51  -8.0950    182.2510     94.3021   2.9030042924e+02   5.5970066794e+00  0.006630598  0.004866885 -32.20 0.0001787835    1.500    0.333
        52 -10.9659     66.6415     85.3787   2.9158212402e+02   6.3936276155e+00   0.02510253   0.01187004  13.47   0.00194093    3.004    0.667
        53  -8.1248    151.2718     77.3501   2.9055349448e+02   5.9782780895e+00  0.006985056  0.004836263 -32.36 0.0006997556    1.629    0.386
        54 -12.0534    225.8041     60.2550   2.8958667492e+02   5.7260477244e+00   0.04435116   0.04066685 -31.13  0.005436471    1.109    0.098
        55  -8.6334    194.9396     58.3626   2.8993131172e+02   5.9338047389e+00  0.008985679  0.008136991  23.15 0.0003719129    1.112    0.101
        56 -11.0142    109.0366    246.9604   2.9208736628e+02   4.2791788747e+00    0.0209303   0.01545373  18.72  0.002143102    1.421    0.296
        57 -10.8358    105.8687    241.8522   2.9209253780e+02   4.3569719264e+00    0.0163021   0.01293225  86.98 0.0004247784    1.462    0.316
        58 -11.6096    194.7462    242.6052   2.9107191993e+02   3.8154601429e+00   0.02014078   0.01426752  44.06  0.002002526    1.455    0.313
        59 -14.5242     18.2047    241.5957   2.9310305166e+02   4.8838300157e+00   0.05985579   0.03644979  18.22  0.003712228    1.810    0.447
        60 -10.1916    134.2469    249.4444   2.9181174324e+02   4.0995769318e+00   0.01579494   0.01276802 -85.49  0.001051814    1.383    0.277
        61 -14.1419     53.9707    240.4341   2.9268294397e+02   4.6837009231e+00   0.09648996   0.05488605  21.38  0.007761859    1.887    0.470
        62  -9.5895    249.7513     44.0925   2.8921013975e+02   5.7672215524e+00   0.01121428  0.009448482   8.47 0.0004591531    1.261    0.207
        63  -8.5331     74.8183     50.8358   2.9127404124e+02   6.7420586403e+00  0.009336631  0.007350332  50.39 0.0004657451    1.346    0.257
        64 -10.4225    144.0650     24.5412   2.9030979621e+02   6.6286741588e+00   0.01163149  0.009637943 -56.47 0.0001368522    1.191    0.160
        65  -9.2543    167.4315    212.7159   2.9120278883e+02   4.3234221371e+00   0.01805157   0.01080257  73.72  0.001441792    2.651    0.623
        66 -10.6572    192.6072    195.2919   2.9080490910e+02   4.3727984005e+00   0.04493295   0.02212784 -89.64  0.002719397    5.360    0.813
        67  -9.8472    186.6971    192.5393   2.9085610755e+02   4.4399809091e+00    0.0112179   0.01101652 -60.79 0.0004605325    1.021    0.020
