#   1 NUMBER                 Running object number                                     
#   2 MAG_AUTO               Kron-like elliptical aperture magnitude                    [mag]
#   3 X_IMAGE                Object position along x                                    [pixel]
#   4 Y_IMAGE                Object position along y                                    [pixel]
#   5 X_WORLD                Barycenter position along world x axis                     [deg]
#   6 Y_WORLD                Barycenter position along world y axis                     [deg]
#   7 A_WORLD                Profile RMS along major axis (world units)                 [deg]
#   8 B_WORLD                Profile RMS along minor axis (world units)                 [deg]
#   9 THETA_WORLD            Position angle (CCW/world-x)                               [deg]
#  10 FWHM_WORLD             FWHM assuming a gaussian core                              [deg]
#  11 ELONGATION             A_IMAGE/B_IMAGE                                           
#  12 ELLIPTICITY            1 - B_IMAGE/A_IMAGE                                       
         1 -12.8773    214.5615     47.8741   3.4665970434e+01   2.7193625092e+01    0.9580681    0.4760943 -47.02  0.004714462    1.757    0.431
         2 -13.8949    229.5141     36.3045   3.0891299480e+01   2.5759595455e+01     1.273987     1.019833  46.01  0.008661349    1.823    0.451
         3 -11.9809      2.1757     24.2009   8.7520535850e+01   7.1157440496e+01    0.7356371    0.1779228 -50.08  0.003025276    3.639    0.725
         4 -12.7473      7.9378      4.1718   7.4692948171e+01   7.3574326701e+01     1.214918    0.3279664 -38.21  0.005437226    3.587    0.721
         5 -11.8376      2.7288     10.7502   8.1276189441e+01   7.3189135429e+01    0.6876675    0.2405308 -42.01  0.003492452    2.608    0.617
         6  -8.1859     67.2722    205.2882   1.0181380149e+02   2.1896095412e+01    0.1336501    0.1061688 -31.75 0.0002080276    1.509    0.337
         7 -14.8013     31.9178    244.0307   1.1378431559e+02   1.7186908844e+01     6.222236     1.743997  21.75   0.01779436    7.071    0.859
         8 -12.8309      8.8742    229.6554   1.1772051059e+02   2.2615585364e+01     1.205756    0.6625039  77.63  0.001099373    1.683    0.406
         9 -14.5870    100.1524    228.6362   9.6687085270e+01   1.1929496266e+01     6.158801     1.163219  40.36   0.01267494    4.459    0.776
        10  -9.9911    193.4670    195.4442   6.9584793398e+01   4.5098154446e+00    0.4523839    0.2310625 -60.41  0.001575363    3.918    0.745
        11  -8.2955     99.6488    180.7427   8.9500912518e+01   2.3315153427e+01    0.1527849    0.1173084 -11.97 0.0002596631    1.604    0.377
        12  -9.4798     98.8768    170.6753   8.7891220692e+01   2.5981004837e+01    0.3071159    0.1481917  24.21  0.001089301    2.517    0.603
        13 -11.8918     51.2784    111.4239   9.0860538156e+01   4.8207440356e+01    0.6925517    0.3981006 -45.90  0.002542761    1.585    0.369
        14 -12.8595     74.0753    154.6975   9.2166193034e+01   3.3952768543e+01     1.699935    0.9486716  64.23  0.001843671    2.926    0.658
        15 -12.9598     68.0724    144.1630   9.2033308827e+01   3.7576013202e+01     0.979734    0.6714482  62.47  0.002864946    1.860    0.462
        16 -10.9491     64.9973    160.9848   9.6019879066e+01   3.3558058937e+01    0.2882399    0.2714081 -42.32 0.0003531965    1.075    0.070
        17 -13.2874     50.4862    156.7971   9.9723899577e+01   3.6491034896e+01    0.6898038    0.4216734 -48.71  0.001588435    1.579    0.367
        18 -12.2562     77.8000    139.9199   8.8094462665e+01   3.7261246812e+01    0.6236662    0.3904308 -70.47 0.0004486365    1.869    0.465
        19 -11.7120     52.6291    170.2391   1.0110345204e+02   3.2681824705e+01    0.3446961    0.2818659 -32.77 0.0007301929    1.363    0.266
        20 -10.2172     90.3744    141.8886   8.4597514892e+01   3.4752355901e+01    0.3555982    0.2941298  43.99 0.0008854955    1.272    0.214
        21  -9.9027     94.0148    138.9633   8.2841095937e+01   3.4884937772e+01    0.4411706    0.2713878 -24.00  0.001250162    2.295    0.564
        22 -10.4389    105.5171    130.7750   7.7472486003e+01   3.4880474771e+01    0.3917418    0.3473566  24.87  0.001056326    1.158    0.136
        23 -10.9482     66.7339    126.6901   8.8869393137e+01   4.2300995881e+01    0.4783287    0.2880936 -74.70  0.001919045    2.189    0.543
        24 -10.3130     91.2068    126.7794   8.0900128337e+01   3.8419883583e+01    0.3100322    0.2567193 -18.48 0.0004024427    1.309    0.236
        25  -8.4203    110.5546    167.5218   8.4032219943e+01   2.4825953760e+01    0.1528733    0.1512334 -59.66 8.946045e-05    1.040    0.039
        26 -14.2542     11.1471    204.1521   1.1556065534e+02   2.8304415162e+01     1.276504    0.9057322 -64.55  0.006004329    1.384    0.277
        27 -11.5042    243.1996    119.1150   4.5708204102e+01   1.0738142951e+01    0.2441083    0.2399739  34.09  0.001726211    1.267    0.211
        28  -9.5859    103.2220    119.0737   7.5272976177e+01   3.8122945291e+01    0.2420116    0.2177219  24.94  0.000392145    1.130    0.115
        29 -12.6923     55.6998    126.4300   9.2556648451e+01   4.3850348996e+01     2.693468     0.849629 -69.37  0.005795042    7.448    0.866
        30  -9.2557    113.7228    124.0917   7.3427053491e+01   3.4931230076e+01    0.4297406    0.2249356  14.53  0.001102527    5.263    0.810
        31  -9.5034    204.3387    110.8180   4.9768994464e+01   1.9153014116e+01    0.2742825     0.191618  38.16  0.001409489    1.757    0.431
        32  -9.7510    245.3424    106.3196   4.2921733901e+01   1.2530290835e+01    0.1182912    0.0943716 -12.06 0.0007049705    1.720    0.419
        33  -8.7869    109.2543    106.2521   7.0086036526e+01   3.9898344630e+01    0.2004133    0.1802954  89.42 0.0005090843    1.316    0.240
        34 -14.3505     20.7438    194.7945   1.1250206798e+02   2.9727814770e+01     2.432931     1.047535  55.45  0.006752526    2.485    0.598
        35 -10.9360     52.8660     92.1731   8.5495401009e+01   5.2618777535e+01    0.5715787    0.3708307 -54.15  0.002772291    1.516    0.340
        36  -9.8119     41.7435     92.0862   8.9835005926e+01   5.3995758698e+01    0.2324011    0.1943927   8.93 0.0005276462    1.223    0.183
        37 -10.7552    161.7250     83.9035   5.1038578311e+01   3.3008385555e+01    0.3842049    0.1645729 -42.07  0.001227914    2.274    0.560
        38  -8.3550     74.4480     84.4264   7.5187252160e+01   5.1081552152e+01    0.1449683    0.1347113  -4.60  8.51186e-05    1.023    0.022
        39 -11.0214    240.7779     83.0134   3.8899428159e+01   1.7056381105e+01    0.2804647    0.1528692  76.67  0.001423378    2.471    0.595
        40  -9.0185    184.5293     77.4811   4.5335763622e+01   2.9082653620e+01    0.1354636    0.1263315 -69.35 4.202412e-05    1.045    0.043
        41  -8.9920    151.3178     73.6927   5.0434176043e+01   3.7110785104e+01    0.1458925    0.1089009 -78.53 0.0002059111    1.633    0.388
        42  -9.5257     61.3092     71.0467   7.5932721406e+01   5.5936494424e+01    0.2039558    0.1738987 -23.18  0.001159512    1.095    0.087
        43  -9.1180    161.0242     68.0297   4.7034405431e+01   3.5835035481e+01    0.1660291    0.1560027 -84.69 0.0003814209    1.010    0.010
        44 -10.4564     13.3347     60.2743   9.3690819910e+01   6.3632448738e+01    0.2519535    0.1876573 -30.87 0.0004626089    1.090    0.082
        45 -12.1816    207.9034     51.8775   3.6256538095e+01   2.8003181753e+01    0.8411388     0.366605 -52.20  0.003938345    2.175    0.540
        46 -15.4452     25.9381    181.0757   1.0986700659e+02   3.2704260247e+01     9.204089     3.363324  88.20   0.02653807    5.059    0.802
        47 -11.7669     41.7286    215.7983   1.0928662216e+02   2.2464874362e+01     0.531211    0.4156494 -15.69 0.0008702773    1.757    0.431
        48 -10.1605     11.7007     53.3289   9.2454820196e+01   6.5160496703e+01    0.1949195    0.1618995  -9.56 0.0005316283    1.136    0.120
        49  -8.5779     94.7995     46.5881   5.5949536335e+01   5.3900577210e+01    0.1847656    0.1245488  58.30 0.0004838941    1.578    0.366
        50 -10.4331      2.1243     38.6042   9.2815771533e+01   6.8634734664e+01     0.240512    0.1392067 -41.70  0.001149353    1.390    0.280
        51  -8.4712     63.3130     34.6550   6.1960255074e+01   6.1693944152e+01     0.117265     0.105781 -89.79 0.0007017975    1.710    0.415
        52 -10.7967      9.3119     54.6693   9.4046459668e+01   6.5059955454e+01    0.2023109    0.1887727 -28.66  0.001060561    1.260    0.206
        53 -12.4456     45.5016    176.0888   1.0393054376e+02   3.1976541782e+01     1.025961    0.6065614 -26.79  0.002054566    2.463    0.594
        54 -10.2390     22.0284    229.8733   1.1491860863e+02   2.1307282796e+01    0.2083624    0.1694295 -78.06 0.0004726567    1.224    0.183
        55  -9.8320    118.6463     26.7643   4.3400394898e+01   5.1126369763e+01    0.4250066    0.2400357 -70.80  0.001477511    3.244    0.692
        56  -9.1661    189.7733     15.5556   3.0245340699e+01   3.6275064444e+01    0.1817304    0.1255434 -51.43 0.0006896756    1.376    0.273
