#   1 NUMBER                 Running object number                                     
#   2 MAG_AUTO               Kron-like elliptical aperture magnitude                    [mag]
#   3 X_IMAGE                Object position along x                                    [pixel]
#   4 Y_IMAGE                Object position along y                                    [pixel]
#   5 X_WORLD                Barycenter position along world x axis                     [deg]
#   6 Y_WORLD                Barycenter position along world y axis                     [deg]
#   7 A_WORLD                Profile RMS along major axis (world units)                 [deg]
#   8 B_WORLD                Profile RMS along minor axis (world units)                 [deg]
#   9 THETA_WORLD            Position angle (CCW/world-x)                               [deg]
#  10 FWHM_WORLD             FWHM assuming a gaussian core                              [deg]
#  11 ELONGATION             A_IMAGE/B_IMAGE                                           
#  12 ELLIPTICITY            1 - B_IMAGE/A_IMAGE                                       
         1 -14.9674      4.7031    137.9588   1.3600161814e+02   4.6037914771e+01      5.18685     1.741713 -81.56   0.01758582    4.144    0.759
         2 -14.7552      3.1727    104.6571   1.3156992759e+02   5.3872486778e+01     6.453446    0.3567944 -65.78   0.01367928   10.224    0.902
         3 -13.2494    203.9557     32.8599   6.0335029587e+01   3.0915840796e+01     1.046358    0.8820679 -66.45  0.005527928    1.138    0.121
         4 -11.3066     14.3436     12.8693   1.0122164028e+02   6.9738706311e+01    0.1961615    0.1362971  -8.44 0.0008134419    1.092    0.085
         5 -13.5024    222.0904     14.8548   5.4814086791e+01   2.9163128780e+01    0.8234697    0.7128651  76.82  0.002396982    1.313    0.238
         6 -13.3711    139.3528    248.9440   1.1911186177e+02   1.8212991761e+00     1.484654    0.3293984  38.17  0.004672911    3.970    0.748
         7 -10.6909    248.6862    249.0116   9.7517187153e+01  -1.4463386341e+01    0.3498331    0.2031275  -6.82  0.001953833    1.885    0.469
         8 -11.5609    242.5025    247.9778   9.8448827353e+01  -1.3543941234e+01    0.2549384    0.2081538  23.23  0.001761989    1.314    0.239
         9 -14.1590    169.0637    248.3018   1.1282656849e+02  -2.8899243936e+00     2.355901    0.4272153  37.54  0.006729668    5.002    0.800
        10 -13.2489     38.8523    208.6955   1.3581382104e+02   2.5688946453e+01     1.221455    0.8309976 -66.17  0.006205573    1.378    0.274
        11 -13.8685     27.5087    219.9897   1.3926377384e+02   2.4396532308e+01    0.8074067    0.5889653  86.46  0.002541713    1.120    0.107
        12 -12.8048    113.1134    231.4866   1.2226281456e+02   9.6596964721e+00    0.9467663    0.2041862  40.79  0.002902347    3.924    0.745
        13 -11.1964     57.8131    241.1858   1.3509662792e+02   1.5935588916e+01    0.3262126    0.1490423  44.36  0.001087688    1.922    0.480
        14 -14.9307     11.7800    242.0683   1.4393194433e+02   2.1306066044e+01     2.768772     2.147543  64.65   0.01994446    1.166    0.142
        15 -13.7177     57.9279    212.4104   1.3202897387e+02   2.2389246410e+01     3.824471     1.188202  59.37  0.007154237   12.853    0.922
        16 -12.8729     22.3613    225.8346   1.4077587653e+02   2.3659833940e+01    0.3224281    0.2540304 -70.36 0.0007321074    1.330    0.248
        17 -10.6228     71.1330    173.6619   1.2352121899e+02   3.0041554679e+01    0.2589543    0.2192466 -67.45 0.0003218471    1.088    0.081
        18 -13.0436     56.9611    171.5072   1.2684500656e+02   3.2540766296e+01    0.5837478    0.2921763 -44.94  0.001668917    2.289    0.563
        19 -11.7073     79.1293    165.3961   1.2001656421e+02   3.0936144082e+01    0.6490089    0.5077974 -38.35  0.002176987    1.432    0.302
        20 -12.6105     98.5790    249.4196   1.2767921985e+02   8.2626333093e+00    0.7782506    0.3055638  34.45  0.003194899    2.612    0.617
        21  -9.9987     93.4292    150.3511   1.1323732274e+02   3.2414065199e+01    0.3006148    0.2822458 -45.55  0.000872186    1.083    0.076
        22 -11.7387     81.6917    148.9817   1.1621649069e+02   3.4680073079e+01    0.3205648    0.2497871 -46.88 0.0006377947    1.253    0.202
        23  -8.4404    134.2699    148.6298   1.0200768021e+02   2.5146046377e+01    0.1621833    0.1238627 -85.13 0.0004953242    1.670    0.401
        24 -11.7095     68.2014    143.3777   1.1892621685e+02   3.8105978297e+01    0.5489558    0.4043412  82.51  0.001627936    1.670    0.401
        25 -11.0352     64.5701    142.2279   1.1974495741e+02   3.8900794214e+01    0.3979394    0.2662509 -49.39 0.0007593679    1.388    0.280
        26  -8.9876     96.9416    146.2870   1.1141155032e+02   3.2821115513e+01    0.1998959    0.1989657  48.63 0.0003247912    1.071    0.066
        27  -9.4981    106.6471    136.3052   1.0649666165e+02   3.3517139205e+01    0.3684087    0.2428996 -13.81  0.001397064    2.593    0.614
        28 -10.1381     93.6067    133.0545   1.0941961939e+02   3.6649069540e+01    0.2437648    0.2198515  14.38 0.0003887988    1.225    0.184
        29  -9.4948     50.2688    130.0285   1.2157735142e+02   4.3751857081e+01    0.2433622    0.1975463  46.21 0.0006428977    1.393    0.282
        30  -9.0111    104.8772    122.8951   1.0378583445e+02   3.7032709567e+01    0.1919071    0.1747042 -87.66 0.0009940817    1.207    0.171
        31  -9.9088    244.6714    102.6747   6.9888053268e+01   1.1513851748e+01    0.1240394    0.1054283  -8.09 0.0007050131    1.700    0.412
        32 -11.5748     52.1637    193.9900   1.3112719989e+02   2.7570418122e+01    0.2818535    0.2443529 -58.72  0.000536371    1.249    0.199
        33  -9.5167    160.9853     79.0325   7.8246522425e+01   3.3936106455e+01    0.1764857    0.1669626  87.41  0.000562756    1.006    0.006
        34 -11.9080    107.3601    243.7124   1.2514301991e+02   8.0407341257e+00    0.3051507     0.226336  51.14  0.001345723    1.198    0.165
        35  -8.7408    152.6205    213.1952   1.1054539162e+02   6.7266048040e+00    0.1847526    0.1341096 -39.20  0.000251642    1.473    0.321
        36  -9.1379    120.0362    188.3060   1.1370852705e+02   1.8304063433e+01    0.2386967    0.1288632  16.22    0.0007042    4.241    0.764
        37 -13.4280      9.6844    207.2676   1.4182662164e+02   2.9156593339e+01     0.987296    0.7665848  48.51  0.003468818    1.386    0.279
        38 -11.8002     59.4271    186.0016   1.2832653084e+02   2.8585044950e+01    0.2795326    0.2532982 -66.73 0.0004698971    1.143    0.125
