#   1 NUMBER                 Running object number                                     
#   2 MAG_AUTO               Kron-like elliptical aperture magnitude                    [mag]
#   3 X_IMAGE                Object position along x                                    [pixel]
#   4 Y_IMAGE                Object position along y                                    [pixel]
#   5 X_WORLD                Barycenter position along world x axis                     [deg]
#   6 Y_WORLD                Barycenter position along world y axis                     [deg]
#   7 A_WORLD                Profile RMS along major axis (world units)                 [deg]
#   8 B_WORLD                Profile RMS along minor axis (world units)                 [deg]
#   9 THETA_WORLD            Position angle (CCW/world-x)                               [deg]
#  10 FWHM_WORLD             FWHM assuming a gaussian core                              [deg]
#  11 ELONGATION             A_IMAGE/B_IMAGE                                           
#  12 ELLIPTICITY            1 - B_IMAGE/A_IMAGE                                       
         1 -16.7949    222.4502     12.7355   3.4920846270e+02   2.8972006327e+01     3.929508     1.787368  83.45   0.02138885    2.252    0.556
         2 -12.1801    246.5298     38.4691   3.5322683738e+02   2.1642214230e+01     0.195647    0.1508756 -53.66 0.0006163221    1.054    0.052
         3 -15.9559    229.6560    243.0944   3.2849218773e+01  -3.4535310242e+00     2.842041     1.143626  22.25   0.01675017    2.258    0.557
         4 -12.8864    228.8522    169.2619   2.1166763863e+01   6.2385824487e+00     1.010648    0.6814312 -10.29  0.006408061    1.444    0.307
         5 -15.6952    168.2171    117.7086   2.1051766507e+01   2.4729223239e+01     2.958722     1.511593 -43.25   0.01279394    1.838    0.456
         6 -15.3187    152.7787    113.5617   2.3262264973e+01   2.8676329928e+01     1.583804     1.415537 -46.65  0.008671666    1.080    0.074
         7 -14.0175    193.1959    104.2482   1.3474608045e+01   2.2227859611e+01     1.245178    0.5430285 -44.18  0.005348951    2.066    0.516
         8 -14.3138    212.4021    182.2965   2.6105000728e+01   6.4525498448e+00    0.9854141    0.7374472 -33.95  0.005507039    1.289    0.224
         9 -10.2083    194.9366    206.9366   3.3323245557e+01   5.0050612979e+00    0.2023344    0.1534974  76.58 0.0009572447    4.119    0.757
        10 -11.4037    162.4995    200.3685   3.8620233298e+01   1.0344109539e+01    0.2681578    0.2180697 -87.39  0.001261353    2.206    0.547
        11 -13.4572    192.1849    194.3092   3.1749109475e+01   7.2773950984e+00    0.7830375    0.4268698 -58.24  0.003236699    4.105    0.756
        12 -15.8060    196.7697    115.3527   1.5419265768e+01   1.9694465592e+01     2.189895     1.889679  27.69   0.01341254    1.321    0.243
        13 -10.5465    201.4858    198.4603   3.0756529907e+01   5.4430983156e+00     0.121059   0.09660952  -5.87 0.0001052994    1.005    0.005
        14 -10.0033    121.4314    197.4670   4.7465811153e+01   1.6818105304e+01    0.1366552    0.1211974  22.24 9.026987e-05    1.014    0.014
        15 -15.0927    248.6568    176.6196   1.9594994074e+01   2.8402747353e+00      2.40969    0.4590879 -31.43  0.006184664    9.147    0.891
        16 -15.1429    133.9374    147.6139   3.5503865099e+01   2.5258101895e+01     1.672459    0.5591782 -54.12  0.003544232    3.705    0.730
        17 -16.4304    135.9242    125.4281   3.0076298163e+01   2.9681247932e+01     4.883025     2.632709 -65.73   0.01664943    3.204    0.688
        18 -10.4234    161.6385    188.7009   3.6863507913e+01   1.2509123710e+01    0.1395115   0.09396599  -2.66 3.411569e-05    1.717    0.417
        19 -10.3347    236.4342    187.6313   2.3220186441e+01   2.7660428825e+00     0.111454    0.0838732 -11.76 8.892306e-05    1.042    0.040
        20 -11.2875    154.3370    186.5028   3.8064764273e+01   1.4001094219e+01    0.2061821    0.1695264 -73.05 0.0007326605    1.772    0.436
        21 -11.6476    173.9050    183.0071   3.3328212924e+01   1.1696842780e+01    0.2262553    0.1769231 -39.48 0.0003489798    1.326    0.246
        22 -11.6735    168.9287    182.7109   3.4292109575e+01   1.2488300706e+01    0.3270495    0.2025608 -39.62 0.0009744503    1.595    0.373
        23 -12.3044    144.9156    183.0912   3.9592603363e+01   1.6092599347e+01    0.3144587    0.2005088 -59.87 0.0009731626    2.054    0.513
        24 -10.7700    232.3991    182.8528   2.3015043657e+01   3.8861168007e+00    0.1806756    0.1285122  29.01 0.0001602375    1.558    0.358
        25 -14.3755    201.7574    165.4345   2.4858146460e+01   1.0534754589e+01    0.5073849    0.3500358 -23.88  0.002460369    1.321    0.243
        26 -12.3545    215.8267    169.5199   2.3252461886e+01   7.9169891728e+00    0.2370237     0.206486 -53.71  0.000867182    1.579    0.367
        27 -15.5309    191.1112    167.6906   2.7191624272e+01   1.1741631490e+01     1.601903    0.7951407  37.08  0.006057615    2.102    0.524
        28 -13.2405    110.5946    167.6022   4.5439696979e+01   2.4885125325e+01    0.2938357    0.2598392  54.14  0.001133525    1.178    0.151
        29 -10.9135    213.9951    163.2992   2.2401445551e+01   9.1189913673e+00    0.2614419     0.190273  67.74  0.001405422    2.737    0.635
        30 -10.7887    229.2394    159.8222   1.9393008557e+01   7.5561689283e+00    0.1628729      0.12712 -30.38 0.0002279746    1.131    0.116
        31 -12.0868    202.6288    152.3488   2.2191418493e+01   1.2530621248e+01    0.2936158    0.2097648  22.51 0.0004863093    1.535    0.349
        32 -13.5209     67.7809    144.3434   5.4273524853e+01   3.7423093883e+01    0.8330119    0.4484283  56.37  0.002868015    2.191    0.544
        33 -16.5186    155.9731    157.5949   3.2346783637e+01   1.9264355791e+01     3.485805     1.708405  31.51   0.01361858    2.214    0.548
        34 -11.4362    114.4487    133.0103   3.7531119249e+01   3.2219423150e+01    0.2345508    0.1523945 -52.30 0.0004727948    1.575    0.365
        35 -18.5018    236.9275    121.4781   1.1000989267e+01   1.2083873268e+01     5.541513     3.009359 -39.09   0.03165598    1.476    0.323
        36 -12.6265    120.9718    129.4604   3.4917034079e+01   3.1771640365e+01    0.3141719    0.2782803 -30.48 0.0005113224    1.189    0.159
        37 -13.6308    124.9051    126.8309   3.3245592166e+01   3.1587147773e+01    0.6451172    0.3919449 -67.64  0.002507245    2.344    0.573
        38 -15.1660    242.2346     82.9764   2.6543070456e+00   1.6700810074e+01    0.9270976    0.5840294  22.16   0.00473925    3.214    0.689
        39 -14.3434     47.3825    106.5718   5.4887953021e+01   5.0462949965e+01     0.712984    0.6857057  51.81  0.001344782    1.039    0.038
        40 -15.2883     63.6399    110.9136   4.9318246504e+01   4.6931044925e+01     1.787112     1.415813   5.33  0.002941381    1.509    0.337
        41 -14.5235     55.1973    106.9902   5.1776064297e+01   4.9261072952e+01    0.9705709    0.6490968 -47.35  0.003389064    1.541    0.351
        42 -15.0106     20.2924    105.5977   6.6322919594e+01   5.3633628120e+01      1.08234    0.9466496  -0.82  0.003814747    1.257    0.204
        43 -11.1275     95.3260    110.1141   3.7856549116e+01   4.1441920033e+01    0.2735569    0.2165922  28.38  0.000431671    1.353    0.261
        44 -11.9044    185.7839    216.4963   3.6525742519e+01   4.7184776540e+00    0.3076558    0.1701384  -5.58  0.001561308    2.270    0.559
        45 -11.4014    175.0228     93.0074   1.3773382213e+01   2.7818718559e+01    0.2069758    0.1873097 -39.83 0.0003420162    1.070    0.066
        46 -12.1420    116.9211     88.5374   2.5320321348e+01   4.1730616996e+01    0.5374095    0.2838535 -47.30    0.0021167    1.912    0.477
        47 -11.5439    188.8780     86.8663   1.0022537928e+01   2.5961518773e+01    0.3062556    0.2677996  57.14  0.001838456    1.275    0.216
        48 -12.3885    129.6057     85.5843   2.1138453701e+01   3.9405852100e+01    0.4468262    0.3661306   8.88  0.001421317    1.631    0.387
        49 -11.1414    208.5349     86.2362   7.1448881083e+00   2.2175488721e+01    0.1826763    0.1569036 -12.57  0.001132041    1.364    0.267
        50 -11.4361    205.0833     81.0637   6.3975146224e+00   2.3626099555e+01    0.2020721    0.1754946  76.53 0.0006801554    1.287    0.223
        51 -12.9121    183.5267     78.4581   8.7442185329e+00   2.8442593348e+01    0.3272652    0.2805526 -17.31 0.0007597284    1.360    0.265
        52 -10.6363    250.7803     71.9278   3.5964343689e+02   1.6787908800e+01    0.1496091   0.07453833 -35.27 0.0003130334    1.577    0.366
        53 -11.1367    197.4052     70.4612   4.8590745843e+00   2.6763685566e+01    0.2761808    0.2020332  -0.09  0.001348251    2.143    0.533
        54 -11.0078    138.9797     69.5616   1.4205183934e+01   4.0177844803e+01    0.2803431    0.2101356 -20.34 0.0007692374    1.674    0.403
        55 -12.3340    227.8659     64.8131   2.2255317883e-01   2.1646799832e+01    0.2152307    0.2092082  85.50 0.0005893712    1.283    0.221
        56 -11.8045    231.2921     62.3916   3.5938279002e+02   2.1350372669e+01    0.1973594    0.1759163 -37.55 0.0008217238    1.211    0.174
        57 -11.8112    173.2551     63.7975   6.4598712529e+00   3.3023544034e+01    0.3598768    0.2921669  69.36  0.001369209    1.274    0.215
        58 -12.7209    217.2191     56.2291   3.5933283320e+02   2.4802002157e+01     0.292119    0.2587226 -14.09   0.00138475    1.420    0.296
        59 -10.2710    184.8010     57.2135   3.1405067520e+00   3.1409756320e+01    0.1656607    0.1575409  12.38  0.000487623    1.335    0.251
        60 -10.4480    224.4696     53.4446   3.5804576093e+02   2.3781874940e+01     0.201218    0.1296954 -45.20  9.35061e-05    1.228    0.186
        61 -12.6597    230.6580     54.5510   3.5775333725e+02   2.2489978165e+01    0.3196038     0.234928 -84.54  0.001322334    1.462    0.316
        62 -12.4224    226.4311     49.2583   3.5695810707e+02   2.3950976235e+01    0.3777015    0.2396862 -63.60  0.001640185    1.474    0.322
        63 -11.3974    250.2468     46.5315   3.5460644237e+02   2.0052127922e+01    0.1909105    0.1238368 -41.14 0.0008402112    1.181    0.153
        64 -11.4003    245.0552     46.9586   3.5504973002e+02   2.0883864816e+01    0.2475587    0.1486198  64.79  0.001177424    2.029    0.507
        65 -10.2649    228.4976    213.6026   2.8661325773e+01   2.3045246337e-01    0.1082288   0.08274706  -6.24 0.0003084819    1.073    0.068
        66 -10.5969    207.0026     40.7009   3.5667366280e+02   2.8872236464e+01    0.1660548     0.142625 -74.43 0.0004397841    1.124    0.110
