#   1 NUMBER                 Running object number                                     
#   2 MAG_AUTO               Kron-like elliptical aperture magnitude                    [mag]
#   3 X_IMAGE                Object position along x                                    [pixel]
#   4 Y_IMAGE                Object position along y                                    [pixel]
#   5 X_WORLD                Barycenter position along world x axis                     [deg]
#   6 Y_WORLD                Barycenter position along world y axis                     [deg]
#   7 A_WORLD                Profile RMS along major axis (world units)                 [deg]
#   8 B_WORLD                Profile RMS along minor axis (world units)                 [deg]
#   9 THETA_WORLD            Position angle (CCW/world-x)                               [deg]
#  10 FWHM_WORLD             FWHM assuming a gaussian core                              [deg]
#  11 ELONGATION             A_IMAGE/B_IMAGE                                           
#  12 ELLIPTICITY            1 - B_IMAGE/A_IMAGE                                       
         1 -12.8628    222.6242     17.1080   5.6257232070e+01   2.8781372368e+01    0.9267575    0.6094489  54.93  0.002375988    1.812    0.448
         2  -9.8995      2.9728      3.2113   1.0524068488e+02   7.2335583207e+01    0.2407673    0.1260604 -17.09  0.001597781    1.652    0.395
         3  -8.9740     12.4721    246.4696   1.4530009588e+02   2.0860899885e+01    0.1153162   0.08444145  76.36 6.634135e-05    1.019    0.019
         4 -12.6217    237.4548    247.5953   1.0089909133e+02  -1.2682600820e+01     1.175482    0.5244664  23.99   0.00111672    2.436    0.589
         5  -9.4452     12.0646    242.8403   1.4515078075e+02   2.1643647626e+01    0.1750405    0.1124686  69.33            0    1.200    0.167
         6 -10.1368      4.9038    248.9838   1.4674606028e+02   2.1150191054e+01    0.4083303    0.1710179  66.37  0.002229921    2.051    0.512
         7  -9.9919    146.9193    225.0497   1.1543525455e+02   5.6358245155e+00    0.2103313    0.1972407  45.88 0.0003169208    1.026    0.025
         8 -11.8531     39.3626    205.7678   1.3684673385e+02   2.6715662656e+01    0.7002496    0.6203953 -10.41  0.004455637    1.688    0.408
         9 -11.4421     22.9634    222.0907   1.4168307949e+02   2.4882050680e+01    0.3705859    0.2606358 -75.45   0.00076285    1.298    0.230
        10 -12.5646     29.5001    214.8553   1.3977693262e+02   2.5771006898e+01    0.7385815    0.5890079  81.26   0.00253662    1.021    0.021
        11  -8.9917     56.0014    220.0143   1.3473707819e+02   2.1331951656e+01    0.1865728    0.1516301  76.37  0.001151345    1.023    0.023
        12  -9.0507    101.0139    215.0027   1.2418156579e+02   1.5723282913e+01    0.1984982    0.1765341  70.54 -0.007547014    1.015    0.014
        13  -9.3515     56.0004    214.9949   1.3420472461e+02   2.2476039661e+01    0.1899376    0.1566099  78.78            0    1.012    0.012
        14 -11.5860     10.0780    207.0874   1.4308484958e+02   2.9553765390e+01    0.5843036    0.4048294  33.96  0.002930946    1.730    0.422
        15 -10.3787    123.9977    206.0045   1.1750917878e+02   1.3805906467e+01    0.2041545    0.1913052  62.36            0    1.009    0.009
        16  -8.9935    138.9967    198.9918   1.1280877568e+02   1.2646688737e+01    0.2029619    0.1935411  51.49            0    1.015    0.015
        17  -9.5352    133.0023    199.0103   1.1421424276e+02   1.3754427700e+01    0.2049289    0.1951163  63.82            0    1.005    0.005
        18  -8.4925     49.8461    199.1569   1.3380941646e+02   2.6986590196e+01    0.1694392    0.1429496 -61.86            0    1.284    0.221
        19 -11.0656     26.7426    183.3757   1.3736301100e+02   3.3427311023e+01    0.5026253    0.2173307  76.77  0.001887155    3.458    0.711
        20  -9.7541    223.0193    188.0020   9.2635555010e+01  -6.3146246060e-01    0.1951259    0.1749309 -20.51  0.001155573    1.005    0.005
        21 -10.3615     59.6527    183.5771   1.2954657013e+02   2.9486842502e+01    0.2629426     0.243283 -64.12 0.0004462717    1.188    0.159
        22  -9.9979     52.7354    191.0763   1.3218087948e+02   2.8560945436e+01    0.2548842    0.2095744 -64.63 0.0004315021    1.218    0.179
        23 -11.4567     13.2080    162.5652   1.3835007458e+02   3.9695594500e+01    0.6315783    0.2243866 -87.46   0.00211346    4.231    0.764
        24  -9.3161     71.0460    171.9703   1.2497080551e+02   3.0783450625e+01     0.214562    0.1925003 -80.74 0.0003505334    1.015    0.014
        25 -11.4437     57.5647    168.7259   1.2795068640e+02   3.3450378832e+01    0.5627315    0.2792535 -46.02  0.001950088    2.282    0.562
        26  -9.3534    240.8586    171.0684   8.6002477282e+01  -5.2765141919e-01    0.2300693    0.1886112  39.40 0.0007620121    1.375    0.273
        27  -9.8157     22.7606    168.8353   1.3671767880e+02   3.7330535217e+01    0.2312629    0.1313189 -69.29 0.0007633663    1.446    0.309
        28  -9.0762      2.7261    169.5847   1.4153435102e+02   3.8867619393e+01    0.1571397    0.1024057  48.62 0.0009536315    1.640    0.390
        29  -9.4541    241.5100    166.2208   8.4912834252e+01   2.5173307184e-01    0.2484865    0.2213934 -26.00 0.0004654742    1.047    0.045
        30  -8.9820     96.6806    165.6368   1.1717751694e+02   2.8321429125e+01    0.2405708    0.2159504 -59.41 0.0004425991    1.095    0.086
        31 -10.0607     78.8639    164.0188   1.2159812135e+02   3.1614119402e+01    0.4970128    0.3373419 -39.70  0.001257877    1.717    0.418
        32  -8.0854    162.8614    163.1324   1.0008596161e+02   1.6094555099e+01    0.1960026    0.1765544 -15.88 0.0009895155    1.223    0.182
        33  -8.6447    241.9683    161.6660   8.3911436725e+01   1.0128247282e+00    0.1787353    0.1720128 -23.43 0.0004814745    1.114    0.102
        34 -10.2800    209.7260    159.2592   8.9253582450e+01   7.4040410280e+00    0.2472299    0.2357563 -60.76 0.0004103247    1.098    0.089
        35 -11.0695      9.0764    153.9991   1.3843304768e+02   4.2079500983e+01     0.341284    0.1524242 -72.03  0.001673573    1.785    0.440
        36 -10.4562     81.8266    147.4723   1.1771443660e+02   3.5305209275e+01     0.309838    0.2342549 -48.12 0.0005761327    1.294    0.227
        37  -9.3851     95.0096    149.8546   1.1453601859e+02   3.2543199931e+01    0.3492564    0.2392178  57.72  0.000899497    1.653    0.395
        38 -10.3996     67.7679    144.1440   1.2103869576e+02   3.8229166866e+01    0.6431885    0.4131063  66.52  0.002864695    2.042    0.510
        39  -8.6529    229.1299    141.8526   8.1976169510e+01   7.0879118347e+00    0.2011792    0.1728429 -59.36 0.0002891467    1.160    0.138
        40 -10.9201      3.7017    139.7017   1.3818126198e+02   4.5863889795e+01    0.2963139    0.1949097 -87.24  0.001044914    1.396    0.284
        41 -10.6091      1.6813    129.1482   1.3744017901e+02   4.8470793152e+01    0.3829705    0.1163823 -65.54  0.001663952    2.333    0.571
        42  -8.7154     93.6663    131.9300   1.1104791287e+02   3.7181942239e+01    0.2275335    0.2076032   3.71 0.0003994802    1.229    0.186
        43  -8.1749    222.8376    126.1389   7.9657533136e+01   1.1357652473e+01    0.1833113    0.1593482 -24.41            0    1.278    0.218
        44  -7.8338    104.7534    122.6293   1.0567038782e+02   3.7398406148e+01    0.1558597    0.1155789 -25.14  0.000694494    1.625    0.385
        45  -7.7581    184.7386    117.2996   8.4688136181e+01   2.1321942223e+01    0.1509023    0.1156557 -74.97 0.0001504206    1.511    0.338
        46  -9.6696      2.0738    117.1859   1.3573184208e+02   5.1217423599e+01    0.1983062    0.1321273 -50.42 0.0008904838    1.289    0.224
        47  -9.2854    246.1785    115.8618   7.3812994230e+01   8.6855194366e+00    0.1727425    0.1563477 -23.28   0.00039456    1.297    0.229
        48  -9.1471    241.3312    112.3189   7.3779000198e+01   1.0256354879e+01    0.1300701    0.1082831  -4.86 0.0007048078    1.690    0.408
        49  -9.5648    244.0193     98.1725   7.0454689957e+01   1.2239986710e+01    0.2274919    0.1444725 -80.77   0.00109442    2.036    0.509
        50  -8.9325    170.9122     94.0942   8.1756091579e+01   2.9094546794e+01    0.2207756    0.2112143 -77.63 0.0003918674    1.026    0.025
        51  -8.6793    127.9859     91.0022   9.0875709115e+01   3.9510855895e+01    0.2036982    0.1989127  52.80  0.001125009    1.016    0.016
        52  -9.8067    226.9555     86.6216   7.0366483751e+01   1.7745474994e+01    0.2373999    0.2176406 -55.73 0.0004724876    1.152    0.132
        53  -8.5859      9.8968     86.0665   1.2790073600e+02   5.7671786729e+01    0.1619322     0.139062 -63.98  0.001124067    1.199    0.166
        54  -9.0857    160.3454     79.6693   8.0174841678e+01   3.4224491040e+01    0.2398292    0.1739572 -80.31  0.001107865    1.733    0.423
        55  -8.1389    113.7552     75.9786   9.0336497752e+01   4.5375562434e+01    0.1841293    0.1768508  -7.51 0.0002129587    1.045    0.043
        56  -7.9524    170.5263     67.5626   7.4974097285e+01   3.3859758997e+01    0.1432426    0.1317715  79.94 9.195023e-05    1.014    0.014
        57 -10.2884    126.8791     53.8752   8.0283579924e+01   4.6136069542e+01    0.2147748    0.2012338  56.98            0    1.049    0.047
        58  -9.7590    172.0036     50.0087   7.0163519663e+01   3.6168451460e+01    0.1967014    0.1749192  81.81  0.001165916    1.005    0.005
        59  -7.2463    113.9956     49.7941   8.2193819581e+01   4.9540167181e+01     0.159164    0.1008291  50.16            0    1.453    0.312
        60 -10.0429    222.3745     38.2860   6.0607154733e+01   2.6180994719e+01    0.2936022    0.2157301 -40.16  0.001649346    1.496    0.331
        61 -11.4429    203.4337     35.5646   6.2190441147e+01   3.0774839554e+01    0.4420886    0.3172808 -35.95   0.00257195    1.592    0.372
        62  -8.7689    174.0192     34.0285   6.5774046051e+01   3.7806884243e+01     0.190126    0.1629578  83.53            0    1.020    0.020
        63  -9.7392    221.8731     21.8596   5.7282312816e+01   2.8380985644e+01     0.244826    0.1682671 -75.89            0    1.242    0.195
        64  -9.2970     89.2489    245.9398   1.3061440113e+02   1.0933785588e+01     0.177013    0.1502926  70.75            0    1.051    0.049
        65  -8.7968     17.9774     20.9661   1.0540395820e+02   6.8715503853e+01    0.1628025    0.1124169  -9.76  0.001154143    1.148    0.129
        66  -9.6160     15.0258     18.0081   1.0559284926e+02   6.9392877658e+01    0.1595241    0.1164048  -9.59  0.001186574    1.014    0.013
        67  -8.3866    168.2537     21.5848   6.3471014782e+01   4.0603131495e+01    0.1857197    0.1002061  57.95 0.0009291795    1.624    0.384
