#   1 NUMBER                 Running object number                                     
#   2 MAG_AUTO               Kron-like elliptical aperture magnitude                    [mag]
#   3 X_IMAGE                Object position along x                                    [pixel]
#   4 Y_IMAGE                Object position along y                                    [pixel]
#   5 X_WORLD                Barycenter position along world x axis                     [deg]
#   6 Y_WORLD                Barycenter position along world y axis                     [deg]
#   7 A_WORLD                Profile RMS along major axis (world units)                 [deg]
#   8 B_WORLD                Profile RMS along minor axis (world units)                 [deg]
#   9 THETA_WORLD            Position angle (CCW/world-x)                               [deg]
#  10 FWHM_WORLD             FWHM assuming a gaussian core                              [deg]
#  11 ELONGATION             A_IMAGE/B_IMAGE                                           
#  12 ELLIPTICITY            1 - B_IMAGE/A_IMAGE                                       
         1 -12.8833    190.3506     46.8783   2.7693706756e+01   3.1763637892e+01     1.378445     1.072909  30.13  0.003928678    1.515    0.340
         2 -12.7496    214.2852     19.3596   1.6713359111e+01   2.9124050540e+01     1.212129     0.791109 -39.27  0.004749763    1.513    0.339
         3  -9.9415    189.1634     13.6458   1.8186496882e+01   3.6258617078e+01    0.4417981    0.1975343 -37.72 0.0007521074    2.232    0.552
         4 -12.0516    219.0749     16.2322   1.5378922496e+01   2.8275825445e+01    0.6703858    0.5142233 -42.00  0.002690337    1.298    0.229
         5  -8.8136    116.4929     12.5017   3.0724577895e+01   5.4812107984e+01    0.2478144    0.2315917  64.47  0.001516727    1.193    0.162
         6 -10.3230    120.2036      9.0476   2.8499796532e+01   5.4291403563e+01    0.4820076    0.3507079  42.90  0.001501483    1.212    0.175
         7 -10.9099     14.3754     10.4788   6.8714796979e+01   7.1447105474e+01    0.4702545    0.1720677 -52.09  0.002267908    2.848    0.649
         8 -10.9802      4.9074      4.6589   7.1271212421e+01   7.3030943010e+01    0.4547224    0.2781121 -18.23   0.00319173    1.404    0.288
         9 -10.7828    219.7923      3.8461   1.2179416823e+01   2.9443317443e+01    0.4075502    0.3778868 -71.08  0.002611228    1.122    0.109
        10  -8.6460     59.0754    217.9658   9.3503491018e+01   2.3039704928e+01    0.1542549    0.1049628  75.25  0.001017185    1.203    0.169
        11 -12.4678    246.8124    242.7315   6.1863077468e+01  -1.0652524339e+01     1.323181    0.7686446 -17.98  0.008272968    1.844    0.458
        12  -9.5583      9.1770    193.9545   1.0098130012e+02   3.3248425335e+01    0.1329256    0.1076985  79.97 0.0004623744    1.200    0.166
        13 -11.6619     58.7232    188.7029   9.0932425981e+01   2.8967201204e+01    0.4052909    0.2809616  88.54  0.001561896    1.264    0.209
        14  -8.0460    203.3057    190.3629   6.0706136263e+01   3.5392397557e+00    0.1432336   0.09993221   7.84 0.0007038275    1.737    0.424
        15 -10.9135    135.0403    187.3075   7.4370090807e+01   1.7190489961e+01    0.4397151    0.2715592 -88.67  0.001844852    2.728    0.633
        16  -9.0269     91.6427    187.5003   8.3828025186e+01   2.4566158130e+01     0.261953    0.1692224  80.17  0.001005912    1.685    0.407
        17 -11.5597    245.9374    227.5425   5.9519305024e+01  -8.8515467744e+00    0.6673809    0.3045763  37.28   0.00355138    1.841    0.457
        18 -11.1760    145.0481    184.3809   7.1712503414e+01   1.5891553345e+01    0.4308328    0.3090764 -57.31  0.001156305    1.553    0.356
        19  -9.2688     20.0003    184.6945   9.8365697189e+01   3.4124582992e+01    0.2262879    0.1298811  33.71  0.001362572    2.045    0.511
        20 -10.0797    148.3258    175.6592   6.9460048623e+01   1.6987523246e+01    0.2586741    0.2532367  54.50 0.0002408485    1.085    0.079
        21  -9.7297    180.1223    174.9595   6.2448777121e+01   1.0748779463e+01    0.3364801    0.2047935 -54.31  0.001513184    2.036    0.509
        22  -9.4155     87.2666    206.7238   8.7018778758e+01   2.1310826024e+01     0.244487    0.2189301  48.00 0.0003754947    1.305    0.234
        23 -10.4296    144.7552    169.4825   6.9122855251e+01   1.8942927820e+01    0.4455177    0.2712592 -56.14  0.001602787    1.818    0.450
        24  -8.6409     90.2876    202.0707   8.5886746138e+01   2.1780625344e+01     0.270438    0.1755633 -58.17   0.00102337    1.721    0.419
        25 -13.9945     11.6236    207.6031   1.0129746605e+02   3.0348486866e+01    0.4997642    0.3304105  51.32  0.002202478    1.404    0.288
        26 -10.6911    120.2346    165.6287   7.4066538637e+01   2.4437928344e+01    0.4920399    0.3233164 -88.79  0.001453164    2.078    0.519
        27  -8.8999     73.3151    205.9358   8.9706475042e+01   2.3478759635e+01    0.1961897      0.13024  85.04 0.0009221647    1.416    0.294
        28  -8.5827    245.6660    163.3288   4.7342746672e+01  -2.4105906581e-01    0.1264947     0.109782 -70.00 0.0004067884    1.722    0.419
        29 -10.1745    136.3354    155.4837   6.8380809104e+01   2.3566270112e+01    0.5522569    0.3336887 -76.10  0.001665583    2.638    0.621
        30 -10.6328    133.9740    146.1560   6.7051203404e+01   2.6074990472e+01     1.082794    0.3484339 -57.43  0.002964761    4.604    0.783
        31 -11.2865    119.4525    150.4958   7.1473050100e+01   2.7930211141e+01    0.5894261    0.4013497  68.63  0.002266926    1.742    0.426
        32  -8.2768    233.9376    148.6679   4.6243109075e+01   4.3110448734e+00    0.1933797    0.1747694  30.83 0.0005213642    1.130    0.115
        33 -10.1326    144.5248    147.0462   6.4699832466e+01   2.3723468365e+01    0.4880198    0.3033255  83.16  0.001702707    3.223    0.690
        34 -10.5553    139.6660    146.1206   6.5666259125e+01   2.4927054511e+01    0.5742664    0.3710766  88.48  0.002183627    2.711    0.631
        35 -10.9446    115.1763    143.3875   7.1139495962e+01   3.0335007905e+01    0.4530714    0.3401609  -5.09  0.001853403    2.157    0.536
        36  -9.8547    124.9241    141.1174   6.8228623281e+01   2.8992030898e+01       0.2326    0.1926547  73.13 0.0003985217    1.282    0.220
        37 -10.6802     75.8614    249.6318   9.3034603892e+01   1.5154183024e+01    0.2935097    0.2020173  53.38   0.00151061    1.155    0.135
        38  -9.4579    159.7696    130.1422   5.7245831548e+01   2.4030566283e+01    0.4122345    0.3254339 -16.72  0.001472436    1.557    0.358
        39  -8.8723    135.8856    128.6180   6.2699826080e+01   2.9566174300e+01    0.2659328    0.1854731 -54.76  0.001000559    1.479    0.324
        40 -10.4283    115.0394    128.0250   6.7938549538e+01   3.3877337136e+01    0.3263349    0.2880645 -11.00 0.0007938892    1.387    0.279
        41 -11.0966     90.0921    124.2299   7.3845264319e+01   3.9149999799e+01    0.8729719    0.3359786  52.06  0.002919409    3.520    0.716
        42  -8.2732    234.4852    123.9768   4.0480786515e+01   8.2898907793e+00    0.2145761    0.1136617 -53.59 0.0008104499    2.622    0.619
        43 -18.3050     18.7386    233.7083   1.0144177674e+02   2.4809984914e+01     6.275258     4.589868 -77.92    0.0312285    1.505    0.335
        44  -8.0657    110.2675    118.0255   6.6934847373e+01   3.7074467385e+01    0.2029938    0.1853129 -59.93 0.0003415312    1.059    0.056
        45 -10.1968     61.7532    200.0739   9.1423928502e+01   2.6219154007e+01    0.2866471    0.1825416 -71.01  0.001746906    1.523    0.343
        46  -9.3753    192.8731    194.1268   6.3465420230e+01   4.9139675179e+00    0.7685338     0.485453 -77.91  0.002602253    5.140    0.805
        47  -8.0124    100.3361    115.2554   6.9035375121e+01   3.9518603611e+01    0.1408539    0.1162218  -8.50 0.0002530975    1.570    0.363
        48 -10.7399    118.4996    110.5853   6.2873213112e+01   3.7172288984e+01    0.6378654    0.4246758  75.94  0.002567796    2.331    0.571
        49  -8.3610     92.0010    114.2296   7.1153406264e+01   4.1178824313e+01    0.2141921    0.1590229 -87.79  0.000923645    1.646    0.393
        50 -10.3047     71.8459    108.0262   7.5643302385e+01   4.5691199049e+01    0.3642795    0.2008744 -43.86  0.001666614    1.855    0.461
        51  -9.1842     53.1611    197.7457   9.2908952562e+01   2.7786801332e+01     0.233977    0.1322533  52.08   0.00116217    1.527    0.345
        52 -10.2113     57.5126    211.8787   9.3291819744e+01   2.4414039526e+01    0.3533788    0.2101838 -75.62  0.002010532    1.599    0.375
        53  -8.5955     39.1034     88.4124   8.1693990556e+01   5.4007912403e+01    0.2685788   0.09299099  38.04  0.001126875    3.279    0.695
        54 -10.5639     59.0918     85.1782   7.4397412471e+01   5.2593949949e+01    0.4011595    0.2552582 -48.33  0.002119397    1.371    0.271
        55 -10.4235     54.1840    206.2925   9.3452220645e+01   2.5934924301e+01    0.2408925     0.162829  70.89 0.0004951576    1.201    0.167
        56  -8.2083    134.9678     72.2551   4.7419999822e+01   4.1622803374e+01    0.2048839     0.191737  39.82  0.000211115    1.058    0.055
        57  -7.9463    208.4297     70.5898   3.1362354201e+01   2.3435943234e+01    0.1478306    0.1445177 -77.71 7.933154e-05    1.019    0.019
        58 -12.0029    173.4957     61.1132   3.5031733208e+01   3.3990159448e+01      1.01075    0.7726225  22.27  0.001640707    1.594    0.373
        59  -8.5073    105.0130     60.9901   5.2184422598e+01   5.0238497306e+01    0.2092305    0.1961522  -5.15            0    1.006    0.006
        60 -12.7311     50.8448    247.1803   9.7012152327e+01   1.8814169802e+01    0.2508511    0.1356836 -72.18  0.001029714    1.930    0.482
        61 -11.5403    196.1840     40.9639   2.5052054250e+01   3.1067700832e+01    0.5850884     0.504141  12.84  0.001330712    1.396    0.284
        62  -8.8211    141.5319     42.4988   3.5893814989e+01   4.5040599557e+01    0.1502182     0.139894  33.59 3.004322e-06    1.028    0.027
        63  -8.2581    152.8336     35.8082   3.1151419231e+01   4.3125889601e+01    0.1939761    0.1695053 -76.50 0.0002451605    1.285    0.222
        64  -8.2541     48.4344    209.2142   9.4775766432e+01   2.6064289381e+01    0.4410182    0.1416313  50.37  0.002093781    2.532    0.605
        65  -9.5317     68.2268    246.9338   9.4119420518e+01   1.6632523424e+01    0.1131242   0.07726752  88.56 0.0003430897    1.381    0.276
        66  -8.3892     79.6855    242.5502   9.1823032075e+01   1.5817535103e+01    0.1079111   0.08447927  68.91 0.0002124829    1.093    0.085
        67  -9.6129     58.1566    240.1540   9.5335536613e+01   1.9106897839e+01    0.1909013   0.06692452 -68.54   0.00098605    2.911    0.656
        68 -10.6508     37.8906    201.6523   9.6172776294e+01   2.8797487496e+01    0.2938906    0.2163901 -71.42  0.001809575    1.429    0.300
        69  -8.8001    167.2184    223.5122   7.3349839716e+01   4.9081173985e+00    0.2717431    0.1782361 -53.18  0.001488727    1.926    0.481
        70  -8.7359     81.9420    196.0615   8.6914520783e+01   2.4245808060e+01      0.19223    0.1504693  67.68 0.0004625994    1.067    0.062
