#   1 NUMBER                 Running object number                                     
#   2 MAG_AUTO               Kron-like elliptical aperture magnitude                    [mag]
#   3 X_IMAGE                Object position along x                                    [pixel]
#   4 Y_IMAGE                Object position along y                                    [pixel]
#   5 X_WORLD                Barycenter position along world x axis                     [deg]
#   6 Y_WORLD                Barycenter position along world y axis                     [deg]
#   7 A_WORLD                Profile RMS along major axis (world units)                 [deg]
#   8 B_WORLD                Profile RMS along minor axis (world units)                 [deg]
#   9 THETA_WORLD            Position angle (CCW/world-x)                               [deg]
#  10 FWHM_WORLD             FWHM assuming a gaussian core                              [deg]
#  11 ELONGATION             A_IMAGE/B_IMAGE                                           
#  12 ELLIPTICITY            1 - B_IMAGE/A_IMAGE                                       
         1 -14.1222    168.3794     44.2530   7.2447761546e+01   3.7720404453e+01     1.143482     1.052556   3.21  0.003957211    1.320    0.242
         2 -14.2843    183.8195     11.6950   6.1805577545e+01   3.7863666123e+01     1.410805     1.082842  87.56  0.006612094    1.131    0.116
         3  -8.8689    159.9350    247.7835   1.1981027453e+02  -3.9141826311e-01    0.1703757   0.09237919  39.10 0.0003607269    1.587    0.370
         4 -11.9946    190.6008    249.8611   1.1407886774e+02  -5.8384124241e+00    0.6128483    0.2015497  33.75  0.002314984    3.113    0.679
         5 -12.4138    196.6263    244.8919   1.1211490534e+02  -6.0478019755e+00    0.4156395    0.3307169  62.61  0.002472042    1.711    0.416
         6 -11.5894    176.2133    249.0975   1.1677774713e+02  -3.3492316170e+00     0.339396    0.2465209 -23.04  0.001053216    1.692    0.409
         7 -10.9095    138.7381    250.2349   1.2437453373e+02   2.7685076209e+00    0.3051684    0.2809992  30.75  0.002018385    1.183    0.154
         8 -10.3161    134.3059    244.3301   1.2446662560e+02   4.5828656159e+00    0.3775727    0.2087087 -38.79  0.001770881    2.585    0.613
         9 -11.2107    138.7144    242.5506   1.2333150407e+02   4.1583822850e+00    0.4757388    0.2892931 -58.29  0.002488749    1.920    0.479
        10 -15.3259    100.8451    243.1046   1.3101274739e+02   1.0351519555e+01      1.51543     1.051397 -45.26  0.005420513    1.937    0.484
        11 -19.8787     60.5141    171.2004   1.3055370861e+02   3.2529329568e+01     19.76998     4.508383 -64.67   0.05950179    4.183    0.761
        12 -10.2725    169.8295    195.3515   1.0892663457e+02   7.7098646281e+00    0.2470464    0.1989023 -61.65 0.0006158929    1.397    0.284
        13 -10.5870    151.4562    196.0202   1.1311653346e+02   1.1137278581e+01    0.3608519    0.2415259  30.52 0.0006296911    1.636    0.389
        14 -11.1958    154.9765    186.9451   1.1061295753e+02   1.2406401907e+01    0.3706595    0.2918507 -68.82 0.0007380544    1.440    0.306
        15 -10.7785    150.7532    182.3571   1.1068451629e+02   1.4252808148e+01    0.3365122    0.2670251  85.92 0.0005962762    1.539    0.350
        16 -11.0001    152.9904    191.9996   1.1202476749e+02   1.1702709671e+01    0.3259202    0.2620799  78.92  0.001195385    1.479    0.324
        17 -11.1499    149.4856    187.9974   1.1206309080e+02   1.3259990932e+01    0.3910992    0.3044451  71.72  0.001808653    1.494    0.331
        18 -10.9975    159.1561    194.8527   1.1118110104e+02   9.8914294917e+00     0.253125    0.2483318  67.81 0.0008028879    1.037    0.036
        19 -10.0729    180.5795    193.3340   1.0621662538e+02   6.0309824567e+00     0.272793    0.1415084 -51.11 0.0009757663    2.119    0.528
        20  99.0000     12.0621    189.6712   1.4359185102e+02   3.3629304651e+01    0.3035688    0.1244269 -85.58  0.001415717    2.302    0.566
        21 -11.9065    175.6786    233.1596   1.1437376805e+02  -5.7689267127e-01    0.4230488    0.1749406 -47.92   0.00177664    2.750    0.636
        22 -10.4866    164.3396    187.0818   1.0853626303e+02   1.0518269955e+01     0.210639    0.1977391 -60.51  0.001152245    1.109    0.098
        23 -11.2387    175.9194    228.8822   1.1361957191e+02   1.3571987103e-01    0.2593242     0.207513 -39.98 0.0004192762    1.377    0.274
        24  -9.3882    242.2739    184.6512   9.2339760140e+01  -3.6656888864e+00    0.1270014    0.1037642 -62.76 0.0003810563    1.631    0.387
        25 -10.3038    133.0101    182.8439   1.1491045043e+02   1.7629240234e+01    0.3958898    0.2195944 -73.27  0.001419772    2.868    0.651
        26 -10.8475     29.0752    183.5218   1.3939564458e+02   3.3346065261e+01    0.2167637    0.1811495  77.41  0.000455521    1.115    0.103
        27 -10.2332    185.2012    169.9145   1.0044066690e+02   9.9158931336e+00    0.4756777    0.2787255 -63.68  0.001818952    2.510    0.602
        28 -10.4157    189.4756    178.5349   1.0134531481e+02   7.2723787698e+00    0.4510274    0.3224971  86.41  0.001920937    2.350    0.574
        29  -9.8482    188.5401    175.4772   1.0090578855e+02   8.0845488446e+00    0.2547267    0.2401443 -31.11 0.0006593047    1.051    0.049
        30 -10.2999      4.5023    180.2484   1.4436190123e+02   3.6427137765e+01    0.1752818    0.1395257 -53.28 0.0006534543    1.509    0.337
        31  -9.5248    169.5029    178.4848   1.0566368689e+02   1.1315665764e+01    0.2696565    0.1386054  53.03  0.001027199    2.204    0.546
        32 -10.7467    204.5089    175.1084   9.7530558498e+01   4.9804240188e+00    0.4228644    0.3245786 -50.30  0.001564008    1.359    0.264
        33 -10.6485    196.3881    175.2505   9.9216818627e+01   6.5567659501e+00    0.3702812    0.3040374  57.08  0.001918319    1.351    0.260
        34 -10.4160     10.4890    174.9330   1.4261472810e+02   3.7125238990e+01    0.1590942    0.1257017 -86.36  0.001078304    1.038    0.036
        35 -11.1219    230.7092    168.4631   9.1108243516e+01   1.2556424087e+00    0.3571838    0.1798154 -48.66  0.001515777    2.085    0.520
        36 -10.7779    168.0156    244.6908   1.1773595203e+02  -1.2398859119e+00    0.1873677    0.1736247 -35.97 0.0006095069    1.240    0.193
        37 -11.0502    192.2230    164.1027   9.7703021378e+01   9.6746770242e+00    0.5244086     0.323159 -59.44   0.00108915    2.019    0.505
        38  -9.3303     24.6747    165.5934   1.3843901348e+02   3.7999283275e+01     0.180142     0.128273  20.03 0.0007880796    1.908    0.476
        39  -9.8993     15.0109    164.1411   1.4053038528e+02   3.9229399955e+01    0.3612693    0.2156291  -7.86   0.00176028    3.387    0.705
        40 -10.5832     21.8716    236.5888   1.4529491280e+02   2.2517834011e+01    0.1048928   0.05972083 -69.96 0.0006292086    1.673    0.402
        41 -11.3074    189.3062    155.0950   9.6331256240e+01   1.2161403845e+01    0.4912475    0.4725948  19.32  0.001889271    1.074    0.069
        42 -13.2178    133.8766    145.9662   1.0708141135e+02   2.6062337381e+01     1.614186    0.4353394 -55.47  0.003751552    5.537    0.819
        43  -8.6133      1.4820    153.4601   1.4257328992e+02   4.2778634919e+01    0.1212598   0.09080516 -68.84 0.0005456361    1.138    0.121
        44  -9.5827    152.4962    151.4814   1.0377599191e+02   2.0865080082e+01    0.1583427    0.1504085  89.86 5.238536e-06    1.061    0.057
        45  -9.8474    174.5452    149.0153   9.8146463893e+01   1.6640836846e+01    0.2823384    0.2628403  81.84 0.0007149269    1.129    0.114
        46 -10.6405    148.9772    148.2861   1.0389413740e+02   2.2346227301e+01    0.2960745    0.2281055  25.14 0.0007877655    1.547    0.354
        47 -11.7264    143.9828    145.9616   1.0457509826e+02   2.3944447855e+01    0.6507999    0.3601227 -68.60  0.002189976    2.939    0.660
        48 -12.1376    141.8012    139.1269   1.0352528018e+02   2.5982682041e+01    0.5495773    0.3915463 -77.34  0.002324402    1.859    0.462
        49 -12.7471    135.6515    128.2000   1.0243994878e+02   2.9798388458e+01     1.553829    0.3443402 -51.31  0.003509457    5.691    0.824
        50  -9.4366    151.0739    241.5169   1.2067700393e+02   2.2204599138e+00    0.1792943    0.1774087  55.08 0.0007183903    1.144    0.126
        51 -10.8647    160.4267    127.5927   9.6265789666e+01   2.4464039383e+01     0.487357    0.3060159 -62.80  0.001577576    1.971    0.493
        52 -10.5876    165.3119    153.7585   1.0130109686e+02   1.7601072100e+01    0.3392662    0.2733252  78.26  0.001477554    1.487    0.327
        53 -12.0734    114.0975    118.1574   1.0562565601e+02   3.6533330491e+01      0.46966    0.2769507 -50.33  0.001990404    1.660    0.398
        54  -9.8603    168.0137    112.9912   9.0885990138e+01   2.5830322765e+01    0.3881519    0.2564947 -81.65  0.001478206    2.424    0.587
        55 -10.8342    134.5541    105.7785   9.6956245783e+01   3.4973116142e+01    0.5923844    0.1522495 -44.10  0.001634796    3.869    0.742
        56 -12.3130    117.8351    109.3597   1.0233047102e+02   3.7747927816e+01    0.6165525    0.3768837  67.47  0.002334483    2.575    0.612
        57 -11.6540     25.7606    108.7610   1.2985677297e+02   5.1252600817e+01    0.2707804    0.2114385 -47.95 0.0005285551    1.127    0.113
        58  -9.9450    205.3700    110.2948   8.2716210845e+01   1.7714378664e+01    0.3076455    0.2051027  50.31 0.0008922273    1.577    0.366
        59 -11.2018    186.1262    220.9070   1.1016381979e+02  -2.4841184359e-01    0.2448893    0.1893426 -32.04 0.0009099091    1.387    0.279
        60  -9.4213    119.2555    212.7486   1.2311084422e+02   1.3505792836e+01    0.1790222    0.1652894   3.36 0.0005860371    1.367    0.269
        61 -10.3772     13.4878    240.1335   1.4697083423e+02   2.2724857202e+01   0.08912469   0.07206536  34.26 0.0006316671    1.759    0.432
        62  -9.6591    146.5198     81.5209   8.7312638465e+01   3.7046230333e+01    0.1490264    0.1448517  64.61   0.00010204    1.002    0.002
        63  -9.2293    124.8282     81.1808   9.2564209128e+01   4.2014293514e+01    0.2039629     0.174718   8.07 0.0005135155    1.313    0.238
        64 -11.6393     11.5759    205.8526   1.4498259907e+02   3.0085930484e+01    0.2324322    0.1955015  52.56  0.001026875    1.380    0.275
        65 -10.7373     95.8480     80.0338   1.0037427211e+02   4.8087350549e+01    0.2852508    0.1993207  47.63 0.0004514062    1.529    0.346
        66  -9.4249     28.5246    238.2524   1.4423716281e+02   2.1419871103e+01    0.1198269   0.09178568  88.39 0.0002979727    1.147    0.129
        67  -9.7591    134.8964    198.1302   1.1723343990e+02   1.3839299793e+01    0.2242275    0.1926597  76.28 0.0005030097    1.202    0.168
        68 -13.5648    156.1895     58.8386   7.8768570519e+01   3.8561968688e+01      1.21973     1.038656  48.15  0.002875053    1.157    0.136
        69  -9.8699    133.3198    249.0367   1.2529220797e+02   3.8926292584e+00      0.17986    0.1502006  69.12 0.0005120871    1.206    0.171
        70 -12.3406    172.5583     36.5346   6.9690190882e+01   3.7721424910e+01    0.4044592    0.3626583  70.83 0.0008862249    1.054    0.051
        71  -9.7964     13.4284     59.8938   1.2327971294e+02   6.2423874395e+01    0.1634063    0.1475827 -14.90 0.0004032092    1.227    0.185
        72 -10.7041    121.1249    197.3824   1.2024965387e+02   1.6554288627e+01    0.2481907    0.2292179 -59.23 0.0002460203    1.159    0.137
