#   1 NUMBER                 Running object number                                     
#   2 MAG_AUTO               Kron-like elliptical aperture magnitude                    [mag]
#   3 X_IMAGE                Object position along x                                    [pixel]
#   4 Y_IMAGE                Object position along y                                    [pixel]
#   5 X_WORLD                Barycenter position along world x axis                     [deg]
#   6 Y_WORLD                Barycenter position along world y axis                     [deg]
#   7 A_WORLD                Profile RMS along major axis (world units)                 [deg]
#   8 B_WORLD                Profile RMS along minor axis (world units)                 [deg]
#   9 THETA_WORLD            Position angle (CCW/world-x)                               [deg]
#  10 FWHM_WORLD             FWHM assuming a gaussian core                              [deg]
#  11 ELONGATION             A_IMAGE/B_IMAGE                                           
#  12 ELLIPTICITY            1 - B_IMAGE/A_IMAGE                                       
         1 -13.5155     68.0864    144.2440   9.6731997637e+01   3.7613963141e+01     3.989847     1.928414 -86.41   0.01018727    6.126    0.837
         2 -14.0595    225.2236     33.5139   3.5393671938e+01   2.5689350276e+01     1.375297    0.9222238  43.34  0.007779107    2.225    0.551
         3 -13.0095    248.6693     12.8170   2.9525559529e+01   2.3475087710e+01    0.7428898    0.3079937 -39.69  0.003070881    2.119    0.528
         4 -11.0361      1.7630     13.2058   8.7627558032e+01   7.2563065627e+01    0.3680487   0.08804119 -50.31  0.001406722    4.801    0.792
         5  -9.5250     97.9588      6.4458   4.6165433070e+01   5.7698178854e+01    0.2037671    0.1662016 -50.26 0.0006412618    1.512    0.339
         6 -10.7696      2.4796      2.4852   8.2094161608e+01   7.4022417400e+01    0.2985481    0.1572426  19.95  0.001907634    1.725    0.420
         7 -14.3644     13.4141    206.0752   1.1848456491e+02   2.8833005840e+01     1.223008     1.070951  -4.01  0.005712766    1.637    0.389
         8  -8.9065    174.6169    250.3105   8.8336479457e+01  -2.4563446283e+00    0.1225327    0.0916784  54.78 0.0004353749    1.806    0.446
         9 -14.5834    101.2272    227.6573   1.0089410130e+02   1.2860905963e+01     6.678601     1.238841  42.25   0.01100795    4.359    0.771
        10 -13.5882      6.9919    246.4053   1.2215362863e+02   2.0913491998e+01     2.611139    0.9161704 -79.73   0.01310743    2.659    0.624
        11  -8.9877     67.9330    206.3421   1.0598609770e+02   2.2397303718e+01    0.1816149    0.1573923  54.77 0.0003441521    1.070    0.065
        12  -9.4496    191.2108    191.6194   7.4999642278e+01   5.1214005469e+00      0.27845      0.17249 -72.32 0.0009593723    4.388    0.772
        13  -9.5783     51.2457    185.7845   1.0763465779e+02   2.9468842971e+01    0.2865891    0.1721503 -84.45   0.00103051    1.742    0.426
        14 -11.7489     48.8613    178.4368   1.0734910946e+02   3.1561559192e+01    0.4291676    0.3064335 -30.00  0.001345099    1.918    0.479
        15 -11.6858     55.8075    172.4719   1.0473410604e+02   3.2168995665e+01    0.3190127    0.2625205 -39.57 0.0007145711    1.406    0.289
        16 -10.2645     99.2713    170.9459   9.2814483612e+01   2.6042855865e+01    0.3337142    0.1761269  49.25  0.001342089    2.013    0.503
        17  -9.1097    110.7706    167.7819   8.9192345329e+01   2.4811925711e+01    0.2072938    0.1746148  82.82 0.0004834652    1.336    0.251
        18 -12.7526     75.8396    156.3176   9.6654804071e+01   3.3427685565e+01     1.011042    0.7182061  67.09   0.00119586    1.639    0.390
        19 -14.5347     62.3322    245.4387   1.1121901776e+02   1.4741834730e+01     3.850229     1.113819  29.25   0.00922041    4.437    0.775
        20 -11.0385     67.6390    162.8318   1.0006203325e+02   3.2986980271e+01    0.2730962    0.2578837 -53.61 0.0004409121    1.115    0.103
        21 -13.3178     53.3645    158.9832   1.0347207271e+02   3.5865573693e+01    0.5382347    0.3857286 -36.90  0.001809764    1.648    0.393
        22 -15.0040     25.4619    197.5379   1.1510779496e+02   2.9595825080e+01      4.74218      2.27898  87.94   0.01195315    2.207    0.547
        23 -10.5390    170.9892    223.0000   8.4821038082e+01   2.6759271971e+00    0.2287475    0.1462866   8.83 0.0009928881    1.943    0.485
        24 -10.0313     92.0617    143.0018   8.9427895928e+01   3.4144820045e+01    0.3149923    0.2888715 -53.95 0.0007505235    1.070    0.065
        25  -9.4737     95.8331    139.4755   8.7589737451e+01   3.4358897758e+01    0.3428989    0.2476115 -17.93  0.001501192    1.897    0.473
        26  -9.3028    134.0000    147.5164   7.8958692692e+01   2.5201353511e+01    0.3518816   0.08790953 -48.98 0.0009419083    3.993    0.750
        27  -8.1057    146.3101    143.6512   7.5021177041e+01   2.3588710865e+01    0.1589306    0.1241731 -89.89 0.0007044924    1.712    0.416
        28 -12.0159     79.6849    140.9849   9.2647760933e+01   3.6683286607e+01    0.3253037    0.2775066 -48.86  0.000443219    1.153    0.133
        29  -8.9882     27.0117    233.9421   1.1755478895e+02   2.1358247500e+01     0.194205    0.1063676  63.25 0.0004296973    1.609    0.378
        30 -10.6278    105.9691    131.0786   8.2787698015e+01   3.4543938296e+01    0.3726024    0.3388017  -9.01 0.0009180947    1.208    0.172
        31 -11.6626     66.9506    127.9791   9.3894165853e+01   4.1857110845e+01    0.9889961    0.4411463 -74.84  0.002844504    4.562    0.781
        32  -9.5815     46.5160    129.4930   1.0068100866e+02   4.4151398458e+01     0.141446    0.1278885 -58.49 0.0001070097    1.024    0.024
        33 -10.4200     92.4914    127.5317   8.5913566904e+01   3.7858500202e+01    0.3105802    0.2513841 -23.66 0.0007711605    1.414    0.293
        34  -9.6343    244.6502    125.6814   5.2233523005e+01   7.8155010894e+00    0.1280313   0.09756958  -5.99 0.0005441626    1.736    0.424
        35  -9.4827    113.9184    125.1601   7.9127958671e+01   3.4401717007e+01    0.3672006    0.2120482  17.42  0.001233533    3.127    0.680
        36  -9.5741    103.9942    119.7223   8.0634510352e+01   3.7600627302e+01    0.2376238    0.2122169 -48.07 0.0003210229    1.104    0.094
        37 -10.2967     17.4983    230.9177   1.1927297710e+02   2.3005537316e+01    0.2027314    0.1297585  62.27  0.001246255    1.282    0.220
        38  -9.8129    205.0414    110.7252   5.5150040748e+01   1.7942840265e+01    0.3189791    0.2450307  35.02  0.001671972    1.564    0.361
        39 -10.1653    163.7300     83.9705   5.6191241994e+01   3.1958609640e+01     0.207944    0.1921089 -51.71  0.000507923    1.080    0.074
        40  -8.8336     75.4782     81.9676   7.9446886977e+01   5.1162248742e+01    0.1862403    0.1291735 -74.47 0.0008060205    2.316    0.568
        41  -8.8048    184.5121     77.4929   5.0715501385e+01   2.8274654905e+01    0.1399047    0.1331562 -77.63 -6.561514e-05    1.055    0.052
        42  -9.7936     61.7207     71.6560   8.1242318003e+01   5.5478797129e+01     0.236955    0.1921562  -9.71 0.0005696985    1.241    0.194
        43 -10.7996      1.8925     62.4967   1.0362819305e+02   6.3555757161e+01    0.3208742     0.140979 -68.42  0.001522044    2.398    0.583
        44 -10.7282     13.3563     60.0959   9.7893462225e+01   6.3322340713e+01    0.2504779    0.1789931 -51.77 0.0004257147    1.257    0.204
        45 -12.3076    205.5623     50.2635   4.1151775688e+01   2.7691450499e+01    0.8776026    0.5075396 -65.17  0.004354362    1.845    0.458
        46 -12.7488    211.9806     44.8764   3.9186652961e+01   2.7025224170e+01    0.8636349    0.4878403 -57.79  0.004491084    1.688    0.407
        47 -12.5615     33.6286    248.6619   1.1722950835e+02   1.7619816067e+01     1.307196    0.4873888  27.12  0.005641287    3.424    0.708
        48  -9.2547      2.3262     51.3241   1.0061819383e+02   6.5812086592e+01    0.1303863   0.06690482 -33.05 0.0007048862    1.691    0.409
        49 -11.0273     15.6471     45.6631   9.2514428054e+01   6.5965691409e+01    0.3039274    0.2321589  50.27 0.0007064261    1.985    0.496
        50  -8.6473     94.7358     46.3729   6.1458366718e+01   5.3819595177e+01    0.1315955    0.1076358 -70.27 0.0006985695    1.664    0.399
        51 -10.4866      2.1000     37.6825   9.6707775936e+01   6.8434006977e+01    0.1971451    0.1465581 -54.19  0.001332667    1.399    0.285
        52 -10.8416    123.0840     31.0817   4.9164175585e+01   4.9514076966e+01    0.3936162    0.2589613 -80.60  0.001621692    2.191    0.544
        53 -10.9785    118.8156     27.1859   4.8801553339e+01   5.0953569513e+01    0.5766742    0.3339566 -74.95  0.002328738    3.258    0.693
        54 -15.5008     33.1113    190.0674   1.1260405647e+02   3.0549980831e+01     10.53016     3.915169  84.86   0.02956177    5.969    0.832
        55 -10.5110     21.8005    243.0220   1.1916794603e+02   2.0060446082e+01    0.2030331    0.1597193  37.55   0.00101947    1.391    0.281
        56 -10.2277    189.5243     15.3220   3.4879931206e+01   3.5631770793e+01    0.2256244    0.1724971 -87.03 0.0007918755    1.110    0.099
        57  -9.3448    184.3196    216.6432   8.0968776850e+01   1.6955417528e+00    0.1262786    0.1079604  74.68 0.0003055813    1.758    0.431
