#   1 NUMBER                 Running object number                                     
#   2 MAG_AUTO               Kron-like elliptical aperture magnitude                    [mag]
#   3 X_IMAGE                Object position along x                                    [pixel]
#   4 Y_IMAGE                Object position along y                                    [pixel]
#   5 X_WORLD                Barycenter position along world x axis                     [deg]
#   6 Y_WORLD                Barycenter position along world y axis                     [deg]
#   7 A_WORLD                Profile RMS along major axis (world units)                 [deg]
#   8 B_WORLD                Profile RMS along minor axis (world units)                 [deg]
#   9 THETA_WORLD            Position angle (CCW/world-x)                               [deg]
#  10 FWHM_WORLD             FWHM assuming a gaussian core                              [deg]
#  11 ELONGATION             A_IMAGE/B_IMAGE                                           
#  12 ELLIPTICITY            1 - B_IMAGE/A_IMAGE                                       
         1 -13.5608      4.4466     13.3584   1.3608614652e+02   7.5678099444e+01     2.935277    0.7275912 -62.63   0.01211503    2.835    0.647
         2 -13.1880    189.6889     28.3215   7.3743661619e+01   3.3501312409e+01     1.314953     1.124884  71.70  0.006441633    1.157    0.136
         3 -13.8190    202.7712      9.7850   6.6829516967e+01   3.2029125580e+01     1.842407     1.136553  46.87  0.008887466    1.852    0.460
         4 -10.4031     46.4974    248.4171   1.4715969241e+02   2.1421844173e+01    0.2702216    0.1157269  62.25  0.001138121    2.046    0.511
         5 -11.2723    247.9615    249.1266   1.1207193164e+02  -4.4260842427e+00    0.3600358    0.1726263  30.16  0.002532595    1.487    0.328
         6 -10.4128    142.0397    250.3150   1.2979588118e+02   9.2071812347e+00    0.2652448    0.1030277  28.83  0.001291933    2.602    0.616
         7 -10.0939     98.5246    249.4764   1.3767479436e+02   1.5089256151e+01    0.2041172    0.1392287  42.94  0.001165796    1.010    0.010
         8 -10.6796    102.3124    247.7098   1.3683881734e+02   1.4844969641e+01    0.2296546    0.1683774  43.44 0.0007880764    1.057    0.054
         9  -8.9024     73.6808    250.2760   1.4230080772e+02   1.8053087532e+01    0.1105874   0.05372278  52.40 0.0003440719    1.573    0.364
        10  -9.7939     67.1052    250.3661   1.4350849135e+02   1.8815912469e+01    0.1561406   0.09274589  44.97  0.001108701    1.131    0.116
        11 -10.8936     29.3452    249.4943   1.5026815626e+02   2.3043263803e+01    0.3625547    0.1311654  44.88  0.001455935    1.674    0.403
        12 -11.6704     34.7442    245.8648   1.4918100000e+02   2.3047868819e+01    0.5175502    0.3706593  61.34  0.004295866    1.163    0.140
        13 -12.5234     26.0702    202.9593   1.4919270721e+02   3.1156017985e+01    0.6165439    0.1550605  47.33  0.002032782    2.473    0.596
        14 -14.9834      6.6763    212.1425   1.5343082511e+02   3.1289559693e+01     6.376846     1.010986 -79.37    0.0253732    5.744    0.826
        15 -13.9646      4.6685    176.7797   1.5291162513e+02   3.8104203263e+01      3.32614    0.5336921 -81.66   0.01184862    5.467    0.817
        16  -9.8701    194.6793    238.5467   1.1918201538e+02   3.3009720064e+00    0.1562868   0.09854407 -32.19  0.001088149    2.022    0.505
        17 -10.4176     81.1830    248.2364   1.4079275853e+02   1.7439329733e+01    0.2462085    0.1549484  66.92  0.001243394    1.627    0.385
        18  -9.5014     21.3344    239.2898   1.5139049134e+02   2.5406137179e+01    0.0818629     0.074472  22.69 0.0003750172    1.632    0.387
        19 -10.0717    183.2809    238.0214   1.2108378645e+02   4.9309039476e+00    0.1543969    0.1164635  22.01  0.001159082    1.106    0.096
        20 -14.8576     18.9316    169.5477   1.4929738800e+02   3.8381061965e+01      6.18119     1.586386  80.81   0.01974854    5.910    0.831
        21 -10.1327    232.9926    235.9859   1.1256958872e+02  -1.5167441334e+00    0.1788281    0.1465229 -49.02  0.001312662    2.648    0.622
        22  -9.8130    229.9403    230.6610   1.1230590469e+02  -6.4411961904e-01    0.1682695    0.1362021 -53.00  0.001173238    2.792    0.642
        23 -11.1697    149.7028    229.4686   1.2615533132e+02   1.0756740184e+01    0.5333819   0.09242261  36.49  0.001714781    4.825    0.793
        24  -9.0661     33.3489    228.9333   1.4879767461e+02   2.5884316895e+01    0.1417378     0.102759  64.21 0.0004826252    1.156    0.135
        25 -14.3575     56.4503    212.0385   1.4330617939e+02   2.6224752911e+01     7.978693          nan  41.15   0.02029383    8.226    0.878
        26 -11.3744    173.3547    222.3095   1.2085681646e+02   8.1866021257e+00    0.4397003    0.2843295  37.17   0.00258436    1.202    0.168
        27 -10.5854     82.5482    243.3620   1.4021384226e+02   1.7979408895e+01     0.343179    0.1208377  50.96  0.001796741    2.312    0.567
        28  -9.7326     74.1525    242.8505   1.4175913578e+02   1.9086259585e+01    0.1721818    0.1003828  52.57 0.0005824126    1.304    0.233
        29  -9.7016    152.4749    248.4686   1.2773675045e+02   8.0057807446e+00    0.1118917   0.07774195  34.25 1.960348e-05    1.002    0.002
        30  -8.7121    152.4830    212.8951   1.2358961227e+02   1.2586554254e+01    0.1373647    0.1216007 -35.53 0.0003421511    1.450    0.310
        31 -12.5882     42.7617    233.3667   1.4718978883e+02   2.4168848004e+01    0.2699846    0.2440327  42.57 0.0008137577    1.415    0.293
        32 -11.3945     67.3402    198.6736   1.4000122749e+02   2.7306554299e+01    0.3050491     0.231025 -44.35  0.001507528    1.919    0.479
        33  -9.7966    191.7950    192.9834   1.1314850019e+02   9.0471742186e+00    0.3301647    0.2177157 -67.82  0.001420541    4.595    0.782
        34 -10.6940    197.9459    245.3030   1.1948001002e+02   2.1734095118e+00    0.1815486    0.1598834 -52.01  0.001464556    2.029    0.507
        35 -11.5945     72.7048    190.8661   1.3812608321e+02   2.8076350818e+01    0.2352154    0.2262311 -53.31 0.0007849699    1.390    0.281
        36  -8.9593    104.4228    180.3537   1.2963754942e+02   2.5495389589e+01    0.1478396    0.1199113  83.65  0.000341219    1.377    0.274
        37 -10.8096     81.7132    178.1785   1.3474741946e+02   2.9305946953e+01    0.2279463    0.1961585  67.89 0.0003750634    1.109    0.098
        38 -13.1948     69.1689    175.9879   1.3754405851e+02   3.1466120762e+01    0.4487161    0.2827649 -43.36  0.002023348    2.320    0.569
        39  -8.8259    171.4993    173.4775   1.1381040526e+02   1.5242332946e+01    0.1333747    0.1115349  29.33   7.0145e-05    1.005    0.005
        40 -11.8876     89.2832    168.4677   1.3175578364e+02   3.0146362495e+01    0.7813084    0.4923782  42.01  0.004235403    1.346    0.257
        41  -8.7390    250.6691    171.6963   9.9536293120e+01   2.3593617294e+00    0.1223894   0.07224526  11.40  0.000314469    1.655    0.396
        42 -10.6217    191.6175    155.1220   1.0641443201e+02   1.4346717818e+01     0.462973    0.3428532 -86.64  0.001991091    2.931    0.659
        43  -9.8450    100.4102    152.4286   1.2666868402e+02   3.1698007508e+01    0.2662381    0.2429962  48.30 0.0008000618    1.077    0.071
        44 -11.8764     89.2825    151.8817   1.2949821120e+02   3.3609464929e+01    0.2633537    0.2492409   5.43 0.0005475493    1.296    0.229
        45 -12.5018     67.0422    144.0587   1.3447304920e+02   3.8603081368e+01    0.8301494    0.4999571  67.95  0.004108049    1.784    0.440
        46 -11.7746     57.9111    132.6732   1.3561843742e+02   4.2425377488e+01     1.134997    0.4240749 -85.64   0.00326044    5.575    0.821
        47  -8.9531    103.0837    148.1597   1.2528705708e+02   3.2145814064e+01       0.2022    0.1842947   8.34 0.0005828937    1.316    0.240
        48  -9.2710    181.3752    144.3307   1.0624407789e+02   1.7965017883e+01    0.2332227    0.1904706  85.46   0.00054237    1.862    0.463
        49  -8.4156    192.0126    143.9770   1.0407887236e+02   1.5942264759e+01    0.1601098    0.1432174   4.26 0.0003852751    1.066    0.062
        50  -9.4635    110.8792    137.3038   1.2131676049e+02   3.3071021619e+01    0.3283574    0.2098788 -28.44   0.00141057    2.442    0.591
        51 -10.4346     98.5507    134.7786   1.2420088886e+02   3.5806924941e+01    0.2707967    0.2424575 -19.22 0.0009285862    1.394    0.283
        52  -9.6454    166.4838    130.5990   1.0640121450e+02   2.3284607979e+01     0.286752    0.2220456 -87.69 0.0009383031    1.974    0.493
        53 -13.9049     49.0456    225.8652   1.4560893048e+02   2.4707949788e+01    0.9906099    0.6233415  69.10  0.006362641    1.428    0.300
        54  -9.9599     70.7039    124.5881   1.3056280566e+02   4.2579981305e+01    0.2480645    0.2053654  65.00 0.0003873052    1.127    0.113
        55  -9.2353    107.8837    124.0673   1.1952351073e+02   3.6480869474e+01    0.2073216    0.1917942  51.34 0.0002988657    1.029    0.028
        56  -9.1687    154.2438    119.8972   1.0668761535e+02   2.7827306237e+01    0.2685019    0.2005838  71.17  0.001058354    1.712    0.416
        57  -9.1532    235.3350    150.6826   9.7904392607e+01   7.1616887576e+00    0.1097161    0.1002988 -61.16 0.0007048305    1.696    0.410
        58 -10.5624    168.0150    113.2340   1.0200162595e+02   2.6006075404e+01     0.338072    0.2935675 -89.12  0.000834384    1.433    0.302
        59  -8.5347    146.4749    113.5406   1.0699610320e+02   3.0730288843e+01    0.1511382    0.1417424  60.13 0.0008073944    1.083    0.076
        60  -8.9037    203.4581    111.5261   9.4680919375e+01   1.8527186571e+01    0.1413203    0.1279108   7.89  0.000142222    1.035    0.034
        61  -8.7896    184.9016    148.0083   1.0629696793e+02   1.6698935261e+01    0.1925907     0.166627  81.57  0.000555041    1.638    0.389
        62  -9.5138     43.9783    109.5018   1.3686149096e+02   4.9630398034e+01    0.1958599    0.1309679  28.72  0.001034708    1.604    0.377
        63  -8.9851    155.6876     75.6653   9.4427467078e+01   3.5588464902e+01    0.1613445    0.1211721  17.93 0.0007045217    1.684    0.406
        64  -9.2918     18.4885     66.9720   1.4032104166e+02   6.2371433449e+01    0.1742973    0.1678644  44.24  0.001180053    1.174    0.148
        65 -11.4982      3.1779     61.8562   1.4668135859e+02   6.4419441016e+01    0.3310199    0.2727185  71.35  0.001009728    1.218    0.179
        66 -11.9637      4.6712     52.5029   1.4474898536e+02   6.6612501058e+01      0.61066    0.3345745  36.79  0.003336251    2.041    0.510
        67 -10.2069    161.8917    248.5783   1.2607503623e+02   6.7055000063e+00    0.1711102    0.1463646  83.08  0.001333592    1.934    0.483
        68  -8.7331     24.6914     59.2717   1.3595207454e+02   6.3799385324e+01    0.1999947    0.1688196  46.89 0.0001600076    1.300    0.231
        69  -9.6175     20.5579     57.5333   1.3761858346e+02   6.4528388242e+01    0.3085582    0.1617204  39.31  0.001541179    2.083    0.520
        70 -10.3867     16.5076     56.4524   1.3942033758e+02   6.5058961395e+01    0.2152457    0.1844898  15.55 0.0005535679    1.346    0.257
        71 -10.6113    122.7821    249.5737   1.3322187998e+02   1.1896422569e+01     0.292388   0.07181038  38.60  0.001311639    2.693    0.629
