#   1 NUMBER                 Running object number                                     
#   2 MAG_AUTO               Kron-like elliptical aperture magnitude                    [mag]
#   3 X_IMAGE                Object position along x                                    [pixel]
#   4 Y_IMAGE                Object position along y                                    [pixel]
#   5 X_WORLD                Barycenter position along world x axis                     [deg]
#   6 Y_WORLD                Barycenter position along world y axis                     [deg]
#   7 A_WORLD                Profile RMS along major axis (world units)                 [deg]
#   8 B_WORLD                Profile RMS along minor axis (world units)                 [deg]
#   9 THETA_WORLD            Position angle (CCW/world-x)                               [deg]
#  10 FWHM_WORLD             FWHM assuming a gaussian core                              [deg]
#  11 ELONGATION             A_IMAGE/B_IMAGE                                           
#  12 ELLIPTICITY            1 - B_IMAGE/A_IMAGE                                       
         1 -10.7628     88.0340     55.3909   1.8169890943e+01   5.4858227099e+01     1.333562    0.5681443 -26.22  0.003266972    6.790    0.853
         2 -12.0463    119.9838     37.4492   3.5068183131e+00   5.0140347933e+01    0.7608172    0.3954693 -56.25  0.001726319    2.184    0.542
         3  -9.8226      9.3412     29.6717   4.8776870432e+01   7.3540463788e+01    0.6246367    0.4073475 -18.06  0.002812836    1.587    0.370
         4 -11.7927    104.5945     11.5790   3.5688944992e+02   5.7062795137e+01    0.5870476    0.3522089 -27.35  0.001756318    1.873    0.466
         5 -12.7835    105.5697     19.9285   3.5996507923e+02   5.5922810453e+01    0.3370156    0.2943968 -73.21 0.0005676724    1.114    0.103
         6 -11.7738     26.5956     27.9248   3.4944441674e+01   7.1836502120e+01    0.5772567    0.4256015 -55.06  0.002113743    1.565    0.361
         7 -11.0679     20.7619     21.4998   3.5725562913e+01   7.3854238035e+01    0.6394301    0.4576759  -4.46  0.003561787    1.546    0.353
         8 -11.3388     23.7778     10.8942   2.6961905043e+01   7.5178409734e+01    0.9156244      0.55266  42.64  0.004869038    1.582    0.368
         9 -11.9045      9.0441     19.5294   4.4319245959e+01   7.5638782746e+01    0.4333615    0.2532862  -9.16 0.0003639332    2.033    0.508
        10 -11.1522     15.9126     15.0253   3.5818504413e+01   7.5668068858e+01    0.6187012    0.3898311 -22.27  0.003290986    1.808    0.447
        11 -10.4860     17.0008      9.9948   3.1670423675e+01   7.6364688507e+01    0.2526979    0.1784558  38.08 0.0004223298    1.391    0.281
        12 -10.6950     13.3580      8.8625   3.4049098222e+01   7.7058955422e+01    0.3830334    0.2285684 -55.37  0.001931293    2.213    0.548
        13 -10.8302     47.3490     21.6607   1.9288776441e+01   6.9242134115e+01    0.7892432    0.4453906 -52.36   0.00362384    2.385    0.581
        14 -11.7370     58.2259     29.1003   1.8122595640e+01   6.5869446688e+01    0.7489936    0.5437693  -4.50  0.001152143    1.863    0.463
        15 -12.4088    165.0512     27.4311   3.5382123468e+02   4.0735574502e+01    0.4414457    0.3010055  67.12  0.002545155    1.492    0.330
        16 -10.5483    135.2665     21.5109   3.5566370681e+02   4.8432565429e+01    0.5065992    0.2202062 -32.14  0.002157522    2.330    0.571
        17 -11.1449    127.2321     15.6165   3.5482567008e+02   5.1043896801e+01    0.4455519    0.3216975  -4.71  0.001835656    1.965    0.491
        18 -10.7593    134.5795     14.7454   3.5356991389e+02   4.9343823000e+01    0.6289529    0.2146333  63.02  0.002581783    2.565    0.610
        19  -9.8234    186.9082     15.0214   3.4867313523e+02   3.7364817008e+01    0.3213102    0.2315512   3.37  0.001834838    2.414    0.586
        20 -11.7460     35.9746     18.4678   2.3656606462e+01   7.1908640215e+01    0.6297175    0.5306897 -19.24  0.002744177    1.248    0.198
        21 -12.1094     48.8773     12.7187   1.3477170520e+01   7.0150913520e+01     0.747449    0.3236564  52.57  0.003309105    2.041    0.510
        22 -10.9768     69.1090     20.0594   9.4693208769e+00   6.4728632216e+01    0.4072877    0.3719245  -4.39  0.001909787    1.237    0.191
        23 -11.8219    164.0913     18.4733   3.5146283360e+02   4.1989672759e+01     0.360967    0.2655446  40.61  0.001276564    1.905    0.475
        24 -12.2783    237.4591     15.7894   3.4587811136e+02   2.7597040112e+01    0.6897619    0.2509559  76.07  0.003771205    2.962    0.662
        25 -10.5652    225.7221     13.3510   3.4596095571e+02   2.9930305344e+01    0.2131619    0.1370847 -54.11  0.000672489    1.128    0.114
        26 -11.2458     85.9153     14.1657   1.8460420236e+00   6.1409367109e+01    0.4458036    0.3996905 -54.94  0.001717277    1.197    0.164
        27 -11.0706     87.8543      8.2920   3.5877654627e+02   6.1533154413e+01    0.5492082    0.3920512  75.64  0.002423582    1.263    0.208
        28 -10.1397    191.0515     12.5128   3.4777829101e+02   3.6765416155e+01    0.2957653     0.151315 -35.83 0.0005501635    1.753    0.429
        29  -9.6643    219.3253     12.5131   3.4611311190e+02   3.1194071666e+01    0.1887022    0.1698169   2.08  0.001420801    1.729    0.422
        30  -9.6319     98.8362     11.8649   3.5806538142e+02   5.8464007150e+01    0.3123082    0.1847714  -9.30  0.001472888    2.417    0.586
        31 -11.1170    211.9032      9.7652   3.4591317649e+02   3.2885909905e+01    0.3228307    0.2657024 -16.27 0.0009935609    1.693    0.409
        32  -9.8547    121.4471     11.4093   3.5417986514e+02   5.2901779131e+01    0.3425214    0.1966759 -89.39  0.001690902    1.726    0.421
        33 -12.5766     63.4652      9.4545   5.9194963887e+00   6.7276572010e+01     0.426946    0.3803644 -71.33  0.002671805    1.260    0.206
        34  -9.7997     77.6846      7.0678   5.7300483400e-01   6.4137607463e+01    0.3243507     0.212391  89.81  0.001390884    1.698    0.411
        35 -10.4962     73.6491      3.5420   3.5984916769e+02   6.5441385106e+01    0.6716957     0.240163  50.75  0.002760601    2.470    0.595
        36 -10.0640      5.5055      9.7781   4.2132022095e+01   7.7840710733e+01     0.423898    0.1963235 -47.16  0.002072047    2.097    0.523
        37  -9.1549      4.8500      4.8310   3.9535708183e+01   7.8784994901e+01    0.1471184    0.1372996  23.18 0.0005817519    1.271    0.213
        38 -10.4899    168.6253      9.5517   3.4865110950e+02   4.1916327220e+01    0.3112553    0.1840936  61.96  0.001235367    1.821    0.451
        39  -9.9526      1.2670      7.6828   4.5270152221e+01   7.8636768244e+01    0.3082729   0.08778737 -53.23  0.001253572    3.253    0.693
        40  -9.9416      1.8424      1.9335   4.0762926008e+01   7.9604422796e+01    0.2264738    0.1471735 -30.95  0.001272222    1.489    0.328
        41 -10.9789    247.2564      6.1137   3.4360249543e+02   2.6953127201e+01    0.3187444     0.217228  -3.76  0.001997006    2.985    0.665
        42 -10.7544    236.4169      5.8570   3.4397365715e+02   2.8813741781e+01    0.2707122    0.1060834 -53.23  0.001592472    1.787    0.440
        43  -8.5072    154.2539      6.6629   3.4903712789e+02   4.5482281747e+01    0.1321624   0.07476018 -58.79 0.0001710225    1.570    0.363
        44  -9.6421    148.5180      5.5949   3.4923386896e+02   4.6926293801e+01    0.2236287    0.1312473  75.50 0.0005899015    1.540    0.351
        45 -11.1798     40.4820      3.9519   1.1980388056e+01   7.2953348997e+01     0.355475    0.3045057  38.72  0.001908518    1.022    0.022
        46  -9.4544    128.6559      1.3126   3.4982943274e+02   5.2077215308e+01    0.1951274    0.1105627 -80.70 0.0006126417    1.673    0.402
        47  -9.8129    128.9722      4.7888   3.5095906150e+02   5.1690010945e+01    0.1723358    0.1420465 -86.56  0.001075163    1.024    0.023
        48 -10.8254    133.7652      2.3200   3.4963187895e+02   5.0749277293e+01    0.5215129    0.2486341  67.54  0.001364431    1.869    0.465
        49 -10.5224    218.6485      3.0010   3.4414177741e+02   3.2298347116e+01    0.2342091    0.1795514 -31.21  0.001712054    1.489    0.328
        50 -10.8366    223.5674      2.4494   3.4381681772e+02   3.1444468090e+01    0.2388048    0.1799831  86.92 0.0008333287    1.409    0.290
        51  -8.9666    122.4510      4.5269   3.5163597149e+02   5.3310579043e+01    0.1310082    0.1097435 -84.13 0.0002609186    1.018    0.018
        52 -10.9796    113.4998      2.2540   3.5195524382e+02   5.5719468261e+01    0.4315947    0.2330537  88.44  0.001641729    1.765    0.434
        53  -9.4471     30.2879      4.0891   1.7771048074e+01   7.4968673137e+01    0.2196296    0.1381806 -52.68  0.001123661    2.334    0.572
        54 -10.4936    206.8905      2.1958   3.4450621906e+02   3.4624255883e+01    0.3247717    0.1735411 -84.21  0.001977999    1.710    0.415
        55 -10.1946    105.4410      1.9068   3.5294626949e+02   5.7747451678e+01    0.2546249    0.1824266 -78.60  0.000892377    1.326    0.246
        56  -9.7255    185.7074      6.9061   3.4676789623e+02   3.8465998651e+01    0.2256135    0.1498255 -81.15 0.0009220878    1.305    0.234
        57  -9.6468     12.0069      2.0510   3.0297970292e+01   7.8320767791e+01    0.2439166    0.1504266  30.89  0.001397504    1.455    0.313
        58  -9.3635    141.8949      2.6536   3.4894968551e+02   4.8768268977e+01    0.1839167    0.1392201 -84.14 0.0005291576    1.113    0.101
        59  -9.1035    166.9146      1.2772   3.4656310174e+02   4.3106892035e+01    0.1526465   0.09120018  74.27            0    1.588    0.370
        60  -9.7162    152.7270      1.3753   3.4763684900e+02   4.6335180642e+01    0.2142364    0.1035843  85.62 0.0005447674    1.876    0.467
        61  -8.7266     33.6813      1.6888   1.4020167589e+01   7.4592972988e+01    0.1314844   0.08564797  25.87 0.0007035253    1.644    0.392
        62 -10.8423     20.8044    133.6878   6.4085174279e+01   4.5634960031e+01     0.338046    0.2117872  32.46   0.00122476    1.563    0.360
        63  -9.7302    217.1917    250.1832   3.0770222687e+01  -2.4443124336e+00    0.1290611    0.1061858  -4.00  0.001068364    1.349    0.259
        64 -10.9465     25.3132    135.5522   6.2606443547e+01   4.4721767992e+01    0.4863133    0.2933837 -58.86  0.002217824    1.608    0.378
        65 -11.4370     30.1887    132.6760   6.0439164062e+01   4.5064028467e+01    0.5600458    0.4586849 -87.91  0.001894347    1.188    0.158
        66  -8.9816    182.4739    129.5203   1.6326915032e+01   2.0807904397e+01    0.1339384    0.1177777 -40.90 0.0001164794    1.030    0.029
        67  -9.3659     26.8136    127.1986   6.1034246179e+01   4.6916441370e+01    0.1990398    0.1639017 -42.99  0.000274068    1.285    0.222
        68  -8.9743     22.5979    126.5073   6.2590813583e+01   4.7488631018e+01    0.1472106     0.134486  81.90 6.791236e-05    1.040    0.038
        69  -9.5816      2.0039    125.7218   7.0543027427e+01   4.9155360955e+01    0.2755495    0.1605037  77.46  0.001265394    1.691    0.409
        70  -9.5972     63.0331    130.4140   4.7994228667e+01   4.1678396693e+01    0.2834708    0.1924128 -41.39  0.001252722    1.624    0.384
        71 -10.7400    104.3426    122.3859   3.2764851882e+01   3.6775538124e+01    0.3700673    0.3089055  42.06  0.001552311    1.205    0.170
        72  -9.3458     78.9596    122.9318   4.0945857548e+01   4.1165821032e+01    0.2423623    0.1843129  71.44  0.001103016    1.548    0.354
        73  -9.6699     58.9724    122.8746   4.8036662385e+01   4.4296700334e+01    0.4356925    0.1812993  39.92  0.001349823    2.317    0.568
        74  -9.5163     49.6998    122.4803   5.1451614368e+01   4.5671838710e+01    0.3283864    0.2286566  26.82  0.001514228    1.464    0.317
        75  -8.6859     19.4823    122.5219   6.3350329856e+01   4.8865823884e+01    0.1459855    0.1366106  85.57 0.0001468644    1.010    0.010
        76 -10.7297     43.7960    116.8633   5.2746945864e+01   4.7962384925e+01    0.6213714    0.3203716 -71.29  0.002459453    1.993    0.498
        77  -9.9671     79.2659    114.7085   3.8993218774e+01   4.3227970759e+01    0.3263216    0.2919273  29.67  0.001139684    1.152    0.132
        78  -9.5537     58.5173    115.0535   4.6637990279e+01   4.6469442104e+01    0.2335698    0.1513831 -64.79 0.0004861741    1.544    0.352
        79 -12.6657      3.8928    109.5409   6.8430389171e+01   5.3544760544e+01    0.9983752    0.6875098 -80.40  0.003437271    1.343    0.255
        80 -11.9375     43.7426     91.3527   4.7473264186e+01   5.4859151625e+01    0.5498789     0.314674 -54.33  0.002160237    1.675    0.403
        81 -11.0629     51.2512     88.9750   4.3538877475e+01   5.4412553053e+01    0.8598109    0.3701754 -52.17  0.001966818    2.227    0.551
        82 -11.1448     35.5955    102.7429   5.3551953236e+01   5.2807641308e+01    0.5029945    0.3096246   3.80 0.0004813361    2.031    0.508
        83 -11.6789     44.7868     84.4121   4.5255878398e+01   5.6515749404e+01    0.8845386    0.6096462  30.51  0.003743503    1.455    0.312
        84 -11.4764     12.1499     95.6439   6.3083132675e+01   5.6886916534e+01     1.503104    0.8062522   0.41    0.0064243    2.199    0.545
        85 -11.3949     35.9979     91.9379   5.1150081706e+01   5.5679664306e+01     1.051597    0.5964763 -29.41   0.00419777    2.290    0.563
        86 -11.8612     28.0139     85.0849   5.3475535829e+01   5.8388510002e+01      1.20899    0.6905688  10.68  0.003233123    2.009    0.502
        87 -11.0895     16.5987    108.0638   6.2755134121e+01   5.3132275115e+01    0.4879649    0.3904328 -29.93   0.00151138    1.347    0.257
        88 -11.8924     17.9454    101.1661   6.1189548244e+01   5.4940334536e+01    0.6440555    0.5100976  13.51   0.00192161    1.345    0.256
        89 -11.4363     22.7661     94.6686   5.7899105680e+01   5.6317405538e+01    0.5104146    0.4283587 -42.29  0.001852679    1.188    0.158
        90 -12.3712     25.1301    113.4291   5.9844962623e+01   5.0920730236e+01     1.303034    0.4424092   9.98  0.003838752    4.281    0.766
        91 -12.5163     25.9727    106.8557   5.8485466814e+01   5.2670582847e+01    0.7430265    0.4341346 -55.67  0.002578115    1.616    0.381
        92  -9.7895     66.7893    113.5653   4.3202977630e+01   4.5600595002e+01    0.3870723    0.2143218 -65.95  0.000987962    1.930    0.482
        93  -9.2936    170.9737    112.3409   1.4621391754e+01   2.6024298995e+01    0.1846126      0.17632 -56.87 0.0005109617    1.070    0.066
        94 -10.9851    104.7211    108.7700   2.9336660208e+01   3.9927891295e+01    0.5964886    0.4765659 -50.55  0.002932857    1.239    0.193
        95 -10.1602     48.8821    111.7405   4.9739922023e+01   4.8713553764e+01    0.3065583    0.2452987  42.82 0.0006867759    1.251    0.201
        96  -9.3519     75.6806    111.2727   3.9445264191e+01   4.4725383603e+01    0.2454256    0.1782878  58.49 0.0003086404    1.527    0.345
        97 -11.5702     79.4188    108.3115   3.7409615760e+01   4.4824666608e+01    0.5748903    0.3768441  23.51  0.001020604    1.794    0.443
        98  -9.6828    120.1689    109.2568   2.5122827518e+01   3.6717959903e+01    0.2710786    0.2011742 -38.81 0.0007115108    1.401    0.286
        99  -9.6786     58.8087    109.8327   4.5408376924e+01   4.7821473281e+01    0.2485026     0.175243  63.88 0.0009300282    1.659    0.397
       100  -9.6468    139.9673    106.6754   1.9597624717e+01   3.3231363889e+01    0.2112232    0.1972717  -8.79 0.0003786196    1.207    0.171
       101  -9.6040    143.3224    105.6531   1.8589257496e+01   3.2754861803e+01    0.2990253    0.2000307  71.04  0.001332559    1.993    0.498
       102 -10.1050     85.8922    103.4422   3.3942298957e+01   4.4847565499e+01    0.4542486    0.2565534  43.79  0.001609923    1.764    0.433
       103 -10.1498     92.1432    101.8529   3.1446012155e+01   4.4033100533e+01    0.3933273    0.3538231   5.62  0.001826031    1.281    0.219
       104  -9.7858     46.3731    103.4819   4.9068877024e+01   5.1281774656e+01    0.4018915    0.1601264 -47.37  0.001381539    2.622    0.619
       105 -10.7427     50.8287    100.3835   4.6510467261e+01   5.1497987703e+01    0.5955716    0.3515469 -40.81  0.002116333    1.884    0.469
       106  -9.4627    120.7833    101.1128   2.2853157397e+01   3.8372786852e+01    0.2302767    0.2039969 -74.23 0.0007261505    1.158    0.137
       107  -9.7498    166.8983     98.8442   1.2193120877e+01   2.9298075505e+01    0.2889574    0.1849439 -30.33 0.0009660186    1.733    0.423
       108 -10.4955    156.6699     99.0275   1.4159091225e+01   3.1324337464e+01    0.2614248    0.2369451 -50.98 0.0004384754    1.028    0.027
       109  -9.9263    135.3469     99.2473   1.8766433654e+01   3.5707192659e+01    0.4432158    0.2063353  39.24  0.001648578    2.633    0.620
       110 -11.6747     69.0158     95.1960   3.7874687531e+01   4.9952863519e+01     1.031426    0.5070562  27.30  0.001543829    2.429    0.588
       111  -5.7076     81.5462     83.4036   2.9828726528e+01   5.0436964621e+01    0.8742235    0.5411581 -26.51  0.003389355    2.443    0.591
       112 -11.2246     74.6142     78.8404   3.0976693213e+01   5.2840386342e+01     0.592029    0.3882755  57.77  0.001312961    1.745    0.427
       113  -9.8649     76.0371     74.9463   2.9196623896e+01   5.3437676102e+01    0.2556057    0.2231492 -48.28 0.0006480083    1.167    0.143
       114 -10.4918     83.0041     93.2053   3.2173623828e+01   4.7865610012e+01    0.5957139     0.214471  43.98  0.001897308    2.764    0.638
       115 -10.5990     77.2511     96.5708   3.5158040531e+01   4.8137381644e+01    0.4433742    0.2760502  44.13  0.001339684    1.601    0.375
       116 -10.5127     79.1861     93.4067   3.3588383418e+01   4.8545614376e+01    0.4360734    0.3482856 -70.58   0.00210825    1.355    0.262
       117  -9.5335    184.3925     96.1828   8.6347175155e+00   2.6366588897e+01    0.2020603    0.1068707 -48.90  0.000736253    1.718    0.418
       118 -10.0457    146.9332     96.6864   1.5543143951e+01   3.3784287571e+01     0.374739     0.192025 -27.99   0.00116304    2.992    0.666
       119  -9.9260    125.4320     93.6842   1.9669114316e+01   3.8956532261e+01    0.3015887    0.2475622  62.41 0.0006224954    1.259    0.206
       120 -10.2373    121.7084     93.4758   2.0553677604e+01   3.9799275187e+01    0.3046803    0.1839453 -48.73  0.001036263    1.622    0.383
       121 -10.1021    154.2250     90.6016   1.2511323983e+01   3.3406659971e+01    0.3957477    0.2893445  15.22  0.001841609    2.217    0.549
       122 -10.9509     98.2841     90.6535   2.6388837672e+01   4.5383916130e+01    0.3354145    0.2658232  44.58 0.0005848975    1.267    0.211
       123  -9.7355      2.5710     54.7017   6.1360984458e+01   6.8203159249e+01    0.3677457    0.2227979 -39.10 0.0006532001    1.539    0.350
       124 -11.7525      6.4016     88.0989   6.4833713690e+01   5.9301006419e+01    0.7755088    0.6079832  39.59  0.004224159    1.348    0.258
       125 -10.4790      1.4801     78.4031   6.6060209389e+01   6.2152994034e+01    0.4844879     0.281262 -82.73  0.002295621    1.697    0.411
       126 -11.1545      2.0729     71.1660   6.4674183625e+01   6.4032874380e+01    0.6697404    0.2879297 -81.26  0.002703474    2.408    0.585
       127 -13.1237      5.5058     61.4379   6.0890098330e+01   6.6357608004e+01    0.8434845    0.4803448  -7.72  0.003982495    1.926    0.481
       128 -10.4791      9.4496     55.4948   5.7046939477e+01   6.7588923469e+01    0.2826086    0.2429557  23.38 0.0008244585    1.217    0.178
       129 -10.0484     66.7780     88.5334   3.6921846354e+01   5.1993156013e+01    0.3097481    0.2383646 -20.36  0.000626007    1.627    0.386
       130 -10.2606    183.5957     86.8180   6.5742716912e+00   2.8095709125e+01    0.3999941    0.1280735 -46.40  0.001483714    2.812    0.644
       131 -11.0342    119.0922     85.6449   1.9026879508e+01   4.1983415546e+01    0.4557815    0.3617949 -21.05  0.001385223    1.592    0.372
       132  -9.0960    118.6891     78.2455   1.6964495195e+01   4.3550881503e+01    0.2517389    0.1998319 -56.04 0.0007429877    1.247    0.198
       133  -9.4543    104.4786     86.8080   2.3396438621e+01   4.4918785398e+01    0.2811635    0.2160968  47.26 0.0006760932    1.304    0.233
       134 -10.3700     90.0547     85.5781   2.7548607550e+01   4.8223577596e+01    0.4251983    0.3108813 -69.64  0.001700584    1.595    0.373
       135  -9.9180    143.3472     84.2776   1.3023621471e+01   3.6914327959e+01    0.2258151    0.2154502 -34.33 0.0005028062    1.154    0.133
       136  -9.8358    142.2954     81.2908   1.2427328596e+01   3.7699141091e+01    0.2475308    0.1942538 -47.07 0.0002352551    1.212    0.175
       137 -12.2016     60.9599     83.4775   3.7849924141e+01   5.4235961836e+01    0.3151642    0.2889824 -72.63  0.000352677    1.125    0.111
       138 -10.3735     58.4781     77.9738   3.7269821928e+01   5.5988459450e+01    0.7220273    0.2301535 -47.52  0.002287823    3.187    0.686
       139 -10.4337    111.9857     82.7615   2.0073312501e+01   4.4137008009e+01    0.7272669    0.3096405  53.37  0.002621212    2.481    0.597
       140 -10.0723     67.4054     81.6304   3.4654837130e+01   5.3545878833e+01     0.361104    0.3005336 -31.95  0.001813294    1.316    0.240
       141  -9.2655    196.5445     81.4870   3.5295667114e+00   2.6471018170e+01     0.130414    0.1077886 -52.37 0.0001632834    1.013    0.013
       142  -8.7324    152.0303     80.9424   1.0408189572e+01   3.5632664735e+01    0.1643665    0.1512334 -74.69 0.0003414314    1.035    0.034
       143  -9.4433    103.0353     79.4617   2.1618171876e+01   4.6785428003e+01    0.2451126    0.1915568 -50.29 0.0006170282    1.280    0.219
       144 -10.7600     89.3400     77.0431   2.5156273469e+01   5.0247598472e+01    0.5529153    0.3076652  50.68  0.002055966    1.814    0.449
       145 -10.4698     94.3537     75.9145   2.3165372603e+01   4.9415427020e+01    0.4696749    0.3485551 -72.78  0.001790736    1.623    0.384
       146 -11.0131     53.0159     76.1535   3.9137587416e+01   5.7331470705e+01    0.4842952    0.4319983  78.05  0.001824071    1.241    0.194
       147  -9.3181     46.9323     75.5647   4.1782555933e+01   5.8422232218e+01    0.5949059    0.2835023 -43.27  0.002291705    2.267    0.559
       148 -11.2595     14.2138     74.0863   5.8376185647e+01   6.2526356783e+01    0.6543147    0.4103511 -82.59  0.002329057    1.729    0.422
       149  -9.5500     15.8128     67.0931   5.5951183917e+01   6.4203046990e+01    0.2598695    0.1940055 -33.27  0.000475649    1.327    0.246
       150  -9.8150     11.8136     67.3824   5.8343058171e+01   6.4437037842e+01    0.3443793     0.215114 -13.88  0.001030606    1.780    0.438
       151  -9.1188    135.2613     77.3705   1.2820035167e+01   3.9988112646e+01     0.206103    0.1354962  68.21 0.0009453709    1.686    0.407
       152  -8.7788    158.7228     75.9835   7.8808122638e+00   3.5048843281e+01    0.1678177    0.1150434 -42.50 0.0003563238    1.361    0.265
       153  -8.6616      9.2610     76.6149   6.1569799519e+01   6.2206043570e+01     0.145288   0.09937157  64.74 0.0006976099    1.685    0.406
       154  -8.5658    112.6346     75.2566   1.7633774708e+01   4.5499791055e+01    0.1529043     0.114178  87.05  0.000582711    1.632    0.387
       155  -9.7391    103.6693     74.3345   1.9836720215e+01   4.7693620690e+01    0.3253416    0.2391039  88.18  0.001481671    1.747    0.428
       156 -11.6669     27.5919     73.2467   5.0902929898e+01   6.1511509668e+01    0.4912861    0.3512364   4.99 0.0002836096    1.535    0.349
       157 -11.2604     19.0305     41.6756   4.6298954496e+01   6.9976762595e+01    0.9675449    0.5991194 -25.86  0.003849401    1.795    0.443
       158 -11.1611     26.5422     42.6262   4.1668146882e+01   6.8876569818e+01    0.4883837    0.3829942  88.73  0.002121589    1.781    0.439
       159 -10.2286     23.1790     37.1384   4.1617495185e+01   7.0468751520e+01    0.4698018    0.2222555  37.90  0.001709696    2.131    0.531
       160 -10.6105     34.4252     71.1388   4.6724719374e+01   6.1242007285e+01    0.4465455    0.2309306  39.21  0.001078455    1.966    0.491
       161 -10.7843     51.9060     52.8547   3.1590367123e+01   6.2774127776e+01    0.4268983    0.3371374  -8.19  0.001099667    1.535    0.348
       162 -10.3067     55.4731     49.9850   2.8750111758e+01   6.2704739645e+01    0.2103656    0.1817635  37.35  0.001154599    1.110    0.099
       163 -10.6754     40.6213     72.9510   4.4083163191e+01   5.9974880059e+01    0.3834486    0.2983239   7.39 0.0008523337    1.418    0.295
       164 -10.5051     40.0634     68.7557   4.3106695726e+01   6.1076308085e+01    0.3019118    0.2578921  28.43 0.0008434962    1.166    0.143
       165 -12.4634     44.6726     60.9752   3.8202011712e+01   6.2218487244e+01    0.8522797    0.5638774  21.90  0.002608683    1.640    0.390
       166 -11.3426     40.0473     56.5175   3.9036417966e+01   6.3934673235e+01    0.4127975    0.2483084  28.66  0.001075634    1.667    0.400
       167 -10.0124    152.7906     72.6594   8.0411500797e+00   3.6913622015e+01    0.4680727    0.1923929  48.42   0.00180301    2.775    0.640
       168 -12.6049    123.2956     68.5121   1.2897062953e+01   4.4338280903e+01    0.4451928    0.3644469  54.95  0.002353953    1.236    0.191
       169  -9.8133     81.6139     70.6016   2.5717990621e+01   5.3243910867e+01    0.6331639    0.4151759  42.06    0.0028864    1.515    0.340
       170 -12.4617     42.2383     44.6004   3.3175897247e+01   6.6135644190e+01     2.749202     0.769435  43.52  0.007281649    3.741    0.733
       171  -8.3786     22.6044     66.7949   5.1978139689e+01   6.3661024051e+01    0.4503721    0.2332779 -79.34  0.001800163    2.506    0.601
       172 -10.5263    219.0528     67.1394   3.5779700619e+02   2.4486258329e+01    0.3310854    0.1655208  67.44   0.00178885    2.391    0.582
       173 -10.4919    101.9932     66.8621   1.7907561459e+01   4.9539672379e+01    0.2535403    0.2503731 -86.72 0.0003322908    1.075    0.069
       174 -10.6702    105.4851     63.2351   1.5721236150e+01   4.9423785776e+01    0.4597517    0.3124818  34.03  0.001684004    1.841    0.457
       175 -10.9653    106.5288     58.2492   1.3761493131e+01   5.0082632130e+01     0.403788    0.2845503  70.46 0.0002946437    1.507    0.336
       176 -11.2173    201.4772     63.9556   3.5893752951e+02   2.8171165947e+01    0.3004228    0.2640539 -39.34  0.001249599    1.220    0.181
       177  -8.7334    192.5002     65.4827   3.3169800658e-01   2.9696068930e+01    0.1311539    0.1064877 -57.75 2.569856e-05    1.036    0.034
       178  -9.6075    183.5851     63.6620   1.0067058917e+00   3.1765853757e+01    0.2942334     0.184047  29.40 0.0009235629    3.181    0.686
       179 -10.6173     92.7646     62.5751   1.9230518551e+01   5.2445834829e+01    0.4336829    0.2697611  69.74  0.001049121    2.069    0.517
       180 -10.1851    159.6724     62.3859   4.0918317862e+00   3.7077351013e+01     0.365237    0.1929763  48.53   0.00164127    2.236    0.553
       181 -10.1319     58.5135     62.2502   3.2045510149e+01   5.9581770398e+01    0.3535787    0.3259519 -50.62  0.001962948    1.115    0.103
       182  -9.3357     64.5516     60.7067   2.8862509413e+01   5.8774589013e+01    0.3938649    0.3119321 -64.37  0.001996431    1.422    0.297
       183 -11.1594     82.5339     47.9249   1.7146803726e+01   5.7435104912e+01     0.925522    0.6689017   0.59  0.004199866    2.179    0.541
       184 -11.6974     75.6427     55.2317   2.2409550835e+01   5.7611977749e+01     0.942073    0.3175877 -48.35  0.002859571    3.287    0.696
       185 -10.1501    150.8871     60.6347   5.0493563276e+00   3.9327797483e+01    0.2542872     0.216203 -44.79 0.0005856674    1.172    0.147
       186 -11.2294    125.8459     53.6139   7.6651835773e+00   4.6293239363e+01    0.6437702    0.3154631 -26.29   0.00134631    2.909    0.656
       187 -10.7729    109.9110     40.0246   6.5423597764e+00   5.2225912699e+01    0.6252404    0.3808843 -14.18  0.002382219    2.652    0.623
       188 -12.0149    126.9667     28.2761   3.5913417618e+02   4.9645407264e+01    0.7853658    0.3938284  76.92  0.002595154    2.041    0.510
       189 -11.2239    118.6163     56.6803   1.0244536431e+01   4.7504865023e+01    0.8536395    0.4984267 -76.58  0.003270842    2.770    0.639
       190 -12.0603    115.8959     46.6262   7.5064860128e+00   4.9780891489e+01    0.8477841    0.7100363   9.15  0.004528136    1.625    0.385
       191  -9.8872    113.7373     60.4266   1.2637637732e+01   4.8009775425e+01    0.2818299    0.2610317 -68.78  0.001070665    1.055    0.052
       192  -9.5232     91.8989     56.9556   1.7514292083e+01   5.3696018045e+01     0.281499    0.1889585  81.24 0.0008258286    2.064    0.515
       193  -9.4530    142.6749    249.3104   4.4351944731e+01   4.8884586775e+00    0.1106912   0.08218908  43.10 0.0005540838    1.656    0.396
       194  -9.7454     33.1714     56.8224   4.2939512261e+01   6.4839896118e+01    0.6468476    0.3245566 -25.09  0.001696824    3.462    0.711
       195 -11.3999     32.3063     52.5848   4.1943518340e+01   6.5922728392e+01     1.361088    0.7958949 -16.57  0.003337024    2.589    0.614
       196 -10.6596     21.6367     57.7299   5.0010697609e+01   6.5988490661e+01    0.2794746    0.2508054 -22.23 0.0007349016    1.069    0.064
       197 -10.8204     25.4836     55.5282   4.6999965695e+01   6.6095197809e+01     0.351958    0.2539526 -42.05 0.0006882768    1.348    0.258
       198 -10.6873     72.6419     46.9061   2.0260354633e+01   5.9803172203e+01     1.054543    0.5032874 -55.14  0.002535411    2.863    0.651
       199  -9.0639    221.5045     57.4622   3.5551093009e+02   2.5378294158e+01    0.1204751   0.09242334 -53.10 0.0001178189    1.008    0.008
       200  -9.2379    164.1765     56.9771   1.9522430300e+00   3.6915305499e+01    0.2835506    0.1647658  37.34  0.001222241    2.824    0.646
       201 -10.1473    155.7520     42.1378   3.5906170446e+02   4.0963746178e+01    0.3275067      0.22233 -29.50 0.0009800129    1.642    0.391
       202 -10.3234    156.9572     53.9217   2.1944494457e+00   3.8990686837e+01    0.3750313    0.2341269 -56.49  0.001369904    1.535    0.349
       203 -10.4723    155.2390     48.7567   1.0076112532e+00   4.0144922596e+01    0.5197263    0.2449085 -24.00  0.001744392    3.169    0.684
       204  -8.8284    238.4717     55.5357   3.5370377599e+02   2.2730603108e+01    0.1151285   0.08483614 -50.74 0.0001409623    1.002    0.002
       205  -9.1211     67.2991     54.6865   2.5454367410e+01   5.9456700347e+01    0.1981226    0.1381364 -37.09 0.0007260714    1.555    0.357
       206  -9.0805     66.2508     51.6237   2.4684337156e+01   6.0268343199e+01    0.2229811    0.2006909 -76.39  0.000615293    1.239    0.193
       207  -9.4920    187.2058     54.1852   3.5825075171e+02   3.2403824120e+01    0.1821643    0.1657796 -43.08  0.000645446    1.223    0.182
       208 -10.0325    169.4557     65.2310   3.3492741945e+00   3.4494054335e+01    0.3469844    0.1150001 -39.40    0.0013175    2.649    0.623
       209  -9.7134    220.0018     52.9913   3.5469291779e+02   2.6241214133e+01    0.1464978    0.1090042 -50.40 0.0003937841    1.046    0.044
       210  -9.1680    197.6657    250.6978   3.4110575760e+01  -7.8645771592e-01    0.1131108   0.06381347  -7.82 0.0007036054    1.659    0.397
       211 -10.3054    145.7859     48.8025   2.4922123331e+00   4.2324152484e+01    0.5061501    0.3155159  -4.38  0.001969202    3.540    0.718
       212 -10.7006    145.4001     42.7821   7.6935308588e-01   4.3283662002e+01    0.5262824    0.2213691 -42.38  0.002232475    2.178    0.541
       213  -9.5478    240.5303     50.4772   3.5254710096e+02   2.3033859373e+01    0.1640954    0.1056013  78.67 0.0001237916    1.818    0.450
       214  -9.7088    173.7008     48.6812   3.5848278418e+02   3.6035983090e+01    0.3578602    0.1561601  82.59  0.001374623    3.337    0.700
       215  -9.6149    228.4870     48.5044   3.5305285808e+02   2.5320347322e+01    0.1169007   0.08858718 -52.52 -1.860493e-06    1.018    0.017
       216  -9.8797    201.7362     52.9069   3.5638238924e+02   2.9672810118e+01    0.2368413    0.1664675  50.88  0.001172338    1.849    0.459
       217 -10.0486    132.8859     47.2207   4.2524682184e+00   4.5607909876e+01    0.3490468    0.2075333 -48.32 0.0008228851    1.631    0.387
       218  -9.5157      2.4655     48.5290   6.0039128147e+01   6.9719493286e+01    0.2025717    0.1744008  21.44 0.0008289786    1.234    0.190
       219  -9.1011      1.6821     45.3167   5.9810891467e+01   7.0532755213e+01    0.1840245    0.1176277  -8.20 0.0007046846    1.589    0.371
       220  -9.0688    161.2149     46.8269   3.5961703676e+02   3.9063262757e+01    0.1693093    0.1550156  56.23 0.0007162993    1.304    0.233
       221 -10.1603    199.5494     44.7063   3.5470249576e+02   3.1201283438e+01    0.3362361      0.17283 -88.65  0.001661395    2.386    0.581
       222  -9.5677    138.5517     44.4255   2.3795322655e+00   4.4669274176e+01    0.3194226    0.2068153  28.31   0.00139886    2.648    0.622
       223  -9.1195    166.6107     42.7468   3.5779852245e+02   3.8418314369e+01     0.191767    0.1043173 -46.22  0.000948534    1.620    0.383
       224 -11.0419     56.5526     41.7266   2.4754543465e+01   6.4076230465e+01    0.3303149    0.2433573  58.99 0.0001814185    1.496    0.331
       225  -9.8257     88.2862     49.0297   1.5707539608e+01   5.5933172100e+01    0.3242592    0.2537322 -13.32  0.001260957    1.676    0.403
       226 -11.5411     79.0886     35.3102   1.3122471627e+01   6.0285867715e+01    0.7123877    0.5503598 -44.71  0.002970116    1.383    0.277
       227  -8.9424    225.5461    247.4626   2.9071574722e+01  -2.8146836408e+00    0.1051249   0.07119469  -9.29 0.0002169444    1.054    0.051
       228  -9.8448      1.5101     38.5484   5.8127776278e+01   7.2133303857e+01    0.2420486    0.2000816  29.21 0.0006455433    1.315    0.240
       229 -10.2305      2.8350     35.3649   5.6122089498e+01   7.2783901621e+01    0.4625544    0.3386087  60.13  0.002056517    1.768    0.434
       230 -10.1408     60.5687     36.7858   2.0754287614e+01   6.4131521844e+01    0.3008588    0.2293916 -53.43 0.0007629025    1.488    0.328
       231 -11.1430     63.4495     33.2727   1.7931145247e+01   6.4099229114e+01    0.9895263    0.2432805  47.94  0.003080185    3.673    0.728
       232 -10.0868    230.0165     36.3663   3.5044262017e+02   2.6554019860e+01    0.2482404    0.1756213  44.13  0.001606196    2.264    0.558
       233  -9.1593    189.3255     37.3360   3.5392285722e+02   3.4230636467e+01    0.1130221   0.09753238  26.83 0.0007051433    1.719    0.418
       234 -10.8356    153.1500     35.6513   3.5755783954e+02   4.2437104668e+01    0.3007528    0.2386298  87.04 0.0006458628    1.169    0.145
       235 -11.0224    175.3904     33.9166   3.5445592903e+02   3.7634995760e+01    0.5507918     0.229464 -59.12 0.0008872162    2.553    0.608
       236 -10.1324    177.2692     29.0249   3.5300234870e+02   3.7829777831e+01    0.3079009    0.2495779 -23.56   0.00151212    1.519    0.342
       237  -9.0024    132.3216     36.6256   9.8267459377e-01   4.7255997155e+01      0.15298   0.09281614 -66.41 0.0007029927    1.813    0.448
       238  -9.4587     99.8499     36.1512   7.5036972163e+00   5.5232026156e+01    0.2171548    0.1828119 -82.38 0.0005655229    1.207    0.172
       239  -9.0447     94.7803     35.5833   8.5902437836e+00   5.6538397863e+01    0.1879573    0.1291465  72.06 0.0004493806    1.469    0.319
       240  -9.5795    248.3918    242.8465   2.5008960222e+01  -4.0983727051e+00    0.1443577    0.0646654 -26.81 0.0009531649    1.730    0.422
       241 -11.3898    107.2729     31.3870   3.9674626530e+00   5.4081285687e+01    0.4763287    0.3189462  20.24  0.001578721    2.419    0.587
       242 -12.2660    112.8540     25.0553   4.9270387550e-01   5.3514173197e+01    0.7663997    0.3225159  61.00  0.003243948    2.106    0.525
       243 -10.7903    123.8456    239.5007   4.7177518731e+01   8.5678522288e+00    0.3079719    0.1744589  -5.23  0.001513825    2.327    0.570
       244 -10.3291    167.0177    238.2896   3.8085839616e+01   3.9919089043e+00    0.2509065    0.1158232 -23.58  0.001189235    2.750    0.636
       245 -11.0199    145.4685    236.4947   4.2188042887e+01   6.6312692219e+00     0.454457    0.2686953  45.32  0.002468474    2.193    0.544
       246  -9.2074    199.6564    234.6593   3.1573776186e+01   1.1831511680e+00    0.1200496   0.06729798 -10.40 0.0007048167    1.780    0.438
       247  -9.4601     15.4911    233.9706   7.2188352950e+01   2.1045016765e+01    0.1656717    0.1143793 -89.61 0.0005303354    1.545    0.353
       248  -8.9617    209.6041    232.1830   2.9525696625e+01   5.6274653635e-01    0.1583179   0.07963137 -28.74  0.000957139    1.724    0.420
       249  -9.7736    193.8067    232.2021   3.2253963397e+01   2.1085534082e+00    0.1626497    0.1060472  -8.91 0.0007767255    1.344    0.256
       250 -10.2985    180.4972    231.9934   3.4651032289e+01   3.5116387373e+00    0.1654652    0.1023517 -38.31 0.0008896353    1.596    0.374
       251 -10.4311    240.2096     32.4910   3.4902013325e+02   2.5261489842e+01    0.2168129    0.1880155  81.15  0.001485192    1.452    0.311
       252  -9.5353    216.9035     31.8749   3.5040091028e+02   2.9464950687e+01    0.1585554    0.1354824 -55.67 -0.0009232552    1.178    0.151
       253  -9.3709    247.5112    231.4953   2.3549846710e+01  -2.6940786809e+00    0.1020107    0.0700632 -14.55 0.0008105512    1.010    0.010
       254 -10.3299    242.3640    230.3561   2.4132311852e+01  -2.1316226944e+00    0.1601535    0.1520024 -41.45  0.001350028    2.083    0.520
       255 -11.2228     47.0429     30.8315   2.4249045393e+01   6.7842741163e+01    0.6119089     0.263687  39.74  0.001239389    2.246    0.555
       256 -10.0661     45.1442     27.4038   2.3484665828e+01   6.8776763635e+01    0.2155723    0.1785562  58.47 0.0003143859    1.325    0.245
       257 -10.8050    200.8295     26.1560   3.5029409429e+02   3.3247860471e+01    0.5140058     0.221723 -25.68  0.002360399    2.870    0.652
       258  -9.4049     23.9708    231.5361   7.0055058127e+01   2.0813000132e+01    0.1881444    0.1060109  25.02 0.0006548176    1.553    0.356
       259 -10.3341    156.8670     29.1638   3.5522726324e+02   4.2397499054e+01    0.3368503    0.2941195 -55.78  0.001062199    1.132    0.117
       260 -10.5271    249.3739     38.6828   3.4967402845e+02   2.3033603662e+01    0.2295121    0.1424844 -66.53  0.000623699    1.443    0.307
       261 -10.5169    189.1542     27.3907   3.5151755144e+02   3.5489816453e+01    0.2901348    0.2526266   5.66  0.001868339    1.715    0.417
       262 -10.2836    229.8518     26.8842   3.4851137691e+02   2.7695135387e+01     0.193977    0.1604796 -78.68 0.0005808516    1.252    0.201
       263 -10.5917    182.9172     25.7689   3.5165478492e+02   3.7000050112e+01     0.323351    0.1764383 -48.91  0.001181293    1.520    0.342
       264 -10.1341    155.5564     23.7234   3.5382215796e+02   4.3353512027e+01    0.4536718    0.1699858 -39.11  0.001969134    2.322    0.569
       265  -9.5353    142.7759     25.3858   3.5587342043e+02   4.6171217767e+01    0.3592917      0.15911  69.00  0.001233407    2.094    0.523
       266 -10.8226    149.2845     22.5314   3.5419651895e+02   4.4960586567e+01    0.4467654     0.281212  76.94  0.001248195    1.478    0.324
       267  -9.1284    146.7901     28.2247   3.5620891487e+02   4.4872420640e+01    0.2669351    0.1796528  69.40  0.001459344    1.419    0.295
       268  -9.6144    151.2367     27.1752   3.5533289506e+02   4.3951863940e+01    0.2317129    0.1732554  48.93   0.00105721    1.618    0.382
       269  -9.9795     97.1531     26.0639   4.1986964772e+00   5.7257666652e+01    0.2472713    0.2147611  69.82  0.001005043    1.045    0.043
       270 -10.1254    206.1832     25.3321   3.4971587548e+02   3.2284278574e+01    0.2034984    0.1444069 -54.61 0.0003670005    1.092    0.084
       271  -9.5423     91.1619     23.5014   4.6013172880e+00   5.9043890454e+01    0.3002588    0.1763933 -27.94  0.001438311    1.947    0.486
       272  -9.3372    189.9545    229.3445   3.2536761663e+01   2.9139505548e+00    0.1598557    0.1187805  -0.63 0.0004624319    1.087    0.080
       273  -8.5526    171.3375    229.2455   3.6006523628e+01   4.9142395735e+00     0.118999   0.07542993  -3.42 0.0002475178    1.557    0.358
       274  -9.4933    233.3191    225.6612   2.4801141049e+01  -7.6379141984e-01   0.08735329   0.07935064 -28.11 0.0003166268    1.710    0.415
       275  -9.2891    233.4781    219.4676   2.3865425153e+01   2.2107259761e-02    0.1073025   0.07704537 -14.83 0.0002911592    1.001    0.001
       276 -10.2769    177.4063     21.7986   3.5113047220e+02   3.8650599997e+01     0.250186    0.2166391  -0.91 0.0007488491    1.663    0.398
       277 -10.5347    181.2921     18.9801   3.5008585733e+02   3.8127167395e+01    0.3604673    0.2049763  55.19  0.001648726    2.155    0.536
       278 -10.4694    169.4685     23.0041   3.5217561196e+02   4.0264489808e+01     0.242362    0.1633178  81.18 0.0005102739    1.404    0.288
       279  -8.2945    199.3303    219.6640   2.9450493799e+01   3.3507663432e+00    0.0953922   0.09255543  50.16   0.00070521    1.731    0.422
       280  -9.3190    233.3229    235.4446   2.6204445678e+01  -1.9955292671e+00    0.1488925    0.1116111 -37.88  0.001076041    1.694    0.410
       281 -10.8143    244.0203     21.5069   3.4667283455e+02   2.5865342208e+01     0.168895    0.1596424  61.56 0.0008319776    1.599    0.374
       282  -9.8701     10.3323    217.9666   7.2823543498e+01   2.4927741868e+01    0.1755373    0.1449405  70.41 0.0006289029    1.150    0.131
       283  -9.8991     53.4421     21.9506   1.6572882733e+01   6.7945061341e+01    0.2664505    0.1702947  37.45 0.0009918354    1.549    0.354
       284  -9.3081    216.5386     19.9781   3.4786069459e+02   3.0904582732e+01    0.1700897   0.09051937 -38.85 0.0004354389    1.547    0.354
       285  -9.1103    131.3214    209.3307   4.1585766989e+01   1.3153893215e+01    0.1370826   0.09256937 -12.89  0.000704919    1.695    0.410
       286  -9.6866     75.1548     18.9619   6.9919543360e+00   6.3451438750e+01    0.2653616    0.1475762  38.82  0.001203284    2.042    0.510
       287  -8.6228     94.3003    208.6800   5.0414104985e+01   1.8054613543e+01     0.137226   0.09606878  55.42 0.0007023992    1.623    0.384
       288 -10.7493    228.5089     15.4961   3.4625981109e+02   2.9199030759e+01    0.1776108    0.1585485 -62.77 -1.833713e-05    1.302    0.232
       289  -8.6804     61.2947    206.6971   5.8780336953e+01   2.2491697817e+01    0.1417885    0.0901783  53.94 0.0002694226    1.577    0.366
       290  -9.4367     80.0987     18.1426   5.1666252466e+00   6.2370788787e+01    0.2074119     0.169675  41.20 0.0005152734    1.260    0.207
       291 -10.2617    238.2975    204.3636   2.0856295098e+01   1.5690809910e+00    0.2170695    0.1863424 -49.36  0.001671621    1.850    0.459
       292 -11.6571      4.9553    202.6048   7.3619091635e+01   2.8876234579e+01    0.6837437    0.1592595 -68.60    0.0024194    4.026    0.752
       293  -9.0719    146.5199     15.9949   3.5255474941e+02   4.6344192889e+01    0.1784615     0.121553 -35.49 0.0004517115    1.505    0.336
       294  -9.3623    111.5935     14.8352   3.5693401504e+02   5.4988663285e+01    0.2229603    0.1437079  78.86  0.000742091    1.421    0.296
       295  -9.7880    203.2408     16.5627   3.4792890938e+02   3.3851806799e+01    0.2063295    0.1006441  88.59 0.0009843386    2.069    0.517
       296  -9.0567    190.8255    203.2015   2.8421424491e+01   6.8060936091e+00    0.1661019    0.1165777 -13.14 0.0004834619    1.297    0.229
       297  -8.6532     28.7073    202.7042   6.7249916034e+01   2.6832797916e+01    0.1251316   0.09966428 -32.29 0.0002945784    1.559    0.359
       298 -10.3505    245.5068    199.5916   1.9083517692e+01   1.5156799049e+00    0.2231057   0.08101287 -38.03   0.00121338    2.173    0.540
       299 -10.1037    234.3900    196.4684   2.0189367992e+01   3.0323610874e+00    0.2736369    0.1862414  -7.11  0.001939395    1.337    0.252
       300  -8.8147    172.3373    189.7189   2.9715213354e+01   1.1372803869e+01    0.1136213     0.101649  63.82 0.0005562931    1.620    0.383
       301 -11.6223      5.9261    185.9167   7.2667690534e+01   3.2852863202e+01    0.4007398    0.2512323  35.28   0.00213278    1.418    0.295
       302  -9.0023    250.4989    176.4764   1.4707785358e+01   4.1371479824e+00    0.1096125   0.07905786 -24.84 3.117778e-06    1.015    0.015
       303  -9.7440     50.7054    170.3218   5.7997276011e+01   3.2619214914e+01    0.2614399    0.1680085 -88.56 0.0004499656    1.725    0.420
       304  -9.7497     39.4051    173.2172   6.1799062580e+01   3.3119351781e+01    0.1998387    0.1308203  85.35 0.0008169909    1.623    0.384
       305  -8.9448    227.5235    171.4941   1.7064335441e+01   7.3884204040e+00    0.1156305   0.09022272 -26.63 6.503285e-05    1.038    0.037
       306 -11.6628      9.5583    166.4196   7.0579453480e+01   3.7590769885e+01    0.4180043    0.3252579 -42.59  0.001831612    1.487    0.327
       307 -11.8374     13.5311    160.0778   6.8905174702e+01   3.8977276845e+01    0.4754786    0.3460897 -19.42  0.001730836    1.698    0.411
       308 -10.2657     18.3770    164.9448   6.7691943030e+01   3.7288773378e+01    0.2817046     0.239552 -49.10  0.001215945    1.307    0.235
       309  -9.9448    204.9716    162.7917   1.9024012358e+01   1.1601462090e+01    0.2125445    0.1510409 -33.33 0.0006305063    1.176    0.150
       310 -10.9382     28.5443    160.9933   6.4081810608e+01   3.7441910742e+01    0.4076222    0.2538218 -85.43  0.001816246    1.614    0.381
       311 -10.5496    214.8124    161.0979   1.7146788699e+01   1.0569394218e+01    0.2261974    0.1600287 -34.82 0.0006144514    1.160    0.138
       312  -9.8239    223.3391    155.9019   1.4925142718e+01   1.0279603049e+01     0.171331    0.1684213  36.00 0.0007038459    1.386    0.278
       313 -10.0880    104.4952    154.3215   3.9388408598e+01   2.9036626289e+01    0.3505192    0.2806483 -65.14  0.001770553    1.331    0.249
       314 -10.7676      9.4407    155.0009   6.9906811755e+01   4.0647434310e+01    0.2882384    0.1670672  42.98  0.001369591    1.596    0.374
       315 -12.0010     22.8848    148.8538   6.4851788836e+01   4.1256356224e+01    0.7781146    0.3970282 -31.32  0.002954141    2.745    0.636
       316 -10.7976     16.7200    147.6025   6.6879644347e+01   4.2114138508e+01    0.3906848    0.2272929 -69.05  0.001274982    1.632    0.387
       317 -10.4521      4.2444    153.5496   7.1543010000e+01   4.1393303324e+01    0.3230214    0.1507924  25.99  0.001410136    2.041    0.510
       318  -9.9004     63.5379    150.5100   5.1232683674e+01   3.6223156027e+01    0.3832762    0.2411262 -11.34  0.001513146    2.422    0.587
       319 -11.0100     47.2338    146.8380   5.6177792422e+01   3.9295252163e+01    0.7456031    0.4389853 -44.48  0.003189951    1.896    0.473
       320 -11.1269     10.6807    126.4903   6.7239204258e+01   4.8412208992e+01    0.8412971    0.4274527 -63.48  0.003532306    1.810    0.447
       321 -12.5970      5.4101    141.6070   7.0396879670e+01   4.4568744972e+01     1.101013    0.7613564 -40.82  0.004283024    1.622    0.383
       322 -10.7798     14.0767    140.7510   6.7233592158e+01   4.4206008573e+01    0.3354937    0.2447837  45.79 0.0008657243    1.321    0.243
       323  -9.0525    240.2953    146.3245   1.0877060846e+01   9.5808243566e+00     0.113543   0.07424105 -17.30   0.00041435    1.622    0.384
       324 -11.1119     33.0442    143.8003   6.0753047984e+01   4.1691596535e+01    0.3103706    0.2962476 -84.95 0.0006882329    1.049    0.047
       325  -9.3425    105.1263    142.1305   3.6833601451e+01   3.1868862568e+01    0.2202818    0.2014444 -27.92 0.0003753519    1.144    0.126
       326  -8.8888    227.4788    139.4706   1.1322484791e+01   1.2273730071e+01    0.1194283   0.09396099 -34.21 0.0001234517    1.015    0.014
       327 -10.9328     40.0354    137.4745   5.7433088288e+01   4.2697926033e+01    0.3568304    0.2627574  47.75 0.0004181153    1.335    0.251
       328 -10.0751     40.0201    133.0112   5.6807521656e+01   4.3935935628e+01     0.414171    0.2658469 -12.03 0.0004319568    2.113    0.527
