#   1 NUMBER                 Running object number                                     
#   2 MAG_AUTO               Kron-like elliptical aperture magnitude                    [mag]
#   3 X_IMAGE                Object position along x                                    [pixel]
#   4 Y_IMAGE                Object position along y                                    [pixel]
#   5 X_WORLD                Barycenter position along world x axis                     [deg]
#   6 Y_WORLD                Barycenter position along world y axis                     [deg]
#   7 A_WORLD                Profile RMS along major axis (world units)                 [deg]
#   8 B_WORLD                Profile RMS along minor axis (world units)                 [deg]
#   9 THETA_WORLD            Position angle (CCW/world-x)                               [deg]
#  10 FWHM_WORLD             FWHM assuming a gaussian core                              [deg]
#  11 ELONGATION             A_IMAGE/B_IMAGE                                           
#  12 ELLIPTICITY            1 - B_IMAGE/A_IMAGE                                       
         1 -15.3990    245.4916     58.8509   5.5398392371e+01   1.6093947252e+01     6.482813    0.8084534 -30.11   0.01444884    6.846    0.854
         2 -14.7143     54.2821     67.0916   1.0188118100e+02   5.5935567556e+01     1.671889     1.529026  39.46   0.01142481    1.315    0.239
         3 -12.9839     61.8222     40.8354   9.1250582760e+01   6.0167139053e+01    0.9523237     0.728617  75.47  0.005225138    2.368    0.578
         4 -11.7397      2.3218     19.9527   1.0762228218e+02   6.9400100273e+01    0.4025945    0.1736836 -64.22  0.002168783    2.376    0.579
         5 -13.4832     55.1574     14.8773   8.3362329082e+01   6.5344383697e+01    0.7516636    0.6919463  87.43  0.005114064    1.827    0.453
         6 -12.9641     84.9148      9.5182   7.0640603997e+01   6.1304522260e+01    0.5610508    0.3316216 -20.95  0.002979148    1.585    0.369
         7 -13.4793     69.7237      9.0069   7.5373035649e+01   6.3988122488e+01    0.4816216    0.3661115  27.46   0.00305585    1.292    0.226
         8 -11.4075     33.2615      7.0407   8.8753653253e+01   6.9145994448e+01    0.3485257    0.1757633 -37.55  0.002036582    1.602    0.376
         9 -11.7001    102.1650      5.7094   6.4033704513e+01   5.8358455067e+01    0.3160811    0.1906721 -44.35  0.001550858    2.117    0.528
        10 -12.5005      4.2839      6.1854   1.0181757983e+02   7.1687325895e+01    0.5175119    0.4322042 -59.26  0.004148077    1.528    0.346
        11 -10.7969    159.4868      2.0000   5.0818820703e+01   4.5196492998e+01     0.320381   0.07498721  66.59 0.0009393669    3.972    0.748
        12  99.0000     36.3446    217.9951   1.2613179064e+02   2.6742513511e+01      2.57374     1.117419  77.19    0.0151682    2.202    0.546
        13 -10.2192     49.4699    250.2571   1.2607392514e+02   1.9999665159e+01    0.1725032    0.1007228  53.18 0.0008790489    1.337    0.252
        14 -10.5610     14.6328    249.9088   1.3088809608e+02   2.3845497540e+01    0.3370637   0.08793411  50.38  0.002080011    2.435    0.589
        15  99.0000     19.7944    247.5974   1.3009343453e+02   2.3675223332e+01    0.3116885    0.1658083  54.16  0.001965942    1.414    0.293
        16 -13.6034     57.9204    224.6606   1.2316679012e+02   2.3086267374e+01    0.7917354    0.3131798  61.84   0.00416193    2.259    0.557
        17  -9.4661      1.0000    247.0848   1.3259204880e+02   2.5599187690e+01    0.1290766   0.03849255 -81.33 0.0006640233    2.833    0.647
        18 -11.3298     13.4631    234.0518   1.3038347676e+02   2.6448114960e+01    0.4829202    0.1363439  58.50  0.002802699    2.557    0.609
        19 -10.5652      1.6233    196.6580   1.3042118425e+02   3.3941016411e+01    0.4213347   0.09487174 -80.40  0.001951539    3.722    0.731
        20 -13.9676     53.1843    187.7300   1.2102114174e+02   3.0333215864e+01     1.513616    0.7678574  50.99  0.009148334    1.734    0.423
        21 -11.6554      3.4503    181.7465   1.2934205372e+02   3.6528131010e+01    0.3169948     0.220861  85.66  0.001775021    1.057    0.054
        22 -11.2721     14.4730    167.4126   1.2648787713e+02   3.8339569659e+01     0.435331    0.2260714  86.13  0.002219978    1.568    0.362
        23 -13.1644     42.0635    160.9393   1.2062017556e+02   3.6948240397e+01     1.019141    0.4972064  62.81  0.005091944    2.065    0.516
        24 -12.0592     28.6157    158.1066   1.2303475028e+02   3.8906124642e+01     0.702334    0.3041192  65.67   0.00334607    2.480    0.597
        25 -10.1888     23.5031    166.8127   1.2475847149e+02   3.7633827497e+01    0.2212829    0.1190931  79.47  0.001379624    1.618    0.382
        26 -13.2739     76.4633    144.7543   1.1128978328e+02   3.6157132148e+01     1.417926    0.7073933  58.34  0.006719013    2.259    0.557
        27 -13.0243     90.8636    145.1753   1.0811286088e+02   3.3972757709e+01    0.9868727    0.6285867  55.05  0.005309919    1.567    0.362
        28 -12.2247     62.4454    144.8101   1.1442954369e+02   3.7986666901e+01    0.8561664    0.4307197  70.00  0.003938132    2.633    0.620
        29 -14.4700    112.4167    135.5434   1.0146428685e+02   3.2509104643e+01     1.492373     1.179458 -76.37  0.007719428    1.276    0.217
        30 -12.1006     38.9024    141.7123   1.1923197938e+02   4.1316106761e+01    0.5728927    0.4531844  71.67  0.003556367    1.190    0.160
        31 -10.7249     32.7479    136.4030   1.1998347815e+02   4.3058360560e+01    0.4157665    0.2520809 -47.49  0.002484995    2.023    0.506
        32 -12.5009      5.9764    140.3300   1.2607948771e+02   4.4499034143e+01    0.6959876    0.4079896  55.31   0.00399571    1.690    0.408
        33 -11.4233     23.6923    135.0948   1.2183729698e+02   4.4163783819e+01    0.5444948    0.2560537 -83.69  0.002977265    1.893    0.472
        34 -13.3608     74.5977    124.1835   1.0841583338e+02   4.0917205374e+01     1.334124    0.6632092  29.89  0.006063696    2.727    0.633
        35 -13.0071     38.3438    103.0252   1.1409459751e+02   4.9800132322e+01     1.414479    0.9409153  86.76  0.008457324    1.606    0.377
        36 -14.6520     72.4097    101.0504   1.0454074319e+02   4.6348017797e+01      2.48462     1.251997  53.94   0.01115885    2.565    0.610
        37 -12.7504     61.4422    116.5254   1.1036808018e+02   4.4315048581e+01    0.7712734     0.561461  73.79  0.004573823    1.484    0.326
        38 -14.1485     54.9124    105.9928   1.1020802304e+02   4.7421294163e+01     1.601452    0.6128064 -61.47  0.007156123    2.173    0.540
        39 -13.8343     53.3715    128.8770   1.1428795443e+02   4.2536613597e+01     1.278144    0.9095063 -70.09  0.006091194    1.178    0.151
        40 -12.6683     39.0411    124.4945   1.1707922771e+02   4.5021339496e+01     1.432263    0.6826456  72.33  0.006442118    3.066    0.674
        41 -11.7920      2.4186    117.7307   1.2486047779e+02   4.9448952684e+01     0.447881    0.1628745 -80.69  0.002280752    2.273    0.560
        42 -11.7245     12.4408    130.3113   1.2382434996e+02   4.6095608041e+01    0.6706079     0.250791  65.50  0.002967338    3.701    0.730
        43 -11.7896      7.5003    125.5047   1.2445570679e+02   4.7470985156e+01    0.4907371    0.2415118  79.28  0.002814733    2.044    0.511
        44 -11.3029      2.3867    124.2102   1.2546789934e+02   4.8094472688e+01    0.3146047    0.1629689 -87.65  0.001967418    1.557    0.358
        45 -12.7468     95.7655    132.8148   1.0485630891e+02   3.5885920621e+01    0.8125982    0.4821637  64.22  0.003834549    2.040    0.510
        46 -11.6861     11.1010    117.3961   1.2282038257e+02   4.8928396585e+01    0.4842664    0.2253693  48.64  0.002833203    2.359    0.576
        47 -10.9858     17.9614    111.9371   1.2055733258e+02   4.9590395232e+01    0.3111831    0.1997479  81.94  0.001438985    1.506    0.336
        48 -13.9713    107.8439    109.5484   9.7095520755e+01   3.8943000519e+01     1.063679    0.8962901 -66.38  0.005213667    1.146    0.127
        49 -11.9539     21.0108    115.7431   1.2027985775e+02   4.8532346059e+01    0.4447572    0.4055027   1.79  0.003291469    1.573    0.364
        50  99.0000     30.9923    241.4991   1.2824580921e+02   2.3445186850e+01    0.5071958    0.1747955  62.16  0.003035976    2.287    0.563
        51 -12.2840     90.8145    111.9110   1.0197282963e+02   4.1263933932e+01     0.786086    0.4219409  52.46  0.003538964    2.126    0.530
        52 -11.3259     17.1494     93.5558   1.1831634682e+02   5.3613760457e+01    0.3297099    0.3013577 -39.76  0.002011399    1.354    0.262
        53 -11.7996     22.3008     90.7083   1.1646973881e+02   5.3851536925e+01    0.6396419     0.327807  -3.29  0.002956564    4.310    0.768
        54  -9.5073      2.3140     93.6846   1.2228676131e+02   5.4533757062e+01    0.1090938   0.06848256  78.13 0.0003719573    1.643    0.391
        55 -13.2402     45.2144     76.3637   1.0699980975e+02   5.4945752589e+01     1.185528    0.5412055  53.70  0.005015905    3.734    0.732
        56 -10.2069      8.1888    172.9557   1.2799789519e+02   3.7801723477e+01     1.588831    0.3382804  56.01  0.006554751    4.680    0.786
        57 -11.3442     22.1294     69.5539   1.1274188737e+02   5.8391088393e+01     0.343821    0.2647572  46.71  0.002329734    1.645    0.392
        58  -9.6680      1.3950     70.7796   1.1937350152e+02   5.9403518492e+01    0.1705682   0.06845012 -60.77 0.0009579025    1.706    0.414
        59 -11.5807    100.3257     77.6195   9.0888695495e+01   4.7065515945e+01    0.3563462    0.2314205  47.98  0.001741761    1.707    0.414
        60 -12.7247     73.3730     52.3500   9.1283515551e+01   5.6421962475e+01    0.5945122    0.3994274 -54.57  0.003200171    1.562    0.360
        61  99.0000     35.1386    235.0761   1.2730833668e+02   2.4019340669e+01     1.141245   0.02663325  48.84  0.004572341    5.032    0.801
        62 -12.7615     52.0226     44.3765   9.5930557124e+01   6.0726324657e+01    0.5828548    0.2991176 -42.68  0.003059595    1.607    0.378
        63 -12.6907     39.9044     45.8326   1.0074968659e+02   6.1740785534e+01     0.540867     0.375549  72.93  0.002905963    2.759    0.638
        64 -13.9771     57.7464    159.4651   1.1726481949e+02   3.5456561330e+01     2.294793     1.249857 -85.85   0.01249135    1.830    0.453
        65  99.0000     12.6644    219.1709   1.2981764469e+02   2.8988216475e+01     1.378031    0.7761629  76.96   0.00962348    1.261    0.207
        66 -14.9576     95.6608    172.1062   1.1106516474e+02   2.7635794345e+01     2.768512     1.586772  40.05   0.01172727    1.830    0.454
        67  99.0000     74.5478    228.7651   1.2081828191e+02   2.0278270224e+01     2.089902     1.283224  48.72   0.01366115    1.422    0.297
        68 -14.6979     81.7876    209.6634   1.1795015931e+02   2.2559265677e+01     4.089103    0.9484451  44.08   0.01696157    3.465    0.711
        69 -14.6911     88.4302    188.7353   1.1455848078e+02   2.5463584670e+01     5.096477     0.765054  46.06   0.01640089    5.074    0.803
        70 -13.0163     22.4727    194.3489   1.2689679661e+02   3.2430950285e+01     1.795878    0.4234357  41.38  0.008965524    3.425    0.708
