#   1 NUMBER                 Running object number                                     
#   2 MAG_AUTO               Kron-like elliptical aperture magnitude                    [mag]
#   3 X_IMAGE                Object position along x                                    [pixel]
#   4 Y_IMAGE                Object position along y                                    [pixel]
#   5 X_WORLD                Barycenter position along world x axis                     [deg]
#   6 Y_WORLD                Barycenter position along world y axis                     [deg]
#   7 A_WORLD                Profile RMS along major axis (world units)                 [deg]
#   8 B_WORLD                Profile RMS along minor axis (world units)                 [deg]
#   9 THETA_WORLD            Position angle (CCW/world-x)                               [deg]
#  10 FWHM_WORLD             FWHM assuming a gaussian core                              [deg]
#  11 ELONGATION             A_IMAGE/B_IMAGE                                           
#  12 ELLIPTICITY            1 - B_IMAGE/A_IMAGE                                       
         1 -14.6806     68.1058    144.1679   1.1119932662e+02   3.7924923012e+01     4.055937     1.709801  62.89  0.005857584    4.293    0.767
         2 -14.5391    196.7848     34.1103   5.3142245054e+01   3.1342122110e+01      2.19558     1.394723  24.48  0.008179739    1.972    0.493
         3 -14.4702    208.0269     21.1614   4.8062725161e+01   2.9968629407e+01     1.533675     1.004051   8.69  0.007460533    1.871    0.466
         4  -9.6068     62.5241      8.5029   7.1686278979e+01   6.7386620445e+01    0.1359925    0.1212514  -5.15 5.819173e-05    1.032    0.031
         5 -11.8512     29.6351      2.5602   8.4352382633e+01   7.3887173547e+01    0.4212688    0.1811061  41.54  0.001949417    2.675    0.626
         6 -10.2928     61.7781      1.3777   6.7617656725e+01   6.8440019770e+01     0.188086    0.1129923  40.48 0.0004431726    1.624    0.384
         7 -10.6859     71.3090    230.2048   1.1888474281e+02   2.1692893928e+01    0.2829499    0.1389564  36.66 0.0005731641    1.620    0.383
         8 -11.0269    246.0016    250.3776   9.1742379009e+01  -2.6098567090e+00    0.4572211   0.07994176  35.76  0.001847275    4.175    0.760
         9 -13.1738     35.4285    209.5052   1.2433173277e+02   2.8900102392e+01    0.7218992    0.1788307  51.33  0.003389855    3.076    0.675
        10 -13.8252     21.2416    193.3828   1.2630570614e+02   3.3105789507e+01    0.7875327    0.4686696  54.53  0.002686995    1.304    0.233
        11 -17.0460     52.2776    202.4338   1.2058282389e+02   2.8374514916e+01     9.444388     3.866182  49.22    0.0527505    1.953    0.488
        12  -9.5418    150.7568    182.5560   9.8066809154e+01   1.8212062964e+01     0.169575    0.1034228  46.59 0.0003807838    1.562    0.360
        13 -12.1357     71.3753    179.5237   1.1458907992e+02   3.0332182239e+01    0.3660587    0.2598929 -31.81  0.001658072    2.172    0.540
        14 -11.9451     75.4762    174.2281   1.1310590108e+02   3.0824596550e+01    0.2628755    0.2340863  -6.72  0.001255441    1.497    0.332
        15 -10.8689    207.2475    179.7907   8.7085220323e+01   9.5322509112e+00    0.5027075    0.2320572  25.40  0.002361623    2.416    0.586
        16  -9.8786     99.4398    180.8470   1.0856909590e+02   2.6330082551e+01      0.21844    0.1571269  33.29  0.000568621    1.320    0.242
        17  -9.4293    164.0066    205.2594   9.8894896846e+01   1.2906659993e+01      0.16091    0.1259651  31.33  0.000395494    1.041    0.040
        18  -9.0110    168.2976    176.6783   9.3658468960e+01   1.6251667660e+01    0.1148151   0.09784116  68.45 0.0003553671    1.621    0.383
        19 -11.9577    193.4993    193.8500   9.1848104904e+01   9.9261624834e+00    0.6431423    0.4042972 -51.50  0.003592188    2.636    0.621
        20 -13.7327     72.0351    160.1613   1.1227551677e+02   3.4061094217e+01    0.5663278    0.4670454 -32.24  0.002623605    1.603    0.376
        21 -10.0010    173.5210    248.0283   1.0264495201e+02   6.5084390024e+00    0.1264873    0.0993901 -24.72  0.001035149    1.602    0.376
        22 -10.6262    204.2357    199.5759   9.0910544988e+01   7.6337146411e+00    0.1696589   0.08763955  29.16 0.0009528266    1.662    0.398
        23 -12.3918     90.2630    157.2795   1.0751364824e+02   3.2139239123e+01     1.101565    0.6725655 -74.54  0.003057309    1.953    0.488
        24 -10.1650    137.7907    170.8007   9.8859584237e+01   2.2208003737e+01    0.1727484     0.145118  62.26 0.0008516292    1.344    0.256
        25 -11.0050    195.2236    168.7247   8.7205019790e+01   1.2902018817e+01    0.2865778    0.2447535  11.14 0.0006471703    1.048    0.045
        26 -12.6948     83.9147    164.3186   1.0997477055e+02   3.1634984686e+01    0.9215367    0.3543482  51.56 0.0005748689    2.855    0.650
        27  -9.8198    108.0741    203.4115   1.0943680963e+02   2.1274179402e+01    0.1607536    0.1542467  19.31  0.001229784    1.224    0.183
        28  -9.2930    211.0756    202.5335   9.0232569375e+01   6.3043185335e+00     0.163099   0.09183758  35.20 0.0004007657    1.482    0.325
        29  -9.5521    190.1402    160.8639   8.6654816632e+01   1.4848130105e+01    0.1797383    0.1725338  12.66 0.0007844125    1.255    0.203
        30 -10.5606    190.2105    154.9041   8.5481716636e+01   1.5684269459e+01    0.3737155    0.3088107  24.11  0.002323611    1.075    0.070
        31  -9.2047    222.3237    150.3282   7.8959688080e+01   1.0733944766e+01    0.1342651   0.08419848  10.03 0.0007049385    1.695    0.410
        32 -11.1532    133.7723    143.5869   9.4915418755e+01   2.7729777896e+01    0.9989123    0.2542141 -52.45   0.00276792    5.821    0.828
        33 -11.6363     42.0140    147.8590   1.1834682848e+02   4.0190829697e+01    0.3027626    0.1766647  28.81  0.001692496    1.845    0.458
        34 -12.1992     54.1967    147.8125   1.1523345805e+02   3.8852743085e+01    0.4436276    0.3085415 -87.28  0.002646553    1.408    0.290
        35 -10.4105    174.8964    148.8555   8.7203039285e+01   1.9339564334e+01       0.2227    0.2038134 -43.53 0.0006258358    1.302    0.232
        36 -10.4754     87.6730    146.3048   1.0651918471e+02   3.4759678296e+01    0.2551197      0.20225  71.16   0.00102575    1.304    0.233
        37 -12.3603     91.2344    141.9263   1.0492218703e+02   3.5142584871e+01    0.2482738    0.2401606 -18.55 0.0004583597    1.185    0.156
        38 -10.8645    103.7770    141.5611   1.0170644883e+02   3.3252356543e+01    0.4964417    0.3328733 -19.52  0.002302002    2.458    0.593
        39 -13.0947     44.5298    128.4206   1.1549803006e+02   4.4234218228e+01    0.6789265    0.3914778  67.30  0.003438025    1.892    0.471
        40 -10.1757    106.0434    130.6577   9.9111362900e+01   3.5122592275e+01    0.2841681    0.2597675 -74.86  0.001364901    1.132    0.117
        41 -10.8602    161.5429    128.2191   8.5529181172e+01   2.5258750208e+01    0.3541922    0.3040968 -73.56  0.001951753    1.545    0.353
        42 -11.1882     99.6562    128.1039   1.0027252272e+02   3.6725707798e+01    0.3149747    0.2418372 -35.20 0.0008049925    1.506    0.336
        43 -10.2118    112.3948    131.4208   9.7649130119e+01   3.3877420343e+01    0.2757953    0.2225691   6.81 0.0007437484    1.547    0.353
        44 -15.1378      9.9622    206.5053   1.2905007853e+02   3.1753335634e+01    0.6724368    0.5597777  30.53  0.002567587    1.470    0.320
        45 -10.8106    136.0000    123.9872   9.0297196212e+01   3.1016862606e+01    0.4189618    0.1012056 -44.71  0.001233638    4.271    0.766
        46 -11.3812    118.8433    124.8831   9.4677614184e+01   3.4058775248e+01    0.8423601    0.3949649 -32.10  0.002924754    3.553    0.719
        47 -10.2381    125.6778    127.3236   9.3509948311e+01   3.2317835600e+01    0.2915734    0.2089048 -79.15 0.0007648614    2.051    0.512
        48 -10.9460     66.8987    125.5109   1.0876096684e+02   4.2198919157e+01    0.3305624    0.2661829 -78.98  0.001957741    1.198    0.166
        49 -11.3696     25.2747    120.9046   1.2015211524e+02   4.7830955118e+01    0.2777631    0.1375818  45.37  0.001431163    1.949    0.487
        50  -9.9012    108.4984    120.0175   9.6289762336e+01   3.6919084523e+01    0.1994973    0.1788718  43.63 0.0001958654    1.098    0.089
        51 -12.6979     44.7022    115.8440   1.1375817865e+02   4.7110524842e+01    0.5367535    0.2905937 -57.69  0.002731154    1.736    0.424
        52 -11.9980     41.1843    113.3769   1.1447334760e+02   4.8062342394e+01    0.3088256    0.1795438  49.13  0.001547608    1.745    0.427
        53 -10.1131    168.1058    112.8558   8.0520772208e+01   2.6547988971e+01    0.3307234    0.2530965 -75.99  0.001579683    2.028    0.507
        54  -9.0466    108.0066    114.0187   9.5094685526e+01   3.8268542127e+01    0.1606001    0.1587515  81.99            0    1.005    0.005
        55 -10.4438    134.8557    112.0588   8.7774734793e+01   3.3534763577e+01    0.3494396   0.09978636 -43.63  0.001086484    3.550    0.718
        56 -11.2975    118.8021    110.1197   9.1331187179e+01   3.7071544999e+01    0.5678813    0.3737409  52.69  0.002685669    1.621    0.383
        57 -10.9620     19.5990    111.0262   1.2081175056e+02   5.0593174337e+01    0.2164644    0.1789789  37.80 0.0006537274    1.338    0.253
        58  -9.9920    205.6082    110.0908   7.2813342658e+01   1.9236897367e+01    0.2491127    0.1900827  31.70 0.0006027292    1.294    0.227
        59 -17.4035      4.8995    238.6498   1.3088850021e+02   2.6967316782e+01     9.909769     1.565512 -81.04   0.01912074    6.236    0.840
        60 -11.5641     41.2217    108.6761   1.1377578659e+02   4.9162297455e+01    0.2790856    0.1542744 -60.73   0.00142636    1.631    0.387
        61  -9.2596     95.0167    105.2479   9.6684992005e+01   4.2449762146e+01    0.1881793    0.1708465  52.71  0.001065678    1.114    0.102
        62  -9.7107    134.5350    102.9047   8.5542701955e+01   3.5368740720e+01    0.2244273    0.1432199 -41.37 0.0007057131    1.570    0.363
        63  -9.8941     35.6621    101.3024   1.1444569492e+02   5.1473303468e+01    0.1346701   0.08746006  66.79 0.0003985371    1.668    0.400
        64  -9.3750     87.3180     99.9900   9.7711424952e+01   4.4918665295e+01    0.2466453    0.1376083  66.29  0.000818184    3.177    0.685
        65  -9.0131    121.6809     98.6935   8.7690321459e+01   3.8827990100e+01    0.1485679    0.1162753   1.09  0.000408427    1.634    0.388
        66 -10.4780     59.3372     96.8072   1.0582602848e+02   4.9828460225e+01    0.3208945    0.1723599  59.11  0.001364232    2.488    0.598
        67 -12.2979     53.5151    110.2880   1.1020104813e+02   4.7397764665e+01    0.4509924    0.2990493 -77.01   0.00177298    1.480    0.324
        68 -10.4079     44.8382     90.1543   1.0939991094e+02   5.3169151545e+01    0.2081388     0.171093  81.29 0.0005942726    1.247    0.198
        69  -9.6700    156.9810     80.0005   7.3947143660e+01   3.4584876982e+01    0.1846709    0.1707611 -20.39 0.0004684927    1.046    0.044
        70 -10.3734     61.3919     69.6454   9.8439127958e+01   5.5861872104e+01    0.4409811    0.2358794 -67.57  0.001830454    2.317    0.568
        71 -11.4024    153.7948     56.7212   6.7278393854e+01   3.9103636691e+01    0.4705409    0.3163189 -76.19 0.0009713823    2.301    0.565
        72 -13.2807    187.5472     40.9914   5.6460758703e+01   3.2821866018e+01    0.8229091    0.6275793  32.10  0.001027097    1.431    0.301
        73  -9.5776    196.1648    245.8845   9.8726737021e+01   3.8247127767e+00     0.143106   0.09210201  16.95 0.0006537799    1.319    0.242
        74 -10.2076    170.0221    239.7488   1.0227163465e+02   7.8582246610e+00    0.1520435     0.104828  30.19 0.0003823502    1.064    0.060
        75  -9.6870    145.4770     19.5931   5.5481949248e+01   4.6154711683e+01    0.2854285    0.1812043 -66.92 0.0008496282    2.038    0.509
        76 -11.2445    156.3752     50.8129   6.4788607388e+01   3.9341256676e+01    0.3839579    0.2940178 -80.08  0.001228221    1.677    0.404
        77  -9.6497    189.7050     15.0438   4.8044609987e+01   3.5091250010e+01    0.1984814    0.1765462 -22.78 0.0005813674    1.098    0.090
        78 -10.0876    178.3173    229.3203   9.9591338684e+01   7.9112273765e+00    0.1103161   0.06934342  13.75 0.0003221751    1.661    0.398
        79  -9.9939     77.0622    235.1001   1.1818718902e+02   2.0299943955e+01    0.1554666     0.115099  49.93 0.0004464136    1.030    0.029
        80 -11.6484     24.1293     34.3487   1.0364265034e+02   6.8307333267e+01    0.6077375    0.1925917  40.90  0.002251694    4.203    0.762
        81 -10.9150    183.7860    234.2507   9.9296966191e+01   6.6290005728e+00    0.2909028    0.1124958  41.61  0.001119752    2.169    0.539
