#   1 NUMBER                 Running object number                                     
#   2 MAG_AUTO               Kron-like elliptical aperture magnitude                    [mag]
#   3 X_IMAGE                Object position along x                                    [pixel]
#   4 Y_IMAGE                Object position along y                                    [pixel]
#   5 X_WORLD                Barycenter position along world x axis                     [deg]
#   6 Y_WORLD                Barycenter position along world y axis                     [deg]
#   7 A_WORLD                Profile RMS along major axis (world units)                 [deg]
#   8 B_WORLD                Profile RMS along minor axis (world units)                 [deg]
#   9 THETA_WORLD            Position angle (CCW/world-x)                               [deg]
#  10 FWHM_WORLD             FWHM assuming a gaussian core                              [deg]
#  11 ELONGATION             A_IMAGE/B_IMAGE                                           
#  12 ELLIPTICITY            1 - B_IMAGE/A_IMAGE                                       
         1 -14.7459    227.4592     51.3019   6.0805587648e+01   2.3397136927e+01     2.093442    0.5697902 -42.60  0.008213893    3.149    0.682
         2 -14.4653    233.8145     90.3208   6.7993415839e+01   1.5906516449e+01     2.416732     1.009093 -50.25   0.01039537    2.148    0.534
         3 -15.1587    234.7590     28.5459   5.5644515899e+01   2.4976205273e+01     2.784354    0.8281256 -39.57   0.01221397    3.121    0.680
         4 -13.7034    249.5713     60.4637   6.0228296794e+01   1.7612488807e+01     3.086576    0.3487586 -39.28  0.006915626   10.166    0.902
         5 -15.0336    246.4045     30.8432   5.5050061626e+01   2.2369074177e+01      4.33876    0.9735129 -35.78   0.01430303    5.962    0.832
         6 -14.0071    248.5992    125.4212   7.3073439346e+01   6.8574178281e+00     5.002136    0.3403281 -43.90  0.009582155   10.387    0.904
         7 -10.9082    140.5066     17.0018   6.4506839721e+01   4.6939861105e+01    0.1681493    0.1248481 -28.34  0.001036093    1.599    0.375
         8 -11.0298      6.7995     12.0122   1.0334724554e+02   7.0391604012e+01    0.1765262    0.1194834   5.35 0.0003516326    1.202    0.168
         9 -10.0868    161.8323     14.5461   6.0681130314e+01   4.2400866585e+01     0.188751    0.1376538 -41.99  0.001157808    1.531    0.347
        10 -10.8302      1.4087      7.2452   1.0398122896e+02   7.1447710950e+01    0.2232725   0.08519681 -40.47    0.0012704    2.521    0.603
        11 -10.7832    110.9467      5.0181   6.6305457293e+01   5.4400863242e+01    0.1797582    0.1430214  47.49            0    1.073    0.068
        12 -13.6694    240.9098     76.7671   6.4349508183e+01   1.6759965647e+01     1.963309    0.5984344 -54.73  0.006593043    3.986    0.749
        13  -9.8043    153.3252      3.6765   5.9122157045e+01   4.5303503236e+01    0.1222791    0.0801376 -75.35 0.0007048146    1.687    0.407
        14 -10.0211     50.9183      3.5047   8.1349561723e+01   6.5748689423e+01     0.157904   0.09016152  41.24 0.0003221347    1.472    0.320
        15 -11.3954     20.4996      3.4888   9.3253562560e+01   6.9951587415e+01    0.2158391   0.08604965  33.27  0.001224008    2.220    0.550
        16 -10.0997    159.0133      2.2881   5.8048628258e+01   4.4163536571e+01    0.1740307     0.131476  76.24 0.0009883627    1.076    0.070
        17 -10.3695    205.1865    168.8824   8.9515697920e+01   6.3313153314e+00    0.3211955    0.1906279 -54.58  0.001408639    1.825    0.452
        18 -11.5318    193.6892    247.8902   1.0672771047e+02  -6.7505741544e+00     0.431177    0.3324442 -41.07  0.002525484    1.415    0.293
        19 -10.3425    239.9922    240.2991   9.6558268856e+01  -1.2055513149e+01     0.189606    0.1652907 -47.16 0.0008230105    1.585    0.369
        20  -9.6933    124.6885    241.6743   1.2020331430e+02   5.4696164805e+00    0.1312032    0.1058308  -7.08 0.0006560234    1.660    0.398
        21 -10.3620    248.4300    239.7774   9.4953474120e+01  -1.3048548092e+01    0.2194741    0.1038663 -41.79  0.001129818    2.092    0.522
        22 -10.8348    230.0208    186.9846   8.8490392689e+01  -1.5291975987e+00    0.3178821    0.1837561 -48.59  0.001064023    1.720    0.418
        23 -10.8613    246.6041    232.6930   9.4035524500e+01  -1.1744148023e+01    0.6614656    0.3354614 -56.73  0.002397355    5.335    0.813
        24 -10.0651    236.9680    198.3035   8.9429840888e+01  -4.6757965479e+00    0.2800551    0.1899598 -25.93  0.001087786    1.382    0.276
        25 -10.3360    235.6286    217.8697   9.3343477895e+01  -7.8722227718e+00    0.2659763    0.1612658 -58.66  0.001162652    2.783    0.641
        26 -11.2585    232.8067    212.4380   9.2856427271e+01  -6.5398516225e+00    0.5237074    0.2556621 -35.02  0.002489408    1.888    0.470
        27 -11.4846    240.3744    207.9961   9.0652938294e+01  -6.8717207222e+00    0.5362012    0.3319166 -61.17  0.002456969    2.862    0.651
        28 -11.6272    246.8335    225.7871   9.2764094333e+01  -1.0694836617e+01    0.3412055    0.2969273  38.40  0.001561651    1.519    0.342
        29 -11.5977    240.3491    220.8243   9.3026281584e+01  -9.0228615868e+00     0.653859    0.2993889 -46.27  0.003051081    2.316    0.568
        30 -11.0098    234.9935    202.9849   9.0678357452e+01  -5.2106040494e+00    0.3481325    0.2299874 -50.20  0.001121701    1.672    0.402
        31 -11.5341    231.2733    196.7513   9.0163928975e+01  -3.5265536867e+00    0.8532011    0.2023759 -45.22  0.002680941    4.070    0.754
        32 -10.2530    219.8076    239.7710   1.0023018409e+02  -9.2394654933e+00    0.2062807    0.1625181 -62.44  0.001044522    1.998    0.500
        33 -10.2546    148.5351    239.7441   1.1479995388e+02   1.9180069359e+00    0.2488431    0.1302923 -46.24  0.001144242    2.079    0.519
        34 -11.7823    191.4448    235.7602   1.0514332272e+02  -4.3220198556e+00    0.5950973    0.4183269 -73.38  0.002842614    2.650    0.623
        35 -11.1431    159.2968    237.3181   1.1211870416e+02   6.0148706846e-01     0.364537    0.1887386 -50.38  0.001671736    2.112    0.527
        36 -11.4057    230.2411    236.3100   9.7655368351e+01  -1.0137871718e+01    0.3709142     0.254266 -57.87  0.001532772    2.341    0.573
        37 -10.3197    225.6443    231.5542   9.7677488362e+01  -8.7304544696e+00    0.2119287    0.1620568 -61.08 0.0008701736    2.021    0.505
        38 -10.8928    206.5454    236.1489   1.0217928491e+02  -6.7093090509e+00     0.389365    0.2386266 -45.04   0.00206247    1.746    0.427
        39 -10.1976    243.3397    236.4058   9.5273417292e+01  -1.1894246091e+01    0.1845673    0.1392251 -47.91 0.0009394249    1.702    0.412
        40  -9.3480    224.6069    237.2839   9.8884184062e+01  -9.5141516461e+00    0.1140759    0.1003085  61.52 0.0007001064    1.759    0.431
        41 -11.4141    235.2740    229.0277   9.5432237022e+01  -9.6616601599e+00     0.416926     0.199866 -43.14  0.001587111    2.065    0.516
        42 -11.5377    216.4607    232.9282   9.9676187566e+01  -7.6357915674e+00    0.4267146     0.340691 -35.40  0.002208441    1.273    0.215
        43 -10.6207    170.5672    234.2985   1.0923148040e+02  -6.8893532611e-01    0.2426361    0.1340715 -51.15  0.001130988    2.021    0.505
        44 -10.4188    240.1581    231.6521   9.5008607391e+01  -1.0739333008e+01    0.2063047    0.1536838 -39.78 0.0009221138    1.415    0.293
        45 -10.1452    201.8349    232.0432   1.0239843199e+02  -5.2860179988e+00    0.1863259    0.1801389 -42.80 0.0009771298    1.286    0.222
        46 -10.2888    158.2413    230.7271   1.1127127261e+02   2.0567905593e+00     0.241189    0.1706609 -52.56  0.001057178    1.546    0.353
        47 -10.5832    229.5257    228.1805   9.6345649472e+01  -8.7247584932e+00    0.2680221    0.1884599 -55.29  0.001105456    1.990    0.498
        48 -10.4041    211.8960    227.0102   9.9510563602e+01  -5.9478830035e+00     0.272215    0.1647414 -39.38  0.001420184    1.603    0.376
        49 -11.0482    198.7566    226.2539   1.0199246759e+02  -3.7761585121e+00    0.3319324    0.2256867 -48.53  0.001375257    1.620    0.383
        50  -9.9180    184.6523    227.5329   1.0511577197e+02  -1.7364166969e+00    0.2316214    0.1256782 -45.34  0.001077907    1.905    0.475
        51 -10.2738    138.5152    228.0332   1.1514591942e+02   5.9565115462e+00     0.209245    0.1387478 -52.75  0.001038162    1.607    0.378
        52 -10.3773    223.1835    226.4646   9.7232593840e+01  -7.5310203248e+00    0.2337141    0.1672541 -34.30 0.0009408334    1.310    0.237
        53 -10.6671    190.6894    225.8220   1.0356307115e+02  -2.4030093474e+00    0.3137694     0.172154 -41.95   0.00122009    1.834    0.455
        54 -10.4982    162.6272    226.8288   1.0967142156e+02   2.0833872972e+00    0.1921008    0.1333226 -59.64 0.0009555764    1.715    0.417
        55 -10.6217    205.9305    225.0459   1.0033557298e+02  -4.6866637000e+00    0.3057598    0.1838784 -48.64  0.001488876    1.839    0.456
        56 -11.6285    217.0635    222.6602   9.7717381663e+01  -5.9730675268e+00    0.4993784     0.265471 -46.41  0.001646411    1.978    0.494
        57 -10.8768    219.4423    216.7812   9.6179137682e+01  -5.3027963221e+00    0.3483232    0.2183791 -47.83  0.001446324    1.719    0.418
        58 -11.3015    217.6332    211.8021   9.5599983930e+01  -4.1347878327e+00    0.3741103    0.2974127 -57.79  0.002114519    1.602    0.376
        59 -10.9376    228.0268    221.6145   9.5437780110e+01  -7.4143826002e+00    0.2849079    0.2649747  41.51  0.001423281    1.399    0.285
        60 -10.1197    180.4669    222.5359   1.0511104219e+02  -9.5671689080e-02     0.283845    0.1335785 -45.67   0.00121049    2.173    0.540
        61 -10.5302    186.2258    220.8868   1.0360665468e+02  -7.4246285269e-01    0.3858115    0.1533435 -48.71  0.001498424    2.697    0.629
        62  -9.7271    174.5960    222.2112   1.0629971265e+02   9.5794787649e-01    0.1952979     0.127257 -35.40 0.0009533926    1.620    0.383
        63 -10.2339    201.7285    220.9108   1.0042816726e+02  -3.2785123925e+00    0.2527614     0.156419 -44.10  0.001208547    1.632    0.387
        64 -11.2220    250.1339    200.3024   8.7500092094e+01  -6.9411639579e+00    0.4264808    0.1627055 -41.42  0.001839085    2.261    0.558
        65 -10.2537    241.4823    191.4977   8.7323086324e+01  -4.1404974276e+00    0.2669523    0.1144646 -42.14 0.0007176953    2.038    0.509
        66 -12.3593    247.8583    216.4252   9.0886180379e+01  -9.3245890068e+00    0.6582084    0.2983135 -41.63  0.002578011    2.001    0.500
        67 -11.3209    246.8836    206.2511   8.9176407447e+01  -7.4971040575e+00    0.4716498    0.2278416 -53.77  0.001701876    3.112    0.679
        68 -11.1278    243.1824    200.6043   8.8763473297e+01  -5.9996592529e+00    0.4570693    0.2020969 -39.57  0.001892015    1.969    0.492
        69 -11.6396    246.4325    193.0755   8.6766593589e+01  -5.1566734946e+00    0.4287869    0.3232528 -52.86  0.001729714    1.517    0.341
        70 -10.8748    243.9623    187.9913   8.6216079988e+01  -3.8867455138e+00    0.2761647    0.2231896 -38.08 0.0008757023    1.122    0.109
        71 -10.9682    193.4666    218.6922   1.0170675084e+02  -1.5259231611e+00    0.3945418    0.2409762 -53.00  0.001889351    1.908    0.476
        72 -10.3873    211.0279    218.2197   9.8082021632e+01  -4.2606378037e+00    0.2908248    0.1820543 -44.15  0.001497003    1.604    0.377
        73 -10.1054    205.4930    217.0626   9.8966611387e+01  -3.1754344657e+00      0.26932    0.1221475 -38.41  0.001152182    2.165    0.538
        74  -9.5082    204.6838    212.4726   9.8275301960e+01  -2.1952352358e+00    0.2206974    0.1540447 -44.39 0.0008232762    1.440    0.306
        75 -10.2140    170.5856    216.2795   1.0610578871e+02   2.8255737667e+00     0.265148    0.1379177 -50.93  0.001138099    2.057    0.514
        76  -9.7547    228.2345    216.3643   9.4434152630e+01  -6.5468407547e+00    0.1333506   0.08774714 -17.25 0.0004434142    1.593    0.372
        77  -9.9167    179.4708    216.5084   1.0423932165e+02   1.2474113148e+00    0.1392852    0.1304517   3.76 7.934785e-05    1.007    0.007
        78  -9.8800    185.5206    214.9770   1.0267972049e+02   5.1627530555e-01    0.2086227    0.1350102 -46.02  0.001022029    1.575    0.365
        79  -9.5847    138.2208    214.9676   1.1307423536e+02   8.7920015303e+00    0.1863606    0.1185394 -53.93 0.0005073982    1.642    0.391
        80 -10.4410    177.0961    210.6724   1.0367742995e+02   2.8243730279e+00    0.2511663    0.1957863 -54.58  0.001182215    1.409    0.290
        81 -10.7033    192.5835    209.2185   1.0013269299e+02   4.3978144645e-01    0.3462787    0.2359628 -61.96  0.001649353    1.973    0.493
        82 -10.8765    229.4489    206.7393   9.2407686281e+01  -5.0423800209e+00    0.4344655    0.1544324 -45.95  0.001418167    2.806    0.644
        83  -9.8341    227.6459    201.2065   9.1689791562e+01  -3.7731270302e+00    0.2104703    0.1203863 -41.30 0.0009642268    1.595    0.373
        84 -10.4665    224.7162    207.3004   9.3399313627e+01  -4.4207965772e+00    0.3069083    0.1404996 -46.31   0.00134258    2.185    0.542
        85 -10.3561    206.1812    207.4876   9.7035441107e+01  -1.5031361420e+00    0.2659705    0.1854564 -39.31  0.001398632    1.364    0.267
        86  -9.9404    183.2042    207.0063   1.0168581411e+02   2.4965598530e+00    0.2042051    0.1786418 -33.49  0.000736292    1.120    0.107
        87 -10.4360    217.3506    204.5986   9.4290610147e+01  -2.7736351782e+00    0.2685966    0.1535809 -38.58  0.001143118    1.618    0.382
        88 -10.2462    202.4364    204.4035   9.7199508965e+01  -2.9182724101e-01      0.27876    0.1297865 -44.35  0.001173649    2.073    0.518
        89 -10.3640    210.3846    200.6694   9.4893650319e+01  -9.0230519768e-01    0.3139066    0.1715098 -55.86 0.0008882397    2.399    0.583
        90 -10.4037    197.3736    203.6239   9.8080638154e+01   7.1753283921e-01    0.2835983    0.1599714 -40.92  0.001073332    1.706    0.414
        91 -10.4700    187.1111    203.0338   1.0010274190e+02   2.6131554442e+00    0.3051999    0.1921448 -60.87  0.001350951    2.101    0.524
        92 -10.1453    172.9435    203.5059   1.0323615918e+02   5.0350979075e+00    0.2325325    0.1846364 -44.02 0.0007224195    1.259    0.206
        93  -9.9340    193.0000    201.9829   9.8667708779e+01   1.7953738310e+00    0.2314402   0.07781444 -45.44  0.000795749    2.896    0.655
        94 -10.1202    223.5255    201.0826   9.2438164729e+01  -3.1059807021e+00    0.2070835     0.121305 -40.26 0.0008194193    1.558    0.358
        95 -10.3029    215.3982    197.5159   9.3302098653e+01  -1.1306338885e+00    0.3331906    0.1241525 -47.82  0.001238231    2.764    0.638
        96 -10.6137    202.0854    197.1150   9.5859093475e+01   1.1885369634e+00    0.3147916     0.194556 -47.87   0.00149879    1.623    0.384
        97 -10.1343    176.3997    197.6298   1.0135627348e+02   5.6429269662e+00    0.2710617    0.1394338 -51.48   0.00100601    2.048    0.512
        98 -10.1534    226.5007    196.5429   9.1004620188e+01  -2.7409107328e+00    0.2472842    0.1602821 -41.14 0.0009489708    1.408    0.290
        99 -10.9182    224.2240    192.1890   9.0581586007e+01  -1.5670866086e+00    0.4664061    0.2184501 -47.22  0.002014531    2.095    0.523
       100 -10.9021    184.6387    195.3658   9.9139663935e+01   4.6220596468e+00    0.3653621    0.1257811 -41.45  0.001230992    2.956    0.662
       101 -10.0457    209.5315    193.8455   9.3729905636e+01   5.5531642182e-01    0.2738389     0.126017 -39.22  0.001131907    2.064    0.516
       102  -9.6069    157.4548    193.4817   1.0477831425e+02   1.0042829672e+01    0.1471713    0.1444015 -11.43 0.0001440141    1.011    0.010
       103  -9.8363    146.2259    193.0181   1.0728432789e+02   1.2246760638e+01    0.2027031    0.1231543 -50.48 0.0007450354    1.650    0.394
       104  -9.9264    237.5064    192.0734   8.8135757578e+01  -3.6395154751e+00    0.2076016    0.1162906 -41.21  0.001026295    1.574    0.365
       105  -9.8423    161.7728    192.0307   1.0351401403e+02   9.5559822126e+00    0.2047388     0.122264 -48.99 0.0008815653    1.671    0.402
       106  -9.6204    215.2876    191.6560   9.2175025020e+01   7.3215483391e-03    0.1331495    0.1102495 -73.23 0.0006409928    1.649    0.394
       107 -10.2270    172.4894    190.5184   1.0081847599e+02   7.8806870003e+00    0.3102548    0.1436629 -47.52  0.001200304    2.129    0.530
       108 -10.2917    210.4822    188.4617   9.2476073214e+01   1.4451130871e+00    0.3413599    0.1299847 -46.23  0.001259639    2.517    0.603
       109 -10.6644    210.7343    182.1427   9.1157547304e+01   2.6496253971e+00    0.5302894    0.1639982 -37.53  0.001649435    3.625    0.724
       110 -10.7153    210.5501    175.8451   8.9910577543e+01   3.9399020210e+00    0.3570531    0.1728254 -51.65 0.0009525294    2.209    0.547
       111 -10.5101    232.5222    174.4632   8.5556105658e+01   4.1818943354e-01    0.3087792    0.1648241 -39.86  0.001129117    1.647    0.393
       112 -11.2237    237.0239    186.8667   8.7210230401e+01  -2.6177422897e+00    0.3872377     0.180714 -40.21   0.00116686    1.873    0.466
       113 -10.9053    235.5181    180.7302   8.6272126538e+01  -1.2467974012e+00    0.3374794    0.2220289 -44.68   0.00134133    1.383    0.277
       114  -9.8756    229.6155    181.7967   8.7538717379e+01  -4.8967513050e-01    0.1959642    0.1175791 -49.17 0.0006584661    1.650    0.394
       115 -10.8648    231.5584    178.7294   8.6579133082e+01  -2.2946877663e-01    0.2593334     0.208005 -53.00 0.0007128179    1.321    0.243
       116 -10.0292    215.2508    187.0619   9.1270806241e+01   9.0216678409e-01    0.2528698    0.1787312 -55.12 0.0006134969    1.587    0.370
       117 -12.2059    241.4035    180.2732   8.5156192099e+01  -2.0950461226e+00    0.6979759    0.2990874 -42.14  0.003054501    2.013    0.503
       118 -11.1533    249.7486    184.4804   8.4555851498e+01  -4.1267642256e+00    0.4763257    0.1521057 -44.76  0.001826438    2.788    0.641
       119 -11.9360    247.5826    177.8214   8.3629573680e+01  -2.6062967827e+00    0.6338265    0.2441676 -47.96  0.002564678    2.533    0.605
       120  -9.9220    220.4539    187.0326   9.0273284186e+01   3.0494402631e-02    0.2168944    0.1244621 -41.05   0.00102365    1.578    0.366
       121  -9.6712    193.2930    187.6488   9.5783105572e+01   4.6507829384e+00    0.1429529    0.1165361 -81.61 0.0007030422    1.677    0.404
       122  -9.8654    219.1675    194.2238   9.1935067306e+01  -1.1262284480e+00     0.177175    0.1632095 -65.14 0.0007633525    1.334    0.251
       123 -10.6749    223.8626    183.8268   8.8997523859e+01   7.5306919202e-02    0.3691519    0.1864098 -45.54  0.001144132    1.838    0.456
       124 -10.2783    225.7971    178.9618   8.7668519981e+01   6.8275279685e-01     0.322463    0.1471576 -35.24   0.00105189    2.179    0.541
       125  -9.7392    227.6862    175.6843   8.6666488927e+01   9.9326947377e-01    0.2153056    0.1130083 -24.85 0.0007140486    2.631    0.620
       126 -10.7653    197.7007    182.6168   9.3855934794e+01   4.8855562122e+00    0.4805486      0.17579 -50.74  0.001620571    3.023    0.669
       127 -10.2137    189.6053    184.6539   9.5948251220e+01   5.9473958382e+00    0.2650439    0.1921674 -35.19 0.0009657842    1.352    0.260
       128 -10.4363    190.8311    179.4235   9.4621630675e+01   6.8172744743e+00    0.4230409    0.1705582 -51.10  0.001490432    2.666    0.625
       129  -9.7931     77.6631    185.7018   1.2277592064e+02   2.5908464999e+01    0.1426776    0.1123281 -28.31 0.0007032785    1.656    0.396
       130  -9.8089    217.7840    182.9640   8.9966610532e+01   1.2671992574e+00    0.2691458    0.1848827 -35.10  0.001147738    1.340    0.254
       131 -10.6196    219.0811    177.4436   8.8608298867e+01   2.1214324798e+00    0.4093853    0.1808127 -41.89  0.001474039    2.046    0.511
       132 -10.3458    183.4705    182.4897   9.6809247457e+01   7.5474120495e+00     0.305662    0.1413795 -46.16 0.0009093076    2.084    0.520
       133  -9.9973    176.5417    180.9898   9.8003261762e+01   9.1828924715e+00    0.2352534    0.1435108 -46.50 0.0009379978    1.590    0.371
       134 -10.2842    197.5089    176.4664   9.2632261375e+01   6.1915690667e+00    0.2990037    0.1370946 -44.99  0.000850539    2.049    0.512
       135 -10.4747    223.4519    172.8465   8.6864146849e+01   2.2630619382e+00    0.3213988    0.1863224 -49.65  0.001498269    1.688    0.407
       136 -10.5255    145.5013    174.4807   1.0378427660e+02   1.6681356498e+01    0.1530887    0.1503947 -61.01 0.0001620733    1.001    0.001
       137 -10.6929    188.1848    172.0044   9.3632028667e+01   8.8919986153e+00    0.3684643    0.2028029 -45.00  0.001466477    1.722    0.419
       138 -10.4990    227.8432    171.1078   8.5714669722e+01   1.8460093114e+00    0.3351744    0.1712909 -50.91  0.001183346    2.001    0.500
       139 -11.1218    246.1771    169.2361   8.2181930428e+01  -8.2163588497e-01    0.4043553    0.2232391 -52.12  0.001737635    1.877    0.467
       140 -12.7393    236.5106    161.9332   8.2343867137e+01   2.1278028746e+00     1.611461    0.5621283 -48.70  0.005887957    2.826    0.646
       141 -12.5814    235.2856    135.2884   7.7095147440e+01   7.4198799463e+00     1.517449     0.416177 -48.80  0.004811858    3.622    0.724
       142 -10.7443    232.8665    247.2917   9.9068007742e+01  -1.2184269599e+01    0.2885256    0.1560822 -45.33  0.001141647    2.125    0.529
       143 -10.3220    179.5021    168.5057   9.4745030809e+01   1.1336213668e+01    0.2785623    0.1410311 -55.96  0.001036759    2.288    0.563
       144 -10.7891    191.1402    165.5423   9.1645146789e+01   9.7006536140e+00    0.4502315    0.2027295 -39.08  0.001683292    2.246    0.555
       145  -9.7098    165.2874    167.3541   9.7656031043e+01   1.4412326981e+01    0.1582346    0.1207843 -14.83 0.0007023714    1.671    0.402
       146 -10.4000    229.2524    165.5632   8.4337640872e+01   2.6735806882e+00    0.2790829    0.1711868 -43.02  0.001373845    1.433    0.302
       147 -10.4900    199.4347    164.3405   8.9699401340e+01   8.3555977817e+00     0.354681    0.1361159 -46.29  0.001022708    2.446    0.591
       148 -11.4173    212.8134    161.5841   8.6515681818e+01   6.4024104747e+00     0.724593    0.1997998 -46.65   0.00224806    3.433    0.709
       149 -10.4419    221.2831    161.4724   8.4924601243e+01   4.8776493159e+00    0.2748071     0.177166 -42.75  0.000999039    1.381    0.276
       150 -11.9169    235.2832    146.8998   7.9487210074e+01   5.2074015578e+00    0.5343497    0.3007836 -50.04  0.001823801    1.633    0.387
       151 -10.3509    226.6151    156.7462   8.2992643593e+01   4.8496138943e+00     0.470894    0.1748838 -45.67  0.001778345    2.406    0.584
       152 -10.3908    228.4476    151.4990   8.1587214502e+01   5.5435435596e+00    0.2604948      0.17775 -47.53  0.000797889    1.309    0.236
       153 -10.6561    229.4743    148.0178   8.0689473655e+01   6.0342274483e+00    0.3640365    0.1869039 -39.77    0.0010264    1.757    0.431
       154 -10.4189    224.4831    248.2594   1.0079702289e+02  -1.1216405094e+01     0.314509    0.1136247 -44.70  0.001257767    3.050    0.672
       155 -10.7498    176.9977    157.7417   9.2958299350e+01   1.4204024874e+01     0.459162    0.1909962 -38.86  0.001565626    2.601    0.615
       156 -10.2691    221.4851    152.0290   8.2917089253e+01   6.7098830708e+00    0.2809277    0.1261567 -47.22 0.0009196891    2.034    0.508
       157 -10.5298    216.0441    156.1261   8.4764778904e+01   6.9018510329e+00    0.3162854    0.1880202 -47.10  0.001006632    1.538    0.350
       158 -10.5128    197.1331    156.4335   8.8464472445e+01   1.0459784891e+01    0.3621876      0.20741 -36.29  0.001539386    1.776    0.437
       159 -10.1569    187.6111    155.1971   9.0139187645e+01   1.2615261507e+01    0.2925901    0.1387334 -47.60  0.001120624    2.009    0.502
       160 -10.3292    205.5698    153.7567   8.6231004599e+01   9.3723154177e+00     0.276769    0.1334333 -40.80   0.00110799    1.946    0.486
       161 -10.0412    192.6915    153.5146   8.8725176735e+01   1.1957071130e+01    0.2726149    0.1300124 -44.68  0.001059552    1.957    0.489
       162 -10.8240    157.3086    152.8407   9.6311976155e+01   1.9347858288e+01    0.3218621    0.1377826 -54.07  0.001073971    2.572    0.611
       163 -10.7835    205.2283    161.2390   8.7896358092e+01   7.8954517667e+00    0.4026527    0.1981728 -46.10  0.001655926    1.881    0.468
       164  -9.9907    202.5228    151.0542   8.6235485910e+01   1.0525126834e+01      0.23798    0.1365337 -43.92  0.001035807    1.602    0.376
       165 -10.1334    222.3607    156.6574   8.3728933837e+01   5.6341537711e+00     0.278239    0.1202174 -47.42 0.0007761677    2.135    0.532
       166  -9.2608    196.3109    150.3005   8.7292286091e+01   1.1913648982e+01    0.1476039    0.1174765  -7.22 0.0003157774    1.604    0.377
       167 -10.3263    214.6686    148.4865   8.3396061139e+01   8.6968782241e+00    0.3128651    0.2529469  80.04  0.001635932    1.562    0.360
       168 -10.9111    223.6743    146.2497   8.1316905086e+01   7.4445799842e+00    0.3472483    0.2300669 -46.02  0.001543354    1.338    0.252
       169 -10.4585    207.9701    144.6915   8.3815998686e+01   1.0763654348e+01    0.3341464    0.1885978 -36.71  0.001312868    1.769    0.435
       170  -9.9338    200.4907    144.9579   8.5297496293e+01   1.2194090142e+01    0.2351043    0.1374802 -45.09 0.0008925234    1.574    0.365
       171 -10.1933    214.2390    142.6050   8.2213258892e+01   9.9616882519e+00    0.2811133     0.155195 -51.78  0.000824882    1.764    0.433
       172 -10.3298    181.9705    142.0133   8.8374595778e+01   1.6616862160e+01     0.351791    0.2000447 -64.79  0.001290171    2.544    0.607
       173 -11.4695    229.9204    139.7758   7.8898886509e+01   7.5475159512e+00    0.6262149    0.1961624 -43.47  0.002205672    2.777    0.640
       174 -10.4474    224.2789    140.0625   7.9908144150e+01   8.5449845757e+00    0.3418509      0.16903 -42.16  0.001279229    1.801    0.445
       175  -9.6036    203.4284    141.1743   8.3902072982e+01   1.2386509224e+01    0.2101475    0.1302439 -54.49 0.0009299822    1.629    0.386
       176  -9.9895    166.0134    140.2063   9.1425160400e+01   2.0380857192e+01    0.2356936    0.1667851 -65.24 0.0007677873    1.635    0.388
       177 -10.4003    218.7707    137.7656   8.0369795770e+01   1.0048429923e+01    0.3147733    0.2059024 -35.68  0.001481264    1.508    0.337
       178 -10.5275    208.0430    136.8071   8.2081586590e+01   1.2351901164e+01    0.4259551     0.185839 -52.55  0.001572534    2.433    0.589
       179 -10.2840    172.0345    137.2333   8.9401677334e+01   1.9754565631e+01     0.437862     0.296676  77.43  0.001781451    2.203    0.546
       180 -10.1038    192.6859    136.4720   8.4934112360e+01   1.5558463058e+01    0.2718559    0.1307109 -44.09  0.001060468    1.941    0.485
       181 -10.1733    198.5450    136.0368   8.3694432622e+01   1.4437300804e+01    0.2361898    0.1377529 -44.34  0.001027177    1.585    0.369
       182 -10.1301    198.2603    131.8928   8.2819527537e+01   1.5348971991e+01     0.315726    0.1839457 -53.29 0.0008341553    1.711    0.416
       183 -10.2402    187.6097    135.6848   8.5771000568e+01   1.6785399031e+01    0.2903661    0.1394436 -41.71  0.001115419    2.004    0.501
       184  -9.7335    163.0000    135.9720   9.1115190050e+01   2.1963999328e+01    0.2599508   0.08651464 -45.67 0.0006554897    2.894    0.654
       185 -10.3060    225.3294    133.5755   7.8358710765e+01   9.6091561121e+00    0.2761478    0.1751116 -44.79 0.0008559371    1.387    0.279
       186 -11.4834    221.0986    129.5948   7.8219379808e+01   1.1199293839e+01    0.5064632    0.1978712 -51.78   0.00183166    2.673    0.626
       187  -9.9863    186.4499    128.9482   8.4458554269e+01   1.8446292845e+01    0.2393284    0.1416629 -45.77 0.0009710125    1.589    0.371
       188 -10.6399    199.9497    126.3809   8.1259463255e+01   1.6119912955e+01    0.2954269    0.1899269 -58.04 0.0008739081    1.625    0.385
       189 -10.7037    179.4983    132.4875   8.6703824911e+01   1.9184954946e+01     0.324678    0.1451405 -45.10  0.001158511    2.122    0.529
       190 -10.4586    179.4300    124.2605   8.4792387537e+01   2.0938554820e+01    0.3546411    0.1795639 -43.44  0.001402441    1.891    0.471
       191 -10.7196    146.4747    125.0020   9.2339272137e+01   2.7957410074e+01    0.2473282    0.1511035 -46.98   0.00103323    1.596    0.373
       192 -10.0254    211.9618    128.6969   7.9598225772e+01   1.3189194805e+01    0.2716781    0.1681177 -56.27  0.001182032    1.638    0.389
       193  -9.8160    169.7699    124.0254   8.6774826815e+01   2.3094922581e+01     0.211362    0.1240233 -45.52 0.0008766387    1.638    0.390
       194 -10.5416    212.8725    120.7566   7.7697091141e+01   1.4564479406e+01    0.5853265    0.1647473 -38.41  0.001714154    3.993    0.750
       195  -9.8613    188.1742    123.1635   8.2776293691e+01   1.9274713375e+01    0.2165599    0.1708994 -68.88 0.0008103808    1.358    0.264
       196 -10.8204    227.9385    124.9958   7.6117619988e+01   1.0757574694e+01    0.3377381     0.177669 -49.18  0.001149102    1.702    0.412
       197  -9.8484    194.3344    121.1562   8.1124802802e+01   1.8362484927e+01    0.2253411    0.1254911 -52.12  0.000940931    1.769    0.435
       198 -12.8185    229.1649    102.6821   7.1219656655e+01   1.4659025536e+01    0.8375497    0.2580969 -46.38  0.003022959    2.835    0.647
       199 -11.8987    230.5590    116.0164   7.3816032105e+01   1.1941090638e+01     0.612543    0.1944906 -48.57  0.002152459    2.920    0.658
       200 -10.9312    140.3841    118.5761   9.2225328972e+01   3.0684212269e+01    0.3160322    0.1342643 -57.29 0.0009567344    3.340    0.701
       201  -9.9954    216.5506    115.7501   7.5982530782e+01   1.4779643920e+01    0.2080635    0.1214445 -52.91  0.000932018    1.617    0.381
       202 -10.2531    185.6960    114.5792   8.1252729031e+01   2.1557146666e+01    0.2790161    0.1295842 -44.37  0.001075545    2.039    0.510
       203  -9.3166    191.4886    114.4742   8.0118020953e+01   2.0314810761e+01    0.1504768    0.1366954 -67.65 9.033238e-05    1.040    0.038
       204  -9.6900    181.2869    114.3713   8.2072046464e+01   2.2567650419e+01     0.150255    0.1209818  -6.79 0.0007020027    1.711    0.416
       205  -9.6138    173.5033    114.4530   8.3676062653e+01   2.4271719163e+01    0.1527642    0.1427627 -73.03 0.0002193795    1.034    0.033
       206  -9.7867    194.5874    112.7956   7.9150696193e+01   1.9975290283e+01    0.2244368    0.1279909 -53.45 0.0009556612    1.752    0.429
       207  -9.7861    218.5710    109.2448   7.4238584236e+01   1.5596416823e+01    0.1938536    0.1276468 -36.26 0.0009420259    1.565    0.361
       208  -9.9649    183.1527    108.6134   8.0332143493e+01   2.3306302582e+01     0.290422   0.09939235 -44.49 0.0009629305    2.773    0.639
       209 -10.1610    160.5594    108.2453   8.4911733424e+01   2.8426605108e+01    0.2926612    0.1430658 -47.65  0.001036686    2.029    0.507
       210 -10.0022    133.6779    109.3409   9.1533166784e+01   3.4115894214e+01    0.1590138    0.1220975 -85.97 0.0007050558    1.723    0.419
       211 -10.5606    224.8604    243.2650   9.9873616720e+01  -1.0496237785e+01    0.2328411    0.1862129 -34.39  0.001187789    1.321    0.243
       212  -9.8194    189.6083    108.2475   7.9015412423e+01   2.1953231612e+01    0.2057083    0.1374356 -35.94 0.0006791213    1.579    0.367
       213 -10.1817    205.5876    105.2505   7.5483383118e+01   1.9062906185e+01    0.2789843    0.1250697 -46.90  0.001116474    2.057    0.514
       214 -10.2039    222.3368    104.6427   7.2656439770e+01   1.5679408243e+01    0.2782197    0.1535325 -43.32  0.001059542    1.640    0.390
       215  -9.8754    200.5751    103.0017   7.5828066140e+01   2.0565065684e+01    0.2222225    0.1325549 -44.15 0.0007579938    1.571    0.364
       216 -10.5999    166.9990    100.0275   8.1475584838e+01   2.8613507493e+01    0.3350192    0.1718519 -48.49  0.001348559    1.949    0.487
       217 -11.8051    211.8734     94.1830   7.1989627492e+01   1.9757874907e+01    0.8868292    0.3612435 -59.29  0.002861377    3.821    0.738
       218 -10.1542    202.6448     97.5633   7.4235714845e+01   2.1128626638e+01      0.24796    0.1259918 -43.72  0.001062761    1.838    0.456
       219 -10.0711    195.0719     97.4659   7.5505042064e+01   2.2803926956e+01    0.2482616    0.1850387 -64.92 0.0009360326    1.358    0.264
       220 -10.0120    215.4049     94.2095   7.1451760122e+01   1.9004967326e+01    0.2111463    0.1650479 -56.54 0.0008935857    1.143    0.125
       221 -10.8708    188.9522     92.9524   7.5522291627e+01   2.4996302222e+01    0.3858716    0.2122534 -50.33  0.001428627    1.775    0.436
       222 -10.2419    188.4716     87.0211   7.4198082588e+01   2.6175314994e+01    0.2667787    0.1675436 -49.25 0.0009590928    1.529    0.346
       223 -10.2107    140.3553    249.1500   1.1793904991e+02   1.4562427518e+00    0.1796694    0.1259702 -68.85 0.0009496778    1.809    0.447
       224 -10.1359    160.2029    100.2100   8.2959936770e+01   3.0114035260e+01    0.2467637    0.1076922 -50.81 0.0008715459    2.490    0.598
       225 -11.3208    175.7290     87.8473   7.6711045195e+01   2.8915197668e+01    0.3222687    0.2430542 -55.22 0.0008248612    1.308    0.235
       226  -9.7522    197.5696     86.7819   7.2602887330e+01   2.4185255888e+01    0.2011799    0.1221888 -53.27 0.0008154123    1.592    0.372
       227 -10.0037    163.6170     86.7576   7.8810276046e+01   3.1880252222e+01    0.2099981    0.1316271 -51.45 0.0009031431    1.639    0.390
       228  -9.5335    209.2609     99.3695   7.3556864782e+01   1.9373409941e+01    0.1346228    0.1121926 -12.38 0.0004818077    1.650    0.394
       229  -9.7555    214.2162     88.0003   7.0270608837e+01   2.0352152933e+01    0.1828607    0.1034435 -43.73 0.0005392167    1.641    0.391
       230 -10.2360    150.6316     87.8171   8.1834567291e+01   3.4644969909e+01    0.2172131    0.1330403 -51.03 0.0009539402    1.717    0.417
       231 -10.5169    159.0912     81.7177   7.8433209124e+01   3.3819159822e+01    0.2662361    0.1915287 -52.89   0.00131373    1.428    0.300
       232 -10.2985    211.1111     76.2968   6.8154510185e+01   2.3007981259e+01    0.2890451    0.1877116 -31.16  0.001433438    1.873    0.466
       233 -10.2700    242.3040    247.9964   9.7464725544e+01  -1.3495376069e+01    0.1707271     0.130659 -17.47 0.0007314945    1.113    0.101
       234 -10.0843    201.0003     77.9615   7.0031571446e+01   2.4943711778e+01    0.2317208    0.1497099 -68.26 0.0008940913    1.699    0.412
       235  -9.6064    189.0000     77.9703   7.1958056783e+01   2.7627888517e+01    0.2264696   0.07736186 -39.71 0.0007965282    2.902    0.655
       236 -10.0418    174.5010     77.5374   7.4383321301e+01   3.1006481600e+01    0.2598173    0.1210671 -50.18  0.001034047    2.260    0.558
       237 -10.2235    166.5931     77.6944   7.5905685507e+01   3.2796447879e+01    0.2670262     0.140648 -35.99  0.001130361    2.055    0.513
       238 -10.9119    218.7022    167.8063   8.6708847191e+01   4.0863749913e+00    0.4153371    0.2405841 -40.45  0.001586517    1.559    0.359
       239  -9.6950    209.6756     80.8430   6.9367678090e+01   2.2557537049e+01    0.2003287    0.1103457 -50.37 0.0009330229    1.685    0.406
       240  -9.7113    206.2187     73.9696   6.8347193863e+01   2.4456870391e+01    0.1801359    0.1038247 -43.56 0.0007211702    1.655    0.396
       241 -10.3635    163.4525     71.4677   7.4911326003e+01   3.4564310533e+01    0.2879709    0.1380032 -39.23  0.001200607    2.148    0.535
       242 -11.7100    222.0436     70.9978   6.5519666608e+01   2.1536308269e+01    0.2082126    0.1673847 -64.56  0.000712171    1.073    0.068
       243  -9.8055    170.5780     70.2362   7.3269879282e+01   3.3123783044e+01    0.1884378    0.1384162 -28.19 0.0009520038    1.622    0.383
       244  -9.8171    187.4594     68.9206   7.0061791388e+01   2.9469371650e+01    0.2092725    0.1300625 -43.65 0.0009282082    1.591    0.371
       245  -9.5703    210.5094     71.4915   6.7183926708e+01   2.3923968528e+01    0.1386956    0.1155985 -74.38 0.0008098488    1.059    0.056
       246  -9.8051    182.3500     68.2005   7.0724219140e+01   3.0749042385e+01    0.2028133     0.116498 -50.55 0.0009362068    1.743    0.426
       247 -10.1977    214.4248     69.9367   6.6304922315e+01   2.3327489751e+01    0.1977811   0.09171501 -59.26 0.0008049087    2.468    0.595
       248 -10.0271    203.4532     66.4892   6.7073578055e+01   2.6268124174e+01     0.246672    0.1050565 -50.10  0.001025942    2.291    0.564
       249 -10.0389    171.0000     63.9692   7.1617564385e+01   3.4023194514e+01    0.2184838   0.07827191 -37.53 0.0007972434    2.907    0.656
       250 -10.1483    193.6687     67.5135   6.8755730492e+01   2.8289559687e+01    0.2290276    0.1217048 -41.04 0.0009642396    1.869    0.465
       251 -11.9446    192.3647     55.3783   6.6139047256e+01   3.0437545185e+01    0.4968219    0.1907813 -48.28  0.002017691    2.603    0.616
       252 -12.2378    242.9222    136.5868   7.6166394750e+01   5.8023706972e+00     1.208463    0.2695673 -47.82  0.003531138    4.373    0.771
       253 -10.6923    153.1287     59.6614   7.3801325541e+01   3.8800704282e+01    0.2468381    0.1790133 -50.31  0.001166628    1.453    0.312
       254 -10.5011    157.8829     61.6250   7.3408762906e+01   3.7409454581e+01    0.2726303    0.1971197 -49.30   0.00121123    1.436    0.304
       255  -9.2212    206.6697     58.6874   6.4897554089e+01   2.6759488134e+01    0.1230766    0.1038181  33.52 0.0007043727    1.673    0.402
       256 -10.8861    152.8815     52.5616   7.1949215401e+01   3.9894404540e+01    0.2240082    0.1583066 -44.37  0.001000101    1.496    0.332
       257 -12.2933    244.4609    154.3581   7.9506319853e+01   2.2159259025e+00      1.44908    0.4469418 -49.34  0.004936389    3.357    0.702
       258  -9.2709    178.6416     50.3146   6.6988234873e+01   3.4286604098e+01    0.1434129   0.09422726 -77.03 0.0007043692    1.748    0.428
       259 -10.2772    218.3217    247.8692   1.0190016512e+02  -1.0313145126e+01    0.2076341    0.1944165 -57.48  0.001305982    1.552    0.356
       260 -11.4230    168.6474     37.1211   6.5286046312e+01   3.8328006675e+01    0.3121598    0.1081881 -38.98  0.001277131    2.913    0.657
       261  -9.7733    165.0000     39.9358   6.6559365413e+01   3.8808108896e+01    0.1962779   0.07492349 -33.84 0.0007949658    2.891    0.654
       262 -10.2396    201.4298     35.2018   6.0432274848e+01   3.1182093722e+01    0.1796532    0.1012525 -52.49 0.0009507634    1.704    0.413
       263  -9.7722    125.5249     30.4824   7.1102097156e+01   4.8852732635e+01    0.1280167      0.11267  57.38 0.0008097598    1.026    0.026
       264 -13.2705    240.8363    122.7236   7.3659694522e+01   8.7537265058e+00     2.195854    0.5068388 -43.08  0.006977812    3.670    0.728
       265 -10.0242    172.2299     24.9396   6.1796263331e+01   3.8956972268e+01    0.1518085    0.1023464 -38.81 0.0008741179    1.635    0.388
       266 -11.8075    208.3864     21.8283   5.6848671289e+01   3.1304982571e+01    0.2775002    0.2076147  16.78  0.001575114    2.602    0.616
       267 -10.0635    155.6119     16.7812   6.2113640460e+01   4.3576510929e+01    0.1651364     0.107264 -47.20 0.0009522488    1.694    0.410
       268 -10.7408    209.9041    247.0357   1.0338286397e+02  -8.9949850242e+00    0.2671131    0.2529154 -66.81  0.001791139    1.523    0.343
       269 -11.4732    176.1023    245.6360   1.0993513683e+02  -3.6491244370e+00    0.5277315    0.2858663 -39.72  0.002592155    1.988    0.497
       270 -10.3076    175.6290    238.8001   1.0891748590e+02  -2.3480153791e+00    0.2227006    0.2146412 -37.88  0.001126606    1.182    0.154
       271 -10.2689    156.6724    247.5215   1.1427107097e+02  -8.8103452447e-01    0.2232879    0.1241852 -49.85  0.001089163    2.000    0.500
       272 -10.0200    186.9709    247.2631   1.0797806973e+02  -5.6239003418e+00     0.182522    0.1589694  15.75 0.0007996503    1.020    0.020
       273 -10.6093    163.6950    247.1001   1.1273911052e+02  -1.9345451562e+00    0.1963305    0.1700172 -79.71  0.001174376    1.506    0.336
       274 -10.7237    250.4985    245.3319   9.5546726057e+01  -1.4117337697e+01    0.2734962    0.1162013 -32.77 0.0009700313    2.139    0.532
       275  -9.9228    237.5602    244.4891   9.7725665667e+01  -1.2373725047e+01    0.1982542    0.1077191 -48.34  0.001012539    2.370    0.578
       276 -10.5500    202.0948    242.1898   1.0409861558e+02  -7.0600934507e+00    0.2627989    0.1823496 -45.73  0.001438852    1.611    0.379
       277 -10.6453    169.4737    242.0390   1.1073117074e+02  -1.9452126576e+00    0.1965953    0.1311768 -45.45  0.001041067    1.618    0.382
