#   1 NUMBER                 Running object number                                     
#   2 MAG_AUTO               Kron-like elliptical aperture magnitude                    [mag]
#   3 X_IMAGE                Object position along x                                    [pixel]
#   4 Y_IMAGE                Object position along y                                    [pixel]
#   5 X_WORLD                Barycenter position along world x axis                     [deg]
#   6 Y_WORLD                Barycenter position along world y axis                     [deg]
#   7 A_WORLD                Profile RMS along major axis (world units)                 [deg]
#   8 B_WORLD                Profile RMS along minor axis (world units)                 [deg]
#   9 THETA_WORLD            Position angle (CCW/world-x)                               [deg]
#  10 FWHM_WORLD             FWHM assuming a gaussian core                              [deg]
#  11 ELONGATION             A_IMAGE/B_IMAGE                                           
#  12 ELLIPTICITY            1 - B_IMAGE/A_IMAGE                                       
         1 -14.0591    109.5138     53.3149   3.0266672754e+01   5.0645922799e+01      2.31547     1.581673  88.95  0.009570689    2.223    0.550
         2 -12.9190     78.5238     47.6097   3.7946726992e+01   5.8642531147e+01    0.7468342     0.728416  29.49  0.004306564    1.076    0.070
         3 -13.6160    192.6115     19.7447   4.6710893832e+00   3.4325697608e+01    0.9192348    0.5994558 -53.86   0.00487045    1.357    0.263
         4 -11.3333    218.6057     15.1037   1.3660014753e+00   2.8825701119e+01    0.5018316    0.2682818 -80.39  0.002542631    1.916    0.478
         5 -11.5555     22.5269     14.8177   4.8994174356e+01   7.3837783285e+01    0.6359546    0.3741306  15.31  0.003393192    1.889    0.471
         6 -12.9711    172.7093     18.8517   6.4175066216e+00   3.9345238305e+01    0.7364048    0.4377503 -49.63  0.003614851    1.565    0.361
         7 -12.1528    176.6640      3.6664   1.4979583346e+00   3.9919051739e+01    0.5080215    0.3127163 -66.60  0.002643934    1.524    0.344
         8 -11.1071     22.6850      4.5834   4.2123589184e+01   7.5421552025e+01    0.3936551    0.3035576  13.97  0.002568605    1.184    0.155
         9 -10.5361      6.4878      2.3282   5.2978050012e+01   7.7713385646e+01    0.1948749    0.1006955  24.09  0.001084529    1.981    0.495
        10 -11.1956    188.8036    235.6084   5.4801301797e+01  -4.2218159402e-01    0.2846094    0.1662707  51.31  0.001463225    2.801    0.643
        11 -13.0010    241.6183    248.7976   4.7696501073e+01  -8.3426318371e+00    0.9196824    0.4350263  20.33  0.005741903    1.832    0.454
        12 -11.7405    214.9070    249.3685   5.2167561941e+01  -5.4090234699e+00    0.3773264    0.1751637  25.22  0.002214563    1.817    0.450
        13 -12.8441    137.2787    247.7374   6.6239309295e+01   4.8124063365e+00    0.8761916    0.3553672  35.59  0.004404932    1.948    0.487
        14 -13.9365    122.1006    239.0576   6.8268032333e+01   8.2748198001e+00     1.318678    0.7096428  41.41  0.007329326    1.538    0.350
        15 -13.3341     57.0233    245.8435   8.2017636119e+01   1.5594719286e+01     1.226282    0.5282767  42.38  0.005910593    1.714    0.417
        16 -13.7285     94.9081    246.6301   7.4532217852e+01   1.0693390034e+01     2.268462    0.6331287  38.61  0.009819148    2.596    0.615
        17 -12.6041     52.8683    229.7799   8.1771042455e+01   1.9102216148e+01     0.853551    0.4480375  64.48  0.004419263    1.824    0.452
        18 -13.6763     93.1907    224.0704   7.2684517411e+01   1.4982873191e+01       1.8004    0.9040016  67.80  0.007662244    3.144    0.682
        19 -11.9283     79.3707    249.2894   7.7851314845e+01   1.2243926992e+01    0.5117054    0.3403505  36.54  0.002315321    1.255    0.203
        20 -12.3141     69.1585    235.9169   7.8852318976e+01   1.5928821742e+01     1.130173    0.4857488  79.30  0.004361043    4.447    0.775
        21 -13.8492     69.1870    208.4771   7.6440614861e+01   2.1396053376e+01     2.771915    0.7616795  41.45   0.01076378    2.794    0.642
        22 -13.2144     76.3429    233.0471   7.7123279651e+01   1.5547145684e+01     1.170928    0.6284693  87.88  0.005964606    2.514    0.602
        23 -12.6145     60.8853    221.5252   7.9445154326e+01   1.9761287664e+01     1.391123    0.3505689  48.48  0.005212151    3.360    0.702
        24 -13.1379     35.9987    246.5262   8.6150795696e+01   1.7870575131e+01    0.9943046    0.4281836  49.28  0.005705628    1.689    0.408
        25 -11.7739     22.9040    239.9897   8.8363091614e+01   2.0471165247e+01    0.9388871    0.2766023 -80.78  0.004310816    3.523    0.716
        26 -13.7401      7.0393    228.1210   9.0979131604e+01   2.4322048267e+01     1.978294    0.5634698  77.85  0.008043217    3.894    0.743
        27 -10.5066      2.2233    249.8144   9.2549374075e+01   2.0688055456e+01    0.2253169    0.1172958  57.30 0.0009221194    1.334    0.251
        28 -13.5449    134.3395    222.2917   6.3677094783e+01   9.3641862845e+00     1.194283    0.6285533  44.27  0.005540858    1.757    0.431
        29 -10.8664     37.5458    214.7033   8.4011436048e+01   2.3936576672e+01     1.143367    0.3836374  86.14  0.004018626    4.630    0.784
        30 -10.0277     31.1877    203.4295   8.4686672144e+01   2.7060628500e+01    0.2397718    0.1410093  69.61 0.0009512223    1.495    0.331
        31 -12.5637    146.3748    199.8666   5.7825106404e+01   1.1549134644e+01    0.9370884    0.6854223  71.48  0.004811989    2.057    0.514
        32 -13.5023     89.3635    188.1291   6.9327174712e+01   2.3011603859e+01     2.148358     1.098862  74.41   0.00759634    3.665    0.727
        33 -13.3293     53.0838    125.7825   7.0175567004e+01   4.3874170153e+01     4.768139     2.117565 -88.32   0.01389787    4.335    0.769
        34  99.0000     20.3149    136.1773   8.2096875050e+01   4.4601495887e+01     1.695053     1.039092  77.10  0.008579833    1.555    0.357
        35 -12.9638     46.4433    174.9995   7.8666379948e+01   3.1951447459e+01     2.514359     1.886954 -76.26    0.0118007    1.266    0.210
        36 -13.0137     44.1278    157.5805   7.7418852323e+01   3.6588373341e+01    0.8332862    0.5082454  59.34  0.003919176    1.602    0.376
        37 -13.3526     41.1559    148.8206   7.7241869965e+01   3.9196351285e+01     1.218695    0.5773788  19.91   0.00253769    2.772    0.639
        38 -10.7699     26.0682    187.6436   8.4825224023e+01   3.1176684676e+01    0.6959168    0.2578131  81.11  0.002665702    3.261    0.693
        39  -9.7796      8.2173    180.2357   8.8662657537e+01   3.4592107866e+01     1.116123    0.3334623  59.42  0.004398475    3.116    0.679
        40 -12.6376     12.5454    168.5530   8.6909106036e+01   3.7023058924e+01     2.364877    0.6869662  88.71  0.007934657    3.992    0.749
        41 -13.1613      2.3517    150.5908   8.8484822567e+01   4.2291914049e+01     1.910705    0.3507515 -80.41  0.005826473    4.575    0.781
        42 -14.0982     85.4371    158.1812   6.5925680690e+01   3.0730557866e+01     2.740565     1.302922 -75.22  0.009783336    2.882    0.653
        43 -12.2064    119.2560    158.5043   5.6972477882e+01   2.4879716501e+01    0.5813941    0.2103578 -55.27  0.001956801    2.929    0.659
        44 -13.5514     36.2012    135.0479   7.7019912194e+01   4.3373702675e+01     1.759131     1.004247  70.14   0.00792179    1.928    0.481
        45 -11.4867    110.5246    135.7242   5.4611738845e+01   3.1941740978e+01    0.5601879    0.5160838  44.03  0.002932754    1.107    0.097
        46 -12.3790    237.6907    134.3422   2.7545240827e+01   7.5962937489e+00    0.8044088    0.5174142  48.98  0.004435995    1.918    0.479
        47 -10.8716     73.9247    133.5827   6.4944807701e+01   3.8840970933e+01    0.3571956    0.2410167 -65.28  0.000388629    1.410    0.291
        48 -11.4339     72.1761    128.1825   6.4449140557e+01   4.0530942221e+01    0.4791525    0.2911553 -75.02  0.002030893    1.786    0.440
        49 -12.3955      2.9221    116.6506   8.5793137403e+01   5.1013553804e+01     1.080063    0.3402574 -84.35  0.003961072    2.922    0.658
        50 -11.7042     37.1135    103.9053   7.1838667902e+01   5.1633628091e+01    0.7824233    0.6412105 -52.99  0.004321537    1.171    0.146
        51 -13.0991     33.6898    114.3404   7.4880222428e+01   4.9187322287e+01     1.395019    0.7388034  23.82  0.006263733    2.184    0.542
        52 -12.7614     19.5070    108.6686   7.9108514263e+01   5.1989137918e+01     0.945331    0.7757293  84.34  0.004250699    1.144    0.126
        53 -10.6851     62.0951    114.7223   6.5035153425e+01   4.5602681927e+01    0.3591116    0.2153754 -80.52   0.00147915    1.965    0.491
        54 -13.7644    150.0118     90.0151   3.2364381359e+01   3.3798501830e+01     1.183348     0.819675 -62.55  0.005106867    1.682    0.405
        55 -13.2708    149.5021     99.6775   3.5264099357e+01   3.1934066125e+01     0.899803    0.7196403 -66.84  0.004249029    1.389    0.280
        56 -12.1941    234.8311    101.9612   2.0728858466e+01   1.3230492849e+01    0.5308178     0.438905  68.92  0.003012698    1.518    0.341
        57 -12.7611    234.5122     93.7365   1.8866066292e+01   1.4584611113e+01    0.6583297    0.4542174 -25.58  0.003587282    1.389    0.280
        58 -10.2227      4.1507     97.7232   8.3407003593e+01   5.5917360213e+01    0.3478533    0.1552338 -73.25  0.001588997    1.784    0.439
        59  -9.9671     24.7229     97.4475   7.5415677882e+01   5.4550929825e+01     0.243316    0.1842226  52.93 0.0009886808    1.450    0.310
        60  -9.7186     54.0349     96.9579   6.3968674608e+01   5.1427989908e+01    0.2478107    0.1680087 -34.58  0.001134117    1.692    0.409
        61 -11.3596     22.9984     87.4682   7.4300389619e+01   5.7331231275e+01    0.6472997    0.3462218 -73.12  0.002983753    1.692    0.409
        62 -12.9315     10.8736     79.7398   7.8070196178e+01   6.0219803800e+01     1.229339    0.5550991 -77.15  0.004377043    2.042    0.510
        63 -11.2648      2.0081     78.5654   8.1762597445e+01   6.1001604867e+01    0.7135864    0.1698472 -71.79  0.002507188    3.124    0.680
        64 -12.3082    221.4006     87.7801   1.9169780283e+01   1.8106915435e+01    0.3822777    0.3367766  82.73   0.00228728    1.316    0.240
        65 -11.4290    127.8350     86.4966   3.6706341218e+01   3.9765595497e+01    0.7370045     0.364466 -59.22  0.002365333    2.987    0.665
        66 -11.0713     51.5358     80.9864   6.0816403497e+01   5.5872418383e+01    0.2921312    0.2513472 -40.14  0.001586908    1.126    0.112
        67 -12.2096     24.7378     69.3869   6.9538469727e+01   6.1821320141e+01     0.774798    0.5826333  89.88  0.004152234    1.520    0.342
        68 -13.0488    101.7558     67.0345   3.7659437805e+01   4.9834149340e+01     1.046974    0.8153019 -56.04  0.005005988    1.356    0.262
        69 -11.3548    173.9538    244.6059   5.8818711768e+01   3.2199894178e-01    0.2748028    0.2280262  59.24  0.001883223    1.808    0.447
        70 -11.9115     42.0615     67.5303   6.0942971348e+01   6.0430807075e+01    0.5389054    0.4307886 -48.18  0.002927063    1.111    0.100
        71 -11.9958      3.8976     63.8457   7.8396006603e+01   6.4634061036e+01     0.645946    0.4871269  89.54  0.003842413    1.369    0.270
        72 -11.0644      1.7187    186.0733   9.0471560057e+01   3.3780939924e+01    0.2808906    0.1426996 -84.09 0.0007629555    1.690    0.408
        73 -12.3323     39.9010     53.3871   5.7171727335e+01   6.4003722456e+01    0.6932386    0.5929317  84.10  0.002605282    1.530    0.346
        74 -10.7218     13.6069     47.7869   6.9273000895e+01   6.7934143681e+01    0.2798169    0.2110785 -44.68  0.001676719    1.112    0.100
        75 -12.2796    241.6436     47.6777   7.3345496214e+00   1.9916129006e+01     0.437773    0.2363589  55.62  0.001702702    2.291    0.564
        76 -10.0193    191.9770     45.5141   1.1945458225e+01   3.1181286666e+01    0.2103468    0.1373891  70.24  0.001034479    1.597    0.374
        77 -10.5597     54.2796     48.3424   4.8293379347e+01   6.2995332677e+01    0.3207463    0.2258341 -13.75   0.00155968    1.712    0.416
        78 -11.8016    222.4007     41.1421   7.5008211495e+00   2.4801666870e+01    0.3889599    0.3163278 -83.94  0.002316006    1.243    0.196
        79 -12.2527    219.7076     35.3182   6.2971961363e+00   2.6151776536e+01    0.3767976    0.3483248 -28.44  0.001633644    1.268    0.211
        80 -10.8389      2.1672     27.6623   6.9653189370e+01   7.3169884567e+01    0.4316518    0.1826323 -56.71  0.002140346    1.853    0.460
        81 -11.6209     25.1160     36.6473   5.8501667317e+01   6.9378638396e+01    0.2348269    0.1740491 -57.36    0.0012245    1.390    0.280
        82 -11.1941     14.3699    216.7322   8.9051092818e+01   2.5928664114e+01      1.14906    0.3474665  62.82  0.004889315    3.057    0.673
        83 -11.7925     13.5850    202.8042   8.8572962216e+01   2.8974272880e+01     1.184486     0.565203  52.49  0.005287679    1.660    0.398
        84 -10.6851      5.2681    192.2372   8.9932764404e+01   3.2078629694e+01    0.4513929    0.3118267  40.14  0.002131393    1.405    0.288
        85  -9.9413      1.5114     17.0306   6.5679304115e+01   7.5415828732e+01    0.1892544    0.1007853 -55.24  0.001042015    1.618    0.382
        86 -12.5574     42.4054    236.8811   8.4367516399e+01   1.8951117716e+01    0.8739411    0.3094213  61.10  0.003829352    2.892    0.654
        87 -12.5200     29.9668    224.2807   8.6188660268e+01   2.2791573767e+01     1.071801    0.4231956  73.09   0.00494807    2.746    0.636
        88 -11.5926     25.2508    211.3592   8.6476068934e+01   2.5968581253e+01    0.7630197    0.2288598  62.39  0.002922993    3.574    0.720
