#   1 NUMBER                 Running object number                                     
#   2 MAG_AUTO               Kron-like elliptical aperture magnitude                    [mag]
#   3 X_IMAGE                Object position along x                                    [pixel]
#   4 Y_IMAGE                Object position along y                                    [pixel]
#   5 X_WORLD                Barycenter position along world x axis                     [deg]
#   6 Y_WORLD                Barycenter position along world y axis                     [deg]
#   7 A_WORLD                Profile RMS along major axis (world units)                 [deg]
#   8 B_WORLD                Profile RMS along minor axis (world units)                 [deg]
#   9 THETA_WORLD            Position angle (CCW/world-x)                               [deg]
#  10 FWHM_WORLD             FWHM assuming a gaussian core                              [deg]
#  11 ELONGATION             A_IMAGE/B_IMAGE                                           
#  12 ELLIPTICITY            1 - B_IMAGE/A_IMAGE                                       
         1 -14.2805     39.5455     58.2436   6.9476301244e+01   6.0581418448e+01     1.278512      1.12506 -34.93  0.008436921    1.259    0.206
         2 -13.9913     91.8132     37.1797   4.3245158416e+01   5.5459171859e+01    0.6677426    0.6392214  34.93   0.00421514    1.205    0.170
         3 -14.7663     48.5436     34.8047   5.7421547283e+01   6.3231637424e+01    0.9829681    0.6652138  19.99  0.005993744    1.314    0.239
         4 -15.9795     57.7596     13.0284   4.5027718755e+01   6.4438775469e+01     2.329494     1.357723  42.22   0.01380683    1.530    0.346
         5 -14.9732     89.6679      5.6000   3.2395031908e+01   5.9124534554e+01     1.377954    0.5579202  51.70  0.006561421    1.896    0.473
         6 -14.7206    110.9045      5.4603   2.7515883947e+01   5.4605992623e+01      1.20383    0.5311904  54.24  0.005170969    1.732    0.423
         7 -12.2798     57.6416    240.2457   9.6830780093e+01   1.6034125867e+01    0.3255811    0.2260715  83.67  0.001279506    1.339    0.253
         8 -14.6291    241.0390    236.3000   5.7765109614e+01  -1.2332013423e+01     1.109483    0.4689363 -25.36  0.004872062    2.723    0.633
         9 -15.0053    228.7260    241.4147   6.1001308204e+01  -1.1394449331e+01     1.281068    0.6889352 -33.21  0.006721438    1.808    0.447
        10 -14.4680    218.6969    234.0193   6.1644371458e+01  -8.8067403094e+00     1.046215    0.7006288 -13.44  0.005825013    1.513    0.339
        11 -16.9638     24.8598    238.4215   1.0308638690e+02   2.0536519607e+01      1.92124     1.090978  77.96   0.01123798    1.552    0.356
        12 -17.3123      7.1475    240.1747   1.0644432132e+02   2.2096560014e+01     1.702919    0.7848097 -89.87  0.009477599    1.900    0.474
        13 -15.7621     24.9887    215.6208   1.0130995112e+02   2.5486423750e+01     1.274017     0.675517  88.67  0.006522181    1.767    0.434
        14 -13.2424    130.0970    228.8410   7.9753607946e+01   7.0103143045e+00     0.300731    0.2106455 -48.15  0.001550521    1.597    0.374
        15 -12.8879    151.6693    223.7950   7.4087191983e+01   4.2238565599e+00    0.4811126    0.2864009 -56.73  0.002212969    2.003    0.501
        16 -13.2388    142.6065    223.7985   7.6133475356e+01   5.8390671381e+00    0.4560497    0.3828152 -81.76  0.002302267    1.452    0.311
        17 -14.2284    167.8799    218.4296   6.9529020250e+01   2.3846358517e+00    0.7650446    0.6917827  -3.49  0.004410677    1.111    0.100
        18 -13.5269    239.3825    216.6337   5.4469171583e+01  -9.0766065903e+00    0.5382038    0.4201235 -37.37  0.003300861    1.370    0.270
        19 -12.7920    129.7064    222.5463   7.8869779879e+01   8.3885590997e+00    0.3434924    0.2535094  11.80   0.00168351    1.755    0.430
        20 -12.8669    109.1376    217.7267   8.2873401838e+01   1.3013478410e+01    0.3460981     0.238333  -4.32  0.001463117    2.691    0.628
        21 -16.5958      8.2693    207.2662   1.0406589177e+02   2.9086909253e+01     1.782977    0.7955517 -87.52  0.008901699    2.028    0.507
        22 -13.6034     41.1861    210.2014   9.7385312238e+01   2.4845819229e+01    0.9475595    0.4124562  77.88  0.003524175    3.478    0.712
        23 -14.5451     44.4202    202.9361   9.5915143445e+01   2.6151226491e+01     1.011703    0.5764119  75.07  0.003915108    1.889    0.471
        24 -13.8529    111.0811    193.4106   7.8526573968e+01   1.8284652160e+01     0.586659    0.4755717 -50.33  0.002184505    1.295    0.228
        25 -14.1159    247.1634    200.0811   4.9887377068e+01  -7.5034802789e+00    0.7857248     0.495406 -38.46  0.004319986    1.455    0.313
        26 -13.4436    169.8331    207.1900   6.7033790231e+01   4.2749195749e+00    0.7166768    0.5383187 -79.19  0.003355487    2.042    0.510
        27 -13.2242     67.3781    200.8011   9.0335749699e+01   2.3589664003e+01    0.6661587     0.384169  71.15  0.002966517    2.079    0.519
        28 -13.7141    120.8425    198.1862   7.6944708266e+01   1.5393392406e+01    0.4962672    0.3524419  88.52  0.002226286    1.882    0.469
        29 -13.7165    131.6284    196.6301   7.4038546631e+01   1.3753551663e+01    0.5923385    0.3360956 -59.34  0.002463756    1.973    0.493
        30 -13.4766     80.2080    192.8018   8.6112417223e+01   2.3611398312e+01    0.7003477    0.3926114 -70.45  0.003051043    1.861    0.463
        31 -11.3616     53.6081    229.8469   9.6667589003e+01   1.8815157976e+01    0.2582858    0.1165701 -75.03  0.001186335    2.258    0.557
        32 -14.3587    108.9176    200.2740   8.0210290538e+01   1.7042999462e+01     1.015199    0.3509348 -57.58  0.003445355    3.038    0.671
        33 -13.0686    144.0043    181.9400   6.8199970761e+01   1.4753226823e+01    0.6998565    0.3496035 -64.48  0.002316302    3.107    0.678
        34 -11.1720      9.1032    181.0426   1.0175168935e+02   3.5092161037e+01    0.2054719    0.1183675  66.71  0.001114248    1.728    0.421
        35 -12.9775    158.5350    176.9652   6.3655056967e+01   1.2978464852e+01    0.4438734    0.3712361  27.41  0.001804157    1.223    0.182
        36 -13.6124     23.8737    172.5064   9.7414828767e+01   3.5796682424e+01    0.4667949    0.4170484  79.07   0.00180047    1.129    0.114
        37 -13.5152    224.7827    169.9747   4.7932583902e+01   1.5258528389e+00    0.6762406    0.5767793 -52.66  0.003803432    1.283    0.221
        38 -14.5396    158.5916    159.0306   5.9742531912e+01   1.7056140624e+01    0.8042666    0.6980277  -1.52  0.003927125    1.308    0.235
        39 -14.7170    154.4825    166.5125   6.2397262558e+01   1.6196536408e+01     1.128553     0.766966  63.41  0.004682668    1.902    0.474
        40 -14.8961    138.9407    164.2445   6.5775602406e+01   1.9937343466e+01     1.150939    0.9781837  -6.09  0.005520949    1.396    0.283
        41 -14.9595     38.3055    157.2601   9.1769409054e+01   3.8104174656e+01     1.605571    0.7469011 -81.64   0.00633758    2.616    0.618
        42 -14.7990     48.4187    156.6990   8.8929293214e+01   3.7092254458e+01     1.261722    0.8814126 -80.68  0.006287172    1.410    0.291
        43 -15.7156     56.7651    146.6263   8.4903530510e+01   3.8608107001e+01     1.897501     1.365219  82.79  0.009382971    1.644    0.392
        44 -15.4662     69.3814    138.5250   7.9656133214e+01   3.8930327629e+01     1.688446     1.224229 -77.11  0.007361271    1.527    0.345
        45 -15.5369     31.3344    143.0802   9.1621648370e+01   4.2367278274e+01     1.646016    0.9609008 -58.93   0.00632438    1.440    0.306
        46 -14.4875     23.9338    129.1710   9.1629368908e+01   4.6468774773e+01     1.132217    0.6947737  78.63  0.005252607    2.155    0.536
        47 -15.2671     81.1205    142.5150   7.7000769491e+01   3.6135271202e+01     1.940144    0.9084599 -55.71  0.007545606    1.999    0.500
        48 -14.5305    192.4587    144.7438   4.8806651436e+01   1.2965934073e+01     1.310289     1.125047 -10.33  0.006641511    1.306    0.235
        49 -15.1205    221.2725    140.3214   4.2200657689e+01   7.9352114996e+00     1.583688     1.156078  88.86   0.00739281    2.064    0.516
        50 -16.0965    241.0604    129.1644   3.6453934159e+01   6.2420668841e+00     2.502992     1.232167 -53.25    0.0106566    2.146    0.534
        51 -15.8035    234.4234     75.7450   2.6061556561e+01   1.6963928172e+01       1.5761    0.5105752 -42.45  0.006101043    2.693    0.629
        52 -12.9071     92.5860    140.7695   7.3276662967e+01   3.4659326875e+01    0.3182052    0.2858886 -42.48  0.001651836    1.105    0.095
        53 -12.7561    162.9224    124.5322   5.0487518973e+01   2.3871095553e+01    0.6344955    0.2585467 -50.68  0.002056343    2.705    0.630
        54 -13.7892     98.4246    122.9440   6.7380592675e+01   3.7979546935e+01    0.7875783    0.6307092  70.16  0.003740836    1.546    0.353
        55 -12.9390     72.5028     83.5007   6.5011331691e+01   5.1242300328e+01    0.4235041    0.3008253 -32.99  0.001887757    1.348    0.258
        56 -14.1737     83.5595     77.5607   5.9457117156e+01   5.0563799554e+01    0.8484393    0.6280248 -28.35  0.004402261    1.340    0.254
        57 -14.0403     55.3189     57.4064   6.2974381932e+01   5.8729045093e+01     1.108976    0.8460709  10.59  0.006423492    1.222    0.181
        58 -12.3958    203.4504    247.6626   6.7060015657e+01  -8.6498475999e+00    0.3543208    0.2510774 -44.91  0.002055712    1.724    0.420
        59 -14.3466     96.0068     50.6889   4.6687968909e+01   5.2764997792e+01     1.092103    0.6355444  43.15  0.004824276    1.566    0.362
        60 -13.5153    247.5516     51.8400   1.9717600631e+01   1.7925768616e+01     0.352017     0.281463  51.65  0.002231384    1.678    0.404
        61 -13.8754    104.7653    236.6609   8.6481667927e+01   9.6791673804e+00    0.3922092    0.3803132   4.11  0.002062373    1.258    0.205
        62 -13.9167    111.9065    241.0708   8.5504553064e+01   7.6076171293e+00    0.6048797    0.3915201 -81.05  0.003015891    2.027    0.507
        63 -13.9748    107.6920    240.7092   8.6368866665e+01   8.3719384705e+00    0.4368745    0.4213026  14.07  0.002273408    1.244    0.196
        64 -13.2085    127.9668    239.7610   8.1831353720e+01   5.1822375544e+00     0.506839    0.4057049  79.53   0.00278581    1.474    0.321
