#   1 NUMBER                 Running object number                                     
#   2 MAG_AUTO               Kron-like elliptical aperture magnitude                    [mag]
#   3 X_IMAGE                Object position along x                                    [pixel]
#   4 Y_IMAGE                Object position along y                                    [pixel]
#   5 X_WORLD                Barycenter position along world x axis                     [deg]
#   6 Y_WORLD                Barycenter position along world y axis                     [deg]
#   7 A_WORLD                Profile RMS along major axis (world units)                 [deg]
#   8 B_WORLD                Profile RMS along minor axis (world units)                 [deg]
#   9 THETA_WORLD            Position angle (CCW/world-x)                               [deg]
#  10 FWHM_WORLD             FWHM assuming a gaussian core                              [deg]
#  11 ELONGATION             A_IMAGE/B_IMAGE                                           
#  12 ELLIPTICITY            1 - B_IMAGE/A_IMAGE                                       
         1 -13.8639    156.7088     33.8328   7.2702747523e+01   4.1803968848e+01     1.324486     1.062492 -10.56  0.007491032    1.538    0.350
         2  -9.4803    116.1859     12.6028   7.4100711670e+01   5.3418981320e+01    0.2805951    0.1942469  43.72  0.001281381    1.247    0.198
         3 -11.2660    120.2617      9.1531   7.2111449086e+01   5.2837310506e+01    0.4447792    0.3360811  44.57  0.001454744    1.143    0.125
         4 -11.2177    173.9263      8.3490   6.3157726670e+01   4.0461376419e+01    0.3061972    0.2287216  18.32  0.001123559    1.884    0.469
         5 -11.3195    171.1363      2.1562   6.1931917953e+01   4.1699346340e+01     0.431254    0.2806869  77.89  0.001173173    1.328    0.247
         6 -11.8212    143.5386      6.9985   6.7206606833e+01   4.7747987566e+01    0.4487474    0.2468014  60.47  0.002368381    1.491    0.329
         7 -10.9766    134.6573      7.7786   6.8949825332e+01   4.9724728736e+01    0.2968778    0.1985699   4.81  0.001644398    1.960    0.490
         8 -10.6861    176.0210    217.5853   1.1281108807e+02   2.1603572321e+00    0.3127117    0.2249075 -43.02 0.0005089678    1.515    0.340
         9 -13.0359    247.7821    237.1109   1.0236682127e+02  -1.2759284637e+01     1.353814    0.5753333 -31.32 0.0009467721    2.367    0.577
        10 -19.1660     95.1701    203.2887   1.2806018110e+02   1.9642556063e+01     6.479355     5.878987  71.63   0.01887299    1.074    0.069
        11  -9.3241      5.8664    214.8602   1.4734462906e+02   2.8621325660e+01    0.2982705    0.1339326 -89.74 0.0005148749    1.903    0.475
        12  -8.6995    204.1865    160.9072   9.5748421825e+01   7.7054729683e+00    0.2255929    0.2050038 -84.56 0.0007161492    1.278    0.217
        13 -10.2039      5.9808    209.4930   1.4696495016e+02   2.9738740504e+01    0.2665435     0.208662 -40.05  0.001835423    2.057    0.514
        14  -9.7108    240.8920    127.0173   8.1575364108e+01   6.7445176147e+00    0.2140894    0.2028657  68.21  0.001277934    1.166    0.143
        15  -8.9752     19.1780    189.0388   1.4280144351e+02   3.2928980621e+01     0.174009    0.1344726 -70.70 0.0003863743    1.253    0.202
        16 -11.8932     23.8661    175.3290   1.4048220146e+02   3.5591718493e+01    0.6543854    0.3386908 -78.01  0.002677225    1.631    0.387
        17 -10.4532    168.0055    113.9148   9.2348661959e+01   2.5475308229e+01     0.426664    0.3141216 -82.23  0.001391867    1.810    0.447
        18  -9.3946     42.9881    114.8702   1.2683137016e+02   4.7910066900e+01    0.1950879    0.1689197 -59.64 0.0003486472    1.026    0.025
        19 -11.6931     84.2597    107.4805   1.1273587565e+02   4.4114140161e+01    0.6974692    0.4224977  33.65  0.003235778    1.796    0.443
        20 -10.6015     56.8370    113.0986   1.2231304782e+02   4.6735557588e+01    0.2738565    0.2435778  55.29 0.0008450958    1.284    0.221
        21 -12.4109     64.3368    108.0881   1.1891696216e+02   4.6920003396e+01    0.9240172    0.6151969 -11.95  0.002878764    2.160    0.537
        22 -11.5290     73.8755    107.2026   1.1579715736e+02   4.5780042843e+01    0.5998607    0.3983433  19.32   0.00156939    1.863    0.463
        23 -10.6030     77.0281    102.7351   1.1373154397e+02   4.6309452236e+01    0.4088778    0.3272128  61.40  0.001936971    1.538    0.350
        24 -11.1802    192.0600    152.9545   9.6477212620e+01   1.1862506160e+01    0.6500609    0.3227803 -53.12  0.002050676    2.309    0.567
        25 -10.8853     62.9548    101.2451   1.1772742187e+02   4.8644183170e+01    0.7585364    0.2552612  25.62  0.002446328    4.539    0.780
        26  -9.7351     83.0894    100.0596   1.1119307864e+02   4.5949821933e+01    0.3551676    0.2035179  45.16  0.001600364    1.943    0.485
        27 -11.3750    174.1204    150.6335   9.9826308356e+01   1.6229229705e+01    0.6579968    0.2871347  47.56  0.002355172    2.328    0.570
        28 -11.1668    204.1978    175.1450   9.8789720572e+01   4.8949428746e+00    0.5407053    0.3453923 -69.67   0.00213801    2.778    0.640
        29  -9.7454     87.8356     95.0334   1.0840761324e+02   4.6252291633e+01     0.299185    0.2062486  40.19 0.0007120353    1.531    0.347
        30  -8.8166    108.1120     93.8905   1.0211231218e+02   4.2797827563e+01    0.2092028    0.1983906 -88.65  0.001153526    1.173    0.148
        31 -10.1127    222.3133    145.2771   8.8810916051e+01   7.0614823388e+00    0.2412611    0.2279897 -67.41 0.0002843137    1.126    0.112
        32  -8.1684    103.6284     84.2471   1.0063770955e+02   4.5614864069e+01    0.1409769    0.1146437  74.97 0.0003522801    1.628    0.386
        33  -8.6184    180.2937     81.6846   8.1409478474e+01   2.8791589306e+01    0.1918349    0.1717693  25.49  0.000551782    1.313    0.238
        34  -9.3935     17.8383     78.5696   1.2733401963e+02   5.8095785298e+01    0.3408624    0.1629212 -16.54  0.001572433    3.094    0.677
        35 -10.6883    186.1562    144.7666   9.5861993962e+01   1.4850941063e+01    0.3932376    0.2805086 -84.46  0.001638665    2.114    0.527
        36 -13.3037    149.4076     57.7380   8.1051457713e+01   4.0249171814e+01     1.148211       1.0971 -25.05  0.005523621    1.127    0.112
        37 -12.0911    152.2454     50.3463   7.8309796232e+01   4.0672259523e+01    0.5908498    0.5039232  66.98 0.0006665192    1.118    0.105
        38  -9.3852    240.7670     67.3985   6.8520968114e+01   1.7089583233e+01    0.1769433    0.1211246  56.46 0.0005504099    1.611    0.379
        39  -8.5909    122.2960     66.0428   8.9965354732e+01   4.5114992939e+01    0.1922465    0.1799076 -25.39 0.0002866423    1.096    0.087
        40 -10.2724    236.2666     71.3127   6.9949052365e+01   1.7447481506e+01    0.2403418    0.2200214 -67.41 0.0003220706    1.106    0.096
        41 -10.5386    133.9712     43.4476   8.0121653529e+01   4.5929392844e+01     0.240151    0.2220123 -16.65  0.001436212    1.170    0.145
        42 -10.6714    141.8997     41.8732   7.7929210193e+01   4.4299067205e+01    0.2651849    0.1902784  48.07 0.0004911032    1.288    0.223
        43 -12.6450    140.5775     72.1630   8.7264662515e+01   3.9962319731e+01     1.293102     0.772042  36.09   0.00462093    1.910    0.477
        44 -11.1192    238.1764    175.1923   9.2307117980e+01  -1.4939026422e+00    0.4919065    0.1950254  39.38  0.001947832    2.751    0.637
        45  -9.1185    229.0329     22.9831   6.0331654599e+01   2.5977013993e+01    0.2396894    0.1633198 -43.17 0.0008615017    1.484    0.326
        46 -10.1690     11.5826    172.4173   1.4287859566e+02   3.7400698788e+01    0.3152197     0.157665 -63.04   0.00104089    1.692    0.409
        47 -11.3775     11.1905    207.0305   1.4582738823e+02   2.9761507017e+01     0.515099    0.3508398  45.19  0.002256424    1.564    0.360
        48 -11.3016    188.3057    153.9577   9.7493043787e+01   1.2456720570e+01    0.5782733    0.3932786  36.40  0.002615005    1.575    0.365
        49  -9.0753    169.8286    236.3023   1.1717084835e+02  -7.4395786763e-02    0.2461522    0.1835006 -29.49  0.000605266    1.605    0.377
        50  -8.7343    171.4919    232.1462   1.1617438506e+02   3.5618676775e-01    0.1644807    0.1564005 -19.53 0.0003108713    1.166    0.143
        51 -11.2233    230.9305    169.8366   9.2514062678e+01   7.7724195873e-01    0.5343618    0.2819018 -38.44  0.002403059    1.776    0.437
