#   1 NUMBER                 Running object number                                     
#   2 MAG_AUTO               Kron-like elliptical aperture magnitude                    [mag]
#   3 X_IMAGE                Object position along x                                    [pixel]
#   4 Y_IMAGE                Object position along y                                    [pixel]
#   5 X_WORLD                Barycenter position along world x axis                     [deg]
#   6 Y_WORLD                Barycenter position along world y axis                     [deg]
#   7 A_WORLD                Profile RMS along major axis (world units)                 [deg]
#   8 B_WORLD                Profile RMS along minor axis (world units)                 [deg]
#   9 THETA_WORLD            Position angle (CCW/world-x)                               [deg]
#  10 FWHM_WORLD             FWHM assuming a gaussian core                              [deg]
#  11 ELONGATION             A_IMAGE/B_IMAGE                                           
#  12 ELLIPTICITY            1 - B_IMAGE/A_IMAGE                                       
         1 -13.0386    161.2901     50.0741   4.4361436125e+01   3.8437323505e+01     1.677186    0.9879435 -31.53  0.008123701    1.895    0.472
         2 -12.6328    168.6002     49.7197   4.3086091811e+01   3.6778275540e+01     1.050111    0.8836287 -24.15  0.004713731    1.425    0.298
         3 -11.7755    172.9262     32.0392   3.7910557236e+01   3.8075819088e+01    0.7072146    0.5025066  87.00  0.004071339    1.322    0.243
         4  -8.3718    120.0122      8.7096   3.9242409324e+01   5.2804108962e+01    0.1856921    0.1411682  64.72 0.0004579876    1.104    0.095
         5  -9.1023    202.7207      3.9895   2.8365973395e+01   3.4516918227e+01     0.352786    0.2175114  24.42  0.001687663    3.996    0.750
         6  -9.4762    170.2836    243.0602   8.5342946566e+01  -1.0994470230e+00    0.3916104    0.2125807 -40.54  0.001993669    1.940    0.485
         7 -14.0757    118.0901    220.9720   9.3624347680e+01   1.1085635410e+01     1.785905     0.642603 -45.60  0.005089981    3.184    0.686
         8 -15.0981    100.3520    200.6186   9.4887315340e+01   1.8479110536e+01     2.527813    0.8513798 -67.69  0.006706409    5.447    0.816
         9 -14.8877     71.1130    183.8311   9.9995487001e+01   2.7008682607e+01     1.179107     0.504199  42.89  0.003608853    2.292    0.564
        10 -14.9500     82.4499    185.0381   9.7134599220e+01   2.5054023632e+01     1.305411    0.7915864 -16.44   0.00465856    3.198    0.687
        11 -19.1772     68.7918    216.8385   1.0485170843e+02   1.9279352461e+01     5.075977     4.595801  79.58   0.02958105    1.053    0.050
        12 -10.4870    163.6415    205.2198   8.0458524025e+01   7.0238373309e+00    0.4991534    0.2936867 -46.48  0.002065824    1.729    0.422
        13 -16.1095     93.3893    227.6326   1.0033641691e+02   1.3380768964e+01     1.276346    0.6098017 -54.96    0.0057268    2.219    0.549
        14  -9.1237    204.4471    199.9676   7.0878999027e+01   1.5496521739e+00    0.2118716    0.1731915  16.73 0.0008383431    1.205    0.170
        15  -9.2112      4.6009    195.8171   1.1814362566e+02   3.1407020624e+01    0.3537827    0.1738159 -79.26   0.00146877    1.736    0.424
        16  -9.9149    157.1752    193.8872   7.9839945817e+01   1.0473811760e+01    0.4032712    0.2525381  28.59   0.00184818    1.640    0.390
        17  -8.7407    164.5433    181.3947   7.5724396266e+01   1.1862651211e+01    0.2854311    0.2369557  38.28  0.001495055    1.244    0.196
        18  -8.9226    167.0994    175.0222   7.3854289643e+01   1.2775137183e+01    0.2629626     0.193162 -47.97 0.0006927987    1.354    0.262
        19 -12.0108    238.2030    166.9688   5.8391693614e+01   2.3903782435e+00     1.210741    0.9971706  16.43   0.00761208    1.363    0.266
        20  -8.4570    163.0284    238.8993   8.6235409265e+01   6.7776007332e-01    0.2112799    0.1444576  -2.44 0.0009406773    1.689    0.408
        21  -9.5826    155.3313    167.2806   7.4968798189e+01   1.6658855713e+01    0.2710132    0.2540026 -70.86 0.0005124566    1.180    0.153
        22 -10.7214    173.0332    232.4085   8.3073905359e+01   3.6775574397e-01    0.3691682    0.2781785  28.76  0.001434351    1.231    0.187
        23  -8.1462    142.9976    161.9997   7.6841140323e+01   2.0208395308e+01     0.209306    0.1853558  73.50            0    1.311    0.237
        24 -10.0369    138.1801    158.3781   7.7271564614e+01   2.1980209747e+01    0.6361325    0.3926317 -89.42  0.001920442    4.228    0.763
        25  -9.2386    166.8239    159.1273   7.0559077088e+01   1.6283618777e+01    0.2928609    0.2247653 -70.08 0.0009419628    1.658    0.397
        26  -8.1192    150.4769    158.4767   7.4244746039e+01   1.9582678319e+01    0.2260669    0.1467668  50.40 7.049339e-05    1.711    0.416
        27  -8.6629    147.5303    156.1648   7.4456238023e+01   2.0685715308e+01    0.3453179    0.2341027  38.93 0.0009107154    1.514    0.340
        28  -9.8431    157.6851    156.6279   7.2120002100e+01   1.8602279738e+01    0.6199197    0.4141332 -81.13  0.002347116    2.733    0.634
        29  -9.0242    143.5131    231.8930   8.9425514369e+01   4.9094436627e+00    0.4353635    0.2885085 -81.74  0.001500406    2.829    0.647
        30  -9.2406      9.5195    152.4798   1.1320419286e+02   4.1839173931e+01    0.2334386    0.1857985  76.98 0.0009322309    1.217    0.178
        31  -9.2432      5.4628    152.4590   1.1435256032e+02   4.2133741239e+01    0.3068767     0.216832 -86.12  0.001072362    1.234    0.189
        32 -10.2152      2.1039    151.0459   1.1516204163e+02   4.2719175527e+01    0.5188182    0.1744098 -68.11  0.001495117    2.271    0.560
        33  -8.2749      2.3845    143.8051   1.1436672748e+02   4.4541958527e+01    0.3516936    0.1285812 -40.04  0.001332555    3.464    0.711
        34 -10.2503    142.1981    147.9952   7.3952574088e+01   2.3628779752e+01    0.5053542    0.4146992  57.98  0.001697263    1.355    0.262
        35  -9.7193     21.2844    146.7092   1.0909199613e+02   4.2400071157e+01    0.4607431    0.2715261  -3.45  0.002135274    2.442    0.590
        36 -11.1371    193.8008    231.2722   7.8590252863e+01  -2.4183516776e+00    0.4363445    0.3489748  48.85  0.002003617    1.701    0.412
        37  -9.2728    202.0689    230.5691   7.6822899880e+01  -3.4434246673e+00    0.2032736    0.1705977 -42.36 0.0003642602    1.441    0.306
        38  -9.7326    149.2921    147.2357   7.2025128856e+01   2.2388052600e+01    0.5204104    0.2642968 -59.14  0.001835842    2.536    0.606
        39  -8.8713    161.7926    140.7841   6.7583787061e+01   2.1309768496e+01    0.3567658    0.1746211 -42.01  0.001361211    1.982    0.495
        40 -10.8076     26.2250    139.3862   1.0658776455e+02   4.3876047567e+01    0.5186697    0.4015517  31.01  0.001472939    1.448    0.309
        41 -10.7535    130.5968    136.0111   7.4151314889e+01   2.8767301266e+01    0.6143841    0.4060681  88.48  0.002193038    2.869    0.652
        42  -9.9418      2.8921    132.5679   1.1299927023e+02   4.7367911093e+01    0.6168885    0.2321363 -80.59  0.002451707    2.605    0.616
        43 -12.7728    179.5151    223.8901   8.0285135620e+01   9.4115735728e-01     1.168561    0.8927191  36.66  0.006712321    1.361    0.265
        44  -9.7564     49.8512    135.8905   9.8468820750e+01   4.2321459144e+01    0.3075456    0.2728972  55.50  0.001061128    1.219    0.180
        45 -11.8931     48.1744    127.6215   9.7474228217e+01   4.4671697320e+01    0.8633993    0.5989608 -55.20  0.004308548    1.291    0.226
        46  -9.6559    157.9271    134.3244   6.6957606259e+01   2.3525568406e+01    0.4788373    0.2221873 -48.53  0.001662489    2.120    0.528
        47 -10.5953     34.9787    136.5214   1.0337462403e+02   4.3794086969e+01    0.6214975    0.2771677 -58.33  0.002622818    1.886    0.470
        48  -8.3250    153.6452    131.2904   6.7234229675e+01   2.5087435397e+01    0.1578726     0.124193  87.20 0.0007027531    1.680    0.405
        49 -11.5836    150.9460    219.2012   8.5739558187e+01   6.2528226959e+00      1.74128    0.9368329  36.69  0.008016189    1.741    0.426
        50 -10.8522    122.2959    125.8803   7.3920088170e+01   3.2831450954e+01    0.5648401    0.4796992 -33.35  0.002317617    1.206    0.171
        51 -10.0531     40.6192    122.2546   9.9007717583e+01   4.6906865806e+01    0.3493235     0.162599 -52.62 0.0007712465    1.853    0.460
        52  -8.6619    109.2869    121.3821   7.6481726055e+01   3.6486959147e+01    0.2975189    0.1866389 -38.78 0.0008631023    1.662    0.398
        53 -10.6385     35.4704    117.2434   9.9839210406e+01   4.8720789342e+01    0.5150479    0.2889383 -27.08  0.002230379    2.242    0.554
        54 -10.2566    140.4939    203.5187   8.5498027878e+01   1.1232653353e+01    0.8718266    0.5826609 -79.37  0.003714298    2.467    0.595
        55  -9.8567    168.3051    113.7302   5.9644723694e+01   2.5691028627e+01    0.4166677    0.3027269 -75.39  0.001175853    1.792    0.442
        56 -10.5330    113.0572    110.6518   7.2590674559e+01   3.8226185486e+01    0.5247313    0.3633879  76.82  0.002097989    2.292    0.564
        57 -11.7465     63.7191    108.5461   8.7934284431e+01   4.7445366071e+01    0.7810848    0.4720351  37.05  0.003538016    1.747    0.428
        58 -11.4604     74.0922    107.8579   8.4164818302e+01   4.6033221426e+01      0.58626    0.4871253 -43.43  0.003044129    1.139    0.122
        59 -11.3184     82.6281    102.9890   7.9988621775e+01   4.5757741479e+01    0.5977508    0.4968487  27.42  0.002619442    1.237    0.192
        60 -10.8606     55.0664    110.2740   9.1409077402e+01   4.8211900052e+01    0.4953265    0.3179293  34.37  0.001872193    1.660    0.398
        61 -11.8697    182.3631    204.1375   7.6175567155e+01   4.2043111455e+00     1.490567    0.3311217 -48.58  0.003156085    5.202    0.808
        62  -7.6773    250.3203    120.6725   4.7441487464e+01   8.5319730616e+00    0.1296649   0.08684402 -63.29 0.0007047546    1.685    0.407
        63  -9.3168     49.9446    105.9397   9.2240291192e+01   4.9928820662e+01    0.2248634    0.1747338  71.17  0.000738306    1.698    0.411
        64 -10.0074    180.9720    243.2064   8.3147901633e+01  -2.6299462710e+00    0.2816032    0.1833718 -39.60  0.001392536    1.610    0.379
        65  -9.6116     58.2818    101.7561   8.8179691112e+01   4.9849730303e+01    0.2677631    0.2240186  87.88  0.001078279    1.516    0.341
        66 -11.0413    179.8292    182.3315   7.2525431666e+01   8.9753421180e+00     0.973142    0.3777253 -45.12  0.003604009    2.466    0.594
        67  -8.7035    145.3539     85.9908   5.7409615908e+01   3.6280392130e+01    0.2111199    0.1895213 -43.98 0.0005338688    1.120    0.107
        68 -11.6996    151.6660     69.7697   5.1545833798e+01   3.7680166907e+01     1.347952    0.7753038 -27.65  0.005808562    2.143    0.533
        69  -9.2624    122.6783    247.2642   9.6216495160e+01   5.0770365994e+00    0.1875598    0.1472092  37.47 0.0003120398    1.119    0.107
        70  -9.2390     21.2542    244.1785   1.1767773562e+02   1.8901213082e+01    0.3586554     0.168639  58.15   0.00167643    1.842    0.457
        71  -8.2126    221.4751     45.9743   3.5524855930e+01   2.5636043951e+01    0.1770603    0.1453838 -82.60 0.0003987516    1.097    0.089
        72  -8.5355     21.5020     41.5062   8.5479641367e+01   6.6802029845e+01    0.1254939   0.09971547 -16.22 -2.489173e-05    1.010    0.009
        73  -8.0937    221.6891     40.0364   3.4263502743e+01   2.6384292261e+01    0.1730438    0.1303397 -58.95 0.0006305821    1.119    0.106
        74  -9.4677    144.1962     59.6874   5.0207417890e+01   4.1042529049e+01    0.2442067    0.2346644 -42.07 0.0006591846    1.116    0.104
        75 -10.2719    141.6662    210.0081   8.6335953151e+01   9.6460261117e+00    0.3615807    0.2788364 -76.36 0.0004745984    1.739    0.425
        76  -8.3475    245.3408     34.6818   3.1156240716e+01   2.2436646721e+01     0.126274   0.06637103 -65.61 0.0001805308    1.713    0.416
        77  -7.9500    162.3972     15.4850   3.5010685193e+01   4.2341273818e+01    0.1231626    0.1061315  82.94 0.0001325033    1.044    0.043
        78 -11.3198    167.8197    220.9543   8.2289832127e+01   3.2642432864e+00    0.6926303     0.488287 -53.52  0.003021858    1.670    0.401
