#   1 NUMBER                 Running object number                                     
#   2 MAG_AUTO               Kron-like elliptical aperture magnitude                    [mag]
#   3 X_IMAGE                Object position along x                                    [pixel]
#   4 Y_IMAGE                Object position along y                                    [pixel]
#   5 X_WORLD                Barycenter position along world x axis                     [deg]
#   6 Y_WORLD                Barycenter position along world y axis                     [deg]
#   7 A_WORLD                Profile RMS along major axis (world units)                 [deg]
#   8 B_WORLD                Profile RMS along minor axis (world units)                 [deg]
#   9 THETA_WORLD            Position angle (CCW/world-x)                               [deg]
#  10 FWHM_WORLD             FWHM assuming a gaussian core                              [deg]
#  11 ELONGATION             A_IMAGE/B_IMAGE                                           
#  12 ELLIPTICITY            1 - B_IMAGE/A_IMAGE                                       
         1 -13.5590    232.4317     10.9365   2.8221522241e+01   2.7496382424e+01     1.521775     0.436265 -31.42  0.006177784    4.360    0.771
         2 -13.8659    249.5215     60.5117   3.6311283518e+01   1.7885192731e+01     1.775668    0.4044667 -39.81  0.005392231    3.533    0.717
         3 -15.4336    179.7872     76.0391   4.8652849214e+01   2.9927567834e+01     6.122351     1.227422 -44.15  0.007003754    4.606    0.783
         4 -16.6509    233.6941     64.2275   3.8642582722e+01   2.0335377509e+01     11.92525     0.627861 -40.57    0.0227637    7.181    0.861
         5 -16.5587    235.3907     33.8738   3.2408120222e+01   2.4187186692e+01     9.014924     1.332646  61.77   0.02737369    5.545    0.820
         6 -14.8404    219.4561     63.3636   4.0065741616e+01   2.3315388024e+01     1.473984     1.074926 -37.03  0.006117243    1.433    0.302
         7 -13.4324    134.0849     18.3041   4.0599513012e+01   4.8533027578e+01    0.5684361     0.458786  75.41  0.002168527    1.106    0.096
         8 -10.6767    190.4700     14.7408   3.2438492842e+01   3.5885508199e+01    0.3273872     0.200247 -81.95  0.001782667    1.527    0.345
         9 -10.5941    214.0214      9.8863   2.9350011165e+01   3.1338104007e+01    0.1721368    0.1322371 -62.24  0.000300145    1.140    0.123
        10 -10.0245     81.6811     10.0601   4.8918138339e+01   6.1055125311e+01    0.1633677    0.1416139  29.46 0.0003847432    1.093    0.085
        11 -11.0032    159.4726     14.7722   3.5901439972e+01   4.2945698184e+01     0.246004    0.2005438 -52.19 0.0007140271    1.287    0.223
        12 -10.8384    243.4823      1.4109   2.5787720130e+01   2.6398489223e+01    0.1837291    0.0987286 -88.94 8.641172e-05    1.606    0.377
        13 -11.5532    246.2783      3.6669   2.6028124090e+01   2.5634385629e+01    0.2184941    0.1403721 -53.18 0.0004297981    1.275    0.216
        14 -12.0177    249.3852      2.2082   2.5598495849e+01   2.5213915319e+01    0.2561992    0.1422866 -58.03 0.0008574093    1.362    0.266
        15 -10.7964    217.6036      4.2332   2.7952152603e+01   3.1193403382e+01    0.1547501    0.1231979 -43.07 0.0007151135    1.417    0.294
        16 -10.4350    135.5074      2.9059   3.5825210280e+01   4.9604932605e+01     0.199727    0.1280528 -14.20  0.001002776    2.057    0.514
        17  -9.7760    138.7595      1.3536   3.4931435180e+01   4.8978756756e+01    0.2999948   0.09455276  67.57  0.001083126    2.504    0.601
        18 -10.1814    208.8766      3.0105   2.8336659324e+01   3.3127995182e+01    0.1590223    0.1236871 -71.66 0.0003141417    1.066    0.062
        19 -10.5628    183.4921    212.0046   7.7792180799e+01   2.4351313780e+00    0.3424519    0.1440479  23.57  0.001213524    3.352    0.702
        20 -11.9991    232.1828    208.0251   6.7647465211e+01  -3.9263799292e+00    0.3202192    0.2104332 -21.47  0.001267093    1.369    0.269
        21 -10.7896    243.0700    208.3384   6.5815639344e+01  -5.3834829225e+00    0.1699043    0.1425402  -3.73  0.001159249    1.133    0.118
        22 -11.7482    217.5333    122.1223   5.3086796716e+01   1.3775134947e+01    0.2976988    0.2287501 -54.57 0.0006720057    1.230    0.187
        23 -10.3026    171.6637    123.2934   6.1842099120e+01   2.2791681720e+01     0.152647    0.1188444 -84.52  0.000702659    1.644    0.392
        24 -10.7114    134.9942    120.9748   6.9851571947e+01   3.1131041105e+01    0.4239886    0.1748423 -46.31  0.001460784    2.384    0.581
        25 -11.9812    162.4966    120.4614   6.3141659517e+01   2.5339734036e+01    0.4911616     0.323151 -64.62  0.001729164    1.903    0.475
        26 -11.9355    167.2918    114.6042   6.0666888874e+01   2.5516322999e+01    0.5042077    0.4332237  -2.18  0.002571992    1.423    0.297
        27 -12.1977    198.3223     99.8359   5.1256343489e+01   2.1692175194e+01    0.4347992    0.3116018 -63.46  0.001403024    1.460    0.315
        28 -14.0249    205.2368    111.2552   5.2709598520e+01   1.8174796597e+01    0.8474936    0.6298625  38.31  0.003683496    1.624    0.384
        29 -13.0231    202.6432    104.9272   5.1708498749e+01   1.9866307324e+01    0.6287835    0.4411111  48.13  0.003248082    1.594    0.373
        30 -11.5714    134.7274    109.0741   6.6858054221e+01   3.3803292275e+01     1.116362    0.1937607 -45.58  0.002526725    5.744    0.826
        31 -12.1613    214.0598    117.1508   5.2568793758e+01   1.5349018320e+01     0.355359    0.2628107  67.72  0.001899182    1.614    0.380
        32 -10.0056    143.0403    104.9563   6.3709295104e+01   3.2847700376e+01    0.2403874    0.1912582   9.82 0.0007095929    1.653    0.395
        33 -10.5306    127.3014    104.5266   6.7578548385e+01   3.6388259620e+01    0.3757514    0.1803305 -55.05  0.001322365    2.517    0.603
        34 -11.6795    150.2906    100.6222   6.0864970065e+01   3.2114254757e+01    0.4614125    0.3448851 -10.29  0.001268571    1.889    0.471
        35 -10.7252    135.6561     97.2938   6.3466104821e+01   3.6063346946e+01    0.3161077    0.2439705  74.33 0.0008481617    1.555    0.357
        36 -13.0323    162.8104     94.0978   5.6440920071e+01   3.0560862777e+01     1.088002    0.5492543  35.54  0.003908376    2.941    0.660
        37 -10.9413    209.0725     95.2798   4.8506063692e+01   2.0269168135e+01    0.2630584    0.1794708 -52.47 0.0006127292    1.335    0.251
        38  -9.1468    113.6421     95.2481   6.8764768667e+01   4.1273058234e+01    0.1513882    0.1197958  76.06 0.0006945019    1.602    0.376
        39 -11.6958    215.0185     92.5162   4.7010555603e+01   1.9536610171e+01    0.2700205     0.176571  60.58  0.001379857    1.675    0.403
        40 -11.5671    143.8908     90.9071   5.9738990379e+01   3.5474760131e+01    0.3246469    0.2928586  88.63  0.001031877    1.163    0.140
        41 -12.8274    159.8327     85.1248   5.4708350117e+01   3.2908117216e+01    0.3898962    0.2928678 -31.17 0.0008258641    1.466    0.318
        42 -10.9900    154.2488     77.4218   5.3789623679e+01   3.5572984592e+01    0.4182477    0.1884513  44.30   0.00157751    2.478    0.597
        43 -10.1085    159.4705     76.0486   5.2368205561e+01   3.4598455833e+01    0.2202371    0.1871848  65.36  0.000364632    1.151    0.131
        44 -11.6607    225.3589    204.0536   6.8150559483e+01  -2.3468117143e+00    0.4556352    0.2451483 -19.92  0.002144777    2.193    0.544
        45 -10.6820    165.9431     67.6544   4.8921291069e+01   3.4492896904e+01    0.2972119    0.2079077 -21.42  0.001431309    1.868    0.465
        46 -11.2707    211.1172    131.4056   5.6158889910e+01   1.3250990893e+01    0.3693847    0.1881587 -50.91    0.0014469    1.954    0.488
        47 -11.0368    249.7155    203.9914   6.3929325506e+01  -5.5348860338e+00    0.2322705    0.1901092 -29.06  0.001587721    1.201    0.168
        48 -10.4048    196.9027     63.5482   4.2996054978e+01   2.8095887907e+01     0.259025    0.1585277 -56.71 0.0007479812    1.584    0.369
        49 -12.2224    190.7727    150.7260   6.4144660029e+01   1.3299540701e+01    0.6429883    0.2921955 -58.73  0.002032159    3.815    0.738
        50 -10.5217    211.5350    150.9585   6.0250502265e+01   9.4522048939e+00    0.2298527    0.1245942 -41.92  0.001046792    1.639    0.390
        51 -11.0544    172.7448    150.2513   6.7810271690e+01   1.6875246459e+01    0.2745867    0.1836029 -46.87  0.000663156    1.438    0.305
        52 -10.9900    133.5791    144.8054   7.5926052953e+01   2.5924042581e+01    0.8600225    0.2048778 -54.14  0.001860779    6.252    0.840
        53 -12.7089     67.8683    144.6181   9.4756854487e+01   3.7543046836e+01     0.760355    0.4689933  60.14  0.002533986    2.059    0.514
        54  -9.6420    187.5996     32.2572   3.6813969520e+01   3.4513155925e+01    0.1453942    0.1217766 -36.19  0.000402342    1.377    0.274
        55 -10.1993    177.8806     28.9768   3.7198424701e+01   3.7123436140e+01    0.2294558    0.1619328 -49.02 0.0005220209    1.397    0.284
        56  -9.7484    175.4342     25.4861   3.6638851304e+01   3.8093735202e+01    0.1289734    0.1073328 -83.89 4.474077e-05    1.043    0.041
        57 -10.1863    159.6092     27.7666   3.9327290486e+01   4.1511151928e+01    0.1793348    0.1109738 -47.36 0.0006166612    1.664    0.399
        58  -9.0103     93.3145     25.3070   5.1616464563e+01   5.7059688540e+01    0.1354653   0.08836155  29.43 0.0003921206    1.625    0.385
        59 -10.7842     47.0249    202.9805   1.0883141749e+02   2.5390413395e+01    0.2832898    0.1891225  -8.01  0.001316519    2.562    0.610
        60 -12.3629    241.9060    199.8404   6.4483289990e+01  -3.8832497210e+00    0.5138962    0.3825132  69.81  0.002658288    3.126    0.680
        61  -9.4265     86.3114    146.2514   8.9492668749e+01   3.4282389241e+01    0.1486006    0.1191614 -16.58  0.000250823    1.517    0.341
        62 -12.1423    234.4722    196.3463   6.5116741395e+01  -2.3157789414e+00     0.315418    0.2364576 -36.68  0.001391742    1.241    0.194
        63 -11.5080    192.4267    194.5967   7.2736508125e+01   4.2967725130e+00    0.9778571    0.4771083 -62.66  0.002614843    6.912    0.855
        64 -11.7468    161.0664    128.6080   6.5429853106e+01   2.3912519455e+01    0.4219337    0.4075127 -89.79  0.002290083    1.074    0.069
        65 -13.4227      2.5644    184.5444   1.1800020544e+02   3.4341410518e+01     0.860812    0.2865048 -78.25  0.003227376    2.580    0.612
        66 -11.3466    209.4850    187.1918   6.7939529946e+01   2.9626658466e+00    0.3946476    0.2722927 -73.33  0.001724861    3.005    0.667
        67 -10.3631    228.6982    186.9138   6.4360995580e+01   1.0289408357e-01    0.1837236    0.1429483 -31.60 0.0003715095    1.113    0.102
        68 -15.0939     33.5231    165.2960   1.0810369533e+02   3.6368315176e+01     2.311817     1.590296 -11.90  0.001465516    2.089    0.521
        69 -14.6314     44.4252    159.1816   1.0418995477e+02   3.6762551259e+01     1.584828     1.145773 -17.09  0.002639183    1.864    0.464
        70 -11.4055    241.6871    219.1409   6.7954199703e+01  -6.8789141608e+00    0.2989362    0.1883262  49.19   0.00160375    2.735    0.634
        71 -13.5164    200.0641     73.4606   4.4859111642e+01   2.5846520471e+01     1.099574     0.469898  40.74   0.00364795    4.576    0.781
