#   1 NUMBER                 Running object number                                     
#   2 MAG_AUTO               Kron-like elliptical aperture magnitude                    [mag]
#   3 X_IMAGE                Object position along x                                    [pixel]
#   4 Y_IMAGE                Object position along y                                    [pixel]
#   5 X_WORLD                Barycenter position along world x axis                     [deg]
#   6 Y_WORLD                Barycenter position along world y axis                     [deg]
#   7 A_WORLD                Profile RMS along major axis (world units)                 [deg]
#   8 B_WORLD                Profile RMS along minor axis (world units)                 [deg]
#   9 THETA_WORLD            Position angle (CCW/world-x)                               [deg]
#  10 FWHM_WORLD             FWHM assuming a gaussian core                              [deg]
#  11 ELONGATION             A_IMAGE/B_IMAGE                                           
#  12 ELLIPTICITY            1 - B_IMAGE/A_IMAGE                                       
         1 -10.1601     32.8258     31.4603   1.0022632255e+02   6.7986581847e+01    0.8348697   0.07369162 -55.71  0.001805137    8.370    0.881
         2 -11.1203    201.4486     28.8225   5.1876197265e+01   3.0830086709e+01    0.8318681    0.4553605 -20.13   0.00368233    1.768    0.434
         3 -10.7405    209.5117     21.2485   4.8724081216e+01   2.9651206186e+01    0.5869241    0.3198978  24.83  0.001352639    2.619    0.618
         4 -11.2518    217.4737     11.6820   4.5202345975e+01   2.8662136517e+01    0.6921535    0.6006223 -40.42  0.002975848    1.045    0.043
         5 -10.0819     32.6067     12.2441   9.1235798819e+01   7.1966653590e+01    0.2939913    0.1353386 -45.31  0.001376791    1.862    0.463
         6  -9.8925     32.7332      7.1142   8.8127441416e+01   7.2896265295e+01    0.3753181    0.1005849 -43.21  0.001353996    3.196    0.687
         7 -10.8046     21.5662      7.5412   9.5604507231e+01   7.4158432920e+01    0.4155746    0.1608983 -50.43  0.001862085    2.200    0.545
         8 -10.4529     86.0357    161.0510   1.1019200531e+02   3.1540223324e+01    0.4732222    0.3476168 -11.73   0.00227006    2.258    0.557
         9 -10.9108    144.5119    248.5065   1.0845617042e+02   9.8128740801e+00    0.3359476    0.2151545  10.57  0.002270913    2.106    0.525
        10 -11.0759     95.4226    241.8900   1.1626728432e+02   1.6763152408e+01    0.4033625    0.2454809 -38.51  0.002662548    2.837    0.648
        11 -11.8442     99.8454    248.3829   1.1599499188e+02   1.5367300749e+01    0.7920665    0.3175829  36.00   0.00477465    1.884    0.469
        12 -12.2706    127.1950    246.9599   1.1122901186e+02   1.2190833079e+01    0.6101861    0.4048884 -57.54   0.00466965    2.097    0.523
        13 -12.2792    115.3196    248.0263   1.1333773959e+02   1.3536542003e+01    0.8526861    0.3400669  38.54  0.005147152    1.785    0.440
        14 -11.6659    134.1341    246.5826   1.1001821341e+02   1.1359755033e+01    0.4345929    0.2709582 -56.75  0.003192812    2.276    0.561
        15 -12.5449     41.2687    213.1349   1.2419100606e+02   2.7244414704e+01    0.8327802    0.6463957 -35.72  0.005040418    2.163    0.538
        16 -14.3193     49.9750    201.8466   1.2185333273e+02   2.8266558789e+01       4.2528     1.382544  56.38    0.0200542    2.964    0.663
        17 -11.3622     68.0736    163.8961   1.1474214575e+02   3.3344103880e+01    0.3940579    0.2606079 -43.65  0.001305538    2.021    0.505
        18 -10.2818     70.4082    145.1806   1.1193939578e+02   3.6958127795e+01    0.3278446    0.2678121  61.19 0.0009775956    1.115    0.103
        19 -11.2126     66.0408    142.2053   1.1266938562e+02   3.8167057915e+01    0.4714884    0.3490838  63.91  0.001999445    1.281    0.219
        20  -8.8775    100.8144    145.1864   1.0432587405e+02   3.2574363260e+01    0.1763441    0.1601669  -4.44 0.0007199062    1.334    0.250
        21 -10.2204     88.8153    143.9465   1.0710915927e+02   3.4658312214e+01    0.2510755    0.2360279 -25.99 0.0004856357    1.276    0.217
        22 -10.5457     33.0000    127.0256   1.1976736643e+02   4.5260903664e+01    0.5457561    0.1061633 -70.38  0.001861164    4.102    0.756
        23 -10.1978     32.8748    118.8030   1.1892365108e+02   4.7176027320e+01    0.6308878   0.07551237 -68.97  0.001837729    5.372    0.814
        24  -9.2609     33.0000    108.0119   1.1759894486e+02   4.9711960448e+01    0.4950954      0.10302 -72.37  0.001537751    4.484    0.777
        25 -10.6774     58.6659    133.1211   1.1342838427e+02   4.1099311831e+01    0.4890314    0.1593554 -66.95  0.001926832    2.932    0.659
        26  -8.7782    110.9600    132.9757   9.9650048992e+01   3.3434703033e+01    0.2178073    0.1712206  -4.05  0.001131625    1.745    0.427
        27  -9.4811     98.2082    129.2342   1.0221548210e+02   3.6344566841e+01    0.2550946    0.2230616 -15.60 0.0007812005    1.410    0.291
        28 -13.2827     10.4107    206.6372   1.2966593097e+02   3.1234844594e+01     1.092182    0.7281078  38.10  0.006309157    1.412    0.292
        29 -11.3999     12.3231    107.9706   1.2397227325e+02   5.1391389053e+01    0.4793334    0.1799312 -83.12  0.002159044    2.351    0.575
        30  -7.9594    167.7216    112.3931   8.1803089216e+01   2.6436663340e+01    0.1446973    0.1141912 -68.23 0.0006996056    1.744    0.427
        31  -9.0429     32.8615     99.0541   1.1644094572e+02   5.1874253787e+01    0.5094988   0.09622285 -68.74   0.00160775    4.168    0.760
        32 -10.2887     33.0000     87.5563   1.1463632959e+02   5.4651899123e+01    0.9246242   0.06488003 -68.77  0.001673669   12.252    0.918
        33 -11.1992     95.4658    225.9897   1.1499468402e+02   1.9014048248e+01    0.3709691    0.1739866  49.65  0.002228123    1.772    0.436
        34 -15.6761      8.0132    242.5082   1.3106105641e+02   2.5711312229e+01     13.06431     2.633481 -83.29   0.03632035    5.177    0.807
        35 -11.6444     29.9972    237.7467   1.2729450474e+02   2.4443862105e+01    0.3353385    0.2584676  66.78 0.0004825005    1.179    0.152
        36  -9.7889     66.6229    183.8387   1.1703754491e+02   2.9636338782e+01    0.2820875     0.208915 -40.60  0.001247311    1.927    0.481
        37  -9.9977     33.0000     53.6108   1.0743045759e+02   6.2883290117e+01    0.6138402   0.06566257 -62.64  0.001342463    7.942    0.874
        38 -10.0741     71.5887    177.6845   1.1537514285e+02   3.0191227697e+01    0.2920448    0.2276884 -38.98  0.001085658    1.773    0.436
        39 -10.6957    193.9814     35.6196   5.4900929010e+01   3.1912655199e+01    0.3787191     0.323897  -4.37  0.001301694    1.190    0.160
        40 -10.8763    163.7431    242.9120   1.0466229637e+02   7.9631223649e+00    0.2042107    0.1829195  55.11    0.0012321    1.485    0.327
        41  -9.7478     80.5345    167.5763   1.1227147678e+02   3.0996384922e+01     0.245324    0.2162858  40.93 0.0005700393    1.168    0.144
        42 -12.5925    113.4517    229.4213   1.1202879689e+02   1.6238639213e+01    0.6821324     0.459686  52.66  0.004920932    1.330    0.248
        43 -11.3059     13.0752     28.8616   1.1031446353e+02   7.0311724865e+01    0.5519685    0.1513642 -65.68  0.002059326    3.126    0.680
        44 -10.2075     21.6489     25.0018   1.0390804481e+02   7.0512113750e+01    0.3095033    0.1024641 -58.70  0.001250314    2.528    0.604
        45  -9.6273     21.9625     36.0629   1.0766670184e+02   6.7990594845e+01    0.2204085    0.1255097 -38.18  0.001139261    1.718    0.418
        46 -11.7511    101.2815    229.0970   1.1419936273e+02   1.7834543721e+01    0.3902319    0.3353873  89.86  0.003222001    1.393    0.282
        47  -8.8474    197.5002    197.4999   9.2855924884e+01   8.4836681503e+00    0.1169723    0.0928782  21.97 -0.0009224529    1.045    0.043
        48 -11.7777    126.4260    230.8133   1.0983570505e+02   1.4356472048e+01    0.3464608    0.2967848 -70.24  0.002817666    1.551    0.355
