#   1 NUMBER                 Running object number                                     
#   2 MAG_AUTO               Kron-like elliptical aperture magnitude                    [mag]
#   3 X_IMAGE                Object position along x                                    [pixel]
#   4 Y_IMAGE                Object position along y                                    [pixel]
#   5 X_WORLD                Barycenter position along world x axis                     [deg]
#   6 Y_WORLD                Barycenter position along world y axis                     [deg]
#   7 A_WORLD                Profile RMS along major axis (world units)                 [deg]
#   8 B_WORLD                Profile RMS along minor axis (world units)                 [deg]
#   9 THETA_WORLD            Position angle (CCW/world-x)                               [deg]
#  10 FWHM_WORLD             FWHM assuming a gaussian core                              [deg]
#  11 ELONGATION             A_IMAGE/B_IMAGE                                           
#  12 ELLIPTICITY            1 - B_IMAGE/A_IMAGE                                       
         1 -12.3576    214.4507     27.6786   3.8606415097e+01   2.8824231799e+01    0.9302357    0.7825087  26.56   0.00564344    1.672    0.402
         2 -12.4680    202.4215     39.6294   4.2868787141e+01   3.0111196100e+01     1.077723    0.9178843  55.39  0.005805801    1.309    0.236
         3 -10.5901    242.4518      3.9685   3.1133141367e+01   2.5395886646e+01    0.4934198    0.3843223  61.49  0.002918321    1.569    0.363
         4 -10.4015    236.6841      3.5441   3.1415710879e+01   2.6648064674e+01    0.3916553    0.2957816 -66.53  0.002333557    1.048    0.046
         5  -9.3702     56.7484      5.8249   6.1415443236e+01   6.7124495826e+01    0.2604153    0.1756404  61.78  0.001489432    2.050    0.512
         6  -9.9430     16.8901      2.9916   7.8188717558e+01   7.3258461891e+01    0.2161655    0.1497364  33.41  0.001480624    1.697    0.411
         7  -8.7167    109.6228    201.9230   1.0076521878e+02   1.7714230898e+01    0.4296249    0.2337293 -46.72  0.001953207    2.108    0.526
         8 -10.0016    116.4659    247.5435   1.0523509225e+02   7.7139762814e+00    0.4475282    0.2480426 -64.40  0.001745592    2.227    0.551
         9  -8.3826     86.8363    249.2378   1.1121381183e+02   1.1735314750e+01    0.1970705    0.1413511  88.84  0.001003426    1.492    0.330
        10 -12.5959      7.8935    188.9095   1.2229755993e+02   3.3766247110e+01     2.376912    0.9018185 -47.63   0.00934242    4.557    0.781
        11 -14.6717      4.4629    171.2087   1.2179250607e+02   3.8113571057e+01     17.06207    0.7687642 -75.42   0.03274724   13.113    0.924
        12  -7.9687     98.8642    181.1414   1.0011628662e+02   2.4154808557e+01    0.1879623    0.1729848 -23.45  0.001059941    1.313    0.239
        13  -9.8723     41.5017    177.1543   1.1361793120e+02   3.3136764049e+01    0.4532272    0.2973455   6.49  0.002255104    2.544    0.607
        14 -10.3237     66.4492    175.1420   1.0724352871e+02   3.0489845811e+01    0.4569319    0.2774058 -38.63  0.002080278    2.307    0.567
        15 -10.2590     71.0251    170.1550   1.0538049003e+02   3.1061392414e+01    0.3445324    0.2662558 -38.47 0.0007857822    1.594    0.373
        16  -7.5275    149.2814    176.6593   8.7257115712e+01   1.6123000103e+01    0.1466278    0.1171344  85.56 0.0004461386    1.629    0.386
        17  -7.9437    110.0000    172.9882   9.5992812284e+01   2.4175707368e+01    0.2425493   0.08247128 -55.72 0.0008042587    2.955    0.662
        18 -12.8137     21.3522    222.0771   1.2174495122e+02   2.5264255596e+01    0.9069935    0.8388943  32.09  0.004803209    1.519    0.342
        19  -9.7291     93.7694    167.7358   9.9171109080e+01   2.8172510728e+01    0.4702881    0.1610249  51.30  0.001414273    3.943    0.746
        20 -10.4422     86.5259    154.6787   9.8769728672e+01   3.2534030960e+01    0.6306247    0.4162862 -30.81  0.001599951    2.121    0.528
        21 -12.2439     68.5150    144.5871   1.0192153615e+02   3.7760476434e+01      1.69885    0.9110247  80.27  0.004470652    3.536    0.717
        22 -11.9006     68.0042    156.6005   1.0408831938e+02   3.4828152702e+01    0.6400717    0.5110553  -2.24  0.001951848    1.751    0.429
        23  -9.1348     33.3091    156.1125   1.1325610783e+02   3.9139529472e+01    0.2468979    0.1833263  50.93  0.001444331    1.390    0.281
        24  -7.4472    175.3132    149.6567   7.5658344984e+01   1.6658817602e+01    0.1535148    0.1220037 -82.30 0.0007046931    1.706    0.414
        25 -10.6205     21.7733    147.6611   1.1530908887e+02   4.2316212878e+01    0.4193037    0.2102816  89.03  0.001938897    2.105    0.525
        26  -8.9566    133.8785    144.1923   8.4128330039e+01   2.6418294494e+01    0.5508127    0.1034161 -51.20   0.00118927    6.209    0.839
        27  -9.0502    101.0449    140.2180   9.1935351550e+01   3.3646952538e+01    0.5146353    0.3406486 -23.11  0.002094332    2.308    0.567
        28 -10.5043     88.5395    139.6450   9.5309925252e+01   3.5932953034e+01    0.2996985    0.2568031 -46.24  0.001579911    1.182    0.154
        29  -9.7187     80.6126    140.5906   9.7746626064e+01   3.6967771190e+01     0.350777     0.239961  60.98  0.000886825    1.687    0.407
        30  -8.3608     32.0794    137.5432   1.1117755080e+02   4.3866888780e+01    0.1734768    0.1317565  33.19 0.0004066726    1.516    0.341
        31  -8.9504    110.6511    130.5044   8.7091199106e+01   3.4227312076e+01    0.2944555    0.2331176  -4.69  0.001075322    1.687    0.407
        32  -8.6012    105.9064    130.8317   8.8486418245e+01   3.5042939029e+01    0.3335624    0.2610332 -65.83  0.001608758    1.319    0.242
        33  -9.1378     98.0865    126.3234   8.9655004588e+01   3.7562732945e+01    0.3050486    0.2489876 -16.77  0.001142266    1.504    0.335
        34 -10.9242     79.9188    160.9942   1.0163290227e+02   3.2002906897e+01    0.7500084    0.4307814  60.63  0.000424674    2.095    0.523
        35  -8.0814    107.6375    119.0235   8.5140620690e+01   3.7535236936e+01    0.2124839    0.1856353 -46.57  0.000480497    1.105    0.095
        36 -11.0771     20.4077    111.1520   1.1075576835e+02   5.1407597931e+01    0.5061717    0.3253591 -64.12  0.002841262    1.260    0.206
        37  -9.3791    248.3347    108.6262   5.3238738125e+01   9.5338797811e+00    0.2127381    0.1479041 -63.17  0.001118651    1.668    0.401
        38  -7.7730    134.6883    105.3300   7.4132704337e+01   3.5010800823e+01    0.1608605     0.125263 -82.60 0.0006716152    1.671    0.401
        39  -8.0958     36.3700    102.1606   1.0379842056e+02   5.2180830424e+01    0.1948392    0.1163544 -72.16 0.0004933757    1.680    0.405
        40  -8.0775    205.5317    110.4362   6.0300024757e+01   1.7936423942e+01    0.1472087    0.1365666 -43.37 0.0002278343    1.009    0.009
        41 -13.6897     40.9571    200.5873   1.1608401648e+02   2.7753166878e+01     3.604644     1.586944  67.60   0.01330237    2.668    0.625
        42  -7.8298    125.4574     92.4461   7.2872954380e+01   3.9773569559e+01    0.1539995    0.1484729 -71.66 8.531223e-05    1.075    0.070
        43  -7.5389    156.3641     88.6826   6.4232380565e+01   3.3399059323e+01    0.1632955     0.120931 -79.24 0.0007040477    1.772    0.436
        44  -8.9237    111.9979     81.4920   7.3267956508e+01   4.4917583183e+01    0.3367164    0.2266932  81.60  0.001204864    2.695    0.629
        45 -12.7477     50.6456    190.7303   1.1293645828e+02   2.8847858913e+01     2.512259     1.195662  67.31   0.01077595    2.551    0.608
        46  -7.8995     51.5148     64.4577   8.8196486443e+01   5.8938006983e+01     0.134839    0.1174012 -26.94 2.530305e-05    1.007    0.007
        47  -9.0932     60.5788    198.4987   1.1151370804e+02   2.5794737720e+01    0.2565402    0.1854126  67.55 0.0007571403    1.265    0.209
        48 -11.8139    192.9996     46.1450   4.5771274355e+01   3.1479909364e+01    0.7206632     0.570554  11.14  0.002718542    1.790    0.441
        49  -9.1565    194.3972    197.1179   8.1515094339e+01   3.8630076248e+00    0.4901562    0.2396628 -59.92  0.001518876    5.318    0.812
        50 -13.7799      9.4650    207.3308   1.2315543548e+02   2.9562289437e+01     1.414492     1.136642 -67.21  0.005601219    1.441    0.306
        51  -9.1429    139.0266     44.7752   5.4519178703e+01   4.4931627081e+01    0.3012085    0.2275236 -68.23   0.00054245    1.588    0.370
        52 -12.8712     57.3759    239.8472   1.1607879963e+02   1.7472064474e+01     1.010351    0.7445278  72.94  0.003968122    1.152    0.132
        53  -8.1099    142.6670     40.0117   5.2232827998e+01   4.4691055563e+01    0.1875116    0.1790412 -40.50 0.0004149636    1.104    0.094
        54 -14.3398     33.1003    249.5430   1.2125804516e+02   1.8546396407e+01     8.649837     2.825276  25.63    0.0205389   13.969    0.928
        55 -14.8719      7.0391    245.5497   1.2559541116e+02   2.2074452963e+01     2.698082     2.070701  24.42   0.01995993    1.923    0.480
        56  -9.3391     59.2771    220.6261   1.1403573414e+02   2.1120112330e+01    0.3118941    0.2630896 -48.16  0.001405429    1.576    0.366
        57  -8.1336     91.4787    215.0244   1.0657232271e+02   1.7776642276e+01    0.1868973    0.1263089 -71.25  0.001014519    1.558    0.358
