#   1 NUMBER                 Running object number                                     
#   2 MAG_AUTO               Kron-like elliptical aperture magnitude                    [mag]
#   3 X_IMAGE                Object position along x                                    [pixel]
#   4 Y_IMAGE                Object position along y                                    [pixel]
#   5 X_WORLD                Barycenter position along world x axis                     [deg]
#   6 Y_WORLD                Barycenter position along world y axis                     [deg]
#   7 A_WORLD                Profile RMS along major axis (world units)                 [deg]
#   8 B_WORLD                Profile RMS along minor axis (world units)                 [deg]
#   9 THETA_WORLD            Position angle (CCW/world-x)                               [deg]
#  10 FWHM_WORLD             FWHM assuming a gaussian core                              [deg]
#  11 ELONGATION             A_IMAGE/B_IMAGE                                           
#  12 ELLIPTICITY            1 - B_IMAGE/A_IMAGE                                       
         1 -12.7324    190.1274     14.5094   5.1314563007e+01   3.5571293549e+01    0.6534302    0.5009273  12.89  0.002496585    1.577    0.366
         2 -14.9411    189.1884     32.4735   5.6947710811e+01   3.3701714417e+01     2.482754     1.420137  22.73  0.009406016    2.729    0.634
         3 -14.2414    211.0346      4.5398   4.5992929082e+01   3.1147109626e+01     1.608864     1.057919  52.14  0.005125172    1.567    0.362
         4 -11.3807    129.6916    211.5623   1.1132478002e+02   1.4367142818e+01    0.2919872     0.182441  85.25   0.00151571    2.310    0.567
         5 -18.7740     31.6485    242.3464   1.3060604758e+02   2.2687272978e+01      5.95922     4.676163  53.33   0.05150988    1.459    0.315
         6 -11.2063     95.0958    199.9860   1.1645407129e+02   2.1929715733e+01    0.3565598    0.2335871 -62.56  0.001276328    1.641    0.391
         7 -11.1104    100.7441    197.1441   1.1503654639e+02   2.1599021821e+01    0.3307774    0.2093436  28.30  0.001369433    2.240    0.553
         8 -12.3042    193.0448    194.5556   9.6829169457e+01   5.8007225096e+00    0.8619706     0.454771 -61.46  0.003155339    4.645    0.785
         9 -19.1795     19.0833    102.9568   1.2148639550e+02   5.1731564099e+01     16.55591    0.7328292 -69.00   0.02896819   15.962    0.937
        10 -10.5952      1.7015    210.2918   1.3366229496e+02   3.1144535162e+01    0.1345579   0.08383771  66.55 0.0007228867    1.162    0.140
        11 -11.0581    141.1548    197.9835   1.0729552711e+02   1.4728456966e+01      0.25795    0.2069993  89.55 0.0007388167    1.418    0.295
        12 -11.0787    136.0029    198.9895   1.0843841725e+02   1.5453096936e+01     0.206046    0.1714585  59.50  0.001033387    1.051    0.049
        13 -11.3645    208.4055    196.5732   9.4363515813e+01   2.6877490050e+00    0.2152253    0.2010937   1.32 0.0006488322    1.172    0.147
        14  -9.4969    121.2445    197.3489   1.1107910758e+02   1.8259524397e+01    0.1100655   0.09946231 -15.09  0.000232698    1.578    0.366
        15 -11.8842    113.1563    195.8072   1.1245429937e+02   1.9876417354e+01    0.4163783    0.3049784   1.98  0.002077911    2.917    0.657
        16 -10.9763     82.2472    195.2103   1.1838536987e+02   2.4718645594e+01    0.3481166    0.2740827  41.64  0.002308075    1.425    0.298
        17 -13.4591     71.4866    189.1557   1.1982258565e+02   2.7392571307e+01    0.7216714    0.6174431 -68.44  0.003915116    1.365    0.267
        18 -10.0815     72.7118    180.5412   1.1864500902e+02   2.8949520206e+01    0.1977318   0.09309369  51.69  0.001002256    1.931    0.482
        19 -10.5280      8.2702    192.8119   1.3172728665e+02   3.3760113460e+01    0.1941641    0.1020574  46.10  0.001246681    1.768    0.434
        20 -10.5861     96.8223    189.2261   1.1484036342e+02   2.3715266685e+01    0.3667246     0.196772  71.60   0.00173165    2.366    0.577
        21 -10.2552     58.8951    187.9696   1.2214088578e+02   2.9268902369e+01    0.3577144    0.2788086  15.72  0.002265978    2.200    0.545
        22 -12.1636    107.8734    203.8284   1.1447074197e+02   1.9253944898e+01    0.3409622    0.2428986 -76.99  0.001676539    1.491    0.329
        23 -10.6525    151.0440    183.0070   1.0300664282e+02   1.5583917905e+01    0.2055338    0.1805495  64.04 0.0004858201    1.103    0.094
        24 -10.6458     99.4546    180.6960   1.1320916422e+02   2.4984340498e+01    0.2177844    0.1941992  63.62  0.000539295    1.128    0.113
        25 -11.1821    143.8370    179.0936   1.0382027544e+02   1.7639131986e+01    0.2930363    0.2138904  -9.21  0.001424138    2.352    0.575
        26 -10.1926    206.8411    178.4060   9.1297050475e+01   5.6264072295e+00    0.2817284    0.1865809  20.73  0.001424865    1.685    0.407
        27  -9.7909    218.7113    177.6380   8.8967840977e+01   3.4745472343e+00    0.1392618   0.09519281   9.10 0.0007024878    1.693    0.409
        28  -9.8488    168.2126    176.4637   9.8414702819e+01   1.3470922815e+01     0.203982    0.1872516  82.00 0.0004744524    1.212    0.175
        29 -10.2467    165.8821    172.8937   9.8232058508e+01   1.4557246411e+01    0.2904777    0.2185584 -81.41 0.0009274863    1.856    0.461
        30  -9.6458     51.8142    174.2334   1.2219309905e+02   3.2916834912e+01    0.1490943    0.1209614 -70.79 0.0006683345    1.308    0.235
        31 -10.6002    201.8732    169.8651   9.0557913875e+01   7.9246367683e+00    0.4175216    0.2631552 -55.98  0.001934477    2.286    0.563
        32 -10.6985    204.0996    165.5504   8.9264331080e+01   8.1697476557e+00    0.5331728    0.3096638 -46.09  0.002491081    2.010    0.503
        33 -11.4460    104.4666    202.4734   1.1495688854e+02   2.0034115140e+01    0.3051483    0.2101735 -55.12  0.001861717    1.706    0.414
        34 -10.1179     87.7055    202.6066   1.1814162019e+02   2.2534582675e+01    0.2551678    0.1786189 -63.88  0.001484188    1.556    0.357
        35 -11.6675    194.2498    167.3276   9.1515865185e+01   9.8598458608e+00    0.3246947    0.3213728   7.06  0.000883961    1.132    0.117
        36 -10.8867    190.2036    161.0024   9.1025831392e+01   1.1745508216e+01    0.3668571    0.2659816 -65.28 0.0009976544    1.962    0.490
        37 -11.3326    189.2551    155.1627   8.9997119900e+01   1.2950279430e+01    0.4238043    0.3708427  57.93  0.001878881    1.217    0.178
        38 -10.2932    139.9712    168.3167   1.0278554545e+02   2.0409403520e+01    0.1988291    0.1651461  51.15 0.0003796509    1.106    0.096
        39 -11.3354    156.8242    200.2058   1.0460867713e+02   1.1561959279e+01      0.45549    0.2818092  83.27   0.00194545    3.294    0.696
        40 -10.5360    160.7922    165.7420   9.7940009913e+01   1.6863454020e+01     0.244794    0.1778681 -79.08 0.0006690692    1.936    0.483
        41 -12.4528     97.9649    154.1360   1.0962078408e+02   3.0743823068e+01    0.5922338    0.4120316 -35.06  0.002866889    2.061    0.515
        42 -11.5324    133.7297    144.7555   9.9730149282e+01   2.6361513419e+01     1.139667     0.272641 -54.58  0.002815677    6.104    0.836
        43 -11.2657    153.0516    193.9271   1.0436809860e+02   1.3298728476e+01    0.3470702    0.2128799  62.11  0.001163247    1.865    0.464
        44 -10.6716    174.7171    148.9633   9.1642275326e+01   1.7126242365e+01     0.259459    0.2261191  88.36 0.0005887178    1.369    0.269
        45 -11.7968    108.6342    139.5260   1.0456439374e+02   3.2130216462e+01     0.546963    0.3108759 -36.29    0.0022974    2.516    0.603
        46 -12.5078     97.1127    139.4506   1.0730982980e+02   3.4094385591e+01    0.2588722    0.2393433 -83.98 0.0004526668    1.053    0.051
        47 -10.6388     78.4754    134.8898   1.1104124071e+02   3.7978505683e+01    0.2558108    0.1656408  58.42 0.0008399496    1.631    0.387
        48 -11.5745    106.0321    130.1713   1.0336106163e+02   3.4647975524e+01    0.4608591     0.298416 -59.61  0.002255368    1.505    0.336
        49 -11.3898    103.4434    126.0340   1.0316057576e+02   3.6018448311e+01    0.2869537    0.2282503 -29.30 0.0009039374    1.582    0.368
        50 -11.0899    115.5284    130.1036   1.0101518216e+02   3.2958718817e+01    0.3210684    0.2594794 -35.76 0.0008297446    1.420    0.296
        51 -11.3912    135.5875    127.8338   9.5686704173e+01   2.9555393045e+01    0.5322012     0.142868 -48.79  0.001564385    3.808    0.737
        52 -10.9733    120.2520    124.6332   9.8676652765e+01   3.3269912845e+01    0.2984892    0.1935447 -41.50  0.001153395    1.646    0.393
        53 -10.6108    160.5950    127.8079   8.9925169340e+01   2.4259113284e+01    0.3038312    0.2346082 -77.25  0.001423357    1.672    0.402
        54 -11.4165     67.0547    115.5942   1.1054699731e+02   4.3936980096e+01    0.3039072    0.1824195 -68.51  0.001018899    1.551    0.355
        55 -10.2792    167.8783    112.5765   8.4550167333e+01   2.5631170467e+01    0.2982892    0.2377347 -71.88 0.0009053379    1.543    0.352
        56 -10.3295    110.8723    119.0660   9.9783216517e+01   3.6247784126e+01    0.2121471    0.1994611 -85.96 0.0004731004    1.028    0.027
        57 -11.7812    118.9227    110.3139   9.5676062649e+01   3.6653579339e+01    0.5794631    0.3331176  63.24  0.002288095    2.441    0.590
        58 -10.3856    205.5904    110.1128   7.6210737318e+01   1.7252205070e+01    0.2879034    0.2158763  41.25 0.0006743853    1.348    0.258
        59 -11.5269    106.7377    210.2912   1.1543631029e+02   1.8277693383e+01    0.4298795    0.2011704  52.28  0.001728693    1.830    0.454
        60 -10.0863    134.5750    105.3248   9.0461109069e+01   3.4535669128e+01    0.3006836    0.1439818 -48.70  0.001140343    2.101    0.524
        61  -9.9763      1.6651    103.9800   1.2625260995e+02   5.2670718397e+01    0.1673758    0.1074386 -76.30 0.0004868897    1.151    0.131
        62  -9.8098     71.5360    102.5260   1.0669892718e+02   4.6314389451e+01    0.1357097     0.118832 -62.02 6.384582e-05    1.019    0.018
        63  -9.9248     41.5452     91.9327   1.1324467607e+02   5.2261275617e+01     0.171553    0.1547317 -64.85 0.0003836773    1.106    0.096
        64  -9.9106     53.1111     90.5290   1.0949096811e+02   5.1346262747e+01    0.2497967    0.1176799 -43.29   0.00112826    2.195    0.544
        65  -9.1885    153.2598     80.3356   7.8897749656e+01   3.5312417199e+01    0.1555667    0.1224107   2.75 0.0002847954    1.577    0.366
        66 -11.0674    169.9986     69.5131   7.1923373502e+01   3.3134679270e+01     0.397733     0.266388 -83.65  0.001542967    2.381    0.580
        67 -11.6691    166.0202     66.5068   7.1831257881e+01   3.4652694528e+01    0.5296543    0.3073221 -63.05  0.001880256    2.755    0.637
        68 -10.2537     76.1440    233.0118   1.2299229541e+02   1.8806923094e+01    0.1615306    0.1238368  68.74  0.000611891    1.066    0.062
        69 -13.2180    173.5169     48.2591   6.4575726820e+01   3.5642357190e+01    0.6671261    0.5279046 -17.30  0.000799084    1.350    0.259
        70 -10.8049    111.6914    217.5511   1.1534526183e+02   1.6252610830e+01    0.2109471    0.1778406  66.90 0.0006513683    1.080    0.074
