#   1 NUMBER                 Running object number                                     
#   2 MAG_AUTO               Kron-like elliptical aperture magnitude                    [mag]
#   3 X_IMAGE                Object position along x                                    [pixel]
#   4 Y_IMAGE                Object position along y                                    [pixel]
#   5 X_WORLD                Barycenter position along world x axis                     [deg]
#   6 Y_WORLD                Barycenter position along world y axis                     [deg]
#   7 A_WORLD                Profile RMS along major axis (world units)                 [deg]
#   8 B_WORLD                Profile RMS along minor axis (world units)                 [deg]
#   9 THETA_WORLD            Position angle (CCW/world-x)                               [deg]
#  10 FWHM_WORLD             FWHM assuming a gaussian core                              [deg]
#  11 ELONGATION             A_IMAGE/B_IMAGE                                           
#  12 ELLIPTICITY            1 - B_IMAGE/A_IMAGE                                       
         1 -14.0333    212.4752      8.4531   4.0835107222e+01   3.0855019834e+01     2.284132     1.441659  41.43   0.01012032    2.017    0.504
         2 -13.2904    173.5929     53.6936   5.9027699165e+01   3.4978214028e+01     2.172677     1.436487  21.80  0.006725208    2.161    0.537
         3 -13.2391    188.6933     39.4041   5.2226309803e+01   3.3154996122e+01     1.043159    0.8870594 -49.85  0.003278942    1.167    0.143
         4 -12.7972    193.4799     33.4389   4.9813614871e+01   3.2715276382e+01    0.6466653    0.6200741  45.96  0.001147985    1.140    0.123
         5  -9.4122    167.9082    231.2310   1.0072437401e+02   3.4057718994e+00    0.1889695    0.1646916  17.34 0.0004098372    1.180    0.153
         6 -12.6121    249.0615    231.3444   8.6061236612e+01  -9.2966356746e+00     0.820758    0.4258142 -17.23  0.004607609    2.072    0.517
         7  99.0000     73.4875    204.4056   1.1618557926e+02   2.3235366785e+01    0.3039725    0.1978246  76.35  0.001761813    1.488    0.328
         8 -11.2690     59.0676    203.0092   1.1897046910e+02   2.5437685056e+01    0.2970427    0.2243132 -40.40   0.00181117    2.046    0.511
         9  -8.6505     87.8265    202.3877   1.1300670984e+02   2.1592786152e+01    0.1680236    0.1156026  30.98 0.0009298545    1.703    0.413
        10 -10.2340    203.8531    199.8605   8.8701483012e+01   2.0597620561e+00    0.3608998    0.1509446  28.59   0.00134179    3.118    0.679
        11 -12.2886    247.7488    246.7975   8.8782468850e+01  -1.0797883710e+01    0.7039933    0.4996967  22.83   0.00507768    1.121    0.108
        12 -11.5854     61.2188    196.3717   1.1789448337e+02   2.6540159915e+01    0.3412517    0.2499424 -40.21  0.001272522    2.076    0.518
        13 -11.3187    151.1266    195.4502   9.8599460674e+01   1.2370570508e+01    0.4156228    0.2999825  30.74  0.002220792    1.396    0.284
        14  -8.9445     82.2195    194.8544   1.1330863783e+02   2.3973997622e+01    0.1998638     0.148982  73.17 0.0007973771    1.230    0.187
        15 -10.5027    207.2966    192.9991   8.6773575111e+01   2.5194515860e+00    0.2895911    0.1522916  20.48  0.001181829    2.674    0.626
        16 -10.0220      9.0386    192.8931   1.2801054841e+02   3.2961871622e+01    0.1375612   0.09096559  34.37 0.0006854785    1.796    0.443
        17 -11.0689     97.3025    189.6207   1.0937979267e+02   2.2793304938e+01    0.4634986    0.3629989 -23.31 0.0007478671    1.995    0.499
        18  -9.6953    156.7251    190.0281   9.6494210131e+01   1.2357530280e+01    0.1811242    0.1761795  15.06 0.0002319816    1.092    0.085
        19 -10.4193     76.9657    176.5151   1.1219908755e+02   2.8705958123e+01    0.5593867    0.3887389 -74.11  0.002296052    1.371    0.271
        20  -8.7469     73.5772    189.5462   1.1454700824e+02   2.6331657376e+01    0.2118582    0.1256704  52.03  9.79099e-05    1.525    0.344
        21 -11.3127     70.1370    185.0187   1.1477312808e+02   2.7785210978e+01    0.5549498    0.3361843  71.91  0.002612933    1.715    0.417
        22 -11.5436     72.4616    180.6515   1.1373859771e+02   2.8422670217e+01      0.57896    0.3470169  77.72  0.002866657    1.854    0.461
        23 -19.5043     25.0755    147.1620   1.2098174045e+02   4.1543508321e+01     19.00935     4.711412 -75.01   0.06678678    3.824    0.738
        24  -6.8433     75.7219    247.6227   1.1965704099e+02   1.4865043422e+01    0.1401184    0.1095452 -57.01 0.0009986825    1.752    0.429
        25 -11.4142    145.0152    181.2351   9.7491183922e+01   1.6246340966e+01    0.3571699    0.3320382  -9.55  0.001261129    1.223    0.182
        26 -11.6521    141.6467    175.0119   9.7128419353e+01   1.8140105359e+01    0.5922463    0.3982964  73.65  0.002511277    2.103    0.524
        27 -10.7855     99.2252    180.9375   1.0773713306e+02   2.4346369016e+01    0.2763134    0.2584504  19.22 0.0008295963    1.326    0.246
        28  -9.7953    189.2991    178.5638   8.7556316660e+01   8.2663509100e+00    0.4004779     0.288488  65.49  0.001083657    1.936    0.484
        29 -10.0068    187.7264    173.1614   8.6803224237e+01   9.5352823485e+00    0.4201581    0.2596861 -60.98  0.001785808    2.500    0.600
        30  -8.9793     84.0096    177.5712   1.1072991553e+02   2.7443043741e+01    0.1967547    0.1217791  42.33 0.0005369037    1.564    0.361
        31 -10.5375    151.3757    180.5884   9.5977896498e+01   1.5176905596e+01     0.358924     0.247907 -85.82  0.001606518    2.310    0.567
        32 -10.6677    150.7267    188.3949   9.7494770414e+01   1.3780197209e+01    0.2825281    0.1700928 -63.38  0.001281143    2.195    0.544
        33  -9.5127     74.8500    250.6326   1.2004178189e+02   1.4475010437e+01    0.1071604   0.08077934  58.15 0.0002049096    1.062    0.058
        34  -9.9589     43.9747    211.7227   1.2265141367e+02   2.5523617361e+01    0.2561976    0.1443718 -80.18  0.001155161    1.624    0.384
        35  -9.4073    240.3102    169.3035   7.5993859545e+01   3.1461359810e-01     0.137559   0.09393033   4.77 0.0002381037    1.609    0.379
        36 -11.5276     39.3867    212.7995   1.2359438605e+02   2.5840809928e+01    0.1760387    0.1374686  57.69 0.0002720616    1.199    0.166
        37  -9.6274    184.1006    210.8526   9.4448403564e+01   3.8058850673e+00    0.3522969    0.1755802 -49.57  0.001631912    2.554    0.609
        38 -11.7344     97.2256    151.5056   1.0348614749e+02   3.1312502740e+01    0.5928856    0.4626906 -31.71   0.00236854    1.641    0.391
        39 -10.8976    133.9451    145.8803   9.3214670314e+01   2.5882224109e+01     1.228067    0.3264365 -55.47  0.002956219    5.772    0.827
        40 -10.0089    187.7486    151.8926   8.2300005405e+01   1.3475976073e+01    0.2829676    0.2033896  74.98  0.001237785    2.141    0.533
        41  -9.6647    113.2350    151.2934   9.9430805913e+01   2.8591506184e+01    0.3828962    0.2256672  71.38  0.001464982    2.691    0.628
        42  -9.8215    174.4861    149.0357   8.4499937119e+01   1.6819715934e+01    0.2704627    0.2602482  52.40 0.0007416653    1.079    0.074
        43 -10.1265    143.8515    145.9057   9.0824860536e+01   2.3879147490e+01     0.412037    0.1965239 -59.41  0.001432106    2.825    0.646
        44 -10.7754    105.8886    130.8013   9.7163163728e+01   3.4671703974e+01    0.4280371    0.3221852 -58.06  0.001771538    1.288    0.224
        45  -9.8888    107.5940    145.8008   9.9791664334e+01   3.0864500287e+01    0.2658083    0.1923857 -78.62 0.0005819232    1.571    0.363
        46 -11.0955    108.4629    138.0786   9.8018601395e+01   3.2506174835e+01    0.5679861    0.3742003 -39.68  0.002597158    1.718    0.418
        47 -11.8146     96.7759    137.3888   1.0095475876e+02   3.4703113575e+01    0.3109347     0.281317  68.67   0.00027643    1.099    0.090
        48 -10.2158    115.3649    128.9803   9.4238175915e+01   3.3344059136e+01    0.3337806    0.2718937 -36.82 0.0005985518    1.322    0.244
        49 -10.1215    135.8674    129.0641   8.8962935758e+01   2.9236960457e+01    0.4246329    0.1955972 -48.28  0.001573674    2.170    0.539
        50  -9.5905    161.1443    127.6474   8.2504950792e+01   2.4092903599e+01    0.3396959    0.2515583 -73.40  0.001485692    1.815    0.449
        51 -10.5101    103.1573    124.6759   9.6558811006e+01   3.6598947846e+01    0.3104138    0.2556973  -8.44  0.000688065    1.583    0.368
        52 -10.2664    120.6186    122.9654   9.1451584509e+01   3.3710098073e+01    0.4390699    0.2839323 -25.68  0.001778021    2.205    0.547
        53  -9.4212    110.6022    118.1652   9.3006970890e+01   3.6751280603e+01    0.2388492    0.2009668  57.66 0.0003916668    1.252    0.201
        54  -8.6071    150.5738    117.4874   8.2464226635e+01   2.8594492898e+01    0.1558801    0.1513299 -70.22 7.251243e-05    1.051    0.049
        55 -10.1387    134.5829    106.2334   8.3517241598e+01   3.4547963576e+01    0.4533208    0.1485668 -44.55  0.001393408    3.002    0.667
        56 -10.0074    231.2646    113.7796   6.5110915702e+01   1.1088961030e+01    0.2713856    0.2511841  33.21 0.0007166918    1.152    0.132
        57  -9.6585    167.7434    112.6046   7.7174882358e+01   2.5700121024e+01    0.3921206    0.2905624 -82.13  0.001357096    1.940    0.484
        58 -11.4499    118.8574    110.2382   8.8769683712e+01   3.6955543553e+01    0.5893995    0.4476119  62.28  0.002781776    1.511    0.338
        59  -9.7653    205.2515    110.1043   6.8786943918e+01   1.7473522847e+01    0.3463683    0.2254116  46.34 0.0009981708    1.592    0.372
        60 -11.0373     67.6603    206.7613   1.1760023285e+02   2.3549173840e+01    0.2039012    0.1603791  68.28 0.0003125637    1.031    0.030
        61  -9.1438    183.5234     83.0396   6.5729717553e+01   2.7572647195e+01    0.2422007    0.1510661 -35.62  0.001028702    1.581    0.367
        62 -11.0264     71.8782    245.2938   1.2014736439e+02   1.5774854785e+01    0.2650017    0.1618475 -76.04  0.001743786    1.738    0.425
        63  -9.0784     63.0255    221.1738   1.1980692537e+02   2.1321878925e+01    0.3392909     0.140481  62.50  0.001588335    2.564    0.610
        64  -9.8711    157.4889    233.3555   1.0300464078e+02   4.7992026953e+00    0.2360951   0.09799935  40.88  0.001101739    1.965    0.491
        65 -10.8095    193.8310    196.4999   9.0039619105e+01   4.3798225021e+00     1.083791    0.5437086 -61.55  0.003106123    6.975    0.857
