#   1 NUMBER                 Running object number                                     
#   2 MAG_AUTO               Kron-like elliptical aperture magnitude                    [mag]
#   3 X_IMAGE                Object position along x                                    [pixel]
#   4 Y_IMAGE                Object position along y                                    [pixel]
#   5 X_WORLD                Barycenter position along world x axis                     [deg]
#   6 Y_WORLD                Barycenter position along world y axis                     [deg]
#   7 A_WORLD                Profile RMS along major axis (world units)                 [deg]
#   8 B_WORLD                Profile RMS along minor axis (world units)                 [deg]
#   9 THETA_WORLD            Position angle (CCW/world-x)                               [deg]
#  10 FWHM_WORLD             FWHM assuming a gaussian core                              [deg]
#  11 ELONGATION             A_IMAGE/B_IMAGE                                           
#  12 ELLIPTICITY            1 - B_IMAGE/A_IMAGE                                       
         1 -13.5734     12.8818     47.9050   6.9203397174e+01   6.7298957822e+01    0.7909763    0.4102354 -44.15 0.0007451162    1.649    0.394
         2 -12.0022     56.0306     38.5198   4.3026854414e+01   6.4011184594e+01     1.057835    0.4164796 -37.04  0.004097586    2.678    0.627
         3 -11.5065      7.2711     29.2695   6.6708310789e+01   7.1710392646e+01    0.5738893    0.2806518 -75.02  0.002332969    3.086    0.676
         4 -11.7538     14.7821     18.0934   5.6861770993e+01   7.3307015094e+01     0.371382    0.3069953   3.79 0.0009618042    1.163    0.140
         5 -11.8236     10.6170     11.2643   5.6401953292e+01   7.4931757868e+01    0.4176767    0.3518338 -77.17   0.00272084    1.861    0.463
         6 -11.6487      7.7896     14.9954   6.0416217312e+01   7.4494963852e+01    0.2902421    0.2265307 -44.50 0.0005603005    1.234    0.189
         7 -12.7375      3.3061     13.5436   6.3148220399e+01   7.5099844563e+01    0.5869242    0.2786126 -53.02  0.001099831    1.857    0.461
         8 -12.2337    249.0909     20.2676   7.9616149018e-02   2.1991886923e+01    0.4448753    0.1956104 -38.04 0.0003340569    1.791    0.442
         9 -12.1198     28.7961     19.8472   4.8548374835e+01   7.1409798065e+01     0.251994    0.2030245  -5.33 0.0002800432    1.102    0.092
        10 -10.7481    215.9623     16.5293   1.5337640300e+00   2.9222373575e+01    0.5885627    0.1795458  54.88  0.002236826    3.986    0.749
        11 -11.3859    132.0158     16.8559   1.1234669622e+01   4.9671852331e+01    0.4003915    0.2631252 -51.26  0.002004725    1.641    0.391
        12 -12.0377    166.9016     13.0599   5.1633580200e+00   4.1175072244e+01     0.533422    0.2795351  79.92  0.002428434    1.838    0.456
        13 -10.5244    100.7676     17.0120   1.7698494318e+01   5.7528564107e+01    0.4688546    0.2807115 -52.31  0.002065803    2.104    0.525
        14  -9.7322     99.5907     10.7076   1.5284159830e+01   5.8476065684e+01     0.298323    0.1572323  25.24 0.0007147203    2.654    0.623
        15 -12.0591    239.9561     14.6857   3.5946872236e+02   2.4392833641e+01    0.3681207     0.192032 -61.29  0.000516222    1.693    0.409
        16 -12.2581    235.2392      8.2864   3.5837687369e+02   2.6021082680e+01    0.4409572     0.325667  -1.51  0.002712628    2.087    0.521
        17 -11.6959    241.0708      8.6082   3.5811046747e+02   2.4814159919e+01    0.2981285    0.1104459 -51.80  0.001463255    2.157    0.536
        18 -12.2242    242.2478      3.3843   3.5695048409e+02   2.5115425162e+01    0.4337829     0.218599  71.53  0.001398858    2.066    0.516
        19 -10.9160    137.3575     15.1949   9.7800740355e+00   4.8473934360e+01    0.2848025    0.2084228 -56.55 0.0004442518    1.436    0.304
        20 -10.9215    139.7288     10.8990   7.9483764416e+00   4.8294460007e+01    0.2601374    0.1983821  72.76  0.000276552    1.175    0.149
        21 -12.3295     76.2877     10.4390   2.1549593324e+01   6.3997435747e+01    0.4604179     0.279081  32.65  0.001972443    1.689    0.408
        22 -11.6461    227.2167     11.3555   3.5954807807e+02   2.7360024542e+01    0.3995679     0.135858 -29.71  0.001766068    2.744    0.636
        23  -9.7837     60.0000     14.0066   2.9344688270e+01   6.7050689783e+01     0.252594    0.1047542 -30.08 0.0008956576    2.523    0.604
        24 -10.1192     31.5574     10.3195   4.1560327990e+01   7.2549195763e+01    0.3351114    0.1753626 -15.71  0.001501549    2.660    0.624
        25 -10.5501     26.6572     12.8022   4.6056927997e+01   7.2857734866e+01    0.3811435    0.1942407 -34.92  0.001474054    1.872    0.466
        26  -9.9338     24.4782      8.7322   4.5087474582e+01   7.3784894351e+01    0.1839919    0.1634003  11.25  0.000640982    1.204    0.170
        27 -10.8580    145.6515     12.1202   7.5198866423e+00   4.6656779661e+01    0.3136183    0.1107682 -33.98   0.00123572    2.705    0.630
        28 -11.4603    146.1788      7.3338   5.8750059769e+00   4.6980396428e+01    0.3763472    0.2705477  58.76  0.001534874    1.319    0.242
        29 -11.8775    249.0919      9.7233   3.5789992035e+02   2.3128581066e+01    0.4122378    0.1587324 -43.47  0.002179985    1.905    0.475
        30 -10.9972    176.9877     12.0041   3.7847547977e+00   3.8784589042e+01    0.3907406    0.1829206  76.59   0.00123098    2.016    0.504
        31 -10.7060     65.2834     11.8985   2.6135390202e+01   6.6225100049e+01    0.2271086    0.2134146   0.81 0.0003332466    1.131    0.116
        32 -11.2297    160.3670      8.7511   4.6096909575e+00   4.3243176116e+01    0.2307153    0.2163737  18.48 0.0006824944    1.295    0.228
        33 -11.3261    154.7388      8.3437   5.1381166613e+00   4.4705575052e+01     0.384929    0.1969172  74.75  0.001338619    1.780    0.438
        34 -11.5839    180.1524      3.8930   1.2391866812e+00   3.8807100623e+01    0.5200886    0.3080045  42.42  0.002083088    2.203    0.546
        35  -9.9307     82.2035      6.8449   1.7997043456e+01   6.3011024049e+01    0.1801951    0.1340034  36.25 0.0003168237    1.259    0.206
        36 -10.0655    223.0055      5.2644   3.5844387218e+02   2.8879468699e+01    0.1980277    0.1457133 -45.60 0.0008886091    1.202    0.168
        37  -9.8602     36.6441      5.9016   3.5909434275e+01   7.2367282879e+01    0.2709096    0.1291429  26.59  0.001217384    2.448    0.591
        38 -11.0674    164.4140      4.3940   2.8655225139e+00   4.2636752038e+01    0.2789457    0.2018658 -46.28 0.0006061317    1.357    0.263
        39 -12.3969     31.5150      2.0366   3.6404961551e+01   7.3698658660e+01    0.4392259    0.1779543  38.95  0.000432252    2.291    0.563
        40 -11.1366     22.2269      1.6377   4.2103282733e+01   7.5131025117e+01    0.6024898    0.2518761  22.66  0.002497216    3.272    0.694
        41 -10.2286    126.0640      2.3342   6.9371374931e+00   5.2567885875e+01    0.2330842     0.186721 -44.52 0.0008871781    1.343    0.256
        42 -10.1491     97.9583      2.9920   1.2290662888e+01   5.9585473459e+01    0.1999195    0.1801731  53.25 0.0004779888    1.029    0.029
        43  -9.7256     91.0070      2.3458   1.3578294943e+01   6.1332391515e+01    0.1882989    0.1472733  54.87 0.0004270114    1.111    0.100
        44  -9.4988     14.3356      2.1536   4.8174691242e+01   7.6055049886e+01    0.1480752    0.1020632 -43.13 0.0001263655    1.584    0.369
        45 -10.1020     68.3092      5.4918   2.1650065148e+01   6.6276418293e+01    0.2149849    0.1823663  26.43 0.0004641919    1.075    0.070
        46  -9.5726    120.9697      1.5413   7.4265877261e+00   5.3932521948e+01    0.2062787     0.117411  68.64  0.000701241    1.526    0.345
        47 -10.1660     73.7496      1.4103   1.7745745167e+01   6.5454288895e+01    0.2278037    0.1175278  61.94 0.0006274538    1.825    0.452
        48  -9.9256     19.8825    211.1772   8.6464483970e+01   2.7324197597e+01    0.1976354    0.1227153  57.94 0.0008055184    1.303    0.233
        49 -11.4263    248.0410    249.5639   4.4431083251e+01  -7.9834369587e+00    0.2502413    0.1623344  10.16  0.001487023    1.140    0.123
        50 -11.4809     21.9271    248.7233   8.7766983036e+01   1.9849946764e+01    0.4812159    0.1361839  42.90  0.002376682    2.231    0.552
        51  -9.9300      6.9431    249.2893   9.0631989630e+01   2.1180316586e+01    0.1833807     0.135034  57.10 0.0005482271    1.043    0.041
        52 -10.3501     10.5085    248.0095   8.9920634056e+01   2.1078617143e+01    0.3545299   0.08295421  47.98  0.001731036    2.551    0.608
        53 -10.0500     72.0802    208.6370   7.4273268251e+01   2.1907320906e+01    0.2527097    0.1559656  17.81  0.001269055    1.995    0.499
        54  -9.6431    174.8335    202.1478   5.0157086419e+01   7.7026214190e+00    0.1800697    0.1342454   8.75 0.0004844223    1.304    0.233
        55 -11.1777     18.8123    204.8299   8.6371320944e+01   2.8765012710e+01    0.3463871    0.1309778 -65.18  0.001645225    2.706    0.631
        56 -10.0445    238.4570    200.8958   3.8257962721e+01  -1.1706800873e+00    0.1678278   0.09768493 -29.32 0.0005050212    1.535    0.348
        57  -9.9843    134.8588    196.3460   5.7889970599e+01   1.5085000469e+01    0.2005996    0.1825375 -62.67 0.0005168774    1.293    0.227
        58  -9.7126     40.4895    197.0413   8.0784802269e+01   2.8238773925e+01    0.1795366    0.1166178 -80.58 0.0003429295    1.536    0.349
        59  -9.2185    120.4252    200.4446   6.1847012590e+01   1.6576881005e+01    0.1344906    0.1193497  28.99 0.0003260147    1.042    0.040
        60 -12.1141     15.6558    192.0676   8.6408775747e+01   3.1837430987e+01    0.3687793    0.3407317 -10.97  0.001769225    1.464    0.317
        61  -8.8492    209.6845    193.2752   4.1879232578e+01   3.8354913317e+00    0.1063789    0.1007288  53.93  0.000297359    1.564    0.361
        62  -9.3579    186.3733    193.2103   4.6300843050e+01   7.3742178155e+00    0.1701123    0.1207329 -45.56  0.000867555    1.639    0.390
        63  -8.8631    145.3539    190.2904   5.4517631738e+01   1.4529305713e+01    0.1412853    0.1019795   2.66 0.0007027471    1.677    0.404
        64  -9.9075    224.7256    189.5899   3.8563945179e+01   2.2148155232e+00    0.3370981    0.1660809  -1.03  0.001178253    4.753    0.790
        65 -10.3929    244.1879    188.1763   3.5112627956e+01  -2.2981419818e-01    0.1486419    0.1288708 -20.42 0.0008861775    1.318    0.241
        66  -9.6323      2.3030    187.3392   8.9332259871e+01   3.4017958093e+01    0.1124561   0.08380651 -52.71  0.000599053    1.672    0.402
        67  -9.6468     61.9534    184.7178   7.4266718280e+01   2.8456500336e+01    0.1888509    0.1620818  51.17 0.0008754304    1.051    0.049
        68 -12.0726     15.4384    182.2788   8.5895247317e+01   3.4066218472e+01    0.4693619    0.2263572  53.73  0.002412145    1.802    0.445
        69 -10.1150    249.5213    181.4800   3.3083893765e+01  -3.3016809744e-02    0.1191096   0.09179641 -10.47 8.571977e-05    1.013    0.012
        70 -10.9972     23.2760    180.3521   8.3805333103e+01   3.3793764676e+01    0.3492896    0.1695994  55.17  0.001730159    1.859    0.462
        71 -11.0057      2.5684    180.0433   8.8937505837e+01   3.5638585433e+01    0.2617833     0.171622  -3.20  0.001320566    2.301    0.565
        72  -8.9510    217.3391    174.3241   3.7023578319e+01   5.5568277091e+00    0.1349019   0.08823168  -0.64 0.0007051122    1.723    0.420
        73 -10.4479     17.6129    172.5497   8.4720740695e+01   3.6136280163e+01    0.3646601    0.1331939  64.21   0.00143216    3.045    0.672
        74 -11.4534      7.9207    172.6797   8.7224866514e+01   3.6917003515e+01      0.22015    0.1534577 -73.98  0.001338271    1.376    0.273
        75  -9.4407    176.6891    168.6297   4.3707657237e+01   1.3206724919e+01     0.147418    0.1023351  -4.20 0.0003891582    1.771    0.435
        76  -9.5891     67.5188    165.5200   7.0441848717e+01   3.2238053621e+01    0.1406804    0.1281488  65.18 0.0001048605    1.004    0.004
        77  -9.4117     19.7665    157.8397   8.3048844123e+01   3.9483460033e+01    0.1713551    0.1255322  55.26  0.000996965    1.254    0.202
        78  -9.9674      1.5414    157.4782   8.8042956359e+01   4.0988325472e+01    0.1239308    0.1040646  83.86 9.396794e-05    1.046    0.044
        79 -10.2976    250.5875    155.6943   2.8114948327e+01   3.3619606079e+00    0.2475271   0.09851117 -30.91  0.001151705    2.205    0.547
        80 -10.4617    216.3967    154.6165   3.3317218364e+01   8.7950294466e+00    0.2259765    0.1960867 -11.45 0.0001648336    1.011    0.011
        81  -9.6866    158.8166    153.6727   4.4568223419e+01   1.9305855189e+01    0.2346288    0.1773993  21.11  0.001171593    1.409    0.290
        82 -10.3085     11.2406    152.7432   8.5058192634e+01   4.1430319700e+01    0.3499832    0.1651431  26.72  0.001706841    2.177    0.541
        83 -12.2412     13.7883    147.8983   8.3958631857e+01   4.2426511466e+01    0.2963887    0.2150726  88.32 0.0003460334    1.212    0.175
        84 -10.4675     17.4896    143.5256   8.2495396523e+01   4.3220987149e+01    0.3070047    0.1573083  64.09  0.001364865    2.020    0.505
        85 -11.7409     14.0689    140.1710   8.3233077528e+01   4.4331370497e+01    0.4388313    0.2085581 -52.78  0.001444375    2.171    0.539
        86  -9.8759     51.5052    148.4928   7.2782718170e+01   3.8517196135e+01    0.2919754     0.136239   5.42 0.0008105773    5.846    0.829
        87 -10.5781    233.9902    146.5112   2.8795430468e+01   7.2028856475e+00    0.2074946    0.1433286 -29.63 0.0005852894    1.243    0.196
        88 -10.1844    217.5216    144.9704   3.1142744250e+01   1.0155313115e+01    0.2831516    0.1536578  25.62  0.001265206    2.456    0.593
        89  -9.8032     40.3206    145.8611   7.5830230976e+01   4.0469075309e+01    0.3341299    0.1009521  23.03  0.001096561    3.910    0.744
        90 -10.9084      6.5072    145.2268   8.5877714579e+01   4.3625250949e+01    0.4357663    0.1441694  21.46  0.001797889    3.213    0.689
        91 -11.1274    239.7625    140.2782   2.6659211593e+01   7.2249630525e+00    0.2318942    0.1762187 -23.46 0.0005655502    1.119    0.107
        92 -10.3125     33.2396    141.6167   7.7496942601e+01   4.2281467414e+01    0.1725202    0.1330345  10.70 0.0009183811    1.565    0.361
        93 -10.1628    235.3574    138.0216   2.6856544965e+01   8.2707202585e+00    0.1850584    0.1392253 -29.29 0.0004155819    1.132    0.117
        94 -10.4215     44.0350    137.7889   7.3632022092e+01   4.2111167776e+01    0.2672429    0.1899718 -74.18  0.001389787    1.329    0.248
        95 -12.9583     37.5804    135.3090   7.5354777568e+01   4.3447632405e+01    0.3368738    0.2633845 -84.98 0.0008640314    1.199    0.166
        96  -8.8572      9.3214    136.3153   8.4357236810e+01   4.5645377337e+01    0.1314341   0.08705041 -47.42  0.000517118    1.659    0.397
        97 -11.5405    241.6565    134.5528   2.5217147089e+01   7.7769258633e+00    0.2394169    0.1953936 -25.19 0.0005536353    1.020    0.019
        98 -11.1406     17.2778    131.1693   8.1390494153e+01   4.6357093834e+01    0.3117472    0.2370049  26.05   0.00108014    1.454    0.312
        99 -11.4988     57.6707    132.5115   6.8466110758e+01   4.1798665482e+01    0.3833331    0.2933506 -23.84 0.0008186121    1.650    0.394
       100 -10.7296     53.1523    133.0471   7.0012420968e+01   4.2240536575e+01     0.295743    0.2157153 -44.87 0.0002796124    1.479    0.324
       101 -12.2689     81.4037    125.1201   5.9435843751e+01   4.0167720076e+01     0.837506    0.5211143 -53.91  0.002639409    1.581    0.367
       102 -11.3605     73.8715    128.7275   6.2568186667e+01   4.0457118273e+01    0.3672572    0.3069378  21.63 0.0007212714    1.308    0.235
       103 -10.1036     64.4636    131.0201   6.6017909879e+01   4.1256941964e+01    0.2418584    0.1760038 -42.83 0.0006344545    1.496    0.331
       104 -10.4148     67.2010    127.7943   6.4542910342e+01   4.1686786984e+01    0.2623568    0.2004139 -77.17 0.0008452986    1.352    0.260
       105 -10.8961      4.7606    130.1450   8.5275947783e+01   4.7494647969e+01    0.2071752    0.1910446 -82.01  0.000296543    1.111    0.100
       106  -9.2057    110.3845    129.4910   5.1629248540e+01   3.3941238893e+01    0.1499373    0.1474773 -73.29 0.0007989612    1.028    0.027
       107 -11.5069     24.7614    127.2189   7.8518573654e+01   4.6749869567e+01    0.3889176    0.2146106 -70.90  0.001569448    1.613    0.380
       108 -10.9347     46.7635    124.2445   7.0714495692e+01   4.5277294246e+01    0.3019087    0.2429753  11.66 0.0006118916    1.446    0.309
       109 -10.0051    217.0231    129.1106   2.7848512473e+01   1.2816000898e+01    0.2014157     0.177406 -25.99 0.0004238489    1.019    0.019
       110  -9.4528    229.3135    124.3270   2.4891975368e+01   1.1397539020e+01    0.1321374    0.0952473  -2.11 0.0007042831    1.668    0.400
       111 -11.5585      9.3386    121.2094   8.3006464523e+01   4.9457268905e+01    0.5029384    0.2359801  67.00  0.001156278    2.419    0.587
       112 -10.1157     68.3865    121.7555   6.2986456235e+01   4.3045761397e+01    0.2053624      0.13198 -52.27 0.0005700435    1.523    0.344
       113 -10.4452     61.1624    121.2194   6.5304691506e+01   4.4216432919e+01    0.2144451    0.1962511 -31.45 0.0006380798    1.189    0.159
       114 -10.3847     56.8790    121.1475   6.6743739755e+01   4.4813639849e+01    0.2303684    0.1903145  72.79 0.0004736965    1.272    0.214
       115  -9.2345     35.5304    121.5062   7.4124847885e+01   4.7210166906e+01    0.1390807    0.1262663 -84.83 -6.824393e-06    1.013    0.013
       116 -11.9682    248.7708    117.5893   2.0748992578e+01   9.1273057647e+00    0.3694876    0.2364773  -7.54  0.001947133    2.064    0.515
       117 -10.5120      2.1254    117.4276   8.5081587974e+01   5.0848158500e+01    0.3335273    0.1666399 -38.18  0.001570795    2.382    0.580
       118 -10.7736     16.0045    115.3992   8.0104406308e+01   5.0479162450e+01    0.2651469    0.2009253  86.13 0.0004563233    1.243    0.195
       119 -11.7541     13.2863    110.1937   8.0456613712e+01   5.2001146375e+01    0.4252126       0.3125  34.32  0.001329265    1.474    0.321
       120  -9.6155    182.1047    114.8166   3.0786468421e+01   2.2125598537e+01    0.2131422    0.1884935 -65.94  0.000571153    1.262    0.208
       121 -11.9169    244.8083    113.1043   2.0331976569e+01   1.0441218963e+01    0.2990052    0.1848456  -6.23  0.001453328    2.408    0.585
       122  -9.5768     25.2099    114.5837   7.6750032023e+01   4.9960001642e+01    0.1737309    0.1321022  -4.31 0.0009414789    1.612    0.380
       123 -11.4405     55.2389    109.8142   6.5125938185e+01   4.7929715928e+01     0.308028    0.2623909 -59.00 0.0005867518    1.116    0.104
       124 -11.6836     31.3377    108.1280   7.3563922181e+01   5.1070903061e+01    0.5126593     0.311043  75.91   0.00235651    2.007    0.502
       125 -10.5826     20.6705    108.3080   7.7528232293e+01   5.1945269991e+01    0.2313573     0.216362   8.69  0.000796421    1.221    0.181
       126 -10.5321     62.6045    107.2101   6.1931611008e+01   4.7572815362e+01    0.2180002    0.1277585 -50.22 0.0009517118    1.648    0.393
       127 -11.6217     75.0987    103.7716   5.6710056308e+01   4.6500354630e+01    0.5309006    0.2991245 -62.15 0.0003961397    1.883    0.469
       128 -10.7856     71.0252    101.4888   5.7588063393e+01   4.7721751180e+01     0.298566     0.199882 -39.54 0.0009514252    1.596    0.373
       129 -10.2013     76.7087     97.6762   5.4605221390e+01   4.7716925822e+01    0.2381956    0.2134015 -26.40  0.000733247    1.177    0.150
       130 -10.0352      3.3742    105.1062   8.3486086688e+01   5.3891157315e+01    0.2103415    0.1721238 -16.25 0.0008398897    1.443    0.307
       131 -10.5113     50.3835    103.9988   6.5708174745e+01   5.0036522992e+01     0.266009    0.2108972  41.34 0.0006623956    1.317    0.241
       132  -9.9286     59.2936    106.3005   6.2924084583e+01   4.8271904952e+01    0.1478385    0.1094168 -29.69 0.0003222412    1.570    0.363
       133 -10.2582     23.6246     99.9038   7.5167570593e+01   5.3861531808e+01    0.3863259       0.1591 -55.14  0.001267536    2.086    0.521
       134 -11.1764     61.8931     99.0817   6.0328353528e+01   4.9712529288e+01    0.4493663    0.2737242 -41.73   0.00199642    1.724    0.420
       135 -11.2027    246.8157     99.9850   1.7305096679e+01   1.2015746217e+01    0.2589445    0.1625761 -77.52  0.001235576    2.890    0.654
       136  -9.8622     66.8362     97.8312   5.8201182433e+01   4.9279764336e+01    0.1961497    0.1688918  66.09 0.0002396694    1.281    0.220
       137  -9.6143     94.8015     97.6006   4.8445325091e+01   4.4435390510e+01    0.2058739    0.1435937  51.10 0.0001665112    1.516    0.340
       138  -9.5827     52.2890     97.0152   6.3471504594e+01   5.1557299615e+01    0.2003457    0.1667138 -57.04 0.0001978943    1.131    0.116
       139 -10.3034     57.1334     95.9148   6.1362899444e+01   5.1178879942e+01    0.2178629    0.2097874 -66.69 0.0003699181    1.028    0.027
       140 -11.8330     57.3913     90.7455   5.9996982669e+01   5.2420229497e+01    0.4160161    0.3247981 -30.62  0.000669913    1.378    0.274
       141 -10.2168     16.4900     95.9995   7.7359540208e+01   5.5399510406e+01    0.2890749    0.1137318 -33.90  0.001041014    3.533    0.717
       142  -9.8402    226.5844     93.3026   1.8428794548e+01   1.6704162398e+01    0.2114181    0.1629985  80.07 0.0006197444    1.624    0.384
       143 -10.8026     35.6224     90.4923   6.8653560003e+01   5.5145554372e+01    0.2498973    0.2252217 -66.84  0.000401185    1.049    0.046
       144  -9.9125     31.6805     92.5805   7.0678857385e+01   5.5010271043e+01    0.2013312    0.1770861 -49.43 0.0005969747    1.078    0.072
       145 -10.8175     95.5240     89.3012   4.5854053851e+01   4.6186180848e+01    0.4467038    0.3127887  37.36   0.00204819    1.452    0.311
       146 -10.2024     23.8790     90.1273   7.3408256150e+01   5.6324588978e+01    0.2133503    0.1745182  69.02  0.001103304    1.343    0.255
       147 -10.4859    184.8782     85.2175   2.2824565852e+01   2.6756826411e+01    0.2202331    0.1886753 -45.34 0.0003073059    1.102    0.093
       148  -9.4179    109.5159     86.4280   4.0613498567e+01   4.3895237889e+01    0.1534173    0.1495809  70.26 0.0001335789    1.044    0.042
       149 -11.1474     64.3938     82.7354   5.5112984532e+01   5.3304339690e+01    0.6553811    0.2613089 -59.53  0.002265115    2.854    0.650
       150 -10.8656    239.3098     84.9749   1.4962795654e+01   1.5533087442e+01    0.1894745     0.144735 -36.03 0.0007507211    1.121    0.108
       151  -9.4624      8.5956     84.8362   7.8920326002e+01   5.8711504100e+01     0.185175    0.1122239 -87.81  0.000937684    1.678    0.404
       152 -10.3419     69.1052     82.6034   5.3253273185e+01   5.2575094809e+01    0.3702928    0.2429941 -80.67  0.001132381    2.384    0.580
       153  -8.9839     34.2791     84.6441   6.7956322842e+01   5.6744968699e+01    0.1398474    0.1032602  73.45 0.0007011998    1.657    0.397
       154  -9.9183     42.7277     83.4101   6.4104139920e+01   5.6124287619e+01    0.2618205    0.1310849  31.26  0.001134503    2.069    0.517
       155 -10.2473     76.3576     82.2316   5.0418502080e+01   5.1417543278e+01    0.4767012    0.1916997  39.75  0.001718536    2.498    0.600
       156  -9.6060      7.9556     80.6362   7.8554627571e+01   5.9792349847e+01    0.1705887    0.1584282 -51.85 0.0005437086    1.092    0.084
       157 -12.5431     88.3786     77.2966   4.4590412715e+01   5.0257191521e+01    0.3710182    0.3403962  15.91 0.0002890299    1.124    0.110
       158  -9.1537      1.6188     80.7469   8.1310419241e+01   6.0078013728e+01    0.1335071    0.0790394 -39.73 0.0006960905    1.660    0.398
       159  -9.6691     40.8600     79.6211   6.3959132379e+01   5.7267930629e+01    0.2036331    0.1217581  39.08 0.0009545275    1.803    0.445
       160  -9.2927    165.2449     78.3382   2.4568285206e+01   3.2486777912e+01    0.1436061     0.117194   2.22   0.00048137    1.558    0.358
       161  -9.9669     50.0087     77.9672   5.9620824080e+01   5.6529074100e+01    0.2130848    0.1943981 -40.90 0.0003247044    1.029    0.028
       162 -11.7981     23.0219     76.0881   7.1016600294e+01   5.9891974131e+01    0.3736735    0.3163337  57.79   0.00207521    1.353    0.261
       163  -9.9151     99.5632     75.2250   4.0198780105e+01   4.8391286028e+01    0.3580074    0.1406892 -52.17  0.001138571    3.143    0.682
       164  -9.8986     74.2343     75.4092   4.9114942595e+01   5.3336319001e+01    0.3507875    0.2361354  -5.68  0.001454167    2.288    0.563
       165  -9.6425     36.9108     76.5113   6.4898892377e+01   5.8465267823e+01    0.1915577    0.1369478  23.89 0.0005516394    1.497    0.332
       166  -9.0721     44.4630     74.4382   6.1029853576e+01   5.8083494246e+01    0.1371472    0.1318963 -56.92 0.0001385535    1.076    0.071
       167 -10.9791    249.4933     72.5003   1.1136864167e+01   1.5412957928e+01    0.2231704    0.1098731 -24.06  0.001035046    2.348    0.574
       168  -9.6745     61.5368     73.0596   5.3380779521e+01   5.5997591130e+01      0.21885    0.1381541 -51.15 0.0004704785    1.533    0.348
       169  -9.9085      6.8076     73.3208   7.7879737403e+01   6.1656281956e+01    0.2457281    0.1540725  -6.00  0.001319484    1.858    0.462
       170  -9.6559    107.1836     72.1716   3.6832598913e+01   4.7345134031e+01    0.2039537    0.1795419  83.02 0.0003239213    1.296    0.228
       171 -10.7377    102.9229     70.3124   3.7521935055e+01   4.8658753829e+01    0.4395506    0.2189374 -42.19  0.001274688    2.036    0.509
       172 -13.7850     16.4735     67.4021   7.2184355830e+01   6.2502314155e+01    0.4542521    0.3661969 -54.30 0.0008011158    1.076    0.070
       173 -10.9908      6.3508     67.8886   7.7141641788e+01   6.3001307080e+01    0.2190308    0.1923937 -50.50 0.0003104893    1.049    0.047
       174 -11.7662      5.4287     61.7488   7.6434448583e+01   6.4521260371e+01    0.7066602    0.4250077  -1.21  0.003830571    1.896    0.473
       175 -10.2641    244.0586     69.2419   1.0990527567e+01   1.6859458583e+01    0.1426201    0.1054527  66.03 0.0004599684    1.574    0.365
       176 -11.2931     92.7620     67.7208   3.9930393009e+01   5.1363978653e+01    0.3534557    0.2871977 -16.80  0.001013988    1.394    0.282
       177 -11.5189     50.3883     68.1414   5.6585775669e+01   5.8772312704e+01    0.3137971    0.2532164 -25.32 0.0004923094    1.262    0.208
       178 -12.6635     30.1569     63.3241   6.4532696108e+01   6.2305722389e+01    0.4457249    0.4194942 -62.87  0.001071389    1.128    0.114
       179  -9.9622     45.0953     70.8154   5.9727254421e+01   5.8858208212e+01    0.1935642    0.1849961  85.53 0.0003199175    1.177    0.150
       180 -10.4540    110.4053     65.1796   3.3542411095e+01   4.7962580059e+01    0.3788767    0.2604242  72.00  0.001182414    1.905    0.475
       181 -10.9850    159.9613     64.0996   2.1489910283e+01   3.6154783879e+01     0.233419    0.2136603  31.69 0.0004535911    1.215    0.177
       182 -10.1977    155.3611     63.6370   2.2239925156e+01   3.7359109613e+01    0.2895228    0.2444596  66.22 0.0005977713    1.175    0.149
       183  -9.4190    130.8375     65.1328   2.8084141065e+01   4.3122397605e+01    0.2041302    0.1796741   9.94 0.0004095087    1.311    0.237
       184 -10.4289     81.7828     65.0483   4.2851077412e+01   5.4140081015e+01    0.2540114    0.2140509  38.32 0.0005194349    1.179    0.152
       185 -11.1571    209.7657     63.0593   1.3474278308e+01   2.4679473853e+01    0.2197765    0.1956469 -72.13 0.0002949658    1.092    0.084
       186 -10.3910    123.3871     61.9267   2.8895861224e+01   4.5489054507e+01    0.3238755     0.226585 -19.75  0.000889336    1.758    0.431
       187 -10.5624     90.9858     61.2674   3.8272024367e+01   5.3012270680e+01    0.3476192    0.2479195  55.79  0.001642564    1.517    0.341
       188  -9.9940     93.0707     57.8892   3.6351616309e+01   5.3207603410e+01    0.2250919     0.215904  48.46 0.0005359923    1.062    0.058
       189 -11.1159     88.9627     54.1382   3.6344741157e+01   5.4785796851e+01    0.5277054    0.2892619 -38.69  0.002006293    1.869    0.465
       190 -11.4868     46.8090     60.1710   5.5643129517e+01   6.1055928825e+01    0.3937199    0.2861125  -7.13 0.0008030619    1.603    0.376
       191  -9.7009     68.4599     56.9362   4.5062063405e+01   5.8301770888e+01    0.2015375     0.178283 -33.03 0.0006240466    1.108    0.098
       192 -10.2255    135.9037     58.7270   2.4815116771e+01   4.2975933122e+01    0.4240159    0.2340565  75.78  0.001542889    2.699    0.630
       193 -10.1632    129.2345     58.5732   2.6323242866e+01   4.4644000977e+01    0.2535722    0.2085039 -39.30 0.0005125919    1.246    0.197
       194  -9.6812     15.6730     58.3811   7.0474421083e+01   6.4699269152e+01    0.1637915    0.1174794  -8.11 0.0005334991    1.504    0.335
       195  -9.8697     80.8609     55.9970   3.9916266983e+01   5.6118703472e+01    0.3970045    0.2530816  -0.81  0.001530332    2.774    0.639
       196  -9.6529    177.3219     56.4577   1.6298559438e+01   3.3115196469e+01    0.1895642    0.1348491  82.96 0.0008188135    1.538    0.350
       197  -9.2480    161.9748     55.9149   1.8697207767e+01   3.6948267506e+01     0.168136    0.1581411 -59.17 0.0002984694    1.045    0.043
       198 -11.0130    115.8790     55.2884   2.8593739310e+01   4.8442130608e+01    0.2911818    0.2442351  78.35 0.0006278389    1.322    0.243
       199 -10.0692    181.9890    250.0000   5.5900175018e+01  -3.4016071424e-01    0.1935468   0.05248672  33.44 0.0008052648    2.962    0.662
       200 -11.2957      3.2203     52.9534   7.5771739262e+01   6.6696308127e+01    0.4955899    0.2841923 -72.13  0.002657184    1.631    0.387
       201 -11.2602      8.0503     51.5566   7.2832995842e+01   6.6770146265e+01    0.6461915    0.3463803  66.61  0.002777091    3.268    0.694
       202 -11.4630      6.8116     41.1354   7.0793444252e+01   6.9192767113e+01    0.8368272    0.2871439 -37.16  0.003456924    2.818    0.645
       203 -12.1143     27.7204     37.6841   5.7291233678e+01   6.8181676922e+01    0.2707471    0.2219854  27.31 0.0002422079    1.319    0.242
       204 -12.1545    149.8291     51.8704   1.9706350579e+01   4.0590563544e+01    0.4657873    0.4262458 -83.89  0.001751547    1.074    0.069
       205 -10.6964    154.3869     52.4832   1.9035615792e+01   3.9356673234e+01    0.2560685    0.2362563 -41.68  7.85434e-05    1.113    0.102
       206 -11.5843    105.4946     52.5272   3.0510565641e+01   5.1369293048e+01    0.3592441     0.288418  44.08 0.0003572398    1.206    0.171
       207  -9.8459     39.5249     48.6397   5.5130621651e+01   6.4508015914e+01    0.4260373    0.2290037 -20.05   0.00170946    2.823    0.646
       208  -9.6336    127.1308     51.3804   2.4398069504e+01   4.6340434413e+01     0.252165    0.1704586 -41.44  0.001174263    1.519    0.342
       209 -12.5248     44.5771     44.1647   5.0877387458e+01   6.4739975212e+01    0.6230976    0.3664349 -58.30 0.0005104688    2.065    0.516
       210 -10.3389     50.2363     43.2021   4.7725777278e+01   6.4083677729e+01     0.335703    0.2451763 -24.71  0.001795483    1.389    0.280
       211 -11.2502     54.1633     48.7620   4.8116601162e+01   6.2372518373e+01    0.5147512     0.249654  38.41  0.002233377    2.088    0.521
       212 -10.9419    218.9010    246.6869   4.8811493837e+01  -4.4573955475e+00    0.2410648    0.1185453 -25.18  0.001297142    2.072    0.517
       213  -9.7132    133.3837     50.6637   2.2719147013e+01   4.4898202288e+01    0.2342171    0.1689721 -68.89 0.0007246584    1.686    0.407
       214 -10.8593     62.4105     49.6917   4.4823552018e+01   6.0811565505e+01    0.4225975    0.1626444 -44.85  0.001423802    2.579    0.612
       215  -9.6743     78.7092     47.3981   3.7384204690e+01   5.8148512151e+01    0.2975327    0.1253694  39.51 0.0004352303    2.444    0.591
       216  -9.6126     76.5196     50.4869   3.9429863178e+01   5.8025613540e+01    0.1427563    0.1372892  11.68 0.0008099479    1.036    0.035
       217 -10.0489    180.6586     47.5326   1.3309960758e+01   3.3593937333e+01    0.3253714     0.173825 -53.84  0.000938802    1.973    0.493
       218 -10.0540     38.6802     52.6962   5.7004372824e+01   6.3748847325e+01    0.2961853    0.1740274 -35.17  0.001021276    1.713    0.416
       219 -11.7590    246.4455     42.6447   5.0061640265e+00   1.9875405531e+01    0.6802067    0.1768808 -43.86  0.002561251    2.833    0.647
       220  -9.4631    222.1574     45.8426   7.9190379814e+00   2.4373163989e+01    0.1535683    0.1495171  -9.09   0.00024966    1.266    0.210
       221  -9.5891    112.2048     45.7088   2.6127665442e+01   5.0892574191e+01    0.1953431    0.1667525  17.25 0.0004960962    1.307    0.235
       222 -10.1944    237.3595     44.4793   6.1770373772e+00   2.1422383738e+01    0.1897459    0.1748724  46.51 0.0007273412    1.389    0.280
       223 -10.7618    121.3094     42.8113   2.2774788687e+01   4.9101986074e+01    0.5153343    0.3234639 -79.63  0.002041986    2.580    0.612
       224 -10.9088     75.1162     43.8680   3.7305462534e+01   5.9500096580e+01     0.342555    0.2188201  56.08  0.001017027    1.819    0.450
       225  -9.7778    131.1456     42.1107   2.0295704983e+01   4.6742099241e+01    0.2605028    0.1781256 -21.11  0.001220636    1.704    0.413
       226  -9.7541    126.8296     43.1875   2.1624486208e+01   4.7669833336e+01    0.2149517    0.1906374 -86.01 0.0004648102    1.182    0.154
       227 -10.3576     83.3395     47.9833   3.5932602352e+01   5.7086114116e+01    0.3882674    0.3328936 -26.90  0.002036921    1.188    0.158
       228 -11.6271    149.4276     40.6987   1.6238909275e+01   4.2308052839e+01    0.3120686    0.2426003 -54.50  0.000313073    1.311    0.237
       229  -9.3866    143.8273     42.1724   1.7747710998e+01   4.3523742319e+01    0.1901023    0.1609526  42.24 0.0003044369    1.256    0.204
       230 -10.2240    102.3318     40.9832   2.7064625099e+01   5.3985457686e+01    0.3690225    0.2193722  24.18  0.001045738    2.481    0.597
       231 -10.5521     97.2759     41.1463   2.8621030569e+01   5.5141548631e+01    0.3319826    0.2036076  60.61  0.001020837    1.738    0.425
       232  -9.2388    186.9771     41.0328   1.0672667866e+01   3.2955381376e+01     0.161973    0.1451892 -76.53            0    1.026    0.026
       233  -9.8801     89.4581     41.4918   3.1230307648e+01   5.6859885003e+01    0.2350204    0.1390356  61.55 0.0006105343    1.987    0.497
       234 -11.3637    226.9286     38.5415   5.7632181502e+00   2.4296261023e+01    0.3833543    0.2075806  38.96  0.001721577    3.174    0.685
       235 -10.2415    233.7436     39.5188   5.3842793642e+00   2.2770390568e+01    0.2655882    0.1156764  85.11 0.0009777454    3.140    0.682
       236 -10.8923     75.9513     33.6517   3.2622984604e+01   6.1018032767e+01    0.3795832     0.285387  62.86  0.001911351    1.572    0.364
       237 -11.3918     83.6814     37.0805   3.1347027167e+01   5.8832255451e+01    0.4267192    0.3565799  35.49  0.001238321    1.134    0.118
       238  -9.9859     88.3183     32.2023   2.7729077177e+01   5.8537365463e+01    0.2773581    0.1963005  -2.54 0.0009627841    1.772    0.436
       239 -12.1899    141.0058     36.6726   1.6462032559e+01   4.4995648857e+01    0.2874716    0.2608092 -45.30 0.0002603322    1.142    0.124
       240  -9.9922    136.3295     35.9982   1.7128913161e+01   4.6276837591e+01    0.2487271    0.1913455  80.55 0.0005414142    1.330    0.248
       241 -10.9700     24.4634     34.5681   5.7941143016e+01   6.9161402495e+01    0.3145442    0.1972224   2.64 0.0005517695    1.782    0.439
       242 -10.1986    202.4454     37.0533   7.8141612341e+00   2.9847906082e+01    0.1971718    0.1221253 -33.21 0.0006888903    1.562    0.360
       243 -11.1450     65.3364     36.5903   3.8105319666e+01   6.2664563287e+01    0.3058978    0.2337624  44.07 7.968981e-05    1.316    0.240
       244 -10.7654    110.5432     34.3190   2.2257506533e+01   5.2978326322e+01    0.3539657    0.2238006  36.87  0.001565993    1.729    0.422
       245 -11.4371    248.0784     36.2749   3.5176339243e+00   2.0338233565e+01    0.2275606    0.1680122 -63.29 0.0003305862    1.188    0.159
       246  -9.0433    129.4496     35.5463   1.8361707827e+01   4.8085308336e+01    0.1445437    0.1343919  56.35 5.713802e-05    1.051    0.048
       247  -9.1566    101.6813     34.2750   2.4594726592e+01   5.5130066952e+01    0.1401143    0.1120544 -80.93 0.0002743312    1.570    0.363
       248  -9.9893    100.6731     30.4780   2.3336291703e+01   5.5897170563e+01    0.4361587    0.2475857  24.69  0.001732628    2.614    0.617
       249  -9.0654     92.7071     34.3489   2.7256247870e+01   5.7223649762e+01    0.1422484    0.1119292 -70.76 0.0007030016    1.672    0.402
       250 -10.1212     34.2475     33.2763   5.1761408400e+01   6.8270610061e+01    0.2253956    0.1557686 -32.60  0.001252524    1.346    0.257
       251  -9.5105    193.5356     33.4929   7.8698736044e+00   3.2361958098e+01    0.1336481    0.1196785 -69.51 0.0001235515    1.026    0.025
       252  -9.0971    116.6241     33.7440   2.0552227812e+01   5.1553602083e+01     0.152368    0.1014371  36.39 0.0006968197    1.654    0.395
       253 -10.4570     12.0802     29.3366   6.3573137564e+01   7.1352341919e+01    0.2699055    0.2269134 -38.75  0.001063968    1.084    0.077
       254  -9.5593     83.6318    248.3023   7.5360602808e+01   1.2905148976e+01    0.1282731   0.06872641  53.19 0.0007033669    1.742    0.426
       255 -10.3694     10.8491     24.6748   6.2536089382e+01   7.2387145211e+01    0.2732643    0.1535038 -28.54 0.0009142003    1.689    0.408
       256 -10.3375     15.9573     32.0068   6.2120714286e+01   7.0490196104e+01    0.2136505    0.1574325 -40.92 0.0004182316    1.168    0.144
       257 -10.2653     19.2605     31.0085   5.9658644923e+01   7.0394973267e+01    0.2288074    0.1984194 -30.71 0.0008826675    1.069    0.065
       258 -12.0234    213.7313     25.7424   3.9158787415e+00   2.8677178039e+01    0.3724544    0.2731165 -81.76  0.001386686    1.288    0.224
       259 -10.7792    218.9974     25.3243   3.3684662451e+00   2.7573041725e+01    0.2476993     0.174401 -69.58 0.0004156955    1.294    0.227
       260 -10.1795     48.6427     29.0594   4.2217772540e+01   6.6906287537e+01    0.2886701    0.1863825   1.41 0.0009027097    2.029    0.507
       261 -11.4184    198.7379     28.5852   6.0353848956e+00   3.1741239491e+01    0.3663803    0.2151494  87.34  0.001716241    1.781    0.439
       262 -11.3916    234.4603     27.4902   2.6384848117e+00   2.4068832620e+01    0.2270991    0.1590609 -41.66 0.0008505019    1.233    0.189
       263 -11.6718    231.3808     26.7950   2.7179338702e+00   2.4781446538e+01    0.2071108    0.1821224  70.37  0.001231965    1.327    0.247
       264 -11.2098    112.2243     26.7583   1.8909950103e+01   5.3556701633e+01    0.3955548    0.2931347  -7.15  0.001850589    1.625    0.385
       265 -10.0057     79.8925     27.6611   2.8531763979e+01   6.1060956185e+01    0.2474992    0.1901744  -6.63  0.001318329    1.444    0.307
       266 -10.7272    176.7230     26.2057   7.8257550418e+00   3.7293308664e+01    0.2841909     0.235407 -23.97 0.0009505824    1.364    0.267
       267  -9.4806    134.8394     27.1618   1.4362728739e+01   4.7781787507e+01    0.1966539    0.1480066  49.67 0.0004000997    1.311    0.237
       268 -10.2636    119.3128     27.2002   1.7479023349e+01   5.1726446535e+01    0.2474836    0.1744276  52.60 0.0007586139    1.316    0.240
       269  -9.6936     61.0220     26.7084   3.5365119569e+01   6.5077297862e+01    0.1971255    0.1658642  23.71  0.001151966    1.096    0.087
       270 -10.4604    153.7701     25.9963   1.0839207786e+01   4.3077253755e+01    0.1952387    0.1803323 -83.44  0.000501834    1.027    0.027
       271  -9.7716     98.5114     26.1559   2.2141694323e+01   5.6984277516e+01    0.1923166    0.1412719 -24.23 0.0004811496    1.475    0.322
       272 -10.7480      1.4068     24.7257   6.9083994905e+01   7.2998853355e+01    0.4998778    0.1605449 -44.01  0.001823791    2.391    0.582
       273 -11.1362     73.3304    244.3437   7.7167246108e+01   1.4881672464e+01    0.2712429     0.216738  31.24  0.001209552    1.215    0.177
       274 -12.6899     74.7585    239.6505   7.6490025400e+01   1.5542126806e+01    0.5146364    0.4668207 -70.10  0.003594546    1.354    0.262
       275 -11.8784    224.8528    247.2475   4.7879094574e+01  -5.2083291399e+00    0.5807121    0.2720595 -16.69  0.003173209    2.499    0.600
       276  -9.9433    175.4917    244.4919   5.6387687564e+01   1.2360084921e+00    0.1191312   0.09165453  17.95 0.0002545079    1.002    0.002
       277  -9.2972     73.3039     25.6851   2.9974555278e+01   6.2755670839e+01    0.2012536    0.1168879  42.02  0.000338899    1.609    0.378
       278  -9.5367     70.6625     25.6683   3.0958925631e+01   6.3310523416e+01    0.2146086    0.1271454  34.98 0.0006419884    1.693    0.409
       279 -10.9082     46.2047    244.3691   8.2743723411e+01   1.8074304426e+01    0.3247586   0.08568988  37.06  0.001467895    2.538    0.606
       280 -10.8928    159.7617     23.1475   9.0940698851e+00   4.1884880914e+01    0.3522727    0.2786314  17.56  0.001746268    1.654    0.395
       281 -10.7517    156.4657     21.4894   9.0327900516e+00   4.2908042114e+01    0.2464716    0.1507553  60.95 0.0006484885    1.528    0.345
       282  -9.4093    129.2304     24.5887   1.4500823841e+01   4.9522829499e+01    0.1939851    0.1210546  55.48 0.0005258837    1.473    0.321
       283  -9.5743     22.0134     24.0105   5.4861868451e+01   7.1472039572e+01    0.1511267    0.1273685 -12.28 0.0003931856    1.034    0.032
       284 -10.0107    224.0000     22.9954   2.4238083172e+00   2.6765533961e+01    0.1958982   0.06315522 -30.29 0.0004413115    2.878    0.652
       285 -11.2619     34.1331     22.6425   4.6804523059e+01   7.0211169756e+01    0.2276968    0.1850127   2.54 0.0002413151    1.119    0.107
       286 -12.1976    241.0455     21.6557   8.9380983849e-01   2.3409142626e+01    0.4209366    0.2003868 -79.26  0.002098787    2.416    0.586
       287  -9.8728     82.4560     21.6040   2.4910495457e+01   6.1302160783e+01    0.2226054    0.1971699 -74.44  0.001231265    1.396    0.284
       288  -9.1825     54.2810     22.3786   3.6217770004e+01   6.6990548403e+01    0.1395856   0.09575015   3.37 0.0007009775    1.715    0.417
       289 -11.0197    193.1702     20.7093   4.5430508656e+00   3.3954714487e+01    0.2485011     0.233366 -36.42 0.0006794684    1.220    0.180
       290  -9.7676    193.4539     16.4597   3.4042122657e+00   3.4354540853e+01    0.2726137    0.1617698 -67.55 0.0007732307    1.654    0.395
       291 -10.0214    122.0757     20.2304   1.4287376242e+01   5.1846188412e+01     0.411686    0.1790749  40.60  0.001378696    2.798    0.643
       292 -10.6270     69.0739     21.2755   2.9450613859e+01   6.4250870488e+01    0.2418554    0.1903541  65.77   0.00132996    1.531    0.347
       293  -9.6003     59.0189     21.4470   3.3627239066e+01   6.6239927452e+01    0.1950773    0.1226639  43.74 0.0004500625    1.507    0.336
       294  -9.5743      4.5005    243.9944   9.0930129287e+01   2.2354575548e+01    0.1437379   0.08913781  83.88 0.0004782123    1.495    0.331
       295  -9.7003     24.4882     20.4499   5.1551488741e+01   7.1840107510e+01     0.184806    0.1539032 -37.20 0.0005106665    1.225    0.184
       296 -10.0197    230.0164     20.0091   1.2966759541e+00   2.5836012547e+01    0.1712802    0.1444707  33.81 0.0005166202    1.678    0.404
       297  -9.6070    102.3242    243.6708   7.1060787884e+01   1.1266096004e+01    0.1257419   0.07650925  54.99 0.0007049879    1.698    0.411
       298 -10.1179    116.0000    241.4100   6.7969408483e+01   9.7999309073e+00    0.2197053   0.07126676 -57.13   0.00092665    3.870    0.742
       299  -9.2346     44.9593     19.4912   3.9250724249e+01   6.9057598446e+01    0.1771016    0.1141923  61.65 0.0008094721    2.708    0.631
       300  -8.7886     41.2698     19.6695   4.1281117783e+01   6.9631851801e+01    0.1141233    0.1049726 -72.56 0.0002104914    1.584    0.369
       301  -9.8746    165.2031     17.1162   6.5663618920e+00   4.1177325597e+01    0.1937027    0.1748198  49.70 0.0005006755    1.243    0.196
       302 -11.0372     88.4206    241.3270   7.3754084640e+01   1.3498899081e+01    0.2495651    0.1931723  28.53  0.001652755    1.219    0.180
       303  -9.8200    131.7048    241.6324   6.4737117510e+01   7.6071517775e+00    0.1199024   0.08604097  -1.55 0.0007029353    1.722    0.419
       304 -10.5242     60.1292    240.7391   7.9642983536e+01   1.7130740158e+01    0.2389584    0.1242802  32.35  0.001336877    1.641    0.391
       305 -10.4956     64.0210     17.7321   2.9651822602e+01   6.5761236117e+01    0.2098947    0.1814576  -8.30 0.0004447071    1.153    0.132
       306 -10.1658    109.1974     16.7432   1.5619286455e+01   5.5475310735e+01    0.2649548    0.1616506  54.35 0.0008568945    1.458    0.314
       307  -9.6905     35.5497     17.1638   4.3105319095e+01   7.0908623425e+01     0.170085    0.1166373 -34.55 0.0002622004    1.424    0.298
       308  -9.5537    149.6862    240.2834   6.0904593864e+01   5.3321995871e+00    0.1156804   0.08295153  49.05 0.0002719662    1.576    0.366
       309 -10.0871    195.8217    238.2580   5.1696383573e+01  -5.8359506412e-01    0.1765199     0.151132 -21.25  0.001100337    1.375    0.273
       310 -10.2316      3.7549    238.4677   9.0903854741e+01   2.3436899216e+01    0.1885789    0.1238679  83.93 0.0007979552    1.405    0.288
       311 -10.8374     30.7588    234.3612   8.5344203282e+01   2.1603867516e+01    0.3354908    0.1940539  81.84  0.001423795    1.712    0.416
       312 -10.7869     35.1197    237.8591   8.4633690672e+01   2.0484148014e+01     0.265177    0.1269355  38.66  0.001421378    1.607    0.378
       313 -10.7831     39.3285    236.5965   8.3697625160e+01   2.0268716501e+01    0.4032712    0.1062607  46.93  0.001780071    2.689    0.628
       314  -9.5096    118.7719     16.5865   1.3558234657e+01   5.3081816992e+01     0.202381    0.1266298  80.61 0.0009449615    1.724    0.420
       315 -10.4915     73.0206     15.9721   2.5393353916e+01   6.4089160263e+01    0.2330111    0.2130777  -0.49 0.0008074723    1.114    0.103
       316 -10.6912    160.8678    234.7596   5.7926691460e+01   4.6129329641e+00    0.2886335    0.1516183 -34.03  0.001528469    2.281    0.562
       317 -10.1040    159.7066     15.0181   6.6030783658e+00   4.2783316783e+01    0.1824196    0.1660246 -63.63 0.0003484418    1.093    0.085
       318 -11.0868    151.6518     15.1327   7.6799982301e+00   4.4818097316e+01    0.2838332    0.1845153  72.40 0.0007485099    1.401    0.286
       319  -9.9462    109.9838    249.7361   7.0081622187e+01   9.2492801682e+00    0.1766137    0.1259154  36.04 0.0006013575    1.090    0.082
       320 -11.2128    183.1934    234.3844   5.3503985173e+01   1.6032702564e+00    0.2503076    0.1802919  32.40   0.00125016    1.287    0.223
       321  -9.1095     59.6497     10.6935   2.7704544070e+01   6.7526895406e+01    0.1411704   0.08900613  23.37 0.0007042576    1.707    0.414
       322  -9.4549     54.2071     14.3959   3.2052098744e+01   6.8129747644e+01    0.1785137     0.120297  55.05 0.0009422831    1.691    0.408
       323  -9.8814     91.9717    235.5087   7.2451873649e+01   1.4063662440e+01    0.1938671    0.1023482  32.36  0.001027268    1.591    0.371
       324 -10.8206     54.9471    231.2020   8.0056493399e+01   1.9526385163e+01    0.3094962    0.2007939 -55.84  0.001879002    1.927    0.481
       325 -10.1494    236.4955    229.9689   4.3340270622e+01  -4.5480340592e+00    0.1595124   0.09226496 -26.32  0.001031462    1.588    0.370
       326 -10.8142    248.5685    228.7662   4.1206891203e+01  -5.7772612605e+00    0.1947083   0.08626163 -27.83  0.001132039    2.032    0.508
       327  -9.7913     39.1392    228.9267   8.3285168354e+01   2.1757991172e+01     0.195919    0.1226776  54.74 0.0008269449    1.286    0.223
       328 -10.3900      4.5570    225.7883   9.0332313335e+01   2.5782246586e+01     0.262233    0.1489878  21.00  0.001579551    2.075    0.518
       329 -10.2742     79.1682    223.4334   7.4092701150e+01   1.8007405184e+01    0.2242486    0.1911299  -9.22  0.001308616    1.551    0.355
       330 -10.0631     16.1814    221.8770   8.7777105873e+01   2.5493140518e+01    0.1374544    0.1305007  67.08 0.0004974198    1.308    0.235
       331 -10.1206     70.7937    221.3926   7.5780086193e+01   1.9490777116e+01    0.1691671      0.10838  26.97  0.000527093    1.546    0.353
       332 -10.3832     41.7647    220.5886   8.2188064481e+01   2.3121361983e+01    0.1884934    0.1038403  33.49  0.001049849    1.600    0.375
       333  -9.7171    211.5446    218.0869   4.5743046290e+01   4.7697506572e-02    0.1692911    0.1062598 -32.00  0.001030903    1.602    0.376
       334 -11.6299     48.9978    218.5420   8.0438751258e+01   2.2716400537e+01    0.5451235    0.2566173  34.27  0.002173618    1.799    0.444
       335 -10.0872     38.6511    217.1402   8.2649599196e+01   2.4163964917e+01    0.2101596    0.1277345  45.51 0.0005282439    1.326    0.246
       336 -11.3715      7.8015    216.2880   8.9310457906e+01   2.7388040820e+01    0.3351799    0.2204049 -69.41  0.002192033    1.688    0.408
       337 -11.1302      3.9281    205.6486   8.9724198829e+01   2.9921805253e+01    0.3209977    0.2149709 -41.43  0.001944485    2.244    0.554
       338 -11.4428      5.1917    210.9411   8.9657239534e+01   2.8711255806e+01    0.3473055    0.1926839 -85.77  0.001760347    1.683    0.406
       339 -11.7600     11.3336    209.2714   8.8254702603e+01   2.8517558354e+01    0.3280282    0.2376404  54.51  0.001376495    1.102    0.093
       340  -9.7356     23.9716    216.0076   8.5819219938e+01   2.5925556359e+01    0.1912985    0.1021014  57.94 0.0003221789    1.555    0.357
       341 -10.5792     13.9041    215.8504   8.7991733111e+01   2.6923920008e+01    0.1615423    0.1520941  72.43 0.0006910561    1.286    0.222
       342 -10.1175     91.3833     24.9364   2.3647849364e+01   5.8826670587e+01    0.3391462    0.1619825  47.70  0.001448146    1.906    0.475
       343 -10.5678    150.1861    249.8125   6.1990929699e+01   3.8558539577e+00    0.2865375    0.1294132  14.74  0.001069877    4.232    0.764
       344 -10.1457     29.9614    214.5007   8.4415605737e+01   2.5629163041e+01    0.1776847    0.1038187  32.89 0.0006932524    1.569    0.362
       345 -10.9730    217.5882    209.0460   4.3183157763e+01   4.7248818196e-01    0.4495444    0.1799198 -29.02  0.002085219    2.653    0.623
       346  -9.5742     63.2734    212.6349   7.6707488829e+01   2.2207971107e+01    0.1341863   0.08018023  62.31 0.0007003084    1.666    0.400
