#   1 NUMBER                 Running object number                                     
#   2 MAG_AUTO               Kron-like elliptical aperture magnitude                    [mag]
#   3 X_IMAGE                Object position along x                                    [pixel]
#   4 Y_IMAGE                Object position along y                                    [pixel]
#   5 X_WORLD                Barycenter position along world x axis                     [deg]
#   6 Y_WORLD                Barycenter position along world y axis                     [deg]
#   7 A_WORLD                Profile RMS along major axis (world units)                 [deg]
#   8 B_WORLD                Profile RMS along minor axis (world units)                 [deg]
#   9 THETA_WORLD            Position angle (CCW/world-x)                               [deg]
#  10 FWHM_WORLD             FWHM assuming a gaussian core                              [deg]
#  11 ELONGATION             A_IMAGE/B_IMAGE                                           
#  12 ELLIPTICITY            1 - B_IMAGE/A_IMAGE                                       
         1 -13.9847    230.7025     18.6787   3.9933112469e+00   2.6586253839e+01      0.98672    0.4431939 -82.96  0.004606105    2.626    0.619
         2 -13.6479    233.7623      8.1252   1.6789655764e+00   2.7147531311e+01    0.6904521    0.3487376 -38.91   0.00399701    1.908    0.476
         3 -13.2480    226.6793     13.3679   3.2532945744e+00   2.8031209260e+01    0.4707709    0.3088301  81.13  0.002289236    1.354    0.262
         4 -12.9818    228.3248      7.3300   1.9225682749e+00   2.8351988800e+01    0.4391845    0.3599179   8.41   0.00290797    2.128    0.530
         5 -13.7088    247.5602     11.6180   1.3709632815e+00   2.4002486810e+01    0.8459044    0.5609219 -56.63  0.005759027    1.224    0.183
         6 -12.0650    200.9687     12.3218   5.2846733744e+00   3.3712948051e+01    0.3058595    0.1628918  86.51  0.001603104    1.788    0.441
         7 -12.5869      3.8328      3.6428   5.4550929053e+01   7.3324081694e+01    0.3802187    0.3225867  47.72  0.002781069    2.303    0.566
         8 -11.4541     23.8439      5.6728   4.4667268681e+01   7.0967759007e+01    0.3548314    0.1034946 -34.97  0.001604908    3.345    0.701
         9 -11.6268     26.0014      2.0000   4.1773296248e+01   7.1114828412e+01    0.2916186    0.1259314  28.33   0.00156881    2.145    0.534
        10 -12.2541     12.1194      5.6938   5.0841199411e+01   7.2277247501e+01    0.4061105    0.1343513 -44.19  0.001870309    3.621    0.724
        11 -12.8799    217.0317      5.8342   2.4901341548e+00   3.0887884862e+01    0.4959232    0.2216868  69.95  0.002631897    1.980    0.495
        12 -11.6441    199.2013      3.7954   3.5548637377e+00   3.4983428535e+01    0.2188057    0.1727872 -83.84  0.001239692    1.021    0.021
        13 -10.6317    178.6695      4.6728   5.7502933211e+00   3.9545334940e+01      0.12289   0.08379753  46.76 0.0007051175    1.709    0.415
        14 -12.1345    192.8151     15.6448   6.8615145932e+00   3.5193781842e+01     0.316696    0.2142167  17.68  0.001624206    2.741    0.635
        15  -9.5629     41.4925      1.5010   3.4532689971e+01   6.8959291015e+01    0.1158332   0.08958329  16.67 -6.588447e-05    1.009    0.009
        16 -11.0744    185.6896    239.9500   5.7295508328e+01  -2.5530380672e+00     0.346524    0.1405127  48.32  0.001305599    3.620    0.724
        17 -10.8062    238.7143    249.6444   4.8852636470e+01  -1.1201807654e+01     0.190612     0.137118 -32.55  0.001184768    1.495    0.331
        18 -10.4673    238.0000    244.9980   4.8224463973e+01  -1.0496446594e+01     0.242133   0.05942342 -38.93 0.0008368657    4.000    0.750
        19 -11.5958    111.7300    249.9222   7.3962618202e+01   7.0436231089e+00    0.3026917    0.1515033  40.79  0.001517369    1.663    0.399
        20 -11.6817     77.0916    248.5024   8.0930168476e+01   1.2314062451e+01    0.4541466    0.2719932  65.70  0.001762043    1.715    0.417
        21 -12.1699     73.9228    239.8269   8.0739116624e+01   1.4470924266e+01    0.6237243    0.3002256  60.84  0.002130284    2.304    0.566
        22 -11.4755     66.6781    234.2926   8.1713593685e+01   1.6591472572e+01    0.4135652    0.2316122  64.57  0.001452867    1.841    0.457
        23 -11.3392     62.2491    228.8289   8.2121565765e+01   1.8330150972e+01    0.4719037    0.2592194  66.80  0.002075608    1.943    0.485
        24 -11.4536     66.4460    249.0739   8.3126343209e+01   1.3642941131e+01    0.4178022    0.1898099  52.09  0.001944013    1.925    0.481
        25 -11.0069     51.1841    249.8277   8.6198182890e+01   1.5460131330e+01    0.3754044    0.1596951  43.47   0.00193867    1.891    0.471
        26  -9.9627     13.6255    239.7804   9.2683565484e+01   2.1740210380e+01    0.1550715    0.0853517  83.73 0.0006476709    1.585    0.369
        27 -10.4117    215.3735    239.1105   5.1388971293e+01  -6.7044204771e+00    0.2372305    0.1474648  45.08  0.001304569    2.023    0.506
        28 -10.5685    112.3585    239.2966   7.2547726325e+01   8.9545932126e+00    0.1270791    0.1001052   1.71   0.00037308    1.703    0.413
        29 -11.0257     80.9941    236.6517   7.8930029770e+01   1.4127474719e+01     0.429047    0.1997144  59.66  0.001870005    2.511    0.602
        30 -10.9038     61.4946    237.2170   8.3068766602e+01   1.6675219665e+01    0.2908358    0.1756617  49.35  0.001265793    1.405    0.288
        31 -10.4369    116.0188    237.0372   7.1477116244e+01   8.8278635223e+00    0.2091338     0.144839  66.04  0.000604396    1.676    0.403
        32 -11.6983    239.6890    235.1465   4.6290198179e+01  -9.3566274861e+00    0.3202255    0.1770712  35.47  0.001570905    1.869    0.465
        33 -12.7071    234.4361    231.4812   4.6603968722e+01  -8.1579942344e+00     0.614108    0.2197837 -27.89  0.002419291    3.577    0.720
        34  -9.8183    165.8133    239.8291   6.1321262267e+01   5.0261567566e-01    0.1713759    0.1443598  50.56 0.0005228901    1.340    0.254
        35  -9.7971     43.7922    236.3899   8.6609307188e+01   1.9075622877e+01    0.1554377    0.1109948  28.41 0.0009427387    1.655    0.396
        36 -12.1519    101.2498    233.3252   7.4203992642e+01   1.1829117888e+01    0.4495173     0.272891  85.47  0.002108896    2.406    0.584
        37 -11.5439    244.6596    231.6496   4.4826960538e+01  -9.4947934938e+00    0.2894384    0.1638975  -9.68  0.001422561    1.950    0.487
        38 -11.0731    218.1517    230.4965   4.9425660933e+01  -5.7993016174e+00    0.3816111    0.1694522 -50.04  0.001619991    3.382    0.704
        39 -10.0700    178.9476    232.5012   5.7472269769e+01  -2.9283681799e-01    0.1994907    0.1156814  33.24 0.0005125987    1.548    0.354
        40 -10.3605     54.7851    231.8534   8.3976074568e+01   1.8659438179e+01    0.2549493     0.119075  57.07  0.001219649    2.061    0.515
        41 -12.0650     72.9125    226.8751   7.9628754857e+01   1.7300582055e+01    0.6315845    0.3386688  71.29  0.002481991    2.348    0.574
        42 -10.5379     47.9704    230.6349   8.5284992891e+01   1.9770281772e+01    0.2348839    0.1416866  70.26  0.001041983    1.581    0.368
        43 -10.4164    226.1113    230.0916   4.7878168056e+01  -6.8400542496e+00    0.1955827    0.1407126  -2.21 0.0009297041    1.271    0.213
        44  -9.8134    161.4525    230.5287   6.0800661386e+01   2.8186637122e+00    0.1324414     0.117755  29.65 9.987784e-05    1.056    0.053
        45  -9.9944    105.4876    230.4373   7.2921194643e+01   1.1766524049e+01    0.1323184    0.1172518  46.97 9.771551e-05    1.038    0.036
        46 -11.2961     94.7881    229.1021   7.5101896883e+01   1.3667168185e+01    0.3654725    0.1785208 -44.25  0.001583997    2.783    0.641
        47  -9.7666    138.2530    228.9875   6.5547562181e+01   6.8531468973e+00    0.1550079    0.1174694 -52.77  0.000480354    1.483    0.326
        48 -10.1442    117.5188    226.9921   6.9817008871e+01   1.0580705297e+01    0.1869651    0.1341861 -58.28  0.000800338    1.544    0.352
        49 -10.1458    135.0005    225.9789   6.5815160901e+01   7.9643535982e+00    0.2120727     0.154228  62.16 0.0009477937    1.614    0.380
        50  -9.9587     90.8016    224.9123   7.5475758192e+01   1.5140468797e+01    0.1882027    0.1383572  60.58 0.0006756287    1.295    0.228
        51 -10.8144     95.0274    222.5120   7.4238397935e+01   1.5014018384e+01    0.2429119    0.1792884  88.28 0.0007462925    1.515    0.340
        52 -10.8397     54.7318    222.0711   8.3083807986e+01   2.0762260224e+01     0.347888    0.1910277  58.71  0.001720764    1.730    0.422
        53 -10.3378     38.1761    222.4041   8.6635979892e+01   2.2707523348e+01    0.2315741   0.07948744 -69.29  0.001004269    2.703    0.630
        54 -10.3313     16.9892    222.6775   9.0993501298e+01   2.4953679191e+01    0.1632144    0.1284608  62.35 0.0005961647    1.117    0.105
        55  -9.9739    109.4945    222.4143   7.0981001517e+01   1.2792420831e+01    0.1354047    0.1207457  46.93 7.596045e-05    1.026    0.025
        56 -10.0246     85.1665    222.1241   7.6395467150e+01   1.6568523024e+01    0.1918101    0.1418654  70.19  0.001069917    1.357    0.263
        57 -10.9843     63.4085    220.8108   8.1069846241e+01   1.9905201934e+01    0.3676195     0.198207  62.19   0.00178241    1.935    0.483
        58 -11.3523    228.8402    220.7923   4.5767278557e+01  -5.8116868221e+00    0.2377816    0.1988905  39.06 0.0007632651    1.501    0.334
        59  -9.9442     78.3892    217.8068   7.7406374545e+01   1.8489925589e+01    0.1833084    0.1171992 -55.45 0.0009515848    1.701    0.412
        60  -9.9679    237.2685    217.6450   4.3694305109e+01  -6.4916022975e+00    0.1079197   0.09662483 -51.91 0.0005150153    1.633    0.388
        61 -12.5375    232.1635    214.2088   4.3996035622e+01  -5.2598906570e+00    0.5175725    0.2409968 -44.27  0.002476272    2.309    0.567
        62 -10.0887    179.9505    217.5112   5.4768285532e+01   2.1686734851e+00    0.2085763     0.123222  35.01  0.001027835    1.575    0.365
        63 -12.3165      2.8855    190.9137   9.1795872555e+01   3.3316131118e+01    0.5628457    0.2201979 -72.40  0.002759245    2.092    0.522
        64 -12.4215      8.0343    208.7321   9.1898430856e+01   2.8856318422e+01    0.7230366    0.3239958  74.46  0.003579975    2.211    0.548
        65 -12.5641      6.1457    200.7906   9.1768316261e+01   3.0796497971e+01    0.7287512    0.3218162  81.16  0.003527036    2.253    0.556
        66 -13.6063     15.2687    213.3755   9.0718125930e+01   2.7143874246e+01     1.206911    0.7677727  57.99  0.007495241    1.359    0.264
        67  -9.9794    242.5189    214.4868   4.2209304837e+01  -6.7238294996e+00    0.1249898   0.09914076  -8.87 0.0008100613    1.030    0.029
        68 -10.1377    209.4740    211.9579   4.7837219011e+01  -1.5552436579e+00    0.1885753    0.1596948  13.16 0.0005554294    1.085    0.079
        69  -9.8306     88.7290    212.3075   7.4371354634e+01   1.8184407153e+01    0.1378678   0.09586853  68.98 0.0001853267    1.542    0.351
        70  -9.7778    142.5322    211.4982   6.1884940134e+01   9.6012693515e+00    0.1397379    0.1293102  35.94 8.325245e-05    1.019    0.018
        71 -11.2144     12.0811    215.8872   9.1536825563e+01   2.6905772832e+01    0.2976066    0.1932272  56.06  0.001738047    1.330    0.248
        72  -9.6681    132.5451    210.4967   6.3989630411e+01   1.1504525539e+01    0.1403698    0.1294259  46.23 0.0001434415    1.037    0.036
        73 -10.0071    122.4920    210.4174   6.6285942894e+01   1.3211690413e+01    0.1410102    0.1269242  49.58 5.948135e-05    1.041    0.039
        74  -9.4334     69.3200    207.6655   7.8290192902e+01   2.2040159769e+01    0.1451522   0.09061527  67.08 0.0004272771    1.701    0.412
        75  -9.6456     52.3258    207.6580   8.2187963241e+01   2.4286285464e+01    0.1431838   0.08436826  66.65 0.0007051104    1.735    0.424
        76 -10.2516     68.4035    214.7702   7.9311474058e+01   2.0563710242e+01    0.3504146    0.1282299 -70.39  0.001353206    3.044    0.672
        77 -10.1011    206.3759    217.2895   4.9391330999e+01  -1.9720214176e+00    0.1379765   0.09138735   1.86 0.0007020051    1.729    0.422
        78  -9.7864     73.3117    203.7240   7.6882224199e+01   2.2385185110e+01     0.140598   0.09281851  64.66 0.0002248176    1.559    0.358
        79  -9.5952    186.2606    200.6454   5.0435396201e+01   4.2189665651e+00    0.1286323    0.1118806 -84.04  0.000697536    1.617    0.382
        80 -10.1224    128.6186    198.6347   6.2962407504e+01   1.4714051452e+01    0.2077305    0.1678869  -8.30 0.0007028956    1.552    0.356
        81 -10.4386    218.5077    187.5398   4.1538150371e+01   1.2291791060e+00    0.2112662     0.163834  16.20 0.0009827823    1.313    0.238
        82 -10.6782    249.4017    184.1669   3.5451771351e+01  -2.9369514560e+00    0.2490759    0.1046836 -36.24  0.001139231    2.069    0.517
        83 -12.4297      1.8130    182.8675   9.1463970679e+01   3.5256166532e+01     0.424566    0.2299225 -70.95  0.002175969    1.553    0.356
        84 -11.2620     15.8323    183.0403   8.8262171617e+01   3.4020592921e+01    0.2009093    0.1719646  59.15 0.0006713195    1.193    0.162
        85 -10.0614     10.3430    176.3152   8.8978039028e+01   3.6094371106e+01    0.1236137    0.0836783 -47.96 0.0007047932    1.710    0.415
        86  -9.3823     69.6876    183.7063   7.5143276576e+01   2.7638654991e+01    0.1342921    0.1079938 -30.53 0.0003776313    1.594    0.372
        87 -11.0551     16.9493    171.6962   8.6967195738e+01   3.6626066738e+01    0.1765457    0.1539461  80.88 0.0009060433    1.087    0.080
        88 -12.6199     11.0775    157.8000   8.7093426965e+01   4.0479098857e+01    0.4300158    0.1886931  41.91  0.002078621    2.348    0.574
        89 -12.6995      4.2413    148.6022   8.7968391177e+01   4.3212479177e+01    0.4068456    0.2373984 -58.19  0.002282858    1.519    0.342
        90  -9.9833     19.6398    143.3196   8.3170541920e+01   4.3326118282e+01     0.137693   0.08704367  66.89 0.0007043208    1.767    0.434
        91 -10.3148     21.7065    135.6793   8.1585068788e+01   4.5035400119e+01    0.1352511   0.08502024 -44.94 0.0002590185    1.610    0.379
        92 -10.0895      7.6837    134.3199   8.5482789034e+01   4.6433927447e+01    0.1287955   0.08471573  70.20 0.0004403519    1.658    0.397
        93 -10.5899    247.8382    130.4964   2.5093872149e+01   6.3457884365e+00    0.2762631    0.1492768 -52.72  0.001006481    1.929    0.482
        94  -9.4457    100.4863    131.4624   5.7177535771e+01   3.5629583001e+01    0.1515343    0.1477789 -57.27 0.0001278397    1.003    0.003
        95 -10.5786      5.6541    131.2741   8.5710589673e+01   4.7306498363e+01    0.1244869   0.08438025  65.88 0.0003864308    1.625    0.384
        96 -10.2616    240.7461    125.4187   2.5094385354e+01   8.4654106057e+00    0.1739434    0.1269948  36.11 0.0009576848    1.679    0.404
        97  -9.9095    227.0061    124.9999   2.7130538605e+01   1.1075009836e+01    0.2183154    0.1582478 -67.30  0.000947043    1.669    0.401
        98  -9.6431    218.4871    124.4151   2.8401622191e+01   1.2823789964e+01    0.1389038    0.1274742 -39.34 7.454696e-05    1.037    0.036
        99 -10.4260    239.8805    118.7252   2.3825612952e+01   9.7824300393e+00    0.2593807    0.1525807 -60.20   0.00121737    2.048    0.512
       100 -12.2618      5.6355    113.6903   8.3473409910e+01   5.1527542078e+01    0.3803789    0.1411332 -66.79  0.001710715    2.092    0.522
       101 -10.4708    235.8032    112.4832   2.3105617925e+01   1.1619837665e+01    0.2749384    0.1866092 -60.37  0.001397543    1.567    0.362
       102 -10.7652    239.4953    103.1656   2.0612684946e+01   1.2512756063e+01    0.2124937    0.1667613 -62.75 0.0007920241    1.244    0.196
       103 -12.7706    245.9230     99.7282   1.9036630149e+01   1.1879793367e+01    0.5105093    0.3705941 -83.46  0.002883868    1.673    0.402
       104 -11.3750      2.2421     95.0020   8.1816785364e+01   5.6088255794e+01    0.2005451    0.1795756 -18.58  0.001407463    1.255    0.203
       105 -10.9466    247.9891     70.5037   1.2803474956e+01   1.6113049301e+01    0.1761867   0.09728128 -82.50 0.0008103641    2.559    0.609
       106 -11.8276    247.3150     60.2128   1.0800786353e+01   1.7765144319e+01    0.4494997    0.1857971 -64.99  0.001671078    3.829    0.739
       107 -10.8582    249.8496     44.6795   7.4820523553e+00   1.9446917931e+01    0.2053732    0.1518802 -39.95  0.001319184    1.394    0.282
       108 -11.4376    240.8779     42.6669   7.9103217167e+00   2.1491546140e+01    0.2108213    0.1587876 -39.00  0.001337436    1.406    0.289
       109 -12.1881    242.8966     33.3592   5.8795344205e+00   2.2306061019e+01    0.3708313    0.1702798 -44.36  0.001966774    1.843    0.457
       110 -12.6899    244.8667     27.1720   4.5111781506e+00   2.2691504859e+01    0.3404982    0.2796178 -24.38   0.00189008    1.700    0.412
       111  -9.9649    200.6507     24.6771   8.1087460243e+00   3.2397400632e+01     0.123061   0.09187777  43.19 0.0007048913    1.747    0.427
       112 -10.6315    152.1121    249.6353   6.5568432488e+01   9.4870290653e-01     0.279414   0.09424222  41.96  0.001121458    2.631    0.620
       113 -10.5086    124.6597    249.3138   7.1205395445e+01   5.2023599884e+00    0.1323861   0.08804013  60.06 0.0007047126    1.700    0.412
       114 -10.0859     33.3652    247.8650   8.9476296398e+01   1.7980951945e+01    0.2388548    0.1074744  54.62  0.001284502    1.842    0.457
       115 -11.6356    131.2750    246.3765   6.9450660062e+01   4.7189149233e+00    0.2192736    0.1583899 -38.02     0.001068    1.678    0.404
       116 -10.6791     88.9892    246.5002   7.8292570955e+01   1.1029536236e+01    0.1974825    0.1058036  40.37  0.001024389    1.580    0.367
       117 -10.7853      1.6044     14.7621   6.0853057339e+01   7.1912256858e+01    0.1403067   0.09362189 -47.99 0.0009496135    1.660    0.397
       118 -10.6885     46.8023    243.9643   8.6601934525e+01   1.7165383658e+01    0.2521207    0.1616567  62.05 0.0008342526    1.320    0.243
       119 -11.1679     82.7692    243.8936   7.9310167133e+01   1.2424253674e+01     0.363516    0.1423964  44.17  0.001649493    2.111    0.526
       120 -10.0297    180.5313    243.5036   5.8884395481e+01  -2.3513967759e+00    0.1276304    0.1077298  17.32 4.291843e-05    1.005    0.005
       121 -12.4231     93.5515    242.1790   7.6876521071e+01   1.1211818501e+01    0.4698497    0.2946219  72.81  0.002456724    1.924    0.480
       122 -10.9069    140.2464    241.4653   6.6903818444e+01   4.2116522282e+00    0.2585239    0.1750333  55.67  0.001181872    1.651    0.394
       123 -10.9089     54.7430    240.2498   8.4715974238e+01   1.6926222642e+01    0.3911695    0.1955071  80.18  0.001866413    2.451    0.592
       124 -11.6510    127.2686    240.8813   6.9573107321e+01   6.3471293994e+00    0.2411787    0.1513641  44.21 0.0005611671    1.407    0.289
       125  -9.8295     19.4875    241.5100   9.1689366417e+01   2.0781475818e+01    0.1178495   0.08707487  69.04 5.545694e-05    1.033    0.032
       126 -10.3596    201.8928    240.1421   5.4132837920e+01  -4.9619355027e+00    0.1849827    0.1588738  26.32  0.001224065    1.218    0.179
