#   1 NUMBER                 Running object number                                     
#   2 MAG_AUTO               Kron-like elliptical aperture magnitude                    [mag]
#   3 X_IMAGE                Object position along x                                    [pixel]
#   4 Y_IMAGE                Object position along y                                    [pixel]
#   5 X_WORLD                Barycenter position along world x axis                     [deg]
#   6 Y_WORLD                Barycenter position along world y axis                     [deg]
#   7 A_WORLD                Profile RMS along major axis (world units)                 [deg]
#   8 B_WORLD                Profile RMS along minor axis (world units)                 [deg]
#   9 THETA_WORLD            Position angle (CCW/world-x)                               [deg]
#  10 FWHM_WORLD             FWHM assuming a gaussian core                              [deg]
#  11 ELONGATION             A_IMAGE/B_IMAGE                                           
#  12 ELLIPTICITY            1 - B_IMAGE/A_IMAGE                                       
         1 -16.7916     13.9962    160.3229   1.2480886060e+02   3.9506958494e+01     3.842906     1.459431  81.73    0.0161864    3.144    0.682
         2 -16.5169    100.2734     55.4302   7.7592259452e+01   5.2060502894e+01     5.910372     4.570847  13.74   0.03027694    1.442    0.306
         3 -14.0560    203.1097     34.2391   4.8846418627e+01   3.0139006927e+01     1.615609    0.2860742 -37.81  0.004733332    4.180    0.761
         4 -15.2913    186.6599     86.2985   6.6211939011e+01   2.6138145326e+01     3.884876     2.084294 -69.18   0.01092415    4.609    0.783
         5 -16.5780    210.2237    118.0895   7.0077630877e+01   1.4768349983e+01     4.158919     2.520117 -57.79   0.01648958    2.199    0.545
         6 -18.4532    233.1297     53.4811   5.0091454604e+01   2.0159843201e+01        8.072     6.449525 -66.03   0.04495097    1.216    0.178
         7 -15.4394     24.0478     31.7728   9.8108207528e+01   6.7440533950e+01     2.052001    0.7380363 -34.28  0.008864293    2.853    0.649
         8 -15.8229     40.8783      4.6809   7.7757566234e+01   6.9832905214e+01     1.529683    0.7129683  42.32  0.005902782    2.429    0.588
         9 -14.1570     56.4540      2.0247   6.9734559615e+01   6.7783415438e+01    0.7831423    0.2592386  48.96  0.003302757    3.240    0.691
        10 -12.0321     38.5713     33.0126   9.1966816051e+01   6.5779079998e+01    0.4577425     0.248724 -22.87  0.001872647    2.019    0.505
        11 -12.3532    156.3307     10.5161   4.8349390705e+01   4.4901640622e+01     0.602953    0.3177591  -5.74  0.002369791    2.654    0.623
        12 -10.6640    208.3724      3.9661   4.0144103756e+01   3.2309283528e+01     0.149638    0.1222988  10.77 0.0008565064    1.634    0.388
        13 -11.4773    157.8111      1.3617   4.5144018564e+01   4.5364509188e+01    0.3249049    0.1119587  67.27 0.0005182149    2.488    0.598
        14 -10.6204    189.9687     35.6275   5.1056188437e+01   3.3310109852e+01    0.1869948    0.1723303 -86.23 0.0005888842    1.026    0.025
        15 -14.6011    175.7417    246.7339   1.0162213818e+02  -2.4448289600e-01     1.509731    0.6820884  41.29  0.006288423    1.752    0.429
        16 -13.7254    191.9429    242.3372   9.8074569444e+01  -2.2168083780e+00    0.7465988    0.4749365  40.98  0.003051111    1.320    0.242
        17 -14.3685    205.7071    247.0003   9.6291551522e+01  -4.9383338199e+00    0.9596949    0.7010236  33.78  0.005848101    1.127    0.112
        18 -13.0744    199.7444    237.9534   9.6018404379e+01  -2.8732132476e+00    0.4997398    0.2986872  40.90  0.001616917    1.428    0.300
        19 -12.5084      1.8158    248.6108   1.3182566490e+02   2.3142143030e+01    0.3940424    0.2065547  87.10  0.002038254    1.512    0.338
        20 -12.1092      1.0000    242.9578   1.3174411840e+02   2.4189894675e+01    0.4029556   0.08547576 -75.01  0.001940223    3.899    0.744
        21 -12.6746    189.3977    148.2763   8.1378585470e+01   1.3666356373e+01    0.3891446    0.2474933 -64.11  0.001564586    2.448    0.592
        22 -14.0026     49.5180    219.5470   1.2228723124e+02   2.3256841751e+01     1.114732    0.8935521   9.87  0.007300442    2.239    0.553
        23 -12.6390    160.9870    127.5021   8.2709714595e+01   2.4051392366e+01    0.4718375    0.3581284 -40.82  0.002223565    1.320    0.242
        24 -11.1075    134.9924    120.9877   8.7408372446e+01   3.1139841918e+01    0.4286743    0.1725937 -46.78  0.001470438    2.451    0.592
        25 -13.5804    166.9142    114.5338   7.8067193917e+01   2.5403125106e+01    0.8442448    0.6144855  -5.47  0.001439721    1.940    0.485
        26 -13.2004    156.6671    113.9075   8.0271182127e+01   2.7891365233e+01    0.7797678    0.3397491 -44.82  0.002750693    2.280    0.561
        27 -11.0684    135.0000    113.0247   8.5382788715e+01   3.2907698564e+01    0.4483454    0.1751188 -40.80  0.001469212    2.693    0.629
        28 -12.0054    134.5806    106.0421   8.3638933057e+01   3.4531937018e+01     0.877688    0.2240442 -45.44   0.00238679    3.852    0.740
        29 -11.5639    174.3302    114.0287   7.6286767874e+01   2.3783354952e+01    0.2839917    0.2254762  86.18 0.0006623068    1.624    0.384
        30 -10.9809    178.1363    110.0749   7.4427826595e+01   2.3679731829e+01    0.2407142    0.2135945  -0.90 0.0004854718    1.243    0.196
        31 -12.7497    112.2762    107.0331   8.9913149161e+01   3.8940585944e+01    0.6499441    0.3307534 -59.15   0.00241624    2.325    0.570
        32 -15.5003     28.9480    208.8244   1.2533065781e+02   2.7728936183e+01     1.432891    0.7990487  80.35  0.007536525    1.514    0.339
        33 -11.6306    127.1754    104.8915   8.5273368873e+01   3.6379769230e+01    0.2449379    0.2161242 -76.50 0.0009323131    1.241    0.194
        34 -10.2605    164.3024    102.6375   7.5477607784e+01   2.8436576236e+01    0.1655921    0.1249069 -74.11 0.0007036637    1.727    0.421
        35 -10.9790    144.3532    102.9321   8.0306170164e+01   3.3020799746e+01    0.2931476     0.231321  36.11 0.0006025124    1.343    0.255
        36 -12.5400    153.2735     98.4966   7.6894638283e+01   3.1882262241e+01    0.5178655    0.3917141  59.58  0.002243163    1.420    0.296
        37 -14.1341    164.9079     89.5087   7.1652835516e+01   3.0883841523e+01     1.045771    0.9034618 -18.46  0.004054748    1.245    0.197
        38 -12.2819    172.2638     86.5488   6.9206868992e+01   2.9643707695e+01    0.4118709    0.3007001 -62.34 0.0004291535    1.614    0.380
        39 -10.7810    131.6828     98.1020   8.2202124507e+01   3.6884757652e+01    0.2608459    0.2198613  64.79 0.0006160524    1.304    0.233
        40 -14.5016    194.6439     71.0989   6.0473494907e+01   2.6796347665e+01     1.462886     1.136558 -17.80  0.007080609    1.455    0.313
        41 -11.6477    137.3353     92.9970   7.9270448372e+01   3.6702542942e+01    0.3465252    0.2967303  74.91  0.001160689    1.332    0.249
        42 -11.0343    205.9574     90.4723   6.3770948559e+01   2.0704108227e+01    0.3108353    0.2380306 -80.33 0.0009282139    1.642    0.391
        43 -12.3852    149.8473     88.9153   7.4964226224e+01   3.4627612072e+01    0.3396665    0.2749763 -42.39 0.0009822295    1.220    0.180
        44 -15.6475     10.0389    199.0660   1.2822520478e+02   3.1584270430e+01     1.680301    0.7078211  81.09  0.006194539    2.130    0.531
        45 -13.3819    162.0008     77.1739   6.8668922690e+01   3.3921555431e+01    0.5191882    0.4532313 -28.74  0.001258175    1.166    0.142
        46 -12.2753    192.4731    194.5050   9.0181801476e+01   4.7799300879e+00    0.9102642    0.4649057 -63.42  0.002364526    8.391    0.881
        47 -11.9709    152.9137     78.3330   7.1073857872e+01   3.5940516589e+01    0.5598857    0.2560427  42.36  0.001974519    2.401    0.584
        48 -12.0042    217.8745    181.1591   8.2728348232e+01   2.2985358513e+00    0.2456296    0.1860068  23.86 0.0005676219    1.242    0.195
        49 -14.3694    180.2110    140.5576   8.1548486552e+01   1.7138511672e+01    0.8936219    0.7197995  -1.00  0.004360004    1.476    0.323
        50 -10.5162    134.0000    147.5148   9.3731180132e+01   2.5404321163e+01    0.3366728   0.08533391 -49.67 0.0009419689    3.993    0.750
        51 -15.1155    190.5946    139.5583   7.9127686283e+01   1.5078757546e+01     1.200897    0.9781673  83.59  0.004105477    1.640    0.390
        52 -11.0313    136.0000    130.4778   8.9446511241e+01   2.8805637174e+01    0.5076525   0.08716689 -47.51  0.001141872    5.791    0.827
        53 -13.5434    198.9409    143.6637   7.8381369736e+01   1.2513222918e+01    0.4871379    0.4393555 -60.40  0.001098367    1.269    0.212
        54 -10.5462     71.0310     53.9770   8.6881909238e+01   5.7566674128e+01     0.208053    0.1784512 -28.09 0.0004007892    1.038    0.036
        55 -12.0192    191.0143     40.7781   5.2393921946e+01   3.2348221823e+01    0.2810802    0.2317791 -49.25 0.0005089786    1.193    0.162
        56 -12.3625    227.0113    173.4929   7.9489921351e+01   1.8488909068e+00    0.4254445    0.2348828  -9.64  0.001711595    2.836    0.647
        57 -12.4267     90.4170    167.6278   1.0794238876e+02   2.8612865016e+01    0.3802495    0.3327104  75.07   0.00126632    1.032    0.031
        58 -11.6136    229.5263    166.3023   7.7541391242e+01   2.5264153279e+00    0.2337766    0.1910269 -46.36  0.001060078    1.447    0.309
        59 -13.4086    189.6996    124.0971   7.5585699195e+01   1.8262102601e+01     0.467419     0.381765  61.91  0.001593221    1.358    0.264
        60 -10.7176    205.6403     24.5193   4.5876478045e+01   3.0719614731e+01    0.1724062    0.1235212  57.79 0.0008930761    1.413    0.292
        61 -11.3151    209.9547     16.6092   4.3283636049e+01   3.0566152327e+01    0.1890754    0.1432469  80.04 0.0005680082    1.235    0.190
        62 -11.1365    246.3725    163.4687   7.4001195075e+01  -6.1557968689e-02    0.4685633    0.2502856   2.61  0.001690559    3.779    0.735
        63 -11.4592    221.2026     15.5604   4.1876399791e+01   2.7928881744e+01    0.2505977    0.2059551  21.00  0.001436996    1.647    0.393
        64  -9.7829    218.5115     13.5439   4.1628434373e+01   2.8808310303e+01    0.1820496    0.1266507 -78.76 0.0009781984    1.380    0.276
        65 -13.7403     54.7822    157.8685   1.1510765371e+02   3.5864078671e+01    0.6542542    0.4377086 -66.49 0.0009349057    1.350    0.259
        66 -14.8641    184.5111    120.4873   7.5760963954e+01   2.0147285280e+01     1.539932    0.7571149 -37.68  0.005883113    2.025    0.506
        67 -13.5014     61.5301    153.6221   1.1289618829e+02   3.6011560831e+01    0.5989578       0.4445 -82.90  0.002169948    1.213    0.175
        68 -14.9526     67.9432    147.9960   1.1046599944e+02   3.6495032583e+01      1.30473     1.114068 -50.07   0.00324691    1.309    0.236
