#   1 NUMBER                 Running object number                                     
#   2 MAG_AUTO               Kron-like elliptical aperture magnitude                    [mag]
#   3 X_IMAGE                Object position along x                                    [pixel]
#   4 Y_IMAGE                Object position along y                                    [pixel]
#   5 X_WORLD                Barycenter position along world x axis                     [deg]
#   6 Y_WORLD                Barycenter position along world y axis                     [deg]
#   7 A_WORLD                Profile RMS along major axis (world units)                 [deg]
#   8 B_WORLD                Profile RMS along minor axis (world units)                 [deg]
#   9 THETA_WORLD            Position angle (CCW/world-x)                               [deg]
#  10 FWHM_WORLD             FWHM assuming a gaussian core                              [deg]
#  11 ELONGATION             A_IMAGE/B_IMAGE                                           
#  12 ELLIPTICITY            1 - B_IMAGE/A_IMAGE                                       
         1 -12.2892      2.7029     20.6680   7.5312423169e+01   6.9138810146e+01    0.3245628    0.2103896 -62.03  0.001124437    1.464    0.317
         2 -12.3955    125.4019     17.0250   3.0561544916e+01   5.1530253943e+01    0.2976278     0.285513  76.07 0.0003170707    1.230    0.187
         3 -10.1205     70.7101     18.5013   4.6825330024e+01   6.2247160010e+01    0.2285369    0.1784066 -23.21 0.0006992195    1.132    0.117
         4 -10.4732     61.1102     16.5317   4.9378089412e+01   6.4010796103e+01    0.3050772    0.2071611 -56.78 0.0009238765    2.504    0.601
         5 -11.3424      5.1401      7.3969   6.9415236534e+01   7.1343187458e+01    0.5362918    0.2679527  39.16  0.003099051    3.268    0.694
         6 -10.0581     14.4450     12.5013   6.7088870280e+01   6.9832403120e+01    0.1748881    0.1550916 -57.32 0.0005226056    1.506    0.336
         7 -11.7234     34.6930     12.3075   5.8000033155e+01   6.8017355858e+01    0.2822868    0.2399952  -5.74  0.000839252    1.207    0.172
         8 -11.6432     30.3144      7.7960   5.7858181663e+01   6.9180371608e+01    0.4686781    0.2623991  36.19  0.002822913    2.248    0.555
         9 -11.2805     44.5094      9.6791   5.2681086953e+01   6.7273918714e+01    0.6173894    0.1870826  41.51  0.002544301    4.134    0.758
        10 -11.7362     55.6163      9.5009   4.8202887840e+01   6.5808121788e+01    0.3212011    0.2457861  -5.32 0.0005534899    1.111    0.100
        11 -10.2090    203.3364     11.9761   1.5614620880e+01   3.2085364205e+01    0.2009967    0.1844062 -34.51 0.0005630133    1.122    0.109
        12 -10.1895    165.8315     11.8224   2.0822949130e+01   4.1995584020e+01    0.1994495    0.1679278 -67.48 0.0005939967    1.352    0.260
        13 -12.3004    125.8822     10.6629   2.7932017489e+01   5.2116642757e+01    0.3213686    0.2707902 -43.40 0.0002263714    1.381    0.276
        14  -9.9557     23.2197      9.8554   6.1971835542e+01   6.9544794090e+01    0.2525846    0.2409354 -47.63   0.00198426    1.555    0.357
        15 -10.4259     16.2794      7.9934   6.4359591316e+01   7.0441490437e+01    0.2135588    0.1662088 -34.87 0.0008551627    1.153    0.132
        16 -12.8020     20.0666      2.3837   6.0019535037e+01   7.1003563828e+01    0.2675466    0.1761469 -20.78 0.0005805413    1.240    0.193
        17 -11.9440    194.5106      4.7333   1.4521884307e+01   3.5120488517e+01    0.3924834    0.3149343  77.39 0.0002856353    1.203    0.169
        18  -9.9100     88.7475      6.4720   3.5598408111e+01   6.0576945946e+01     0.198453    0.1387755 -10.84 0.0005345433    1.318    0.241
        19 -10.4830    247.1042      5.9527   9.5143828508e+00   2.1645397639e+01    0.1946207     0.172011 -65.08 0.0003693409    1.036    0.035
        20 -10.6564    151.4996      5.9732   2.1152711306e+01   4.6269428685e+01    0.2627444    0.1875419  53.25 0.0003215776    1.274    0.215
        21 -10.9525    148.4753      2.4565   2.0392616192e+01   4.7358436176e+01     0.273573    0.2351493  37.33  0.000490294    1.070    0.066
        22  -9.7331    111.4866      5.9284   2.9301229001e+01   5.5895642531e+01    0.1967215    0.1277989 -16.58 0.0008000314    1.513    0.339
        23 -10.7861    174.7982      4.3343   1.6967033358e+01   4.0361079372e+01    0.3066753    0.2519278 -77.74  0.001000429    1.337    0.252
        24 -10.1203    104.6660      4.2125   3.0246237585e+01   5.7557660414e+01    0.2022518    0.1710187  51.70 0.0004223396    1.271    0.213
        25 -11.3828     46.5312      3.3028   4.8767809522e+01   6.7904722732e+01    0.3774152    0.2394044  13.00  0.001356894    1.632    0.387
        26 -10.9421    161.9977      2.6932   1.8290610182e+01   4.3861113883e+01    0.2626232    0.2166738  50.74  0.001375343    1.109    0.098
        27 -10.6531     50.8949     10.5310   5.0517877084e+01   6.6319858648e+01    0.2048359    0.1481812 -24.12  0.000747157    1.136    0.120
        28 -10.3333     37.1152      3.2436   5.2689356756e+01   6.9096649724e+01    0.2078163    0.1513436  34.62 0.0008419166    1.701    0.412
        29 -10.2225     13.7707      3.3957   6.3514744349e+01   7.1382651162e+01    0.1755744    0.1356298 -15.56 0.0006089699    1.173    0.148
        30 -10.4193     10.7075      1.3280   6.4069567676e+01   7.1948555760e+01    0.2156603   0.09378928  29.55  0.001250387    2.804    0.643
        31 -10.0072    138.0183      2.2619   2.2184797149e+01   4.9995128465e+01    0.1968594    0.1669857  49.56 0.0003018931    1.092    0.084
        32 -10.7019     29.9020      1.3602   5.4947555808e+01   7.0178620345e+01    0.1663476    0.1018678  29.72  0.000616143    1.852    0.460
        33 -10.0129     18.4908    194.3763   9.5337841120e+01   3.2923072491e+01    0.1962764   0.07891585 -77.95 0.0008743101    2.078    0.519
        34 -10.3313    110.0031    250.5580   8.4857638782e+01   1.2556992258e+01    0.1578237   0.07807361  47.04 0.0004419537    1.524    0.344
        35 -11.3066     29.3885    250.3432   9.6665716217e+01   2.2620430096e+01    0.2429725     0.103135  50.68  0.001753704    1.700    0.412
        36 -11.9790      2.9854    233.1770   9.9572050041e+01   2.7844992714e+01    0.3308599    0.1515494  48.14  0.002534555    1.768    0.434
        37 -12.8693     10.5419    244.1903   9.8969584641e+01   2.5441613416e+01      0.65206    0.2060684 -72.51  0.004197259    2.929    0.659
        38 -12.8375      5.3508    241.7571   9.9576329091e+01   2.6302615041e+01    0.4741417    0.2593558  76.96  0.003991565    1.278    0.217
        39  -9.1404    208.5488    191.4988   6.0241508453e+01   4.3615165326e+00    0.1293043    0.1084533  29.96 0.0002872792    1.012    0.012
        40  -9.2979    229.4786    165.5109   5.1553463848e+01   3.9262515647e+00    0.1368273    0.1152032  17.66 -4.366297e-06    1.028    0.027
        41 -10.4397      4.5510    153.8288   9.5166791459e+01   4.1810239519e+01    0.2123511   0.09007736  65.80  0.001208052    2.305    0.566
        42  -9.8271      6.3335    148.3094   9.4416402369e+01   4.2769099802e+01   0.09924525   0.06764537 -56.76 0.0004832326    1.674    0.403
        43  -9.2371    235.6885    138.3319   4.4599596450e+01   6.5058242132e+00    0.1326681    0.1122462 -65.01 0.0007043551    1.675    0.403
        44  -9.1808     28.7432    138.7198   8.8904490440e+01   4.2841873554e+01    0.1026973   0.07380243 -57.21 0.0002081045    1.471    0.320
        45 -10.0132     44.1839    136.8500   8.5275882900e+01   4.1707819833e+01    0.1700409    0.1281242  89.47 0.0003039416    1.139    0.122
        46  -9.9466     96.0207    133.9579   7.2835525495e+01   3.5506005240e+01    0.2041331    0.1806234 -80.05 0.0006235249    1.040    0.038
        47  -9.1936     53.3004    130.2918   8.2305730016e+01   4.2110392497e+01    0.1138476    0.0865894 -44.53 0.0003083586    1.566    0.361
        48 -10.5548     27.9592    127.8665   8.7873821661e+01   4.5201275319e+01    0.1651065    0.1317765 -63.16   0.00052767    1.257    0.204
        49  -9.6203     65.0657    125.2976   7.8735675482e+01   4.1781659607e+01    0.1655163    0.1447628  84.49 0.0002182589    1.091    0.084
        50  -9.8195     11.2348    128.5822   9.1708596969e+01   4.6424735543e+01    0.1180469    0.1094859   2.84 0.0009548971    1.596    0.374
        51  -9.6337    208.5270    123.4812   4.5993793274e+01   1.4649112968e+01     0.147403    0.1387682  12.28 0.0001673005    1.021    0.021
        52 -11.3932     24.7139    122.4420   8.7988761365e+01   4.6638687121e+01    0.2505755    0.1472782  75.23 0.0008851116    1.790    0.441
        53 -12.1745     10.5819    120.3497   9.1035725961e+01   4.8194207902e+01    0.3698032    0.2978368  19.16   0.00130291    1.767    0.434
        54 -10.4474     69.1312    116.3161   7.6186078510e+01   4.3221087662e+01    0.2533091    0.1655922 -68.74  0.001211417    1.408    0.290
        55  -9.9981     73.6203    114.8458   7.4774241165e+01   4.2945250934e+01    0.2650974    0.1611867  17.68  0.001233652    2.741    0.635
        56 -10.3148     39.8993    113.0163   8.3036878201e+01   4.7280666892e+01     0.282493    0.1392158 -44.30  0.001412183    2.405    0.584
        57 -10.9680     23.8682    112.8629   8.7008998624e+01   4.8759234085e+01    0.2370484    0.0928094 -51.48  0.001167802    2.477    0.596
        58 -12.6917     14.0955    105.4561   8.8499970508e+01   5.1096784945e+01    0.4324881    0.2498509 -73.16  0.001304358    1.323    0.244
        59 -11.4639      2.7032    111.7516   9.1990051360e+01   5.0532967487e+01    0.1940907    0.1434445 -77.93 0.0002302998    1.031    0.030
        60  -9.2305     72.7553    108.7257   7.3814674724e+01   4.4402918220e+01     0.120678   0.09269393 -39.09            0    1.444    0.307
        61 -10.1798     27.3096    107.6556   8.5447065245e+01   4.9594007879e+01    0.2535954    0.1400699  85.13 0.0006064998    2.096    0.523
        62 -10.1485     97.0056    106.5898   6.7023772723e+01   4.1232009111e+01    0.2003658     0.168515 -56.79 0.0001721237    1.103    0.094
        63 -10.6747     58.8550    105.9696   7.6948147222e+01   4.6771636131e+01    0.1990573     0.180242 -45.48 0.0005014061    1.216    0.178
        64 -10.3469      6.0905    103.8453   9.0310810367e+01   5.1981125669e+01     0.165179    0.1200027  86.58 0.0005286585    1.237    0.192
        65 -11.1174    247.3879    101.7527   3.3965810703e+01   9.2994083323e+00    0.2610467    0.1739257 -17.83    0.0011349    1.489    0.328
        66  -9.2271    122.6881    101.6694   5.9261467458e+01   3.7632850425e+01    0.1471485    0.1158865  -6.89 0.0005078769    1.672    0.402
        67 -11.8700     17.9555     95.9707   8.6226574148e+01   5.2849368859e+01    0.5685559    0.2716305 -86.19  0.002617174    2.358    0.576
        68 -11.1777     20.9895     92.2525   8.4848531982e+01   5.3423838539e+01    0.2152985    0.1581133 -61.58 0.0004036154    1.119    0.106
        69  -9.7800    217.9568     98.6704   3.8020354760e+01   1.6465969319e+01     0.207912    0.1873875  42.72 0.0004440347    1.125    0.111
        70 -10.0196     56.1596     96.8876   7.5929511304e+01   4.9078210645e+01    0.1846731    0.1505561 -77.68 0.0002648471    1.173    0.148
        71 -11.1273     10.7221     93.8797   8.7868210629e+01   5.3797813283e+01    0.3788032    0.1524243 -76.80   0.00191157    2.190    0.543
        72 -10.0962      7.7967     90.6462   8.8215933991e+01   5.4672540677e+01    0.2022133    0.1386859 -74.37   0.00074624    1.112    0.100
        73  -9.6875    147.0428     95.8450   5.1784782326e+01   3.3697721208e+01    0.3503571    0.2061523 -65.97  0.001242281    2.959    0.662
        74 -10.5724     43.9419     93.6848   7.8712405157e+01   5.1098584429e+01    0.3013526    0.1278748 -50.69  0.001450097    2.040    0.510
        75 -11.8530    125.2843     92.9808   5.6316861015e+01   3.8892607387e+01    0.2464679    0.2360145  15.15 0.0002542604    1.088    0.081
        76  -9.5858     80.3066     94.0118   6.8594067539e+01   4.6549214493e+01    0.1819838    0.1611771 -60.39 0.0002670154    1.029    0.029
        77  -9.7302     29.4950     92.5755   8.2548714886e+01   5.2675449838e+01    0.2933967   0.08377601 -61.68  0.001263998    2.541    0.606
        78  -9.7706    142.3490     91.9763   5.1830117352e+01   3.5485561291e+01    0.2075423    0.1840866 -33.97 0.0003859331    1.113    0.102
        79 -10.9157    105.7451     90.7907   6.0825822273e+01   4.3083143511e+01    0.5446618    0.1958539 -52.68  0.001864677    3.001    0.667
        80 -10.3111     66.6653     91.5900   7.1863401425e+01   4.8951286324e+01     0.223165    0.1709004 -60.77 0.0002097061    1.150    0.131
        81 -11.7159     57.8724     91.4020   7.4319201305e+01   5.0076258927e+01    0.2923471    0.2228668 -39.02  0.001124797    1.368    0.269
        82 -11.8651    159.8764     89.1271   4.6958392912e+01   3.2037880858e+01    0.2690793    0.2659923 -62.61 0.0002651013    1.064    0.060
        83  -9.6391     37.2958     95.6709   8.0919125515e+01   5.1310364426e+01    0.1199533   0.08290433  83.68 0.0005176958    1.633    0.388
        84  -9.1344     95.7193     87.3230   6.2640604010e+01   4.5554418165e+01     0.137017    0.1078781 -81.80 0.0002963183    1.590    0.371
        85  -9.8550     92.0757     86.9766   6.3563165080e+01   4.6231161327e+01      0.19815    0.1739563 -75.19 0.0003358777    1.231    0.188
        86 -13.5059     65.5814     81.7276   6.9867667992e+01   5.1218083615e+01    0.3879661    0.3359069 -78.67 0.0006570979    1.239    0.193
        87 -10.5281      7.9955     83.2821   8.7117942078e+01   5.6223364464e+01    0.2809148    0.1766431 -38.18  0.001847143    1.798    0.444
        88  -9.3959     27.7951     82.1876   8.1205805975e+01   5.5058378713e+01     0.153123    0.1090638 -49.93 0.0002251913    1.257    0.204
        89  -9.7227    124.9803     81.2311   5.3073786146e+01   4.1296653623e+01    0.2016531    0.1877629 -24.33 0.0002886893    1.047    0.045
        90  -9.8736    250.4486     80.5036   2.8185404032e+01   1.1630010887e+01    0.1428518    0.1305594 -20.12 0.0001875006    1.010    0.010
        91  -9.7363     73.2745     82.9457   6.7904897772e+01   4.9928898306e+01    0.2009201    0.1624572 -35.85 0.0004275854    1.235    0.190
        92 -10.1330     47.9691     78.9754   7.4503912759e+01   5.3869929847e+01     0.190995    0.1501679 -50.23 0.0003459429    1.096    0.088
        93  -9.5626     85.7384     78.6211   6.3125978359e+01   4.8997164017e+01    0.1781407    0.1299892  49.63 0.0009448329    1.580    0.367
        94 -11.1774     11.8940     77.0311   8.5006329703e+01   5.7307115868e+01    0.1957916    0.1515298 -56.41 0.0005481566    1.138    0.121
        95  -9.8828    177.1225     76.8375   3.9689051413e+01   3.0039089044e+01    0.2409914    0.2179714 -73.34  0.001092843    1.260    0.206
        96 -10.0285     42.8338     76.8541   7.5593899242e+01   5.4850130247e+01    0.1571985    0.1306228 -81.45 0.0002817689    1.278    0.218
        97  -9.9791     22.3683     76.6693   8.1800836940e+01   5.6662451154e+01    0.1731552    0.1212161  81.37 0.0007869173    1.708    0.415
        98 -10.2257     17.5450     77.0032   8.3314690736e+01   5.6938332420e+01    0.1772673   0.08727657 -63.87 0.0003479736    1.524    0.344
        99  -9.1134    180.3657     76.2766   3.8867535549e+01   2.9325774739e+01    0.1641788    0.1164528  24.39 0.0007008113    1.674    0.403
       100 -10.0580     52.2840     75.6463   7.2409254273e+01   5.4112877951e+01     0.225772    0.1999646 -89.78 0.0008080151    1.285    0.222
       101 -10.5235     17.5171     84.8776   8.4655189089e+01   5.5259922361e+01    0.2069982    0.1453582 -66.70 0.0006605055    1.085    0.078
       102 -10.2757     35.1611     74.2058   7.7380889692e+01   5.6139444842e+01     0.301878    0.1441764 -55.16  0.001601717    1.620    0.383
       103 -11.5598      4.5065     74.8367   8.6846263066e+01   5.8209043671e+01    0.2377791    0.1932681 -15.07  0.001533111    1.615    0.381
       104  -9.3759    142.4724     72.9490   4.6205380805e+01   3.9047844770e+01     0.232759    0.1225692 -55.93 0.0008085673    2.785    0.641
       105  -9.8106     46.2456     72.5929   7.3553792405e+01   5.5411502200e+01    0.1804102     0.151976  -7.21 0.0006361439    1.431    0.301
       106  -9.9957     45.3909     69.2632   7.3017479682e+01   5.6202992522e+01    0.2773759     0.162704 -60.12  0.001530327    1.482    0.325
       107  -9.8840    105.7637     71.8143   5.5415116214e+01   4.6933317508e+01    0.1814393    0.1645915 -89.79 0.0004162348    1.323    0.244
       108 -10.6974    118.0787     71.0941   5.1823484476e+01   4.4672296257e+01    0.2129507    0.1977881  -0.51 0.0003654287    1.085    0.079
       109 -11.6535      9.7742     70.4763   8.4528632318e+01   5.8821335338e+01    0.2307522    0.1864858 -18.58  0.001325309    1.555    0.357
       110 -13.4070     81.0464     66.9375   6.1168861823e+01   5.2118315745e+01    0.3710572     0.286661 -32.53 0.0007384339    1.226    0.184
       111  -9.5456     39.0167     70.5039   7.5342849943e+01   5.6570559348e+01    0.1527343    0.1228631  26.06 0.0005866045    1.532    0.347
       112 -11.5112    211.8816     67.4352   3.0559389539e+01   2.2770764040e+01    0.2655295     0.250246  -6.63 0.0003340387    1.046    0.044
       113  -9.9620     18.1660     67.2008   8.1277876424e+01   5.8968356406e+01    0.1550165    0.1187624 -87.26 0.0008168452    1.417    0.294
       114  -9.9810     58.8088     65.8661   6.7831559240e+01   5.5403198689e+01      0.19583    0.1467513 -38.65 0.0004116682    1.203    0.168
       115 -10.4134     68.5046     64.3564   6.4307286243e+01   5.4459543462e+01    0.2004806    0.1944814 -46.66 0.0005110334    1.150    0.131
       116  -9.3486     94.7186     64.3957   5.6279394059e+01   5.0376843506e+01    0.1411663    0.1080984 -70.72 0.0006996275    1.759    0.432
       117 -11.1228      4.6732     61.3396   8.4498623088e+01   6.1017345988e+01    0.2212298    0.1308054  87.73  0.001310523    2.094    0.522
       118 -10.0947    128.5753     63.1381   4.6534403366e+01   4.3929020041e+01    0.2123151    0.1769405 -28.15 0.0004845894    1.159    0.137
       119  -9.1659     34.6222     63.2499   7.5044874621e+01   5.8496909569e+01    0.1099311   0.08764128  75.82  0.000695377    1.646    0.393
       120 -13.7422     20.7335     58.4626   7.8565415842e+01   6.0608664203e+01    0.4527666    0.2395544 -43.70 0.0008930654    1.631    0.387
       121 -11.7735     12.1317     59.7504   8.1733871597e+01   6.0916613622e+01    0.2488945    0.2096575  43.44 0.0005749614    1.549    0.354
       122  -9.6762    119.8078     62.4262   4.8590197002e+01   4.5931566971e+01    0.1807695    0.1379369  31.08  0.000296925    1.392    0.282
       123  -9.5969     98.6564     60.8391   5.3978871998e+01   5.0357403683e+01    0.2016279    0.1214083 -48.99  0.000484181    1.693    0.409
       124  -9.6812     91.9399     59.4717   5.5521323076e+01   5.1804342595e+01    0.2062107    0.1380382  45.36 0.0002521648    1.672    0.402
       125 -10.9969     58.0141     58.8126   6.6074449956e+01   5.6937558866e+01    0.2249356    0.2033758  37.86 0.0003026089    1.329    0.248
       126  -9.7514     38.9523     59.6242   7.2683929949e+01   5.8847487031e+01    0.2345252    0.1178479  28.41  0.001242406    2.430    0.588
       127  -9.9172    229.1629     56.6696   2.4921078735e+01   1.9988178018e+01    0.1987438    0.1877705  33.95 0.0008755967    1.092    0.084
       128  -9.8411    130.7998     57.2114   4.4004934770e+01   4.4473518012e+01    0.2350332    0.1584626 -73.42 0.0008721857    2.647    0.622
       129 -10.0638     72.4386     57.1675   6.0850965467e+01   5.5338628007e+01     0.274385    0.1749686  58.07  0.001031443    2.414    0.586
       130  -9.4365    170.6265     63.1792   3.6880985951e+01   3.3923283559e+01    0.2071636    0.1466696 -16.31 0.0002632877    1.559    0.358
       131  -9.8775    225.3236     52.7001   2.4373605102e+01   2.1485051486e+01    0.2105509    0.1404725 -15.45 0.0004132433    1.634    0.388
       132 -12.8163    114.7962     53.4329   4.6909707611e+01   4.8569544448e+01     0.324228       0.2876  19.98 0.0004408484    1.131    0.116
       133 -12.3891     86.1261     54.0259   5.5484667125e+01   5.3814023795e+01    0.3592864    0.2595433  26.88 0.0003525653    1.541    0.351
       134 -10.2850     81.1680     52.1434   5.6401752584e+01   5.4972164268e+01     0.265783    0.1971574  56.10  0.001089499    1.787    0.440
       135 -10.1373     37.2776     52.9220   7.1446647839e+01   6.0370695162e+01    0.3907613    0.1540528 -33.07  0.001521636    3.707    0.730
       136 -11.9430     66.6903     52.4325   6.1206615832e+01   5.7067006357e+01    0.4977448    0.2582378  41.27  0.002378652    2.265    0.558
       137  -9.6378     17.5270     52.4729   7.8274116484e+01   6.2061630925e+01    0.1832737   0.07646831 -52.11 0.0008632629    1.728    0.421
       138  -9.9468     15.8351     49.1582   7.8073788344e+01   6.2847379687e+01    0.2737806    0.1655681  42.99  0.001158141    2.271    0.560
       139 -10.7517     11.0174     48.4928   7.9643211468e+01   6.3286753302e+01     0.280785    0.1604622  27.83 0.0007999779    2.243    0.554
       140  -9.8810    148.8019     52.1200   3.7995124813e+01   4.1103326220e+01    0.2191368     0.203262 -56.53 0.0003998365    1.195    0.163
       141  -9.2140    129.2736     52.3175   4.2723134030e+01   4.5640042580e+01       0.1501    0.1122859   7.73 0.0002401077    1.565    0.361
       142 -12.4900    106.2560     50.3246   4.8202616996e+01   5.0828856950e+01    0.3220198    0.2990455 -47.33 0.0003396669    1.199    0.166
       143 -10.9704    103.8282     44.0114   4.6624472793e+01   5.2377059085e+01    0.4310679    0.4065296  -0.41  0.002571786    1.079    0.073
       144  -9.4815     44.6216     52.5280   6.8768147427e+01   5.9718903510e+01    0.1261622   0.09688913 -41.93 0.0001205019    1.062    0.059
       145 -10.5210    137.9907     50.2376   3.9865017499e+01   4.3981212103e+01    0.3831553    0.2192126  28.71   0.00133303    2.250    0.555
       146 -10.1177     97.8595     51.0893   5.0911042272e+01   5.2293456341e+01    0.2022096    0.1795935 -43.82  0.000465509    1.188    0.158
       147 -10.1706     54.1229     48.6464   6.4257141828e+01   5.9414797807e+01    0.2541851    0.2187615  61.85 0.0006696026    1.605    0.377
       148  -9.6368    119.6534     48.6972   4.3944449825e+01   4.8350059601e+01    0.1534226    0.1093137  13.12 0.0004227326    1.689    0.408
       149 -10.0665     74.6803     47.5074   5.6898828666e+01   5.6840015252e+01    0.2169934    0.2123729  79.67 0.0007908095    1.302    0.232
       150 -10.3277    154.9461     47.0127   3.4929155561e+01   4.0376386111e+01    0.2243371     0.212433  12.35 0.0003425775    1.015    0.015
       151  -9.6309    136.2424     45.7343   3.8717956602e+01   4.5098342418e+01    0.2030141    0.1623377  20.39 0.0004987337    1.309    0.236
       152 -10.4581     79.3250     45.5264   5.4682953124e+01   5.6477500354e+01    0.2274733    0.1989461 -18.72 0.0002704263    1.032    0.031
       153  -9.9629     29.6812     45.7346   7.2128606373e+01   6.2485921796e+01    0.1948499    0.1529228 -39.14  0.000427329    1.086    0.079
       154 -10.8571     26.5134     44.4866   7.2937676396e+01   6.2995516184e+01    0.3767357    0.2732539   3.70  0.002526928    1.683    0.406
       155  -9.2578    129.6385     45.7690   4.0340570404e+01   4.6616214958e+01    0.1510716    0.1060286  25.57  0.000689325    1.582    0.368
       156 -10.3516     67.3603     44.9947   5.8464675581e+01   5.8375120991e+01    0.2149258    0.1768964   6.27 0.0004245573    1.294    0.227
       157 -10.3155     17.2890     44.1360   7.6263087819e+01   6.3755077554e+01    0.3128535    0.2022615  60.90  0.001827878    2.606    0.616
       158 -10.2179      1.5716     44.9282   8.2243023869e+01   6.4520675306e+01    0.1996962     0.110906 -65.28  0.001274468    1.406    0.289
       159 -10.6719     37.2680     42.3922   6.8318440593e+01   6.2448224557e+01    0.3482028    0.2087682  12.60  0.001982516    2.167    0.539
       160 -12.7107    141.7209     40.8265   3.5710703847e+01   4.4534687059e+01    0.3029386    0.2793452  26.17 0.0005596218    1.040    0.038
       161 -11.4129      4.7495     40.5904   8.0055642244e+01   6.5221197264e+01    0.3114409     0.127867 -67.61  0.001608156    2.244    0.554
       162  -9.1698    214.6456     41.2703   2.2664610468e+01   2.5716919655e+01    0.1526575    0.1100188 -67.66 0.0005107824    1.635    0.389
       163 -10.8424    183.7852     40.5608   2.7269081895e+01   3.3873706884e+01    0.3900568    0.2804574 -85.36  0.001115293    1.790    0.441
       164 -10.7500    170.6978     40.2920   2.9533563830e+01   3.7326534855e+01    0.2389722    0.2292612   4.25 0.0001541153    1.033    0.032
       165 -10.3231    116.8681     41.0793   4.1929570402e+01   5.0172243285e+01    0.2581146    0.1967268  36.86            0    1.311    0.237
       166 -12.4933    121.4251     37.4281   3.9383474730e+01   4.9736164861e+01    0.3801058    0.3105484 -10.64 0.0005383125    1.193    0.162
       167 -10.1686    109.9634     40.7207   4.3672610219e+01   5.1679070092e+01    0.3517046    0.2505785  86.59  0.001093447    2.627    0.619
       168 -10.9929     81.4316     38.3539   5.1352653638e+01   5.7384629781e+01    0.3688231    0.2574905 -22.28  0.001052172    1.364    0.267
       169 -10.2582      1.4429     38.1460   8.0715861755e+01   6.5872622867e+01    0.1678236   0.07996672 -60.35  0.000615454    1.526    0.345
       170 -11.4733    177.4203     35.8634   2.6871898785e+01   3.6164693696e+01    0.2520984    0.2337524  50.68 0.0003168477    1.051    0.048
       171  -9.7451    132.7879     35.3195   3.5800540869e+01   4.7450440361e+01    0.2340102    0.1655129   4.22 0.0006377677    1.628    0.386
       172  -9.7636     67.8701     36.0373   5.5015377952e+01   5.9900205243e+01    0.3108881    0.2228313  85.59  0.001363364    3.645    0.726
       173 -11.8203    144.8176     31.5143   3.1704976180e+01   4.5074659799e+01    0.5334947    0.2974322 -44.15  0.001581581    2.039    0.510
       174 -10.3777      6.6973     34.4597   7.7720916443e+01   6.6314489100e+01    0.2064119   0.08439431 -46.40  0.001044826    1.768    0.434
       175 -12.0644     45.2908     32.6256   6.1952888882e+01   6.3427534239e+01    0.2583503    0.1914403 -38.86 0.0003146244    1.117    0.105
       176 -10.0656     49.6451     32.7260   6.0343031449e+01   6.2903632547e+01    0.2644405    0.1582237 -39.01  0.001502255    1.370    0.270
       177 -11.5662     28.3294     33.2504   6.8768454862e+01   6.5004130359e+01     0.216552    0.1470636 -35.36 0.0004357288    1.204    0.170
       178  -9.5255     43.8002     39.6439   6.4994205918e+01   6.2303596317e+01    0.1449574    0.1129599  38.04 0.0004407277    1.626    0.385
       179  -9.5139     71.4020     31.1769   5.1902419714e+01   6.0186203857e+01    0.1718919    0.1110871 -43.13 0.0002212331    1.537    0.350
       180 -10.4977     67.9471     26.8871   5.1363288660e+01   6.1407244862e+01    0.2841044    0.2305142 -33.34  0.001578565    1.197    0.164
       181  -9.8645     55.5111     32.9680   5.8255622635e+01   6.2133005399e+01    0.1775283    0.1528456 -10.42 0.0003832912    1.121    0.108
       182 -12.2889     11.1367     29.9004   7.4621342328e+01   6.6922198659e+01    0.2112606    0.2029363 -10.50  0.001743946    1.355    0.262
       183 -11.3142    135.6747     29.0676   3.2824395144e+01   4.7618194048e+01    0.2468435    0.2179395  44.82 0.0002852129    1.118    0.106
       184  -9.6644    132.2999     26.2823   3.2549789880e+01   4.8782750243e+01    0.1921006    0.1725043 -64.67 0.0004391815    1.356    0.263
       185 -11.9599     90.9182     26.9233   4.3826430459e+01   5.7518885016e+01    0.3492559    0.2465585 -13.74 0.0003571327    1.373    0.272
       186  -9.4143    209.1966     28.1345   1.9611094190e+01   2.8761343054e+01    0.1922472    0.1616569 -67.92 0.0003471655    1.255    0.203
       187 -11.0852    221.0190     26.3255   1.7584211509e+01   2.5914697751e+01    0.2821896    0.2132333 -35.63 0.0003728736    1.292    0.226
       188  -9.9766    140.4450     26.9359   3.0981633317e+01   4.6739275781e+01    0.2155892    0.1878092  47.71 0.0004223693    1.125    0.111
       189  -9.1342    169.6543     26.7084   2.5216110519e+01   3.9346762146e+01    0.1603928    0.1050024  32.69 0.0002675139    1.661    0.398
       190  -9.8453    102.6292     26.2313   4.0096548310e+01   5.5340048069e+01    0.2352558    0.1601571 -12.15  0.001129012    1.488    0.328
       191 -10.0277    103.0069     22.3275   3.8395471254e+01   5.5794645820e+01    0.2563193    0.2085928   2.05 0.0006399365    1.142    0.124
       192  -9.6296     80.7737     26.5780   4.6890947829e+01   5.9383957196e+01    0.1594618    0.1287373  50.71 0.0003023641    1.550    0.355
       193  -9.9619     51.1355     24.9903   5.6753740454e+01   6.4048891617e+01    0.3176698    0.1376353 -38.26  0.001539713    1.932    0.482
       194  -9.7556     45.1803     25.9611   5.9447629051e+01   6.4606212722e+01    0.1742177    0.1450644 -42.77 0.0004471043    1.283    0.220
       195  -9.1708     18.6279     26.1778   7.0320126187e+01   6.7098571069e+01    0.1677707   0.07581349 -44.96  0.000935084    1.622    0.383
       196 -10.0684    186.5668     25.3202   2.1996279496e+01   3.5055175833e+01    0.1893729    0.1447456  -5.91  0.000560976    1.445    0.308
       197 -10.5279     34.1915     24.4806   6.3260220940e+01   6.6045930782e+01    0.2625783    0.1794524  31.57  0.001695456    1.793    0.442
       198 -11.6332     18.7031    247.9921   9.8020043822e+01   2.4069057260e+01    0.2334833    0.1862301  25.46  0.001673594    2.494    0.599
       199 -10.2246    128.0484     23.0182   3.2285477691e+01   5.0195131059e+01    0.2230334    0.1927898  22.41 0.0004248848    1.078    0.072
       200 -11.0289    124.5042     20.5907   3.2171957924e+01   5.1316945475e+01    0.2515184    0.2163392  39.91 6.366795e-05    1.118    0.106
       201  -9.8063    131.5672    247.2253   8.1170844817e+01   9.8511428474e+00     0.116934    0.1048999 -44.78 0.0009436054    1.602    0.376
       202 -10.1243     85.1643     22.9759   4.3972744822e+01   5.9143162404e+01    0.1973762    0.1776327 -41.09   0.00121684    1.349    0.259
       203 -10.9589     38.2531     19.9190   5.9775542391e+01   6.6401283957e+01    0.3682905    0.1434955 -49.37  0.001668901    2.647    0.622
       204 -12.0440     17.9027     20.6310   6.8665530525e+01   6.8155612544e+01    0.3843837    0.2302553  24.32 0.0006607876    2.032    0.508
       205  -9.8299     75.0036     20.9605   4.6430007468e+01   6.1190434137e+01    0.1934384    0.1656744 -27.69 0.0009508185    1.209    0.173
       206 -10.4788    133.0162     18.8697   2.9570836337e+01   4.9516075190e+01    0.3993903    0.2505709  16.38  0.001094798    1.874    0.466
       207  -9.4323    112.2361     20.6204   3.5216178474e+01   5.4065576065e+01    0.1906132    0.1175705  39.70            0    1.561    0.359
       208  -9.8857    116.0956    246.8125   8.3574207297e+01   1.2198486903e+01    0.1626563    0.1124043  64.13 0.0006757812    1.223    0.182
       209 -10.6935    139.9397     17.9549   2.7753494499e+01   4.7938581798e+01    0.2135791    0.1898525  29.73 0.0002858237    1.039    0.038
       210  -9.4497    170.5138    246.5025   7.4859294605e+01   3.8960018950e+00    0.1128059   0.08370956  42.29 7.360597e-05    1.047    0.045
       211  -9.6777     49.8794     17.8764   5.4239594239e+01   6.5354206926e+01     0.153238    0.1245084 -34.30            0    1.248    0.199
       212  -9.9515    215.2816     15.9677   1.5348938711e+01   2.8551369619e+01    0.1958492    0.1754154 -38.46  0.000360381    1.120    0.107
       213  -9.7789    170.9931     16.2548   2.1491038334e+01   4.0182258367e+01    0.2006734    0.1797329  52.09 0.0002762873    1.053    0.050
       214 -10.2173    159.8889     15.9499   2.3242922968e+01   4.3112480319e+01      0.21827    0.1981536  32.33 0.0003609543    1.051    0.048
       215  -9.4232     91.8524     16.5833   3.9180238810e+01   5.8763768204e+01    0.1671381    0.1303672  60.07 0.0004317116    1.647    0.393
       216 -10.3260     52.6842    244.5144   9.3052455891e+01   2.0903623940e+01    0.1612682    0.1193151  77.48 0.0006612191    1.161    0.139
       217 -10.6196     14.1133     15.8559   6.8551165936e+01   6.9279051355e+01    0.1987559    0.1438705 -47.56  0.000392872    1.229    0.186
       218  -9.8550    147.4569    243.5121   7.8236601854e+01   7.9036302238e+00    0.1116891   0.08419736  49.13  0.000216471    1.022    0.021
       219 -10.6029    235.4051     14.7506   1.2846546247e+01   2.3577428957e+01    0.1890181    0.1321759  -8.10 0.0008005614    1.685    0.407
       220 -10.5119    208.0319     12.9966   1.5348440717e+01   3.0750226896e+01    0.2137584    0.2030676 -70.15 0.0004270248    1.041    0.040
       221 -10.5175     43.1866     19.1872   5.7462851198e+01   6.5965901029e+01    0.1851598    0.1370429 -17.41 0.0006045891    1.169    0.145
       222  -9.5247     39.6286    243.3034   9.4874644041e+01   2.2572748387e+01    0.1062492   0.04731079  64.75 0.0007032068    1.753    0.430
       223  -8.8790    194.3318    242.6928   7.0539754047e+01   5.2595794317e-01    0.1069949   0.07728167  60.69 0.0007039911    1.665    0.399
       224  -9.4185     71.5620    242.5282   9.0111904980e+01   1.8903305084e+01    0.1025665   0.07248382  65.38 0.0001025131    1.007    0.007
       225 -10.2338    188.4216    248.2123   7.2197750335e+01   8.5820997653e-01    0.1202156    0.1074367 -68.77 0.0005355392    1.623    0.384
       226 -10.1738     26.6676    237.3208   9.6423332321e+01   2.4884063964e+01    0.1037901   0.04671062  66.41 0.0004608759    1.698    0.411
       227 -10.2865    184.7997     12.3960   1.8163485435e+01   3.6938035658e+01    0.2125875    0.1210183  55.50 0.0005511817    1.616    0.381
       228  -9.5071    230.1908    247.3817   6.5479474637e+01  -5.5901131587e+00    0.1467686    0.0814905  44.98 0.0004779192    1.537    0.350
       229  -9.4767     59.0423    235.9864   9.1563743276e+01   2.1457069740e+01    0.1206034   0.08520247  68.79 0.0003536351    1.018    0.017
       230  -9.5384    204.4092    235.4908   6.7922231728e+01  -3.0770866416e-01    0.1149779   0.08728997  34.00 0.0008033943    1.026    0.025
       231  -9.5832     97.4985     10.5249   3.4912394887e+01   5.8380523545e+01    0.1348075    0.1177367   7.31  0.000131405    1.035    0.033
       232  -8.8247     86.3221     10.2876   3.8057230944e+01   6.0599555791e+01    0.1368878   0.08867859  16.00  0.000152321    1.601    0.376
       233  -9.3487    238.9950    234.0743   6.2141142233e+01  -5.6945314849e+00    0.1349355    0.1011614  24.25 0.0005359756    1.041    0.040
       234 -10.2396     32.3491    233.2435   9.5390902669e+01   2.4926530697e+01    0.1471884    0.1119393  73.74 0.0003804107    1.188    0.158
       235 -11.5981      2.0871    248.3624   1.0024846237e+02   2.5614750619e+01    0.3274958    0.1994802  78.77  0.002979835    1.158    0.136
       236 -10.4323    245.0600    230.2357   6.0587352286e+01  -6.2717184249e+00    0.3868459    0.1096534  41.57  0.001419389    2.702    0.630
       237  -9.6570    209.7104    229.6700   6.6215979595e+01  -5.3127339534e-01    0.1164387   0.07510777  20.06 0.0003059852    1.622    0.384
       238 -10.0176     56.5617    228.0790   9.1409289604e+01   2.3011052649e+01    0.2161672   0.08615751 -80.63  0.001203504    2.778    0.640
       239 -10.2042    140.0690    228.0517   7.7709245514e+01   1.1187236514e+01     0.191443    0.1201358  67.40  0.001150061    1.785    0.440
       240 -11.4149      2.6633    219.7979   9.9079134969e+01   3.0016333739e+01    0.2624353   0.09571335  73.64  0.001612291    2.337    0.572
       241 -11.0507      1.4559    227.0602   9.9546810597e+01   2.8950757222e+01    0.1790467   0.09997388 -82.53 0.0005388304    1.532    0.347
       242 -10.2923      7.9981    220.7286   9.8343267562e+01   2.9376891647e+01    0.2263359   0.06872327 -89.58 0.0008757639    3.311    0.698
       243  -9.4435    130.7869    221.3573   7.8514907303e+01   1.3656089077e+01    0.1693672   0.09130412  40.26 0.0009547729    1.691    0.409
       244  -9.7211     85.7640    215.0459   8.5585803799e+01   2.1393737304e+01    0.1445283     0.115729  75.46  0.001080597    1.087    0.080
       245  -9.2893    205.5375    211.4330   6.4127452535e+01   2.3239998213e+00    0.1246451   0.09705277  31.00 5.793325e-05    1.057    0.054
       246 -11.2485      3.7418    210.1555   9.8498705996e+01   3.1524822457e+01    0.2895684   0.09446795  85.38  0.001549947    3.012    0.668
       247 -10.2194     39.4239    207.1867   9.2714689344e+01   2.8499311340e+01    0.1735018    0.1170973  58.50 0.0006043761    1.232    0.188
       248  -9.8484     20.2637    209.2587   9.5915253216e+01   3.0131552735e+01    0.1411723   0.07880868  70.36 0.0008869631    1.352    0.260
       249 -10.8751      4.5812    201.2271   9.7949079109e+01   3.2982981695e+01    0.1302281   0.06938299 -74.50 0.0009520544    1.673    0.402
