#   1 NUMBER                 Running object number                                     
#   2 MAG_AUTO               Kron-like elliptical aperture magnitude                    [mag]
#   3 X_IMAGE                Object position along x                                    [pixel]
#   4 Y_IMAGE                Object position along y                                    [pixel]
#   5 X_WORLD                Barycenter position along world x axis                     [deg]
#   6 Y_WORLD                Barycenter position along world y axis                     [deg]
#   7 A_WORLD                Profile RMS along major axis (world units)                 [deg]
#   8 B_WORLD                Profile RMS along minor axis (world units)                 [deg]
#   9 THETA_WORLD            Position angle (CCW/world-x)                               [deg]
#  10 FWHM_WORLD             FWHM assuming a gaussian core                              [deg]
#  11 ELONGATION             A_IMAGE/B_IMAGE                                           
#  12 ELLIPTICITY            1 - B_IMAGE/A_IMAGE                                       
         1  -8.8060     40.3904      1.9185   7.6407928254e+01   7.0230983073e+01    0.2851612    0.1761424  16.38  0.001346404    1.538    0.350
         2  -9.4280     39.6512      7.6571   7.9820379201e+01   6.9611854889e+01    0.3846627    0.2505267 -17.08  0.001533169    1.315    0.240
         3 -10.3019     50.7926     36.7076   8.8245400060e+01   6.3662793309e+01    0.8005313    0.6349332  81.78  0.004307948    2.548    0.608
         4 -10.6109     39.4712     29.7063   9.0250088804e+01   6.6278975442e+01    0.5874065    0.2988424 -43.15  0.003041895    1.734    0.423
         5 -12.0508     44.5888     22.0652   8.4626755992e+01   6.6893892041e+01     1.146803    0.9235674 -59.78  0.006673533    1.990    0.497
         6 -12.5011     80.0212      8.5886   6.4641318635e+01   6.2774226616e+01     2.001324     1.308378  16.63    0.0109776    1.526    0.345
         7 -10.7009    131.2825      3.4783   5.0065219832e+01   5.1669530827e+01     0.941245    0.3042093  60.08  0.003041858    2.482    0.597
         8 -10.4887    120.9700      4.0723   5.2258059374e+01   5.4140268162e+01    0.5309043    0.4580247  66.97  0.002265913    1.170    0.145
         9 -11.4082    109.3088      4.5864   5.4960640134e+01   5.6851317403e+01     1.476481    0.4388765  61.48  0.005307393    3.117    0.679
        10 -11.4267    155.4363     20.7793   5.1907583198e+01   4.3848197028e+01    0.8586697    0.5340072  73.78  0.002392377    1.642    0.391
        11 -13.5761    168.7361     11.7763   4.6937239997e+01   4.1336471000e+01     2.550157     1.853189  63.81    0.0112518    1.243    0.196
        12  -8.7847     20.6178     23.0209   9.6355873312e+01   6.9339576940e+01    0.3165759    0.2496619 -69.33  0.002047333    1.984    0.496
        13  -9.6051    111.7919     16.1844   5.9129034151e+01   5.5149731833e+01    0.4151593    0.2487146  40.22  0.001764073    1.553    0.356
        14 -11.9158    140.2114     14.6523   5.2496052929e+01   4.8397667710e+01     1.907231     1.066257 -45.58  0.008608096    2.081    0.520
        15  -9.5398     94.1619     17.5098   6.4383367916e+01   5.8909505960e+01    0.4104222    0.3224806 -87.57  0.001994642    1.997    0.499
        16 -10.2246     65.0769     16.4619   7.3570212186e+01   6.4601505950e+01    0.3186592    0.2683033  64.82   0.00180283    1.811    0.448
        17 -11.0673    128.4561     15.1311   5.4971342165e+01   5.1280259388e+01     1.006805    0.5670542 -24.39  0.004409037    1.884    0.469
        18  -9.6525    227.3189     14.9972   4.1193386817e+01   2.6149476399e+01    0.4836838    0.2529197 -80.91  0.002184902    2.165    0.538
        19 -10.0357    247.8772     15.0375   3.9449921370e+01   2.1369271694e+01    0.3200724    0.2889775  71.70  0.002118584    1.265    0.209
        20 -10.2597    250.1947      6.6725   3.7403941514e+01   2.1789349324e+01    0.6540702    0.2224284 -28.39  0.002719418    2.983    0.665
        21  -9.9154    244.3868      9.0290   3.8359175263e+01   2.2833280072e+01    0.3160862    0.1408781  57.86  0.001469471    2.430    0.589
        22  -8.7038     20.4872     13.9513   9.2442497182e+01   7.0864068428e+01    0.5044563    0.1963769 -31.93  0.002442613    2.378    0.579
        23  -9.8022    104.1245     12.0428   5.9328801898e+01   5.7329757675e+01    0.4662413      0.34479  -9.90  0.002106765    1.389    0.280
        24 -10.1645    116.4492     17.4127   5.8505286917e+01   5.3930528663e+01    0.8396751    0.3289346 -39.03  0.003239802    2.889    0.654
        25  -9.2485     54.7376      7.5699   7.3224575753e+01   6.7407680961e+01    0.2804491    0.1472332  46.32   0.00109105    2.101    0.524
        26  -9.9751     60.6670      2.4284   6.8258054426e+01   6.6994398639e+01    0.6868466    0.2857813  40.36  0.003311902    2.178    0.541
        27  -8.7254     52.4950      1.9552   7.1196607049e+01   6.8406478215e+01    0.2643016    0.1522326  36.24  0.001518623    1.610    0.379
        28  -9.1439    208.5607      4.1521   4.0195726700e+01   3.1890991696e+01    0.2529046    0.1441567  42.29  0.001184254    2.237    0.553
        29 -10.1223    199.8103      8.2100   4.2134742631e+01   3.3679932549e+01    0.3418648    0.1983407  60.95  0.001324555    1.621    0.383
        30 -10.3400    203.6375      4.0789   4.0644360719e+01   3.3128034335e+01    0.4405458    0.3115977  47.98   0.00240355    1.579    0.367
        31  -9.6759     60.2197      9.7842   7.2175199158e+01   6.6249158294e+01    0.4207298    0.2384146 -35.05  0.002272615    1.855    0.461
        32  -8.9239    230.0013      6.1886   3.8832121435e+01   2.6473363094e+01    0.1728381    0.1466516  10.66 0.0006753491    1.616    0.381
        33 -11.3488    143.5713      3.9142   4.8123018650e+01   4.8549540654e+01     1.149083    0.6702596  75.36  0.005474963    1.717    0.418
        34  -9.1328    213.3246      4.6715   3.9891221351e+01   3.0659799505e+01    0.2711617    0.1210069  53.11  0.001174419    2.404    0.584
        35  -8.7942     26.7757      3.1120   8.3700101219e+01   7.1813651867e+01    0.2415059    0.1754329 -32.12  0.001657746    1.385    0.278
        36  -9.7415    243.7565      2.8878   3.7020455519e+01   2.3638812107e+01    0.2883738     0.151851  59.75  0.001482798    2.035    0.509
        37  -9.5922    218.2798      2.0106   3.8790487539e+01   2.9715000953e+01    0.3744786    0.1524774  85.24  0.001517302    2.638    0.621
        38  -8.7075     16.9422      1.8384   8.8281992134e+01   7.3028155304e+01    0.1760953    0.1456319  -1.80 0.0008401871    1.259    0.206
        39  -7.2668      1.6284      1.3117   9.6913434849e+01   7.4363826885e+01    0.0870611    0.0862995  78.97  0.000703401    1.776    0.437
        40  -8.0974    110.7701     46.4185   7.1234938700e+01   5.1336673849e+01    0.2168633    0.1284029  38.70 0.0009564429    1.712    0.416
        41 -10.3923      3.1258     40.4723   1.1064538306e+02   6.7211395427e+01     0.466423    0.3710771 -70.16  0.002746449    1.361    0.265
        42  -9.3980     12.0422     34.1641   1.0464605302e+02   6.7943464961e+01    0.4791645    0.2000386 -42.56  0.002085232    1.811    0.448
        43  -8.6917      6.0387     35.3161   1.0782856579e+02   6.8081588496e+01    0.1977051    0.1515642 -28.97  0.001168719    1.177    0.150
        44  -8.9480    107.8464     39.7875   6.9553526221e+01   5.3005420270e+01    0.3755236    0.1803932 -15.05  0.001274228    3.412    0.707
        45 -10.0869    183.0133    245.7508   1.0046820492e+02  -1.1605782585e+00    0.4339797    0.1558533  29.82  0.001598209    3.900    0.744
        46 -10.5422    172.8699    241.9108   1.0179026746e+02   9.9292395456e-01    0.2728691    0.1525753  44.36  0.001538029    1.476    0.323
        47 -10.0199    162.0986    240.8512   1.0363743849e+02   2.8981627324e+00    0.3293267    0.1271676  48.89  0.001461771    2.450    0.592
        48 -10.9821    209.7579    223.9435   9.2270031791e+01  -2.5940549622e+00    0.4372878    0.2607383  32.96  0.002475224    1.405    0.288
        49  -8.4018     19.9960    156.2475   1.2336535586e+02   4.0071783511e+01    0.1391169   0.09837183  38.30 0.0008923499    1.611    0.379
        50  -8.7422     43.5310     38.8312   9.2131302326e+01   6.4190018779e+01    0.2780096    0.2103512  38.43  0.001701624    1.645    0.392
        51  -8.9103     67.9910     35.9316   8.1120017148e+01   6.1262521216e+01    0.4227798    0.1947552  41.28  0.001909292    2.292    0.564
        52  -8.5308     27.8655     34.7895   9.7513241864e+01   6.6579806390e+01    0.2855894    0.1303556  25.39  0.001470267    2.465    0.594
        53 -10.2233    225.3715     29.2037   4.4923218046e+01   2.4933027064e+01      0.44727    0.3584585  63.22  0.001830728    1.298    0.230
        54  -8.8181     97.1771     29.8403   6.8706487572e+01   5.6719958994e+01    0.5534802    0.2380405 -19.32  0.002010819    3.132    0.681
        55  -9.3577     86.0800     31.3763   7.2828929677e+01   5.8742089063e+01    0.3118096    0.1837111 -14.30  0.001439514    1.968    0.492
        56  -9.3560     66.1975     29.8605   7.9228318361e+01   6.2516799726e+01    0.3289937    0.2613493  10.57  0.001934462    1.179    0.152
        57 -11.3899     10.5818    141.1683   1.2418818622e+02   4.4275049338e+01    0.6225368    0.2552992 -73.95  0.003173148    1.891    0.471
        58  -9.1829     40.6144    141.8170   1.1680976463e+02   4.1401506821e+01    0.2428963    0.1481272 -79.32  0.001313975    1.453    0.312
        59  -7.8170     23.6681    141.3397   1.2101253400e+02   4.3159290861e+01    0.1313908   0.07677869  71.57 0.0007051678    1.745    0.427
        60 -12.6572    241.3528    131.8860   6.8069931354e+01   5.6385068247e+00     1.510229     1.224547  39.63   0.00576847    1.314    0.239
        61  -9.1553      3.1334    115.8247   1.2357307610e+02   5.0589097609e+01    0.3005528    0.1202045 -68.69  0.001539927    1.830    0.453
        62 -10.5820     11.3579    128.9275   1.2279218513e+02   4.7025660513e+01    0.3042983    0.2138387 -53.95  0.001968896    1.449    0.310
        63  -8.6282    125.4257     28.7758   6.0783018258e+01   5.0461286185e+01    0.3000917     0.234358  16.62  0.001566518    1.364    0.267
        64  -9.3057    132.5043     26.4746   5.8330906506e+01   4.9015961850e+01    0.2859066    0.2383067  26.49  0.001356236    1.205    0.170
        65  -9.3015    104.3353     25.6045   6.4908193895e+01   5.5736951492e+01    0.5025105    0.3797075  20.67  0.002711252    1.321    0.243
        66  -9.9151     17.2241    104.5175   1.1815399903e+02   5.2278854699e+01    0.3665918    0.2761814 -84.29  0.002369754    1.196    0.164
        67  -9.7082     30.0303    102.0688   1.1387266651e+02   5.1841103406e+01    0.3419577    0.2038979 -44.62    0.0018609    1.660    0.398
        68  -8.6294     10.6957     22.6608   1.0120984803e+02   7.0171214386e+01    0.2189308    0.1510853  -9.27  0.001496495    1.424    0.298
        69  -8.5281     90.8707     28.9905   7.0287189072e+01   5.8133609538e+01    0.3112939    0.1852821 -18.09   0.00148237    1.794    0.443
        70 -10.0311     46.5353    100.8978   1.0849314881e+02   5.0513688757e+01    0.4559909    0.1669354 -50.46  0.001868169    2.350    0.574
        71  -8.5957     63.8618     99.3173   1.0267264702e+02   4.8800670218e+01    0.2862468    0.1591989 -71.32  0.001232114    2.141    0.533
        72 -11.7645     45.4066     81.6078   1.0458794744e+02   5.5110503208e+01     1.282821    0.6496294 -43.36  0.006138097    1.820    0.451
        73  -9.2722      2.6041     88.2608   1.2032021783e+02   5.6914908973e+01    0.3636336    0.1890636 -82.93  0.001939116    1.800    0.444
        74  -8.8014     20.2719     88.6488   1.1464070009e+02   5.5737729367e+01    0.2332985    0.1330018 -77.05  0.001081031    1.674    0.403
        75  -8.5753     12.1084     88.7764   1.1733733354e+02   5.6257626826e+01    0.2664499    0.1583192  83.30  0.001444107    2.011    0.503
        76  -9.0496    227.8358     79.4509   5.7454778469e+01   1.7130472439e+01    0.5075963    0.3061732  -6.29  0.001950876    2.814    0.645
        77 -10.3000     25.0195     65.8378   1.0815201382e+02   6.0507825855e+01    0.6417241    0.2647481 -51.88  0.002404519    1.832    0.454
        78  -9.4680      9.1589     80.2004   1.1688587653e+02   5.8379997904e+01    0.3055834    0.2112118 -59.00  0.001546452    1.117    0.104
        79 -10.5236      4.0011     76.0933   1.1795859750e+02   5.9577605339e+01    0.5088071    0.3674441 -63.32  0.002219837    1.048    0.046
        80 -11.6164     14.0700     72.5605   1.1373176649e+02   5.9795811183e+01    0.8536599    0.6969482  55.08  0.005829989    1.548    0.354
        81 -10.6112     38.2167     82.5229   1.0730424644e+02   5.5634634601e+01    0.5453505     0.382678 -83.66  0.003012504    1.690    0.408
        82  -9.6841     74.1059     69.4595   9.1108918982e+01   5.4007460995e+01    0.4353174    0.3340956  54.83  0.002307363    1.644    0.392
        83  -8.1469     34.3131     68.3458   1.0526470452e+02   5.9169843623e+01    0.1374206   0.07930831 -35.31 0.0007046807    1.712    0.416
        84  -9.4700     49.8046     62.0569   9.7603765529e+01   5.8890683627e+01    0.3591005    0.2487237 -20.17  0.001965896    1.581    0.368
        85  -9.4265     82.5514     68.3633   8.7879830490e+01   5.2857238841e+01     0.504655    0.3248113  68.09  0.002045499    2.956    0.662
        86  -8.5582    138.9476     78.2869   7.4550803793e+01   3.9217164325e+01    0.3865756    0.2222143 -20.84  0.001410335    2.450    0.592
        87  -8.4489     76.3758     60.1795   8.7245732659e+01   5.5524888576e+01    0.2004412    0.1244848 -50.91 0.0006962966    1.675    0.403
        88  -8.1253     93.1924     57.1778   8.0529507134e+01   5.3109634074e+01    0.1914877    0.1774404 -75.64   0.00107368    1.343    0.255
        89  -8.9654    199.2124     55.7003   5.5449882980e+01   2.7839046971e+01    0.2873186    0.2355881  52.12  0.000539482    1.258    0.205
        90  -8.9276     66.1992     53.7103   8.8639910503e+01   5.8373585666e+01     0.420765    0.1637786 -49.89  0.001626205    2.685    0.628
        91  -8.1712     35.9632     52.6771   1.0013192303e+02   6.2326272886e+01    0.1741823    0.1489154 -26.74  0.001148805    1.092    0.085
        92  -7.9690     22.9700     52.4701   1.0542616450e+02   6.3509715728e+01    0.1634575    0.1184598  14.61  0.001038416    1.613    0.380
        93 -10.0771     84.0943     47.7369   8.0052070476e+01   5.6499726673e+01    0.5643527    0.4876607  86.06  0.002536686    1.696    0.410
        94 -10.2564     82.0400     39.1061   7.7369534730e+01   5.8320723913e+01    0.4743974    0.3408882 -30.78  0.002567371    1.318    0.241
