#   1 NUMBER                 Running object number                                     
#   2 MAG_AUTO               Kron-like elliptical aperture magnitude                    [mag]
#   3 X_IMAGE                Object position along x                                    [pixel]
#   4 Y_IMAGE                Object position along y                                    [pixel]
#   5 X_WORLD                Barycenter position along world x axis                     [deg]
#   6 Y_WORLD                Barycenter position along world y axis                     [deg]
#   7 A_WORLD                Profile RMS along major axis (world units)                 [deg]
#   8 B_WORLD                Profile RMS along minor axis (world units)                 [deg]
#   9 THETA_WORLD            Position angle (CCW/world-x)                               [deg]
#  10 FWHM_WORLD             FWHM assuming a gaussian core                              [deg]
#  11 ELONGATION             A_IMAGE/B_IMAGE                                           
#  12 ELLIPTICITY            1 - B_IMAGE/A_IMAGE                                       
         1 -15.4783    171.5569    117.7616   8.9808571905e+01   2.4055090859e+01     3.607709     1.938885  31.99   0.01363488    2.418    0.586
         2 -15.4979    202.0170    128.5399   8.6275400032e+01   1.5361522763e+01     3.013174     2.229739   3.12   0.01460867    1.626    0.385
         3 -14.2884      8.0090     22.7023   1.1321303303e+02   6.9705479022e+01     1.289795    0.6634564 -38.65   0.00785062    1.542    0.351
         4 -11.3199     22.6876     14.3395   1.0271801300e+02   7.0037835721e+01    0.2796847    0.1778286 -48.58  0.001755137    1.530    0.346
         5 -12.0238     95.4760      3.3419   6.9629494594e+01   5.9943880894e+01     0.361831    0.2284292  41.32  0.001535537    1.432    0.302
         6 -12.3929     75.6008     13.4457   8.0284609780e+01   6.2774648973e+01    0.3876693    0.2863835  36.72  0.001045173    1.328    0.247
         7 -13.1569     87.2784      2.3389   7.1408825766e+01   6.1758085573e+01    0.8371345    0.4464524  36.96  0.004161159    1.760    0.432
         8 -12.0809     78.8736      3.1699   7.4308820089e+01   6.3347612207e+01    0.3685081    0.2487084 -21.70  0.001494823    1.422    0.297
         9 -11.9351     82.0596     13.9472   7.8404001220e+01   6.1502676471e+01    0.2922533    0.2319218  21.88  0.000702102    1.162    0.139
        10 -12.5841     87.1350     11.6814   7.5795136750e+01   6.0781534738e+01    0.5495315    0.4070121  67.64  0.001714239    1.818    0.450
        11 -11.6692    123.7842     10.3565   6.5922865410e+01   5.2812396360e+01     0.271036    0.2233653  24.39 0.0004607426    1.167    0.143
        12 -10.3317    138.5029      5.5363   6.1203046065e+01   4.9661832671e+01    0.1392192    0.1274599  45.76 7.032471e-05    1.005    0.005
        13 -11.4413     32.8149      4.2551   9.2917356819e+01   7.0519276681e+01    0.3016865    0.1898147  22.01  0.001530788    1.639    0.390
        14 -11.9355     73.2346      1.5202   7.5291448598e+01   6.4592356411e+01    0.2390715    0.1461354  49.10 0.0003780791    1.663    0.398
        15 -13.4952    170.5484    158.3926   9.9161173751e+01   1.6718844954e+01     0.501775    0.4259955 -56.39  0.002342127    1.335    0.251
        16 -12.9410    218.5865    158.5005   8.9873724028e+01   7.1371638843e+00    0.6223581    0.4126118   9.13  0.003052847    1.836    0.455
        17 -11.2906    227.0093    160.4978   8.8792783274e+01   5.2306332940e+00    0.2957962    0.1296009  51.67  0.001206895    2.634    0.620
        18 -11.9630    231.7551    153.6658   8.6529390130e+01   5.3219662137e+00    0.2765396    0.2282425   4.65  0.001255907    1.120    0.107
        19 -12.0704     18.0926    153.5434   1.3252778926e+02   4.0946368471e+01    0.3088003    0.1751057  62.67  0.001911277    1.637    0.389
        20 -11.7231    192.7648    216.8940   1.0519447537e+02   3.4495984529e+00    0.3251905    0.1298141  31.17  0.001339879    2.952    0.661
        21 -12.1448     58.4882    145.1566   1.2239276440e+02   3.8553155768e+01    0.5323427    0.3209542  74.36   0.00279211    1.858    0.462
        22 -12.6542     49.6514    142.3988   1.2414232193e+02   4.0210854330e+01    0.7074202    0.3665904  41.95  0.003770896    1.967    0.492
        23 -10.9836    138.9824    152.2525   1.0472633212e+02   2.4107720550e+01    0.2429356    0.2115649 -52.66 0.0008581694    1.202    0.168
        24 -10.9037      3.6335    140.2225   1.3462700185e+02   4.4927528810e+01    0.2133494    0.1125117 -71.21  0.001326028    1.512    0.339
        25 -11.7972    168.3051    137.6734   9.5222979320e+01   2.1003475679e+01     0.430813    0.3410988  65.24  0.002179249    1.443    0.307
        26 -13.9213    186.6021     96.1714   8.1080500945e+01   2.4504568370e+01    0.8738439    0.7175328  13.38  0.004325693    1.379    0.275
        27 -12.1490    241.4270    132.0144   8.0141278009e+01   6.6058906381e+00    0.2992114    0.2277566 -57.19  0.001575165    1.790    0.441
        28 -14.0328    194.1972    148.0549   9.2223908522e+01   1.3703565407e+01    0.7114125    0.6880201  86.97  0.003823228    1.216    0.177
        29 -11.5204    121.6967    127.3597   1.0363127683e+02   3.2588442182e+01    0.4007569    0.2751741  42.71  0.001643736    1.470    0.320
        30 -14.4236    213.5616    139.4823   8.6649168057e+01   1.1106412625e+01     1.916065     1.062975  17.79  0.007147808    3.049    0.672
        31 -11.4001    112.7310    121.5618   1.0459031792e+02   3.5519529656e+01    0.2748906    0.1416254  38.12  0.001142482    2.091    0.522
        32 -13.8644    144.0066    104.7733   9.2714403205e+01   3.2733252424e+01    0.5805045    0.5000971  81.13  0.002959753    1.342    0.255
        33 -13.6479    147.8796    111.7696   9.3607949797e+01   3.0479252381e+01    0.6135936    0.3856408 -64.58  0.002478056    2.234    0.552
        34 -11.0269    101.9892    114.7106   1.0583995109e+02   3.8951930751e+01    0.2004292    0.1916367  79.99  0.001168414    1.052    0.049
        35 -12.5042    129.4604    108.5215   9.7250551016e+01   3.5053871386e+01    0.3969195    0.3129897  42.26  0.001998889    1.295    0.228
        36 -12.7439    166.6204    147.7121   9.7774873867e+01   1.9472431831e+01    0.3493749    0.2516273 -29.34  0.001728825    1.564    0.361
        37 -12.7761    157.6371    100.2949   8.8338091488e+01   3.0555227719e+01    0.5564713    0.4336408  58.51  0.002689748    1.359    0.264
        38 -12.0445     43.1811     98.5660   1.1909677912e+02   5.0829163717e+01    0.2907655    0.2654904  79.68  0.001620125    1.172    0.147
        39 -13.9582    140.8114     96.0007   9.1116759860e+01   3.5194942845e+01    0.8313222    0.5044584 -63.47  0.003224163    2.391    0.582
        40 -11.4631    147.7909     95.8602   8.9402240995e+01   3.3661195370e+01    0.2764925     0.268319  23.10  0.001136224    1.039    0.037
        41 -10.8944     55.5809     95.1960   1.1470714887e+02   5.0214782974e+01    0.2224641    0.1927106  42.65  0.001397429    1.313    0.239
        42 -13.4041    177.2064     92.1830   8.1879206207e+01   2.7456919337e+01    0.6773216    0.4467779 -28.63  0.002995652    1.581    0.368
        43 -12.3456      5.6955     84.0697   1.2810122649e+02   5.7079129473e+01    0.4396071    0.1277814 -57.58  0.002057805    2.390    0.582
        44 -10.4647    128.8211     83.1759   9.0450274505e+01   4.0369701942e+01      0.20496    0.1780372  -1.21 0.0004364988    1.285    0.222
        45 -12.5210    139.0423     80.1565   8.6973512736e+01   3.8682511047e+01    0.4673866    0.3397284  53.07  0.002202059    1.424    0.298
        46 -13.5771    134.9991     71.9497   8.5447843593e+01   4.1140537070e+01    0.7891728    0.4178509 -36.66  0.003205757    1.867    0.464
        47 -11.1955    144.6687     73.8559   8.3690980142e+01   3.8553151824e+01    0.2461475    0.2029109  37.53 0.0003355475    1.241    0.194
        48 -12.7706     96.3494     71.7535   9.6016665316e+01   4.9172736501e+01    0.5303971     0.383035  33.33  0.001717292    1.507    0.337
        49 -12.7161     34.2783     69.7581   1.1593520059e+02   5.8123742188e+01    0.4851431     0.290777 -79.73  0.002490292    2.104    0.525
        50 -11.6654     18.6214     72.3217   1.2189926200e+02   5.8836202606e+01    0.2141505    0.1751591 -70.11 0.0002800398    1.105    0.095
        51 -10.3382    182.4936     72.4409   7.5203308834e+01   2.9550434531e+01    0.1509643    0.1486738   8.47 3.222809e-05    1.013    0.012
        52  -9.7539    250.2719     74.3652   6.5079929479e+01   1.3130515880e+01    0.1393817     0.103337   6.86 0.0007000493    1.663    0.399
        53 -12.4928     68.9926     71.5039   1.0456592356e+02   5.3683252619e+01    0.4189398    0.2290648  50.49  0.001904107    2.393    0.582
        54 -13.2335     60.4106     70.8210   1.0722756119e+02   5.4999067989e+01    0.5843145    0.3071877  36.26    0.0028412    2.149    0.535
        55 -11.8219     61.7752     66.9746   1.0566907517e+02   5.5634054729e+01    0.2681531    0.2458201 -68.75 0.0004135416    1.199    0.166
        56 -11.7738     78.2007     70.4135   1.0124919936e+02   5.2531821596e+01    0.2529721    0.1366817  34.76  0.001152194    2.080    0.519
        57 -12.4200     48.1216     68.0744   1.1068316796e+02   5.7075596173e+01    0.3031187    0.2395387  -4.80  0.001842442    1.513    0.339
        58 -11.9489     83.7057     65.7025   9.8026629848e+01   5.2602857658e+01       0.4128    0.2401911  36.36   0.00129768    1.886    0.470
        59 -11.1568    169.8763     63.0948   7.4854227987e+01   3.4236051368e+01    0.2933376    0.2187509  56.06 0.0006220543    1.343    0.255
        60 -11.6862    200.6522    211.0088   1.0286420778e+02   2.9019930089e+00    0.2799273    0.2172488 -73.94  0.001620358    2.320    0.569
        61 -11.6340    125.0733     57.4870   8.3234742383e+01   4.5977036290e+01    0.3046224    0.2570618  48.02 0.0007713402    1.210    0.174
        62 -10.1617    174.9898     56.4868   7.1828318372e+01   3.3976564803e+01    0.2257173    0.1496909  59.74 0.0006182682    1.519    0.342
        63 -12.5009     67.5794     53.8016   9.9507749560e+01   5.7493636610e+01    0.4441428    0.3184505 -63.50  0.002015512    1.749    0.428
        64 -12.0997     36.6450     55.1290   1.1126230616e+02   6.1011418549e+01    0.3330074    0.1519167 -41.69  0.001031447    1.964    0.491
        65 -10.6280    210.5641     54.4861   6.5325519108e+01   2.5243178836e+01    0.1442079    0.1400762 -34.80  7.16854e-05    1.026    0.025
        66 -10.9745    132.7689     54.0178   8.0105831973e+01   4.4798911437e+01     0.276822     0.208878  38.41 0.0005078302    1.344    0.256
        67 -10.8873     52.4900     54.3233   1.0510059771e+02   5.9428082079e+01    0.2112434    0.1200819  31.28  0.001089302    2.013    0.503
        68 -11.8057    145.4607     50.9618   7.6090629482e+01   4.2249409860e+01    0.3146134    0.2721971 -24.71 0.0007210542    1.158    0.136
        69 -11.4609     76.0626     50.1157   9.5291416600e+01   5.6883961198e+01    0.2032163    0.1667526 -13.62            0    1.213    0.175
        70 -11.6877     49.2413     38.3461   1.0083072407e+02   6.2919254624e+01    0.3858027    0.2828743  -4.16  0.002299282    1.499    0.333
        71 -12.7699     42.2154     47.6692   1.0684474239e+02   6.1950672536e+01    0.3497483    0.2837774 -14.70 0.0007990104    1.266    0.210
        72 -12.5679     41.8961     42.4880   1.0523743222e+02   6.3000576101e+01     0.422128    0.2921566  -1.75  0.001579979    1.724    0.420
        73 -12.4145      2.8479     46.3702   1.2223405248e+02   6.5320709643e+01    0.4944638    0.2732226 -72.22  0.001805333    1.685    0.406
        74 -10.6647    180.3131    208.3185   1.0611886613e+02   6.7603041383e+00    0.1253644   0.08902784  15.26 0.0007036883    1.648    0.393
        75 -11.4192    156.9704     43.9930   7.1311748953e+01   4.0422722792e+01    0.2402557    0.2127365 -23.49  0.000608138    1.144    0.126
        76 -11.9194    127.9596     39.6893   7.6207501924e+01   4.8166404071e+01    0.3104008    0.2329628 -19.24 0.0005959758    1.366    0.268
        77 -11.2091     61.1313     39.9219   9.6853950929e+01   6.1036689145e+01    0.1887579    0.1739903 -51.44 0.0007149634    1.293    0.227
        78 -10.9330     82.3193     34.0513   8.7034177686e+01   5.8597844042e+01     0.277394    0.2180361   3.75  0.001373974    1.296    0.228
        79 -11.5051     79.4185     30.2833   8.6452086224e+01   5.9710158177e+01    0.2989809     0.250716 -37.41  0.001186957    1.260    0.206
        80 -10.8027    176.4796     33.2427   6.4273749728e+01   3.6845530370e+01    0.2352322    0.1936719  63.41 0.0002540542    1.184    0.155
        81 -10.5033     41.0225     33.2186   1.0222871113e+02   6.4838983548e+01    0.1475379   0.09874874  25.08 0.0006652743    1.678    0.404
        82  -9.9967    243.3207     24.6713   5.3512396242e+01   2.1110925849e+01    0.1456155   0.08729468 -58.39 0.0005927923    1.689    0.408
        83 -10.2370    198.4804     24.4353   5.8394290371e+01   3.2194457596e+01    0.1405419    0.1344942  85.55 8.804027e-05    1.018    0.018
        84 -12.2118     83.9128     22.7186   8.1735637470e+01   5.9996420425e+01    0.3457805    0.2795422  -9.73 0.0008772551    1.132    0.117
        85 -11.3728     63.9324     17.8013   8.6463151797e+01   6.4200759345e+01    0.3437073    0.2249999  50.95  0.001378602    1.953    0.488
        86 -12.8513    187.8455    196.9483   1.0287576455e+02   7.1020727649e+00    0.5141733    0.3453489  55.95  0.002813014    1.689    0.408
        87 -11.6932    107.2494    189.4269   1.1759355584e+02   2.2363362143e+01     0.250003    0.1143248  37.98  0.001156411    2.170    0.539
        88 -10.2850    178.2926    184.6676   1.0256975237e+02   1.0740016519e+01    0.1263309    0.1037264  78.87 0.0005885928    1.634    0.388
        89 -11.4562     34.4270    177.0343   1.3108947998e+02   3.4496542634e+01    0.2040448     0.152551   3.95  0.001278465    2.469    0.595
        90 -11.6508    244.2124    171.3444   8.8066543417e+01   6.0999907058e-01    0.7948248    0.3610214  30.48   0.00352547    2.407    0.585
        91 -13.5763    241.0216    156.7872   8.5618066514e+01   3.1452015724e+00     1.856446    0.6132389 -36.30  0.007210875    2.966    0.663
        92 -13.9115    247.5875    149.6715   8.3029145263e+01   2.9234709509e+00     1.914925    0.5658727 -30.18  0.006838067    3.375    0.704
        93 -12.2829    202.7683    171.2126   9.5371592779e+01   8.2422477760e+00    0.3118153    0.2731462  71.29   0.00183248    1.493    0.330
        94 -12.0724    197.9679    167.8638   9.5616905390e+01   9.6906457441e+00    0.3230375     0.237548  40.02  0.001079973    1.253    0.202
        95 -13.5274    177.8918    160.0872   9.8001453924e+01   1.4949336100e+01     0.805714    0.5325778  11.95  0.003604927    2.225    0.550
