#   1 NUMBER                 Running object number                                     
#   2 MAG_AUTO               Kron-like elliptical aperture magnitude                    [mag]
#   3 X_IMAGE                Object position along x                                    [pixel]
#   4 Y_IMAGE                Object position along y                                    [pixel]
#   5 X_WORLD                Barycenter position along world x axis                     [deg]
#   6 Y_WORLD                Barycenter position along world y axis                     [deg]
#   7 A_WORLD                Profile RMS along major axis (world units)                 [deg]
#   8 B_WORLD                Profile RMS along minor axis (world units)                 [deg]
#   9 THETA_WORLD            Position angle (CCW/world-x)                               [deg]
#  10 FWHM_WORLD             FWHM assuming a gaussian core                              [deg]
#  11 ELONGATION             A_IMAGE/B_IMAGE                                           
#  12 ELLIPTICITY            1 - B_IMAGE/A_IMAGE                                       
         1 -13.8568     56.5756     64.7036   6.7304936658e+01   5.9445754355e+01     2.278448     1.539486   7.84  0.009754498    2.083    0.520
         2 -14.9279      6.2794     70.7635   9.5442717090e+01   6.3314409058e+01     1.189226    0.8526034 -56.67  0.006286043    1.289    0.224
         3 -12.8999     45.9180     33.6520   6.0238191084e+01   6.8163931435e+01    0.8304452    0.6729696  74.66  0.004294457    1.643    0.391
         4 -14.7893    212.0788     41.0389   2.2894452696e+01   2.7858862116e+01     1.981833    0.7099262  78.89  0.007623248    3.960    0.747
         5 -14.9714    188.4852     22.9723   2.0315325879e+01   3.5099860500e+01     1.417576    0.8698611 -55.66  0.007621693    1.454    0.312
         6 -13.9539    187.6131     11.1980   1.7160380248e+01   3.6552391684e+01    0.6624303    0.5741837 -44.80  0.003343803    1.140    0.123
         7 -12.7296      7.7620      2.5892   7.2734728058e+01   7.9636678116e+01    0.6294032    0.3212419  33.42  0.003196486    2.011    0.503
         8 -15.8917     11.2487     23.8066   8.0812522565e+01   7.4827626028e+01     2.047799     1.096614 -40.62   0.01005071    1.757    0.431
         9 -14.5900     27.0305     11.5038   6.0170884371e+01   7.5499560146e+01    0.9999581     0.713365  -2.16  0.005359077    1.642    0.391
        10 -14.0802    122.2187     36.1529   3.3793276757e+01   4.9967089726e+01     1.040452    0.6473621  33.99  0.004428753    2.156    0.536
        11 -14.9599    166.6697     28.5446   2.4140472379e+01   3.9627840961e+01     1.157625    0.9454775  82.60  0.004601462    1.192    0.161
        12 -11.5946    232.6232      1.7839   1.2378635443e+01   2.7962589005e+01    0.2980864    0.1669061  62.15  0.001784078    2.215    0.549
        13 -14.9955    217.1518     13.5176   1.5839425880e+01   2.9886301454e+01     1.478148     1.024809 -36.12  0.007621723    1.259    0.205
        14 -13.1570    120.6157     25.8059   3.0144072774e+01   5.1786619176e+01    0.7997014    0.5521096  39.03  0.003179713    1.694    0.410
        15 -14.6116    147.5354     29.8017   2.7055815759e+01   4.4268683289e+01     1.336295    0.7289124  71.31  0.004709484    1.794    0.443
        16 -13.3588     87.4377     14.9306   3.2942497092e+01   6.1810232937e+01    0.9993621     0.576169 -66.20  0.004094663    2.473    0.596
        17 -15.2919     98.8508     11.4215   2.8457289713e+01   5.9226480189e+01     1.617541    0.9567475  65.00  0.005376151    1.522    0.343
        18 -11.6435     70.8681     16.1105   3.8823240790e+01   6.5801095858e+01    0.3182518    0.2500018 -35.91 0.0008364425    1.359    0.264
        19 -12.3272     60.2627     15.1183   4.2503826476e+01   6.8422942003e+01    0.5695306    0.3367938  36.14  0.002555606    1.816    0.449
        20 -12.0286     47.1305     12.7317   4.7472563786e+01   7.1622550472e+01    0.3590773    0.2974405  38.92  0.001749023    1.123    0.109
        21 -13.5812    140.8530     21.5244   2.5187500775e+01   4.6993613241e+01     1.260921      0.38174  71.45   0.00266071    3.265    0.694
        22 -10.8063     40.5249     12.5566   5.1249930387e+01   7.2966538358e+01     0.221764    0.1917955 -58.34 0.0005378101    1.421    0.296
        23 -13.8002     41.9973      3.9188   4.4153667459e+01   7.3919160750e+01    0.6993709    0.5414914  35.67  0.003245732    1.194    0.162
        24 -11.5604    168.4095      9.7454   1.8259419966e+01   4.1266070802e+01    0.1736069    0.1284048 -13.41 0.0009534051    1.626    0.385
        25 -12.9134    152.6723      8.8144   1.9428313016e+01   4.5296653269e+01    0.3839364    0.2952473  67.59   0.00217125    1.298    0.230
        26 -11.7745     75.5730      9.5840   3.3574055887e+01   6.5441890747e+01    0.2863336    0.2554866  33.28  0.001093718    1.144    0.126
        27 -10.8478     80.4234      7.2880   3.0880087252e+01   6.4461600301e+01    0.1851275    0.1291054 -39.32 0.0006350861    1.539    0.350
        28 -12.1017    119.2202      2.5843   2.1049254371e+01   5.4646367779e+01    0.4986226    0.2329338 -82.24  0.001945755    2.541    0.606
        29 -12.1452     76.2875      2.4132   2.9296210461e+01   6.6002518894e+01    0.8397216    0.1491382  58.63  0.002582312    3.685    0.729
        30 -10.6239    183.0077      1.4374   1.4772433625e+01   3.8560539053e+01    0.1879561    0.1139017  84.00 0.0006496765    1.575    0.365
        31 -11.3172    169.7311      1.5787   1.5699211135e+01   4.1716988897e+01    0.2560573    0.1094397  72.75  0.001146628    2.191    0.544
        32 -10.4019    163.6342      1.2722   1.6055550615e+01   4.3242695451e+01    0.1450892   0.08056618 -62.86 0.0007000897    1.665    0.399
        33 -11.1445     61.3513      1.4364   3.3426441194e+01   6.9815756719e+01    0.3661167    0.1226058  62.29  0.001192024    2.708    0.631
        34 -11.4883    123.5135     10.6906   2.3691524609e+01   5.2739299788e+01    0.3670414    0.2040069 -71.08  0.001583577    2.057    0.514
        35 -12.8434     73.5111    153.2150   8.0353868669e+01   3.4385104591e+01     0.683775    0.4728943  22.59  0.002618712    1.495    0.331
        36 -12.6882    109.2202    249.3239   8.2447309933e+01   1.0835515388e+01    0.3687156    0.1818884  34.75  0.002151794    1.530    0.347
        37 -12.9735     51.1376    248.6694   9.4753589694e+01   1.7221612089e+01    0.4396085    0.3174032  18.88  0.003048114    1.356    0.262
        38 -12.2230      2.9027    249.5627   1.0493268769e+02   2.1420457005e+01    0.3561037    0.2254431  46.34  0.001747536    1.108    0.097
        39 -13.7776      9.8588    245.8536   1.0342398791e+02   2.1498222394e+01    0.8588232    0.3036992  42.97  0.003827186    1.805    0.446
        40 -12.4430      8.0118    149.4671   1.0081009091e+02   4.2322836056e+01    0.4090653    0.2822182  29.51  0.002282883    1.395    0.283
        41 -12.0724     60.7313    147.0974   8.3486763661e+01   3.7644858969e+01    0.3810965    0.2909061  -0.39  0.001902278    1.634    0.388
        42 -11.3107    103.3182    149.8942   7.1055568367e+01   3.0563393538e+01    0.3627931    0.2269309 -34.52   0.00134602    1.992    0.498
        43 -11.7086     42.9947    139.0188   8.8329657050e+01   4.1878694457e+01    0.2288163    0.2137489  64.80  0.001322713    1.030    0.029
        44 -11.5736    136.2711    132.2324   5.8755316047e+01   2.8527695670e+01    0.3731411    0.1748116  35.02  0.001444369    2.266    0.559
        45 -12.2198    246.5380    134.6621   3.9414836762e+01   9.6105039202e+00    0.2267123    0.1641741 -66.91  0.001344074    2.620    0.618
        46 -14.5717    106.0156    104.9025   6.0519823594e+01   4.0473165054e+01     1.417512     1.287997 -83.30  0.006150833    1.171    0.146
        47 -11.0449    181.3115    120.6452   4.6471599913e+01   2.2170395698e+01    0.1358589    0.1060279 -68.56 0.0007044195    1.731    0.422
        48 -12.3077     49.8517     98.7388   7.9375728423e+01   5.1754259147e+01    0.8677438    0.4931718  11.91  0.003438675    2.334    0.572
        49 -12.0285      4.8357    119.2833   1.0032502910e+02   5.0352120941e+01    0.5722066    0.3960959 -12.64    0.0030067    1.764    0.433
        50 -12.4193     49.0352     93.3453   7.8577639902e+01   5.3296134159e+01    0.5430932    0.3764823  38.37  0.002065236    1.425    0.298
        51 -12.7066     42.3139     90.5290   8.0929891342e+01   5.4909014321e+01    0.3548838    0.2939721 -87.46 0.0003782334    1.235    0.190
        52 -14.5897     24.5282     92.9045   8.9448482351e+01   5.6120599863e+01     1.633387     1.270631  -4.97  0.008563629    1.479    0.324
        53 -11.8694     19.0230     86.1657   9.1032143262e+01   5.8393063283e+01    0.2980315    0.2687551  23.32 0.0003906779    1.177    0.150
        54 -13.4628      2.2510     96.9044   9.9930958608e+01   5.6474194854e+01    0.9547253    0.3331292 -86.32  0.003501723    2.711    0.631
        55 -14.1883     18.5018    110.8817   9.4295306773e+01   5.1716449614e+01     1.030479    0.8049704 -14.29  0.005474213    1.514    0.339
        56 -12.0733     78.6323    109.9512   7.0759256015e+01   4.4407240714e+01    0.5316811     0.367864  80.72  0.002216341    1.933    0.483
        57 -11.4836     86.5586    114.9295   6.9168233821e+01   4.1782187465e+01     0.429208    0.3010898  18.15  0.001380039    1.740    0.425
        58 -12.2785     82.2162    115.3958   7.0733810209e+01   4.2425002299e+01    0.3780756    0.2781879  50.79  0.001638911    1.364    0.267
        59 -11.7768    121.8656    111.9793   5.7758645583e+01   3.5666048651e+01    0.2346167    0.2077941  -4.01 0.0006303248    1.282    0.220
        60 -11.5208     62.9850    110.6513   7.6613325152e+01   4.6745137530e+01    0.3917195    0.2406981  49.55  0.001694875    1.671    0.402
        61 -14.0294     11.1909    103.0904   9.6573366549e+01   5.4329297488e+01    0.8556685    0.7844325  58.57   0.00431831    1.078    0.073
        62 -11.5266    178.8178    110.0089   4.4474035375e+01   2.4460922299e+01    0.2467683    0.1837724  66.18  0.001286753    1.689    0.408
        63 -11.4574     87.9576    109.4468   6.7432615877e+01   4.2879224148e+01    0.3312839    0.2476806  80.16  0.001490599    1.684    0.406
        64 -11.2857     42.3240    106.4871   8.3946171801e+01   5.0619802269e+01    0.3457042    0.2151891  19.94  0.001550751    1.740    0.425
        65 -12.0097    136.6561    103.0537   5.1655751153e+01   3.4449077948e+01    0.4995966    0.2487137  51.78  0.001917154    2.129    0.530
        66 -13.8530    104.6080    121.9161   6.5048740481e+01   3.6803649391e+01     1.284319    0.9471046  51.51  0.006112691    1.384    0.277
        67 -12.1600     61.6005     98.2074   7.4454731204e+01   5.0202466321e+01    0.6880957    0.3908261  70.19  0.002460359    2.811    0.644
        68 -11.2978    163.5018     97.0451   4.4182969378e+01   2.9848069286e+01    0.2619707    0.2082662  77.69 0.0008365551    1.534    0.348
        69 -13.0237    137.0626     94.7932   4.9347811808e+01   3.6016874646e+01    0.5451515     0.430537  73.98  0.002662147    1.487    0.328
        70 -13.2544    111.7976    116.6090   6.1708904814e+01   3.6648694952e+01    0.5581828    0.2903196  40.22  0.002014654    1.883    0.469
        71 -12.3398     36.7249     92.9096   8.3911672515e+01   5.4921076192e+01    0.4191657    0.3186534   6.02  0.001286864    1.507    0.336
        72 -12.9653    188.6066     83.8596   3.6445060891e+01   2.6782588870e+01    0.5736171    0.3427473  41.43  0.002463037    2.004    0.501
        73 -13.0086    187.2327     79.4015   3.5528596408e+01   2.7760403891e+01    0.2865688    0.2378312  23.35  0.001144617    1.470    0.320
        74 -11.8949    158.5289     64.4461   3.6142867648e+01   3.6539564582e+01    0.7770364    0.2801374 -49.20  0.002569654    3.194    0.687
        75 -13.8141    163.8552     71.4670   3.7218478905e+01   3.4161916987e+01     1.452405    0.6444238  54.14   0.00585658    2.311    0.567
        76 -13.2485    161.8340     79.6088   3.9856540654e+01   3.3262701648e+01    0.8627799    0.5463026  22.15  0.003503186    2.680    0.627
        77 -14.2337    169.2672     77.2159   3.7862252989e+01   3.1996767997e+01      1.17581    0.5803136  48.32  0.003854721    2.196    0.545
        78 -12.7655     28.7374    121.8518   9.1465713770e+01   4.7892338525e+01    0.3991921    0.3420527 -53.75  0.002229848    1.238    0.193
        79 -13.4032     28.4385    246.1373   9.9503560556e+01   1.9831195832e+01    0.4430929    0.2791172  51.87  0.002919246    1.277    0.217
        80 -13.6755     91.7038     57.8178   5.0469962754e+01   5.3849896494e+01    0.5956213    0.5416349  58.22  0.003122269    1.072    0.067
        81 -13.5843     87.3770     65.2643   5.4704648110e+01   5.3289456532e+01     1.065992    0.6993082  17.01  0.003763061    2.507    0.601
        82 -12.6507     55.0201     81.2460   7.3005381298e+01   5.5592695619e+01    0.6396065     0.473251 -52.07  0.002192243    1.339    0.253
        83 -13.9291     61.2295     75.4955   6.8613259919e+01   5.6038556528e+01    0.8698651    0.6261595 -33.38  0.003178095    1.606    0.377
        84 -13.2574     71.1130     75.0835   6.4287636889e+01   5.4379013809e+01    0.6081572    0.4616985  -1.47   0.00103195    1.814    0.449
        85 -12.0905     77.2305     73.4571   6.1314561962e+01   5.3584190315e+01    0.7610408    0.3465198 -41.76  0.002556324    2.453    0.592
        86 -12.9932    237.6175     80.4176   2.9453318444e+01   1.8077789636e+01    0.4044478    0.2623338 -74.74  0.002290646    2.242    0.554
        87 -10.8640    126.3567     83.3792   4.8760616149e+01   4.0698550102e+01    0.2880527    0.1286088  37.81 0.0005518481    2.933    0.659
        88 -12.5501    214.4704     71.6361   3.0012261454e+01   2.3415325850e+01    0.2954197    0.2627787 -73.53  0.001547579    1.209    0.173
        89 -13.6867    211.6145     77.3834   3.1706306636e+01   2.3164329488e+01    0.8346558    0.4926557  83.02   0.00402177    2.611    0.617
        90 -12.0231    114.0944     80.0296   5.1064383927e+01   4.4183945131e+01    0.4476687    0.3573241 -56.10  0.001355802    1.292    0.226
        91 -12.4451    135.3821     79.2981   4.5323620371e+01   3.9404562099e+01    0.7118825     0.344998  55.78  0.002750698    2.153    0.536
        92 -11.1237     42.5052     79.4717   7.8336779817e+01   5.7810940393e+01    0.3074197    0.2080944 -50.85  0.001111439    1.451    0.311
        93 -10.9191     41.7593     75.9870   7.7828368718e+01   5.8815480345e+01    0.2308032    0.2006742  75.60 0.0005644819    1.225    0.184
        94 -13.5211    171.4643    242.6458   6.9390314373e+01   4.6749957636e+00    0.3999263     0.297407   3.85   0.00297571    1.111    0.100
        95 -14.2099      4.0708     63.1600   9.5693569052e+01   6.5424541398e+01    0.8092296    0.6822134 -18.24  0.002094328    1.257    0.204
        96 -10.8835     97.4733     78.5334   5.5682666274e+01   4.8216081907e+01    0.1553266    0.1502604  75.36 6.320473e-05    1.013    0.013
        97 -11.3390     26.9078     75.1332   8.5140916044e+01   6.0694208079e+01    0.5578532     0.266921  79.31   0.00189105    3.447    0.710
        98 -13.7387    199.5602     69.6657   3.1353964345e+01   2.6649978029e+01    0.7255323    0.4968613  44.81  0.003346072    1.743    0.426
        99 -12.0166    199.8776     61.6452   2.9304964778e+01   2.7712709890e+01    0.3187475    0.2678134 -44.59  0.001365785    1.034    0.033
       100 -13.0189    133.9417     65.7443   4.1478788207e+01   4.2230825921e+01    0.8250224    0.6943809  10.44  0.003138397    1.509    0.337
       101 -10.9604    117.9480     72.0905   4.7485558926e+01   4.4886638253e+01    0.2299024    0.2273149 -73.52 0.0005482077    1.045    0.043
       102 -11.4983     99.6459     64.7613   5.0379696753e+01   5.0629578528e+01    0.3357025    0.2613055 -82.17  0.001525987    1.589    0.370
       103 -13.2937     65.8275     48.9344   5.7060615085e+01   6.1271159144e+01    0.8503298    0.7099556 -76.68  0.004343777    1.430    0.301
       104 -13.0521     78.9311     60.2464   5.6040185184e+01   5.6176993924e+01    0.7891172    0.5314801 -50.93  0.003583275    1.536    0.349
       105 -13.7218    177.7706     56.5807   3.0845751120e+01   3.3259262521e+01    0.9815809    0.5044686 -44.40  0.003721191    1.769    0.435
       106 -10.9074     34.7469     60.1286   7.7137046848e+01   6.3746367052e+01    0.5003647    0.1719406 -50.43   0.00177152    2.694    0.629
       107 -12.1584     37.1929     52.9923   7.3450340474e+01   6.5195434409e+01     0.546401    0.2283656 -43.84  0.002042417    2.534    0.605
       108 -10.9445     38.7370     59.7665   7.4809330592e+01   6.3333520359e+01    0.2881733    0.1794325  88.69  0.001170762    2.442    0.590
       109 -11.6608     24.8140     58.8684   8.2519720734e+01   6.5142249709e+01    0.4772433    0.2502539 -62.04  0.002125742    1.760    0.432
       110 -10.9347    111.2193     58.5905   4.4754622025e+01   4.9066933841e+01    0.2213644    0.2163205 -63.53 0.0003733005    1.051    0.049
       111 -14.5425    120.1318     54.4271   4.0948096292e+01   4.7610427885e+01     1.054582    0.7046182  53.14  0.004036272    1.468    0.319
       112 -11.4245     17.5743     55.6460   8.6113730018e+01   6.6594690342e+01    0.3695319    0.2105141 -65.97  0.001744372    1.625    0.385
       113 -12.2442    247.8811     54.4067   2.2954751227e+01   1.9559031813e+01    0.4839105    0.1868832 -40.83   0.00249562    1.909    0.476
       114 -11.9052    249.0361     48.4937   2.1614148620e+01   2.0050142645e+01    0.2411601    0.2270561 -13.97  0.001673134    1.315    0.240
       115 -13.3801    103.4263     50.5462   4.4002042707e+01   5.2427799214e+01    0.6861225    0.4132027 -33.94  0.001141904    1.792    0.442
       116 -13.6950     98.3090     49.6985   4.5208491616e+01   5.3826813906e+01     1.032527    0.5600991 -35.29  0.003478758    1.981    0.495
       117 -12.1530    135.7940     49.8027   3.5846715274e+01   4.4436121698e+01    0.4238497    0.2841349  38.85  0.001677809    1.799    0.444
       118 -13.2677    157.5433     43.6154   3.0006530489e+01   3.9914165616e+01    0.8622607    0.5837935  36.79  0.004102689    1.921    0.479
       119 -11.0962     38.9710     45.9814   6.9820985097e+01   6.6605035906e+01    0.2458705    0.2026971 -54.12 0.0004802872    1.212    0.175
       120 -11.2467     35.1469     34.8485   6.7458529219e+01   6.9648380149e+01    0.5649621    0.2923603  13.34  0.002022675    3.060    0.673
       121 -12.8720     33.0014     40.3790   7.1269443608e+01   6.8716482661e+01    0.4938927     0.317844  14.00 0.0006091771    1.770    0.435
       122 -12.4024     41.4003     39.9277   6.5844042248e+01   6.7598632895e+01    0.5738571    0.4176626 -10.38  0.002766412    1.715    0.417
       123 -14.0016     97.3313    239.3930   8.4066285362e+01   1.3749224717e+01    0.6746631    0.4097838  29.48  0.004166001    1.257    0.204
       124 -13.9294     91.3496    232.1491   8.4728257013e+01   1.5653401647e+01    0.4969319    0.3342167  74.85  0.002960041    2.086    0.521
       125 -11.4691    147.4874    238.9893   7.3551901283e+01   7.9067711769e+00    0.1287289    0.1014174  76.47 0.0008092211    2.441    0.590
       126 -11.8906     16.8087    236.1464   1.0169011352e+02   2.2645612247e+01    0.1882001    0.1146089  48.21  0.001238964    1.225    0.184
       127 -13.2623      7.0422     42.9976   9.0198605874e+01   7.0485729150e+01     1.183588     0.411096  12.25  0.004587897    3.033    0.670
       128 -12.5808     23.9006    216.4546   9.9390037743e+01   2.5782394351e+01    0.7694631    0.2700679  40.23  0.003770707    1.971    0.493
       129 -13.7835     26.2605    226.3862   9.9237899678e+01   2.3628806651e+01    0.6894543    0.3984793 -53.65  0.004017706    2.342    0.573
       130 -13.8999     20.5387    224.0805   1.0046557622e+02   2.4586048870e+01    0.6815616    0.4682518  31.73  0.004345538    1.219    0.179
       131 -10.1301     80.2417     44.6725   4.9305209881e+01   5.9007329151e+01    0.1458973    0.1159946 -73.80 0.0002351508    1.533    0.348
       132 -12.2314     27.5335     32.4746   7.1589707237e+01   7.1201354055e+01    0.4957253    0.3329636  12.55  0.001513118    1.624    0.384
       133 -12.0069    135.3567     39.2065   3.2294995399e+01   4.6134464893e+01    0.4854645    0.3018406  76.27  0.001480256    1.694    0.410
       134 -12.4135    109.9638     41.9090   3.8864945359e+01   5.2249481109e+01    0.4634247    0.2118756  59.29 0.0007156795    2.108    0.526
       135 -14.1727     66.1465    223.3175   8.9766542723e+01   2.0137512491e+01    0.9185816    0.7044867  32.63  0.006040619    1.068    0.064
       136 -13.1803    113.7753     37.7037   3.6280050089e+01   5.1924126557e+01    0.4506284    0.3631392  63.84  0.001398561    1.183    0.155
       137 -13.0793    131.7709     33.1237   3.0797077702e+01   4.7906022240e+01    0.6044449    0.4866085   2.62  0.001826849    1.608    0.378
       138 -11.8986    181.7405     38.0297   2.5163252022e+01   3.4860277969e+01    0.3186612    0.2100458 -34.30  0.001650624    1.415    0.293
       139 -12.5004     75.7350     37.0112   4.7620711279e+01   6.1423309811e+01    0.5320021     0.321735  45.33  0.001389369    1.602    0.376
       140 -11.5402     70.7102     35.7874   4.9066584235e+01   6.2774124554e+01    0.2891245    0.2625009  83.60 0.0008034566    1.215    0.177
       141 -13.1547    242.4882     35.8927   1.9364585906e+01   2.2619868731e+01    0.5284525    0.3361495  79.35  0.002240996    1.836    0.455
       142 -11.3351    245.4954     29.3191   1.7756658479e+01   2.2801310531e+01    0.2904487   0.08048905 -32.23  0.001299853    2.595    0.615
       143 -11.7371    104.4853     36.4843   3.8119920576e+01   5.4491835889e+01    0.3045594    0.1475315 -34.13  0.001204337    2.146    0.534
       144 -13.0381     59.6601    212.4634   9.0491934539e+01   2.2955930082e+01    0.4844345    0.3187743 -20.70  0.002034952    2.317    0.568
       145 -12.3954     94.3408    218.0546   8.2689651865e+01   1.7774690349e+01    0.2633928    0.1516698  35.45  0.001456249    1.389    0.280
       146 -13.7761    216.5193     28.0300   1.9369985402e+01   2.8466273563e+01    0.6108965    0.3403522 -55.04  0.002907931    1.573    0.364
       147 -13.7753     64.4084    214.1478   8.9466093801e+01   2.2088174916e+01    0.5082269    0.3187076  40.55  0.002889121    1.280    0.219
       148 -10.7954    136.6040    210.8207   7.2272273715e+01   1.3568284016e+01    0.1492248    0.1233682 -66.34 0.0009466227    1.690    0.408
       149 -13.1908     55.9165     26.9236   5.1317646565e+01   6.7511979030e+01    0.6925028    0.4459194  49.52  0.002111647    1.526    0.345
       150 -12.4622     63.0380     25.4163   4.7129393008e+01   6.6242574114e+01    0.5382263    0.3434471  37.01  0.001940396    1.623    0.384
       151 -12.3588     72.6262    206.7531   8.6811820782e+01   2.2590264851e+01    0.2720019    0.2170026  61.05  0.001699471    1.275    0.216
       152 -12.4011     30.8433     25.4201   6.5729356128e+01   7.2258684094e+01    0.4749357    0.2451336  21.42  0.002021681    2.320    0.569
       153 -11.8793     36.3326     23.4592   6.0811075171e+01   7.1798096515e+01    0.3785479    0.2053441 -41.07  0.001746307    1.869    0.465
       154 -12.2040     41.2334    206.0602   9.4618626897e+01   2.6234199494e+01    0.2410808    0.1482184  63.28  0.001356956    1.571    0.363
       155 -12.1674     57.5145    203.1940   9.0300276060e+01   2.5078578838e+01     0.444395    0.2348222  81.56  0.002116758    2.480    0.597
       156 -11.8630     48.6269     20.0720   5.1261055180e+01   7.0159446367e+01    0.7557543    0.2103736  48.24  0.002439502    3.554    0.719
       157 -13.0499     17.1359    195.5066   1.0021306455e+02   3.0752574584e+01    0.7108606    0.2098777 -63.85  0.002866513    3.683    0.728
       158 -12.3306     40.3912    195.1834   9.4133822803e+01   2.8634899090e+01      0.42784    0.2030891  79.46  0.001941934    2.540    0.606
       159 -12.3341     36.8213    194.8061   9.5047005498e+01   2.9079633745e+01    0.3556338    0.2512624  73.38  0.001784058    1.398    0.285
       160 -13.3381     29.9661    169.2813   9.5258598783e+01   3.5614563321e+01     1.114692    0.7978241  15.17  0.006147269    1.517    0.341
       161 -13.3147     22.2075    180.7155   9.8170831603e+01   3.3630801557e+01    0.7221445    0.4029222 -66.46  0.003754545    1.939    0.484
       162 -15.1822      8.1060    183.3525   1.0213590203e+02   3.4188520647e+01     1.397623     1.141209  72.45  0.009172968    1.136    0.120
       163 -10.2926     55.4786     11.4187   4.2374763514e+01   7.0010052425e+01    0.1395475    0.1240586  35.41 0.0001723482    1.048    0.046
       164 -11.8910    164.1913    195.1955   6.4169245032e+01   1.2358055817e+01    0.2547849    0.1679665 -73.92  0.001076796    4.252    0.765
       165 -11.1635    201.0891    191.5150   5.6590365028e+01   7.9625023316e+00    0.1976392    0.1388609  -5.37  0.001185666    1.279    0.218
       166 -12.1739    198.6076    181.2483   5.5298242875e+01   9.7435447073e+00    0.2092322     0.195305  36.21  0.001483463    1.486    0.327
       167 -11.3548     49.0105    181.2047   9.0734241279e+01   3.0835379140e+01    0.2883446    0.1934731 -59.83   0.00155311    1.670    0.401
       168 -10.2739    100.9891    176.0184   7.5907801830e+01   2.5174758077e+01    0.1576568    0.1429041  33.27            0    1.017    0.017
       169 -12.2757    123.8299    166.2708   6.8502124944e+01   2.3677031104e+01    0.5018977    0.3011001 -71.69  0.002121829    2.726    0.633
       170 -11.0838      2.0199    159.4546   1.0305562226e+02   4.0250419299e+01    0.2475414    0.1596973 -67.42   0.00136088    1.643    0.391
       171 -14.7795     15.4913    174.8931   9.9760839641e+01   3.5558441195e+01     2.068523     0.576954  45.72  0.008213168    2.680    0.627
       172 -11.1772    112.4010    157.2007   6.9871338624e+01   2.7443413998e+01    0.1941343     0.141147 -70.05 0.0009506012    1.693    0.409
       173 -11.8584     76.9701    156.6967   7.9816945073e+01   3.3054359740e+01    0.3589211    0.2891399  24.77  0.001056422    1.236    0.191
