#   1 NUMBER                 Running object number                                     
#   2 MAG_AUTO               Kron-like elliptical aperture magnitude                    [mag]
#   3 X_IMAGE                Object position along x                                    [pixel]
#   4 Y_IMAGE                Object position along y                                    [pixel]
#   5 X_WORLD                Barycenter position along world x axis                     [deg]
#   6 Y_WORLD                Barycenter position along world y axis                     [deg]
#   7 A_WORLD                Profile RMS along major axis (world units)                 [deg]
#   8 B_WORLD                Profile RMS along minor axis (world units)                 [deg]
#   9 THETA_WORLD            Position angle (CCW/world-x)                               [deg]
#  10 FWHM_WORLD             FWHM assuming a gaussian core                              [deg]
#  11 ELONGATION             A_IMAGE/B_IMAGE                                           
#  12 ELLIPTICITY            1 - B_IMAGE/A_IMAGE                                       
         1 -13.0580    215.8396     48.1747   1.8972207154e+01   2.4961864667e+01     1.814349     1.278647   3.56  0.008624755    1.944    0.486
         2 -12.8517    233.5813     35.6323   1.3803410258e+01   2.2492016345e+01    0.8610888    0.7439451 -32.00  0.002779775    1.130    0.115
         3 -11.3658      3.4411     22.6622   7.5527594833e+01   7.3094592321e+01    0.4941772     0.246991 -73.93  0.002463225    2.313    0.568
         4 -11.1755      1.8914     10.3310   7.1468232855e+01   7.5710451019e+01    0.4357018    0.2672997 -61.86  0.002650462    1.560    0.359
         5 -11.4247     10.4987     13.5246   6.6874307250e+01   7.4469513581e+01     0.356932    0.2072488 -36.54  0.001896421    1.451    0.311
         6 -10.8792      6.7105     12.0223   6.8783505396e+01   7.5053064425e+01    0.2526996    0.1804091 -38.84 0.0008677501    1.107    0.096
         7 -11.1636    126.9758    230.4944   7.4419816273e+01   1.1500159494e+01    0.3338807    0.2318487  69.67  0.002094739    1.788    0.441
         8  -9.6267     71.7831    246.1257   8.6037100751e+01   1.6485704219e+01    0.3752562    0.1341302 -69.64  0.001984709    3.324    0.699
         9 -13.0743     29.1541    247.5983   9.3588501425e+01   2.1114375655e+01      1.54668      0.78458  33.29   0.01011926    1.947    0.486
        10 -14.8829      8.3407    207.8550   9.5772033082e+01   3.0255444071e+01     2.153803     1.553689  70.71   0.01633264    1.051    0.049
        11 -12.5464     23.4404    190.4584   9.1909990395e+01   3.2283144928e+01    0.4375266     0.417558 -62.24  0.001124256    1.491    0.329
        12 -15.4236     33.8862    182.2409   8.9113419130e+01   3.2933144238e+01     7.579574     2.772384  77.19   0.02958016    3.652    0.726
        13  -9.3937     72.7082    226.6869   8.4449544570e+01   1.9610302302e+01    0.2066442    0.1503714 -74.92 0.0009096014    1.540    0.351
        14 -14.4459     11.9442    239.9752   9.6244280035e+01   2.4112286987e+01    0.9147556    0.7314339 -83.86   0.00366215    1.499    0.333
        15 -10.9539    116.1956    230.6365   7.6477451177e+01   1.3029060224e+01    0.3380512    0.1988558  42.14  0.002066517    1.336    0.252
        16 -11.4022    104.1381    208.7253   7.6482237099e+01   1.8482457900e+01    0.5953467    0.2030291  35.50  0.002482696    2.735    0.634
        17 -11.1167     87.9508    205.3501   7.9467388764e+01   2.1440079838e+01    0.4067197    0.2217815  26.75  0.002031565    2.277    0.561
        18 -11.4325    102.9584    201.8797   7.5939652893e+01   1.9912992943e+01    0.4294739    0.2987964  64.10  0.002542643    1.431    0.301
        19  -9.0092     75.1363    199.8230   8.1612290790e+01   2.4274017329e+01    0.1958642    0.1369874  64.75 0.0006937111    1.267    0.211
        20  -9.7179    192.3984    194.1411   5.6881010381e+01   6.7957474965e+00    0.5611168    0.3019938 -60.98  0.001945107    5.888    0.830
        21  -8.9839     82.5826    195.7680   7.9600745067e+01   2.4048567116e+01    0.1647456    0.1105148 -89.24 0.0006537072    1.606    0.377
        22  -9.3673    100.9741    193.4220   7.5344703633e+01   2.1821533754e+01    0.2048862    0.1602319  82.19 0.0002366942    1.342    0.255
        23  -9.7579     99.0615    181.1223   7.4187501827e+01   2.4569545281e+01    0.2608679    0.1973633  35.22 0.0007017467    1.338    0.253
        24  -9.5124     79.0135    180.2623   7.8661796611e+01   2.7731161418e+01    0.2208918    0.1678587  86.03 0.0002267157    1.282    0.220
        25  -9.1627    180.6272    178.0354   5.6278804683e+01   1.1246992322e+01    0.2607826    0.2051791 -61.64  0.001129503    1.738    0.425
        26 -11.7366     82.2475    135.8525   7.1446156147e+01   3.7320515122e+01    0.5133834    0.2938267 -62.71 0.0008292018    1.688    0.407
        27 -12.2316     79.0720    149.0754   7.4467417988e+01   3.4681178225e+01      1.32013    0.5516493 -49.31  0.003403831    2.747    0.636
        28 -12.7075     57.1234    150.0762   8.0364643619e+01   3.7488837444e+01    0.4956037    0.4341157 -62.07  0.001062311    1.269    0.212
        29 -13.3231     56.1035    125.0807   7.7105014445e+01   4.3680727960e+01     2.036485    0.9564068 -84.29  0.007616622    2.850    0.649
        30 -11.3429     54.3115    167.4119   8.3064802031e+01   3.3840374330e+01    0.3552193    0.2989081 -12.68  0.001549013    1.810    0.448
        31 -11.7197     60.2264    162.9009   8.1120244761e+01   3.4112758778e+01    0.4731336    0.3425803  70.85 0.0006819929    1.259    0.206
        32  -8.6404    110.4229    167.2756   6.9540852953e+01   2.5615518799e+01    0.1762328    0.1293353 -76.93 0.0004376312    1.529    0.346
        33 -15.3813      8.2787    231.6552   9.6610299926e+01   2.5892622541e+01     5.332994     2.086744  20.34   0.02055268    6.916    0.855
        34 -10.4131    237.5077    160.0052   4.2702429817e+01   4.2126262469e+00    0.2882679    0.1047544 -37.61  0.001226399    2.667    0.625
        35  -8.3050    174.9764    149.4698   5.1806412833e+01   1.7187759731e+01    0.1871283     0.124385  68.43  0.000806615    2.347    0.574
        36  -9.7252    134.0180    146.4586   6.0206214271e+01   2.5767158578e+01     0.804751      0.19197 -55.10  0.001775912    7.604    0.868
        37 -10.0309     47.0387    146.4627   8.2592734929e+01   3.9580820436e+01    0.3065605    0.1653517 -88.43  0.001459701    1.900    0.474
        38 -10.0935     95.6940    136.5477   6.7922590029e+01   3.4961476066e+01    0.4889222    0.3620559  -4.97  0.002244628    2.233    0.552
        39 -11.0071    230.1255    166.0044   4.5083778069e+01   4.5982184269e+00    0.3216773    0.2151981 -39.71  0.001837982    1.645    0.392
        40 -10.2530     43.8680    131.4589   8.1606737556e+01   4.3580837979e+01    0.2588156    0.1715618 -66.95 0.0006975237    1.363    0.266
        41 -10.0023    106.4668    129.2295   6.3575388699e+01   3.4764482593e+01    0.4191912    0.3184651 -21.80  0.001495527    1.839    0.456
        42  -9.2340    249.4877    124.4998   3.3412919721e+01   7.0798703182e+00    0.1311741    0.1090104 -16.93  7.25179e-05    1.006    0.006
        43  -9.4153     94.7787    123.2878   6.5527945257e+01   3.8249430482e+01    0.2740859    0.2305827 -14.60 0.0005995819    1.575    0.365
        44 -10.0061     40.9724    127.0172   8.1860246691e+01   4.4997204548e+01    0.2004342     0.170153 -87.63            0    1.016    0.016
        45  -9.2595    104.8578    117.4211   6.1411132940e+01   3.7808979230e+01    0.2262063      0.19344 -70.13 0.0003447513    1.156    0.135
        46 -10.7030    107.8794    229.1032   7.7906302877e+01   1.4454165797e+01     0.377515    0.1323383  41.60  0.001803261    2.183    0.542
        47  -9.4317    205.2778    110.5808   3.7032404019e+01   1.7766983328e+01    0.2785358    0.2432304  21.65 0.0009031527    1.204    0.169
        48  -8.2663    112.5117    109.5052   5.7380732641e+01   3.8159432016e+01     0.155515     0.142594 -86.81 0.0008084879    1.103    0.094
        49  -9.4444     23.3555    104.8194   8.4368639422e+01   5.2239462958e+01    0.2432584    0.1388321  56.80  0.001056486    1.875    0.467
        50 -12.4564     70.7183    155.8131   7.7594593956e+01   3.4325772974e+01     1.183354    0.4702923 -74.56  0.004383184    3.079    0.675
        51  -9.2215    122.9685     99.8935   5.2006307305e+01   3.8152862506e+01    0.2700647    0.2187041 -68.27 0.0005644213    1.341    0.254
        52 -13.5910     68.4492    144.5947   7.6609004552e+01   3.7276249519e+01     3.293696     1.402144  66.28  0.003434944    4.717    0.788
        53  -9.1858     39.4817     86.9677   7.5664956039e+01   5.5170994722e+01    0.1895476    0.1810088 -74.72 0.0003432403    1.119    0.106
        54 -10.4373      8.1219     71.8826   8.5100911183e+01   6.1484493511e+01    0.1933035    0.1540853  81.27 0.0007167781    1.266    0.210
        55  -9.4988     72.3637     70.2415   5.8946545495e+01   5.4695528377e+01    0.2631653    0.2234711  78.05 0.0008133686    1.396    0.284
        56 -11.0983      6.2519     65.4981   8.4819099996e+01   6.3137860698e+01    0.2885104    0.1948648 -53.94  0.001743457    1.280    0.219
        57 -12.5058    207.4147     54.2857   2.1706877578e+01   2.6120380574e+01     1.166561    0.6242234  40.90  0.003881481    2.437    0.590
        58 -10.3917     48.4125    246.0676   9.0182813465e+01   1.9265059896e+01    0.3788935    0.1711676  42.75  0.001831031    1.616    0.381
        59 -11.6239    225.8428     41.6013   1.6107940975e+01   2.3499036030e+01    0.4811681    0.4318143   7.56  0.001125177    1.330    0.248
        60 -11.0971     97.8732    226.8078   7.9606079012e+01   1.6231557395e+01    0.4460784    0.2599307  62.11  0.002615282    1.757    0.431
        61 -10.6916     13.2103     60.7048   8.0826522853e+01   6.3876056614e+01    0.3566504    0.2092164 -63.63  0.000766739    1.353    0.261
        62 -10.4761      1.9939     59.9486   8.5735399594e+01   6.4685292309e+01    0.3953161   0.09450868 -72.69  0.001439373    3.293    0.696
        63 -10.0001     60.3845     43.1227   5.3728755497e+01   6.2496359130e+01    0.3864393    0.2787349  72.34  0.001837153    2.275    0.560
        64  -8.5751    118.6570    237.8495   7.6755634996e+01   1.1566631133e+01    0.1358846    0.1030235 -85.70 0.0005268132    1.689    0.408
        65  -8.5228     60.2499     21.2334   4.3442239187e+01   6.6449380861e+01    0.1693902    0.1572558 -52.34 0.0006519927    1.301    0.231
        66  -8.7478    189.4643     15.4914   1.2455340021e+01   3.5502428677e+01    0.1399585    0.1291141 -65.54  0.000106686    1.022    0.022
        67 -12.5171      9.8674    225.5644   9.6128117359e+01   2.6822368840e+01    0.3110297    0.2068206  71.25 0.0006716174    1.131    0.115
        68  -9.6522     48.7830    235.0547   8.9506210438e+01   2.1065132907e+01    0.1803771    0.1284717  46.15 0.0003200075    1.208    0.173
