#   1 NUMBER                 Running object number                                     
#   2 MAG_AUTO               Kron-like elliptical aperture magnitude                    [mag]
#   3 X_IMAGE                Object position along x                                    [pixel]
#   4 Y_IMAGE                Object position along y                                    [pixel]
#   5 X_WORLD                Barycenter position along world x axis                     [deg]
#   6 Y_WORLD                Barycenter position along world y axis                     [deg]
#   7 A_WORLD                Profile RMS along major axis (world units)                 [deg]
#   8 B_WORLD                Profile RMS along minor axis (world units)                 [deg]
#   9 THETA_WORLD            Position angle (CCW/world-x)                               [deg]
#  10 FWHM_WORLD             FWHM assuming a gaussian core                              [deg]
#  11 ELONGATION             A_IMAGE/B_IMAGE                                           
#  12 ELLIPTICITY            1 - B_IMAGE/A_IMAGE                                       
         1 -11.9414    202.8719     43.2223   1.2578818101e+01   2.9545056498e+01      1.22237    0.9005569 -24.58  0.006714108    1.750    0.428
         2 -11.7535    227.0809     18.3940   4.5848383392e+00   2.7312786868e+01    0.9118201    0.6813083 -74.85  0.004256007    1.061    0.058
         3  -9.7781    120.0071      8.5501   1.5383883166e+01   5.3367806610e+01      0.29009    0.2039717  64.30   0.00120915    1.220    0.180
         4  -8.8639     96.9508      4.6858   1.8794854824e+01   5.8871037520e+01    0.1972938    0.1754351 -28.87  0.000284947    1.320    0.242
         5  -8.4506     54.6589      5.6702   3.1663684305e+01   6.7070480599e+01    0.1270396   0.07440029  20.74 0.0007051479    1.743    0.426
         6  -8.3548    122.5926      3.7797   1.3338912862e+01   5.3179469915e+01    0.1595992    0.1127845 -42.57 0.0005110785    1.631    0.387
         7  -8.2376    113.4647      2.4831   1.4558234390e+01   5.5380373667e+01    0.1262554    0.1046382  56.17 0.0003796006    1.025    0.024
         8  -8.3809     81.7738    232.8276   7.8635075289e+01   1.4831460573e+01    0.1764049    0.1596048  65.95 0.0004496805    1.128    0.114
         9  -8.7702     80.7005    249.3433   8.0516210760e+01   1.1674067923e+01    0.2683067    0.1912538  88.39 0.0008638121    1.457    0.314
        10  -9.4285     76.5496    249.0160   8.1318772216e+01   1.2329664690e+01    0.5087706    0.2609349  38.68  0.002674342    1.712    0.416
        11 -15.5892     10.7560    195.8517   9.0689482679e+01   3.1870025577e+01     6.769413     2.137519  38.79   0.02474297    2.750    0.636
        12  -8.2829     74.9917    231.3186   7.9919005039e+01   1.6134267243e+01     0.331658    0.1570093  23.67  0.001279555    3.555    0.719
        13  -8.8671    133.4382    222.2473   6.6039533228e+01   8.7596507182e+00    0.1803778    0.1338641 -73.38 0.0003759178    1.636    0.389
        14  -9.4733    103.0700    218.1730   7.2228080134e+01   1.4644437760e+01    0.2774555    0.2180186   0.91  0.001335649    1.886    0.470
        15 -11.0406    119.5215    214.3365   6.7980955885e+01   1.2743515259e+01    0.6795139    0.4563394  75.15  0.003251722    1.928    0.481
        16  -9.7944    117.0043    207.0117   6.7471038065e+01   1.4749581498e+01    0.3018019    0.2055274 -50.47 0.0008480045    1.607    0.378
        17  -8.1081    106.9651    209.0051   7.0083780115e+01   1.6003883685e+01    0.2043809    0.1729451 -13.39 0.0004156852    1.608    0.378
        18  -9.7801    133.0217    211.1468   6.4447411329e+01   1.1098836849e+01    0.3259539    0.2139083 -66.27  0.001378505    1.812    0.448
        19 -10.3913    127.9150    209.6466   6.5370789830e+01   1.2301343548e+01    0.3787186    0.2754362 -73.21   0.00193718    1.618    0.382
        20  -9.9566    123.4476    206.3454   6.5881957241e+01   1.3784353946e+01    0.3764704    0.2392716  21.02  0.001141683    2.081    0.519
        21  -8.7253     86.1549    209.5887   7.4969405494e+01   1.9211726054e+01    0.2394173    0.2158916  84.27 0.0006754849    1.086    0.079
        22 -16.4038     29.0595    236.0171   8.9685279579e+01   2.1109999876e+01     2.199167     1.590047 -37.52   0.01309551    2.439    0.590
        23 -10.3451    100.6096    203.0282   7.0713728283e+01   1.8393860719e+01     0.956903    0.2585807 -52.96  0.003112972    3.788    0.736
        24  -8.5635    100.7234    197.1649   6.9831849481e+01   1.9719179211e+01     0.277157    0.1746994  50.43  0.001318509    1.502    0.334
        25  -9.1852     97.6830    193.5560   7.0027392300e+01   2.1063750533e+01     0.542381    0.2548311 -69.13  0.002107564    2.535    0.606
        26  -9.8405     88.9451    202.9056   7.3447117129e+01   2.0300676097e+01    0.4384208    0.3578734  55.70  0.001210471    1.110    0.099
        27  -8.5191     67.9206    203.0169   7.8396726493e+01   2.3427983029e+01    0.3044118    0.1831491 -83.45  0.001252796    1.738    0.425
        28  -8.9433     63.6672    200.8626   7.9140173995e+01   2.4529215506e+01    0.2567944    0.2299906  38.06 0.0008827224    1.286    0.222
        29 -10.7564    110.3258    205.4864   6.8793871218e+01   1.6220949115e+01    0.6329647    0.3111056 -60.88  0.002615402    2.194    0.544
        30 -10.0929    126.4693    199.0480   6.4017675463e+01   1.4849433164e+01    0.3097248    0.2704661 -58.16  0.001023063    1.212    0.175
        31 -15.8486     13.4620    227.4840   9.2174916568e+01   2.4607821398e+01      1.30369    0.3240753  57.41  0.004955226    3.869    0.742
        32  -8.4539     93.1355    196.1646   7.1510506982e+01   2.1196493955e+01    0.2947281    0.1907257 -68.10 0.0008200655    1.587    0.370
        33 -10.9757    107.8527    213.9576   7.0575779351e+01   1.4773842367e+01     1.083081    0.4181894  54.68  0.003660017    3.448    0.710
        34  -7.9332     79.6048    194.2704   7.4518044399e+01   2.3767879714e+01     0.193447    0.1238387 -56.08 0.0008999189    1.630    0.387
        35 -10.3393    140.5312    229.8505   6.5613155419e+01   6.0895192451e+00    0.5046095    0.2360014  44.78  0.002249691    1.939    0.484
        36  -8.2848    108.1026    193.5338   6.7499971757e+01   1.9312038654e+01    0.2138776    0.1372126  38.53 0.0004124324    1.509    0.337
        37  -8.6258     73.0272    191.8377   7.5793128620e+01   2.5332599383e+01    0.3408131    0.2231497 -45.82  0.001663177    1.864    0.464
        38  -7.9137     90.7043    191.3181   7.1398001441e+01   2.2731127165e+01    0.2385121    0.1637628  56.94  0.000650794    1.418    0.295
        39  -9.0438     89.0031    188.2628   7.1366898110e+01   2.3733422506e+01     0.484368    0.2343994  51.58  0.001978888    2.118    0.528
        40  -7.7697    144.6500    190.6966   5.8344680410e+01   1.3371826390e+01    0.1487968    0.1162175  -1.62 0.0007040368    1.699    0.411
        41  -7.8317     66.0462    189.2410   7.7163388722e+01   2.6964026546e+01    0.1850412    0.1577131  63.76 0.0002726537    1.081    0.075
        42  -9.9045    105.1166    185.8551   6.7001196058e+01   2.1624014940e+01     0.555604     0.306451  85.31  0.001841936    3.673    0.728
        43  -8.0724    111.3423    185.6541   6.5431374112e+01   2.0586051449e+01    0.1601801    0.1091661  72.20 2.228974e-05    1.791    0.442
        44 -17.9199      7.6603    240.2055   9.3954337126e+01   2.2578293305e+01     3.376045      1.99258 -75.30   0.01806082    1.624    0.384
        45  -7.5392    216.5730    176.7823   4.0480680711e+01   2.9335801948e+00    0.1922411    0.1236255 -49.24 0.0009474982    1.639    0.390
        46  -9.9135    111.8190    175.4241   6.3544803439e+01   2.2929919871e+01    0.5096707    0.3448226  73.37  0.002235047    1.875    0.467
        47 -10.2246    103.8294    174.1364   6.5350660419e+01   2.4660285981e+01    0.5273867    0.4187292 -31.62  0.002613338    1.575    0.365
        48  -8.1197     30.7952    174.8335   8.4200811007e+01   3.4864333462e+01    0.1903915    0.1838921  26.54 0.0006099424    1.327    0.246
        49  -9.4588     31.5455    170.7157   8.3573474756e+01   3.5795580975e+01    0.6744831    0.3932314  63.59   0.00341787    1.747    0.428
        50  -9.9353     87.0174    169.0987   6.8861920837e+01   2.8740449070e+01    0.4491836    0.2989448 -86.02   0.00203693    1.749    0.428
        51  -8.8700    229.7969    172.3494   3.7211340284e+01   1.4780234862e+00    0.3323981    0.1129844  34.27  0.001104018    4.246    0.764
        52  -8.6653    124.9801    169.9970   5.9225741413e+01   2.1786938939e+01    0.2334436    0.2191567  71.13 0.0004153124    1.033    0.032
        53  -9.3015    111.1931    168.4851   6.2441481243e+01   2.4716341934e+01    0.4139477    0.2791705  64.26  0.001230557    1.720    0.419
        54  -7.9595     98.9387    157.9866   6.3698969006e+01   2.9492023287e+01     0.251353    0.1772478  73.07 0.0008243665    1.703    0.413
        55 -10.5629     59.1888    154.7717   7.4093703599e+01   3.6491963127e+01    0.6985384    0.3592064  53.24  0.002134268    2.169    0.539
        56  -7.8081    241.0000    151.0185   3.1037314947e+01   3.3455387776e+00    0.2313117   0.06725595 -40.69 0.0007360887    2.988    0.665
        57  -7.6870     95.3617    155.1245   6.4125268523e+01   3.0828886450e+01    0.2160285    0.1389047 -72.02 0.0005090733    1.714    0.417
        58  -8.9701     90.7643    149.2739   6.4269154820e+01   3.3082251243e+01    0.2857864    0.2392017 -57.56 0.0006494306    1.165    0.142
        59  -8.0405    131.7587    145.1903   5.2367072889e+01   2.6338424592e+01    0.2655315    0.1677875  78.27 0.0005910545    2.737    0.635
        60  -8.2045    124.4420    142.7791   5.3727792384e+01   2.8396493087e+01    0.3570062    0.1843146  35.17  0.001335296    2.167    0.538
        61  -7.5821     74.3358    140.6553   6.7304851929e+01   3.7907561227e+01    0.1583906    0.1096726  74.42 0.0007049432    1.769    0.435
        62  -9.2414    104.3246    136.7596   5.7859823387e+01   3.3773824631e+01    0.3168328    0.2223002  29.12  0.001419198    1.631    0.387
        63  -9.9061     36.8886    136.6214   7.7708878769e+01   4.3757631400e+01    0.2605774    0.2387356  82.15  0.000750226    1.104    0.094
        64  -9.5715     91.9610    135.4772   6.1109787437e+01   3.6325692787e+01    0.4128591    0.2796983  36.95  0.001549892    1.545    0.353
        65 -10.1822     49.3856    126.5554   7.2208926781e+01   4.4875125982e+01    0.3784776    0.2313589  67.47  0.001687474    2.187    0.543
        66 -10.6755     56.5005    131.1020   7.0845847566e+01   4.2843203540e+01    0.5190793    0.4373347  82.24  0.002047517    1.232    0.188
        67  -8.5261     13.3285    132.8441   8.4137016791e+01   4.6830091743e+01     0.211479    0.1417127 -89.71  0.001188303    1.403    0.287
        68 -10.6941     43.6144    126.7679   7.4049530896e+01   4.5494968454e+01    0.5658842     0.188452 -62.33  0.002105002    2.557    0.609
        69  -7.5379    112.6085    128.1512   5.3569302879e+01   3.4267713869e+01    0.2186891    0.1428441 -41.67 0.0004730621    1.611    0.379
        70  -8.7995    100.5854    124.2791   5.6075841972e+01   3.7514122128e+01    0.2806357    0.2486364 -25.44 0.0007050923    1.262    0.207
        71 -11.5372     34.2093    122.4668   7.6266737863e+01   4.7563593373e+01    0.6318433    0.4576166 -44.28 0.0008346803    1.381    0.276
        72  -7.6109     85.5227    119.5812   5.9468873855e+01   4.1346044137e+01    0.1479559    0.1427161 -58.97 0.0008044846    1.022    0.021
        73  -8.5681     51.7753    111.4207   6.8448966312e+01   4.8317187292e+01    0.1823374    0.1372546   7.43 0.0009460991    1.629    0.386
        74  -9.3503     13.7649    120.1493   8.2342258227e+01   4.9898186728e+01    0.3333225    0.2001021 -81.22  0.001501458    1.557    0.358
        75  -8.1941     24.1710    103.9885   7.6341202820e+01   5.2976916696e+01     0.214164    0.1379658  84.20  0.001078019    1.973    0.493
        76  -8.9928    109.5710     99.3352   4.7055537946e+01   4.1518531846e+01    0.2775886    0.2579949 -53.93 0.0007603289    1.070    0.065
        77  -8.8679    245.4804    230.4811   4.5162856532e+01  -1.0033995603e+01    0.1187135    0.0937633  -3.88 0.0002563145    1.008    0.008
        78  -7.1456    184.6879     77.6730   2.3775088501e+01   2.8451722900e+01    0.1414682    0.1177399  18.57 0.0007041776    1.665    0.399
        79  -7.5730     95.3762     75.1580   4.4225170867e+01   4.9383046685e+01    0.2013917    0.1341442 -53.92 0.0002713085    1.679    0.404
        80  -7.8282    144.4094     59.6247   2.6559514655e+01   4.1189588335e+01    0.2106216    0.1621655 -77.71 0.0005350434    1.501    0.334
        81 -10.1701    181.7078     58.0052   1.9221993711e+01   3.2394224658e+01    0.3522924    0.2765671  28.33  0.001814832    1.771    0.435
        82 -11.9153    195.4663     46.3973   1.4291252447e+01   3.0831568826e+01    0.8956516    0.8155093 -11.15  0.004601505    1.466    0.318
        83  -9.9837    120.4564    247.4479   7.2184150606e+01   6.0364502360e+00    0.2950177    0.2386004 -88.90  0.001833721    1.439    0.305
        84  -7.8015    172.9952     47.5287   1.7855720830e+01   3.6063735164e+01    0.2095557    0.1281633  64.99 0.0006044079    1.523    0.343
        85  -8.3367    221.6928     40.0973   9.7256329860e+00   2.5710746174e+01    0.2196675    0.1520024 -82.11 0.0006164289    1.328    0.247
        86  -9.5595     90.2673    246.8759   7.8332069792e+01   1.0756892169e+01    0.4057125    0.2599193  56.35  0.001568848    1.365    0.268
        87 -14.8269      2.8599    210.5002   9.3276302353e+01   2.9312998411e+01    0.7436097    0.6741236  62.75   0.00376126    1.330    0.248
        88  -9.2460    211.4765     18.4898   5.9819424473e+00   3.0743057595e+01    0.2192657    0.1758133 -78.30 0.0005044195    1.008    0.008
        89  -9.6623     83.8710    238.6604   7.8805018119e+01   1.3327271278e+01    0.4503193    0.3367909  59.93  0.001801015    1.139    0.122
        90  -9.3028    102.3234    242.6738   7.5387512567e+01   9.7527616928e+00    0.4965513    0.1212191 -57.22  0.001766006    4.353    0.770
        91  -9.3945    140.0670    244.1413   6.7704837866e+01   3.5327087072e+00    0.2463675    0.1909209 -63.46 0.0007447403    1.561    0.359
        92  -9.4216    248.8242    243.3905   4.6734898330e+01  -1.2179718401e+01     0.228642    0.1261741 -47.90    0.0012321    2.766    0.638
