#   1 NUMBER                 Running object number                                     
#   2 MAG_AUTO               Kron-like elliptical aperture magnitude                    [mag]
#   3 X_IMAGE                Object position along x                                    [pixel]
#   4 Y_IMAGE                Object position along y                                    [pixel]
#   5 X_WORLD                Barycenter position along world x axis                     [deg]
#   6 Y_WORLD                Barycenter position along world y axis                     [deg]
#   7 A_WORLD                Profile RMS along major axis (world units)                 [deg]
#   8 B_WORLD                Profile RMS along minor axis (world units)                 [deg]
#   9 THETA_WORLD            Position angle (CCW/world-x)                               [deg]
#  10 FWHM_WORLD             FWHM assuming a gaussian core                              [deg]
#  11 ELONGATION             A_IMAGE/B_IMAGE                                           
#  12 ELLIPTICITY            1 - B_IMAGE/A_IMAGE                                       
         1 -13.7965    203.8292     29.4633   5.8926736908e+01   3.1375979736e+01     2.180452    0.5126464 -42.13   0.00839369    3.639    0.725
         2 -18.3008    241.3923     43.2829   5.7800230199e+01   2.1693548862e+01     6.566355     5.655999 -59.12   0.02647434    1.263    0.208
         3 -15.3170    219.8561     31.6044   5.7661447596e+01   2.7666353969e+01        1.749    0.6336793 -36.18  0.007803977    2.962    0.662
         4  -9.1172    163.9253     15.6787   6.0676254327e+01   4.1817499449e+01    0.4710827    0.1746358  45.52  0.001871696    3.492    0.714
         5 -10.1249    155.6859     12.5970   6.1042823224e+01   4.3969056359e+01    0.4034751    0.2225128 -14.39  0.001845486    2.787    0.641
         6 -15.7848    215.3118     74.4045   6.7150038667e+01   2.2414852676e+01     3.771032     1.990019 -86.93    0.0125704    3.207    0.688
         7 -10.2925     92.6785      9.5104   7.1690490758e+01   5.7766071157e+01    0.2517087    0.1515057 -13.25  0.001002298    1.975    0.494
         8 -10.7651    205.5156      6.4490   5.4009666129e+01   3.3612518867e+01     0.403692    0.1907568  50.48  0.002036561    2.738    0.635
         9  -8.4560    180.6037      5.4786   5.6279174227e+01   3.9104772078e+01     0.117257   0.09564916  83.84 5.785465e-05    1.037    0.036
        10 -10.4289    105.2249      3.3607   6.6918075393e+01   5.5719201967e+01    0.1880003     0.172903  22.99  0.001232525    1.192    0.161
        11 -10.6373    190.0295    148.7903   8.8226807272e+01   1.3499876432e+01     0.443567    0.2584596 -65.89  0.001458338    2.553    0.608
        12  -8.6408    146.4746    157.0255   9.9824580528e+01   2.0594876922e+01    0.2380704    0.2082683  46.10 0.0003462598    1.174    0.148
        13 -12.9034      8.4529    170.7503   1.3788412982e+02   3.7739186361e+01     2.208785     0.944541 -83.04  0.009835844    2.278    0.561
        14 -11.7908     49.7951    152.9600   1.2481940695e+02   3.7993016047e+01    0.4267565    0.3463416 -19.22 0.0009367632    1.532    0.347
        15 -14.0579     62.0231    146.7573   1.2029725846e+02   3.7992311536e+01      2.16926     1.562029 -10.77  0.005676819    1.948    0.487
        16  -9.3051    169.5268    155.1911   9.4042760980e+01   1.6296144872e+01    0.3034952    0.2012156  62.56 0.0007419821    1.914    0.477
        17  -9.2746     89.6163    153.7567   1.1393453382e+02   3.2077984525e+01    0.2572444    0.2103744  32.74  0.000886301    1.327    0.246
        18  -8.9263    198.5096    153.1021   8.7467307210e+01   1.0888435389e+01    0.2252635    0.1383204 -43.45 0.0003697001    1.509    0.337
        19 -10.1108    204.2886    152.0641   8.6112719460e+01   9.9704233236e+00    0.2788255    0.2200442  56.57 0.0009559061    1.431    0.301
        20 -10.1433    133.9905    147.2378   1.0072008479e+02   2.5442963489e+01    0.7387756    0.2349958 -54.24  0.002076826    3.628    0.724
        21 -10.3241    132.6664    138.9910   9.9148180256e+01   2.7662274635e+01    0.8617009    0.2461646 -53.80  0.002226284    4.320    0.769
        22  -9.6283    151.9639    150.5949   9.7066912060e+01   2.0970645620e+01    0.4508499    0.2528255 -73.28  0.001365065    3.781    0.736
        23 -13.3798     23.1940    166.0248   1.3374231504e+02   3.7585083962e+01     1.043163    0.8016562 -69.18  0.003691973    1.095    0.087
        24 -10.1967    175.5726    148.8780   9.1295640387e+01   1.6452214187e+01    0.4133893    0.2966821  44.71  0.001479406    1.464    0.317
        25  -9.1202    205.1644    147.4381   8.4942169595e+01   1.0752813399e+01       0.2639    0.1836865 -77.43 0.0008260855    2.102    0.524
        26  -9.5526    144.2478    146.4225   9.7979402173e+01   2.3537181700e+01    0.2221918    0.1497429  54.81   0.00094732    1.634    0.388
        27  -9.5538    192.0574    144.0571   8.6762492920e+01   1.4091995510e+01     0.248259    0.2180336  56.01 0.0004769445    1.224    0.183
        28 -12.1504    189.0224    138.7634   8.6184687181e+01   1.5839003442e+01     0.867799    0.5144553  54.03   0.00172542    1.873    0.466
        29 -10.6117    247.4854    182.2633   8.4508106064e+01  -3.3917415340e+00    0.3836917    0.3271532 -81.80  0.001657318    1.697    0.411
        30 -10.3499    243.4693    181.4971   8.5040882241e+01  -2.6395401523e+00    0.2348794    0.1870109 -36.48  0.001401817    1.081    0.075
        31 -11.3598    210.2144    134.9889   8.1287828155e+01   1.2284120667e+01    0.6812375    0.4528606 -69.68  0.003063469    1.959    0.490
        32  -9.3751    165.3216    136.4815   9.0711295507e+01   2.1354127587e+01    0.2730497     0.185853 -65.92 0.0009505952    1.770    0.435
        33 -11.5769    160.3085    129.5562   9.0202355543e+01   2.3960105384e+01    0.6445142    0.4255226 -38.69  0.002698619    1.550    0.355
        34  -9.2642    123.9976    205.9948   1.1484147096e+02   1.3310638489e+01    0.2015185    0.1936231  68.36  0.001138641    1.004    0.004
        35 -10.9810    190.6710    131.7245   8.4254796018e+01   1.6971584042e+01    0.4292237    0.2623258  56.42  0.001164383    1.828    0.453
        36  -9.3375    197.6198    119.7886   8.0196563825e+01   1.7936998583e+01    0.3437211    0.1991215 -51.11  0.001016081    1.654    0.395
        37  -9.7776    193.8218    118.1269   8.0524492929e+01   1.9081520589e+01    0.3410212    0.2399255  78.79  0.001020225    1.821    0.451
        38 -11.6090    202.2197    125.4869   8.0638291502e+01   1.5826534810e+01    0.6610885    0.3775415 -59.14  0.002042618    1.997    0.499
        39 -10.7247    205.6213    122.7816   7.9415248827e+01   1.5659420014e+01    0.3505945    0.2538769 -50.23 0.0009127422    1.266    0.210
        40  -8.8891    127.6390    129.7498   9.8234321381e+01   3.0845541243e+01    0.2228342    0.1439813 -58.13 0.0004209249    1.652    0.395
        41 -12.7183    185.3998    122.2737   8.3117480639e+01   2.0056279333e+01    0.8961974    0.8479071 -11.92  0.004926631    1.200    0.167
        42 -10.8980    175.3196    115.3526   8.3517217326e+01   2.3685246124e+01    0.8381508    0.4886695 -79.05  0.002669144    3.829    0.739
        43 -11.7797    162.0994    119.7298   8.7417097778e+01   2.5692814878e+01    0.9733204    0.5608731 -72.95  0.001192358    3.406    0.706
        44 -11.5791    168.2308    114.3980   8.4773891231e+01   2.5453203876e+01    0.6643158    0.6161124  88.60  0.002333997    1.086    0.079
        45  -8.5789     97.3033    128.9089   1.0633973080e+02   3.6875633244e+01    0.2145492    0.1912118 -47.68  0.000533497    1.068    0.064
        46  -8.7988     91.1652    168.9084   1.1643918617e+02   2.8002683371e+01    0.2115961    0.1877642 -87.01  0.000264287    1.116    0.104
        47  -9.8339    153.4587    125.5725   9.0819724559e+01   2.6320867538e+01    0.5279157    0.3474999 -78.79  0.002026667    2.422    0.587
        48 -11.8057    118.1346    109.1877   9.5556926675e+01   3.7398771580e+01    0.6307178    0.6025621 -58.20  0.002533416    1.058    0.055
        49 -12.5164    125.9399    108.8500   9.3392006121e+01   3.5860518330e+01     1.024265    0.7063096 -48.94  0.004720305    1.446    0.309
        50 -13.0865    121.8698    101.4553   9.2496816214e+01   3.8266590391e+01     1.876258     1.104398 -65.75  0.007065681    2.651    0.623
        51  -8.6539    154.5095    168.5267   1.0039914087e+02   1.6293979862e+01    0.2868911    0.1889495  68.88  0.001136395    2.226    0.551
        52 -10.4907     83.0543     99.0397   1.0304243043e+02   4.6123752486e+01    0.3242016    0.2063305 -50.98 0.0004716787    1.562    0.360
        53  -8.1374     37.8615    108.7876   1.2005851542e+02   5.0057054993e+01    0.1719128    0.1474875 -79.84 0.0004535085    1.319    0.242
        54  -9.8001    140.6637    106.7539   8.9129991581e+01   3.3146242216e+01    0.2901668    0.2788133 -11.01 0.0007964179    1.111    0.100
        55  -9.5258    144.1159    111.6534   8.9558863971e+01   3.1363950387e+01    0.2790785    0.2124622 -59.10  0.001028141    1.387    0.279
        56 -10.3307    145.8620    104.1494   8.7209447620e+01   3.2537900799e+01    0.3490857    0.2648909  39.39 0.0005748515    1.394    0.283
        57  -8.6162     34.4498     97.0493   1.1858109332e+02   5.3040244204e+01    0.1999423    0.1137206 -55.91 0.0005600305    1.550    0.355
        58 -10.9261    152.0823     90.8175   8.2305217270e+01   3.3756955584e+01    0.3430507    0.2950525 -58.51 0.0008046405    1.177    0.151
        59  -8.4550     33.4386     92.9509   1.1796881823e+02   5.4032659255e+01    0.1943384    0.1129779 -55.63 0.0004722844    1.535    0.348
        60  -8.3516    157.5281    167.5739   9.9489708435e+01   1.5912035348e+01    0.2203383    0.1862967  -1.84 7.017265e-05    1.414    0.293
        61 -11.5082    109.7999     79.3242   8.9542554971e+01   4.5059378652e+01    0.5718821     0.384023 -46.91  0.002703659    1.573    0.364
        62  -8.7529     79.8218     76.3636   9.7579411263e+01   5.1195954157e+01    0.2192189    0.1761335 -46.66 0.0004952368    1.324    0.245
        63 -10.5367    137.4576     70.4658   8.0060152346e+01   4.0658976665e+01    0.3493073    0.1796115  59.88  0.001449718    2.086    0.521
        64 -10.1791    125.2234     69.1395   8.2561761302e+01   4.3578560896e+01     0.284486    0.2227434 -43.85 0.0007027625    1.346    0.257
        65 -10.8111    124.0876     57.8724   7.9539990991e+01   4.5595732663e+01    0.2820038      0.24264  40.33  0.000271763    1.107    0.096
        66 -11.2975    199.3964    164.2456   8.9686906255e+01   8.3827359958e+00    0.4578573     0.345129 -89.83  0.001683086    1.969    0.492
        67  -9.3600    203.3456    160.6895   8.8147406747e+01   8.3674969503e+00    0.2502325    0.2215388 -74.27 0.0006939826    1.277    0.217
        68 -10.3592    111.0129     37.5230   7.6462566118e+01   5.1151259596e+01    0.3346768    0.1972304 -21.41  0.001682545    2.041    0.510
        69 -10.6807    204.7516    164.4817   8.8676141826e+01   7.3174313314e+00    0.3675907    0.2905589 -30.64 0.0006289181    1.248    0.198
        70  -9.2298    200.0626    188.4614   9.4555546044e+01   3.2692052353e+00    0.2091493    0.1411002  40.20 0.0005504796    1.562    0.360
        71  -8.5743     78.0000     33.9756   8.4213963202e+01   5.8041795843e+01    0.1896756   0.06874992 -32.15 0.0006526989    2.942    0.660
        72  -9.5016     91.9404     31.9683   7.9509082714e+01   5.5672946641e+01    0.3290447    0.1643909 -26.57  0.001201356    2.243    0.554
        73  -9.0363    157.1449    160.7255   9.8098616180e+01   1.7566728354e+01    0.3000356    0.2129153 -64.29  0.000658428    1.603    0.376
        74  -8.3962    154.4093    157.1560   9.7955786693e+01   1.8948368147e+01    0.2210501    0.1456997 -61.10 0.0006392219    1.693    0.409
        75  -8.2323     79.0000     23.9485   8.0356102837e+01   5.9007070016e+01    0.1740813   0.06731702 -28.70 0.0004597318    2.825    0.646
        76  -8.8991     78.8575     18.6761   7.8505085970e+01   5.9575023823e+01    0.1932094     0.145163  -0.87 0.0005997443    1.379    0.275
        77  -9.3639    249.7417    199.9081   8.7493153926e+01  -6.8184876944e+00    0.1790977    0.1412706 -30.94 0.0004618706    1.079    0.073
        78 -10.4571    192.4959    153.5039   8.8762597644e+01   1.1998441377e+01    0.3391641    0.1824099 -51.95  0.001119972    1.879    0.468
        79  -9.2063     90.0826     15.3582   7.4326327764e+01   5.7761105081e+01    0.1911844     0.148192   8.44 0.0006625489    1.354    0.261
        80 -11.3245    207.4381    198.2475   9.5006807983e+01   5.5528743013e-02    0.5104204     0.329991   1.09  0.002273702    2.259    0.557
        81 -11.1925    192.2760    193.9097   9.7243000377e+01   3.5502953187e+00     1.012586    0.4766594 -62.87  0.002810947    5.497    0.818
        82  -8.5406    177.0456     12.5103   5.8268550698e+01   3.9201216776e+01    0.1750107    0.1006753  70.26  0.000423212    1.452    0.311
        83 -11.4401    224.9084    193.2724   9.0665521359e+01  -1.8802152123e+00    0.4255414    0.3677699  72.54 0.0009428785    1.633    0.388
        84  -8.2587    247.1229    242.3678   9.5634748946e+01  -1.3270020475e+01    0.1424032    0.1039135  33.51 0.0001535304    1.563    0.360
        85 -10.1664    140.9426    229.2386   1.1480204661e+02   5.2936010354e+00    0.2237504    0.2127545 -66.49 0.0002399996    1.129    0.114
        86  -9.4018    187.8578    157.1187   9.0508386683e+01   1.2152277164e+01    0.2374077    0.2028607 -75.58 0.0008448847    1.335    0.251
