#   1 NUMBER                 Running object number                                     
#   2 MAG_AUTO               Kron-like elliptical aperture magnitude                    [mag]
#   3 X_IMAGE                Object position along x                                    [pixel]
#   4 Y_IMAGE                Object position along y                                    [pixel]
#   5 X_WORLD                Barycenter position along world x axis                     [deg]
#   6 Y_WORLD                Barycenter position along world y axis                     [deg]
#   7 A_WORLD                Profile RMS along major axis (world units)                 [deg]
#   8 B_WORLD                Profile RMS along minor axis (world units)                 [deg]
#   9 THETA_WORLD            Position angle (CCW/world-x)                               [deg]
#  10 FWHM_WORLD             FWHM assuming a gaussian core                              [deg]
#  11 ELONGATION             A_IMAGE/B_IMAGE                                           
#  12 ELLIPTICITY            1 - B_IMAGE/A_IMAGE                                       
         1 -11.4585      3.5411     20.4338   8.5140315463e+01   7.1662625617e+01    0.5090727    0.2731421   1.49  0.002480499    1.761    0.432
         2 -10.7783     35.0577     23.0435   6.9064200837e+01   6.7784208367e+01    0.3769516    0.2051125   4.75  0.001828187    2.392    0.582
         3 -10.0137     15.1587      8.8785   7.2794840204e+01   7.2182468166e+01     0.237239    0.1275359  20.34  0.001149442    1.618    0.382
         4  -8.4405      9.3389      9.5937   7.6601252065e+01   7.2723922759e+01    0.2805521     0.139379  39.96  0.001466513    2.909    0.656
         5 -11.4786     14.4875     16.3291   7.6808326886e+01   7.1259754511e+01    0.3475549    0.2765886 -62.81 0.0009351116    2.582    0.613
         6 -10.8157    229.2971     19.1918   2.7640242127e+01   2.7848921104e+01     0.292715    0.1813731 -25.67  0.001220998    2.290    0.563
         7 -10.0253    154.3529     17.8348   3.4839931227e+01   4.3886936973e+01    0.2022037    0.1475859  83.19 0.0004701848    1.230    0.187
         8 -11.8826    125.7623     10.3977   3.7006410301e+01   5.1106354740e+01    0.5222709    0.2847292 -56.40  0.002628133    2.365    0.577
         9 -10.8462    122.9514      1.9551   3.4906593581e+01   5.2435792113e+01    0.2383779     0.162906  72.41 0.0003650883    1.244    0.196
        10 -11.7377    235.0871     14.8152   2.6418999511e+01   2.7245495473e+01    0.2673472    0.1895389  87.07  0.000746182    1.265    0.210
        11 -11.0967     85.6350     11.6019   4.5755872119e+01   5.9868967574e+01    0.2932625     0.190102  36.09  0.001407676    1.414    0.293
        12 -11.5149    125.1124     17.1858   3.9177861753e+01   5.0632294797e+01    0.2492195    0.1953007  51.06 0.0002858437    1.177    0.150
        13 -11.2036    208.1033     13.0871   2.8095619305e+01   3.2706530661e+01    0.2149043    0.1653945 -47.21  0.000368658    1.333    0.250
        14 -10.3434    177.0549     13.6313   3.1092605890e+01   3.9230954226e+01    0.3282319     0.165148 -81.86  0.001605731    2.275    0.561
        15 -11.4117     34.6578     12.1258   6.4173592951e+01   6.9200845273e+01    0.3066683    0.2317723  48.80  0.001700854    1.808    0.447
        16 -11.6629     29.4471      8.0721   6.4709481260e+01   7.0421574426e+01    0.4246331    0.2644735   9.52  0.001153508    1.498    0.333
        17 -11.1685    191.7160     10.2291   2.8899783022e+01   3.6410049845e+01     0.293931    0.1570585 -86.40 0.0003700985    1.812    0.448
        18 -13.0956    116.7163      8.5065   3.7972726875e+01   5.3316179811e+01    0.2774941    0.2383889  76.23 0.0006081674    1.113    0.102
        19 -10.8773     45.4110      9.8598   5.8316031127e+01   6.7738577509e+01    0.2255414    0.1659022  22.82 0.0003529529    1.089    0.082
        20  -9.9902    182.3081      9.8976   2.9704717748e+01   3.8458728811e+01    0.2055403    0.1334347  88.67 0.0004579443    1.341    0.254
        21 -10.4714     56.0911      8.9555   5.3751756665e+01   6.5952781695e+01    0.2355599    0.1590808  -6.18 0.0008950098    1.579    0.367
        22  -9.7767     21.7712      9.7224   6.9522263255e+01   7.1272453884e+01    0.2353154    0.1221616  21.91   0.00116887    1.727    0.421
        23 -10.2996    149.9265      7.7222   3.2757010964e+01   4.5850652415e+01    0.2298861    0.1380499  26.97  0.001174652    2.645    0.622
        24 -10.3607      3.5701      6.6993   7.8749878328e+01   7.3677484938e+01    0.2429936    0.1726008  -8.07  0.001179154    1.043    0.041
        25  -9.3531    165.6525      7.6642   3.0894415455e+01   4.2328123663e+01    0.1210404   0.08029936  46.07 0.0007048087    1.777    0.437
        26 -10.1946     38.6275      5.3813   5.9064026114e+01   6.9303859282e+01    0.2191624    0.1697792 -18.25  0.001522781    1.407    0.289
        27 -10.5435    104.7870      4.0942   3.8747144752e+01   5.6337331784e+01     0.200931    0.1463761  60.25 0.0004598969    1.123    0.110
        28 -10.4132     53.5222      3.0086   5.1977535505e+01   6.6955013507e+01    0.1972627    0.1627374  44.17 0.0004391322    1.233    0.189
        29  -9.3646     43.7269      3.9675   5.6201154913e+01   6.8596269016e+01    0.1376388   0.09485291 -12.79 0.0006169378    1.498    0.332
        30 -12.0816     19.0467      2.4904   6.7276558045e+01   7.2463920423e+01    0.4926982    0.1725336  32.21  0.001210466    2.487    0.598
        31  -9.9875     59.6829      3.0872   4.9880954130e+01   6.5801351640e+01    0.2013845    0.1407283  52.87 0.0006326536    1.351    0.260
        32  -9.9484    199.0195      1.9680   2.6546850890e+01   3.5692601118e+01    0.1359008    0.1079107 -70.37 0.0007190301    1.099    0.090
        33 -10.4436    162.3287      2.5907   3.0013975748e+01   4.3521915824e+01    0.2343219   0.09924032  77.15  0.001137453    2.102    0.524
        34  -9.6613    237.6968      1.7158   2.3914603300e+01   2.8157761589e+01   0.08901173   0.07610516  68.32 0.0002468008    1.557    0.358
        35 -10.9863    115.7310      1.3686   3.5887918783e+01   5.4104149712e+01    0.5402302     0.111246  68.56  0.001686022    4.783    0.791
        36  -9.4536     80.7948      1.5235   4.3110928281e+01   6.1704125160e+01    0.1572131    0.1040631  68.99 0.0004654858    1.561    0.359
        37  -9.9010     29.2481      1.3389   6.1363882184e+01   7.1158352122e+01    0.2776293   0.09051101  42.92  0.001281945    2.725    0.633
        38  -9.2742     22.4909    200.5409   1.1256593726e+02   2.8147343915e+01     0.131818    0.1130503  80.01 2.339609e-05    1.016    0.016
        39 -10.2615    110.0259    250.5851   9.7192324334e+01   6.0124886374e+00    0.2041335    0.1131502  31.19 0.0005376423    1.582    0.368
        40 -10.9868     28.9742    250.5085   1.1483455071e+02   1.6140626671e+01    0.3027062    0.1056283  29.95  0.001354824    2.696    0.629
        41 -11.7963     18.3972    248.6967   1.1687170840e+02   1.7608179324e+01    0.3172159    0.2507652 -52.69  0.002135459    1.612    0.380
        42 -12.3304      3.4276    247.1892   1.1975626846e+02   1.9356470980e+01     0.855514    0.4080985  47.43  0.004917583    1.699    0.411
        43 -12.8627     11.4453    243.5505   1.1797988830e+02   1.9367345890e+01    0.4632556    0.4175095 -74.38  0.003073167    1.309    0.236
        44 -12.2142      7.8718    238.7914   1.1844227786e+02   2.0716429637e+01    0.5029468    0.3021578 -36.02  0.002653037    2.832    0.647
        45  -9.2700     14.6015    192.8598   1.1386235683e+02   3.0757743031e+01     0.179192    0.1067815  85.93 0.0003704501    1.594    0.373
        46 -10.1067      6.1898    191.8250   1.1584342385e+02   3.1712214680e+01    0.2009284    0.1483379  72.68 0.0009966086    1.221    0.181
        47  -9.6495      1.2458    191.0400   1.1698173863e+02   3.2287083186e+01    0.1910263    0.0912381 -89.26 0.0008999872    1.932    0.482
        48  -9.2484     18.4210    182.5435   1.1199238397e+02   3.3011742288e+01    0.1330281     0.115028 -79.77 6.710592e-05    1.051    0.049
        49  -8.8624     14.0000    181.9953   1.1309050332e+02   3.3527680536e+01    0.2211891   0.06653369 -74.30 0.0007981386    2.913    0.657
        50  -9.1551     22.6627    179.7076   1.1060138776e+02   3.3357067495e+01    0.1359834   0.09456857 -41.25  0.000294738    1.644    0.392
        51  -9.6067      6.6865    168.3210   1.1380533016e+02   3.7573337501e+01     0.138485   0.08627016  65.75 0.0002101737    1.654    0.395
        52 -10.7175      3.8435    153.7381   1.1323460413e+02   4.1508554113e+01    0.4696401    0.1215794  27.41  0.001762076    3.685    0.729
        53  -9.9964     17.0094    150.0000   1.0895987103e+02   4.1547962264e+01    0.1998523   0.07972597  19.11 0.0005412482    2.901    0.655
        54 -10.3895      6.0673    145.4637   1.1173416334e+02   4.3500386228e+01    0.1780699    0.1347851  15.28 0.0006799935    1.572    0.364
        55 -10.1488     28.9879    143.0264   1.0433260480e+02   4.2378194757e+01    0.2070958    0.1839962 -64.93            0    1.005    0.004
        56 -10.1124     53.0164    141.9284   9.6436647539e+01   4.0131060583e+01    0.2173504    0.2028631 -70.31  0.001207077    1.055    0.052
        57  -9.7056    236.0163    138.3203   5.0537285343e+01   8.5521034890e+00     0.172245    0.1597125 -34.34 0.0007972139    1.133    0.117
        58  -9.9974     96.0701    133.7303   8.1023039874e+01   3.5846809252e+01    0.2186639    0.2092903 -10.06 0.0007398038    1.044    0.042
        59  -9.4746    213.0524    133.7778   5.3281965948e+01   1.3251730917e+01    0.1662984     0.116187  48.22 0.0005208592    1.657    0.396
        60  -9.5538     61.7903    130.7583   9.1393422276e+01   4.1936711308e+01    0.1966015    0.1728925  71.00 0.0003382168    1.303    0.233
        61 -11.0812     40.2904    127.3681   9.8027795721e+01   4.5388803025e+01    0.3568574    0.2857415  50.74  0.001377332    1.428    0.300
        62 -12.2354     28.4548    128.0102   1.0218979591e+02   4.6360960364e+01    0.2624137    0.2404895 -34.17   0.00155842    1.113    0.101
        63  -9.3497    226.4930    124.5393   4.9189327796e+01   1.2594345126e+01    0.1345443    0.1132008 -46.64 7.899709e-05    1.026    0.025
        64 -11.5631     10.3057    121.2284   1.0735458969e+02   4.9476643937e+01    0.3742487    0.3009311  47.65  0.001521869    1.451    0.311
        65 -10.0674     56.0000    120.5400   9.1204994295e+01   4.5320797013e+01    0.3475259   0.07987083 -58.98 0.0009500174    4.059    0.754
        66 -10.8318     69.0527    116.6393   8.5782436500e+01   4.4498374474e+01    0.2849303     0.212428 -52.76  0.000551184    1.280    0.219
        67  -9.6648    233.3062    116.3489   4.6517598768e+01   1.2866238151e+01    0.1273808   0.09697749 -15.41 0.0007042486    1.703    0.413
        68 -10.5834      1.9283    113.9953   1.0924249512e+02   5.1781709086e+01    0.2010571    0.1611123 -60.83            0    1.025    0.025
        69 -11.0458     24.8710    111.7892   1.0062955706e+02   5.0823891526e+01    0.2191443    0.1648378 -39.66 0.0006027904    1.217    0.178
        70 -11.3805     13.2106    107.9604   1.0425279766e+02   5.2643055507e+01    0.4581456    0.1282936 -51.38  0.001724053    2.614    0.617
        71 -10.5202     16.8412    105.0836   1.0239134366e+02   5.3113012042e+01    0.2173953    0.1499587 -41.16 0.0002473521    1.288    0.224
        72 -10.8661      4.2424    108.4722   1.0762338476e+02   5.3042347954e+01    0.3917367    0.2112978  -6.83  0.001906753    2.248    0.555
        73  -9.3650     44.9500    104.9759   9.1719880283e+01   5.0550150010e+01    0.1715599    0.1533894 -34.73 0.0003895784    1.010    0.010
        74 -10.0623     39.4777    105.4582   9.3890873608e+01   5.1034006734e+01    0.1451857     0.125457 -37.34 0.0002026975    1.035    0.034
        75 -10.1740      1.4162    104.2014   1.0801512037e+02   5.4241456933e+01    0.2531727   0.09661661 -63.52 0.0008775466    2.002    0.500
        76 -10.0005     21.6360    103.6876   1.0030900604e+02   5.3104062877e+01    0.1520756   0.08527802 -34.46 0.0007039997    1.758    0.431
        77 -10.5846    247.0108    101.6753   4.1812654486e+01   1.3012850173e+01    0.1653659    0.1457812 -58.10 0.0005569577    1.114    0.102
        78 -11.3273    197.1006     97.8529   4.8047086850e+01   2.2937725747e+01    0.2127955    0.1863592 -56.11 0.0002911937    1.029    0.029
        79 -12.2804     20.3942     92.5833   9.8537570484e+01   5.5895033903e+01    0.5974185    0.3393764 -31.91 0.0007800763    1.716    0.417
        80  -9.4930     99.8032     94.7361   6.9739745834e+01   4.4265089067e+01    0.2306524    0.1792792  89.06 0.0009252469    1.915    0.478
        81  -9.8118    132.8350     95.8542   6.0747701791e+01   3.7160089995e+01    0.2028005    0.1791663 -83.13 0.0004149224    1.288    0.224
        82 -11.3588    125.1201     93.1241   6.1988714314e+01   3.9373914050e+01    0.2425393    0.2404276 -41.17            0    1.027    0.026
        83 -10.2221    160.9654     92.6903   5.3456948604e+01   3.1582453506e+01    0.1948577    0.1833956  67.54 0.0002729362    1.073    0.068
        84  -9.9676     43.5155     93.0345   8.9374636565e+01   5.3572559330e+01     0.224525    0.1302426 -54.88  0.001040605    1.616    0.381
        85 -11.7758     57.9423     91.3391   8.3319235679e+01   5.2120329873e+01    0.3700589    0.2728334 -14.19 0.0007953176    1.456    0.313
        86  -9.4064     83.3091     90.5173   7.3894022169e+01   4.8251460387e+01    0.2017223    0.1403362  20.60 0.0009284691    1.576    0.366
        87  -9.8532     29.7943     91.7490   9.4547735786e+01   5.5299452663e+01     0.204144    0.1606052 -33.34  0.001140503    1.128    0.113
        88 -10.5481      7.0786     90.7829   1.0355940353e+02   5.7201632710e+01     0.275261    0.1743911 -49.67 0.0005690316    1.271    0.213
        89 -11.8013      8.0966     82.9507   1.0159052383e+02   5.8983182192e+01      0.41526    0.2622748 -44.48  0.002020151    1.286    0.222
        90 -10.3213     18.2601     86.2601   9.8031359666e+01   5.7546033178e+01    0.2990722    0.2545273  55.79  0.001800586    1.521    0.343
        91 -12.1531     10.8970     93.2624   1.0249599026e+02   5.6386588098e+01    0.5386975    0.2456803 -41.21 0.0003879897    1.908    0.476
        92 -10.3088      2.7610     83.7586   1.0399659773e+02   5.9079901651e+01      0.22786    0.1603612 -59.33  0.001341776    1.214    0.176
        93  -9.9011    179.8914     81.1666   4.6999977685e+01   2.9473716453e+01    0.2096289    0.1764617 -80.44 0.0003542097    1.204    0.169
        94  -9.4441     64.9883     81.4695   7.7780281661e+01   5.3238137257e+01    0.2111512    0.1375864  28.19 0.0008165558    1.539    0.350
        95 -10.2496     42.9777     80.8994   8.6336568900e+01   5.6388003879e+01    0.1999408    0.1749863 -18.54  0.001172348    1.023    0.023
        96 -10.8274     21.2268     75.9615   9.4292046704e+01   5.9660231351e+01    0.4025818     0.256166  52.38  0.001687115    2.420    0.587
        97 -11.0501     16.2929     76.8636   9.6685130463e+01   5.9839321286e+01    0.2445723    0.2174008  23.06  0.001564215    1.326    0.246
        98  -9.6567    250.4914     80.5142   3.7359661920e+01   1.5751377057e+01    0.1214121   0.09521166 -55.96 0.0003661311    1.003    0.003
        99 -10.0525     88.2042     79.5685   6.8939182398e+01   4.9606705365e+01    0.4030492    0.2458245  65.30   0.00151002    3.059    0.673
       100  -9.0361    124.4960     79.0146   5.8111692903e+01   4.2205279986e+01    0.2064171    0.1450099 -41.02 0.0003679484    1.460    0.315
       101 -11.3454     48.4717     78.8317   8.3485321912e+01   5.6155844374e+01    0.4340979    0.2515275   4.50 0.0003805059    2.224    0.550
       102 -11.0558     55.0327     74.9765   7.9664140597e+01   5.6076208935e+01      0.51186    0.3623113   7.55  0.002471934    1.495    0.331
       103  -8.8317     51.5775     74.4764   8.0905375346e+01   5.6661979747e+01    0.2460699    0.1836473  -4.42 0.0007007074    1.368    0.269
       104 -10.0785    177.0229     76.6507   4.6384494186e+01   3.0857296366e+01    0.2013018    0.1736899  69.33  0.001156096    1.156    0.135
       105  -8.8843    165.4815     75.4925   4.8147719442e+01   3.3613345817e+01      0.14022      0.13123 -80.48 -1.561257e-05    1.008    0.008
       106 -10.6223     42.6346     74.1171   8.4507563447e+01   5.7890653980e+01    0.2681406    0.2066081  50.07  0.001444288    1.738    0.425
       107  -9.8428     68.9915     74.0142   7.3953560844e+01   5.4119065237e+01    0.2075325    0.1776855  71.12 0.0006524711    1.644    0.392
       108 -10.7946     34.8465     73.2553   8.7588759738e+01   5.8963742756e+01    0.3271677    0.2055617  31.12 0.0007539997    1.710    0.415
       109  -9.9964     93.9342     71.9507   6.4679509205e+01   4.9942374931e+01     0.491415    0.1820175  55.01  0.001369625    4.855    0.794
       110  -9.5983    181.7934     70.7567   4.4155871946e+01   3.0766040365e+01    0.1880569    0.1458882 -68.87  0.000873653    1.292    0.226
       111 -10.0145    118.0003     71.0470   5.7431157473e+01   4.5046661901e+01    0.2107586    0.1912537  29.75  0.001172843    1.094    0.086
       112  -9.4794    105.8246     71.6687   6.0987307008e+01   4.7556018400e+01    0.2030418     0.130105  54.26 0.0006171745    1.651    0.394
       113  -9.6180    158.1323     70.2813   4.8171162605e+01   3.6128309605e+01    0.2193737    0.1637161  42.23  0.001133553    1.467    0.319
       114  -9.8173    100.2386     70.0399   6.2123797379e+01   4.9009461157e+01    0.1897129    0.1745989 -29.00            0    1.124    0.110
       115 -13.0459     80.6904     67.2145   6.7520432232e+01   5.3355049785e+01    0.3328294     0.297837  -7.44 0.0005176129    1.071    0.066
       116 -10.4799     13.0395     70.1561   9.6478586915e+01   6.1552998017e+01    0.1999874    0.1404849 -30.67  0.001170059    1.213    0.176
       117  -9.7143     45.0030     68.8582   8.1885866704e+01   5.8684102301e+01    0.2375625    0.1268384 -47.77  0.001110496    1.796    0.443
       118 -12.3741      8.2909     63.1647   9.6890312747e+01   6.3367872490e+01    0.6972964    0.3257066 -38.36  0.001556997    1.772    0.436
       119 -10.1927     59.1014     66.6072   7.5347225212e+01   5.7140942022e+01    0.2741586    0.1955266 -41.66  0.001026911    1.402    0.287
       120 -10.9605     51.7833     65.8631   7.8071095585e+01   5.8365196725e+01     0.310789    0.2034846 -31.29 0.0007869857    1.468    0.319
       121 -11.4408     14.8572     63.0202   9.3737415522e+01   6.2948853701e+01    0.4066646    0.2912388 -65.41  0.002329618    1.621    0.383
       122 -13.7221     20.7396     58.2016   8.9518061759e+01   6.3459320916e+01    0.4210541    0.2810559 -41.88  0.000978313    1.294    0.227
       123 -10.7673     39.9624     65.2072   8.2899622301e+01   6.0046321923e+01    0.2151076    0.2017608  11.06 0.0002448892    1.231    0.188
       124  -9.9174     38.9614     61.3154   8.2077031053e+01   6.0936272490e+01    0.2064408    0.1609603 -34.20 0.0006035461    1.179    0.152
       125  -9.9209    104.5119     64.4051   5.9068538337e+01   4.9088525595e+01    0.2702888    0.1417019 -36.53 0.0007799559    2.018    0.504
       126 -10.0093     62.6404     62.5143   7.2570910648e+01   5.7351238470e+01     0.372517    0.1263564 -44.20  0.001366911    2.978    0.664
       127  -9.7669    138.6107     63.1569   5.0171393731e+01   4.1718126466e+01     0.185321    0.1365532 -21.26 0.0003786555    1.640    0.390
       128  -8.7818     33.9675     63.0000   8.4862807685e+01   6.1182123062e+01    0.1990546   0.07154617  25.70 0.0007839271    2.816    0.645
       129  -9.8647    153.9124     60.9360   4.6469962080e+01   3.8558907123e+01    0.1965995    0.1808209 -85.62 0.0003938717    1.049    0.046
       130  -9.3713    169.2818     60.2856   4.3590160826e+01   3.5163430133e+01    0.1254327    0.1054531  27.94            0    1.520    0.342
       131 -10.6893    145.7671     59.0028   4.7512726574e+01   4.0718090078e+01    0.2910861    0.1894061  57.14  0.001032923    1.450    0.311
       132 -10.1043     90.9335     58.9976   6.1374589187e+01   5.2792853685e+01    0.2036411    0.1878533  28.31            0    1.045    0.043
       133 -12.7254     86.3846     54.0626   6.1137096979e+01   5.4495649409e+01    0.4053815    0.3408948  -0.16 0.0005788874    1.214    0.176
       134  -9.2663     66.5526     59.6112   7.0059830457e+01   5.7226725314e+01    0.1357689    0.1220137  12.38 0.0001202005    1.063    0.060
       135 -10.4017     57.9374     59.0104   7.3222618790e+01   5.8735324594e+01    0.2049558    0.1762926   4.10            0    1.027    0.026
       136 -10.1191     49.0562     59.1026   7.6931933490e+01   6.0036106622e+01    0.2108889    0.1833041  -7.67 0.0009711561    1.033    0.032
       137  -9.0480    177.7318     58.6657   4.1842152518e+01   3.3512056311e+01    0.1233612    0.1057353  18.38 0.0003121016    1.589    0.371
       138  -9.4573    130.5304     57.0197   5.0155208423e+01   4.4504059306e+01     0.182036    0.1136665 -61.97 2.803449e-05    2.180    0.541
       139 -10.3383     71.8543     56.4563   6.6976188965e+01   5.6848786526e+01    0.2312268    0.2038448 -25.39 0.0004863869    1.173    0.148
       140 -10.1612     32.8727     55.9735   8.3060451818e+01   6.2677915136e+01    0.2342265    0.1487862 -35.73  0.001276973    1.407    0.289
       141  -9.8791    225.0087     54.3186   3.4891926783e+01   2.4240311064e+01    0.2495542    0.1750016  -8.36  0.001286092    2.852    0.649
       142 -13.3228    114.5003     53.1144   5.2763481064e+01   4.8695160791e+01     0.322047    0.3085813  43.37 0.0006552629    1.040    0.038
       143 -12.1323     38.5399     48.8930   7.7942219440e+01   6.3295559384e+01    0.4514085    0.2310127 -34.54  0.002214377    1.871    0.466
       144  -9.4848      1.3947     54.4574   9.7946113712e+01   6.5579649455e+01    0.1233293   0.09587109 -35.31 -1.142652e-05    1.025    0.024
       145 -10.1218    149.0362     52.6497   4.5117473517e+01   4.0896411427e+01    0.1953626    0.1612682  68.69 0.0006164322    1.136    0.119
       146 -12.0053    106.0469     50.4727   5.4109178700e+01   5.0939561843e+01    0.3470511    0.2971777 -63.58 0.0003054005    1.415    0.293
       147 -12.2612     66.9682     52.4834   6.7366297990e+01   5.8371635703e+01    0.4237363    0.2170155  35.44  0.001122572    1.847    0.459
       148  -9.8645     79.8625     51.7070   6.2468493319e+01   5.6137680965e+01    0.2300141    0.1557959  30.46   0.00118606    1.414    0.293
       149  -9.5299    232.4524     50.4861   3.3385969100e+01   2.3342045206e+01    0.1200245   0.09509998 -65.31 0.0001152021    1.004    0.004
       150 -10.8153    137.7007     47.2051   4.5754840604e+01   4.4263292419e+01    0.4656419    0.3644543 -74.94  0.002583288    1.456    0.313
       151 -10.1571     14.2468     49.5043   8.9972740727e+01   6.5714501059e+01    0.2841281    0.1889612 -27.44  0.001700717    1.254    0.203
       152  -9.1872    189.4286     49.4269   3.7978344046e+01   3.2252552615e+01    0.1277003    0.1107253 -78.65 4.842995e-05    1.001    0.001
       153 -10.5401     74.9573     48.1684   6.2884554954e+01   5.7614692490e+01     0.308458    0.2301024  57.56  0.001126629    1.661    0.398
       154 -10.5875    119.3420     47.9788   4.9960246374e+01   4.8347329233e+01    0.1861607    0.1712544 -30.55 0.0006226767    1.185    0.156
       155 -10.3943     53.0542     47.4420   7.1026558724e+01   6.1487663157e+01     0.617897    0.1878882  35.22  0.002269135    3.189    0.686
       156 -11.0271      9.1366     47.1618   9.1844721958e+01   6.6551805157e+01    0.2840258    0.2142841 -25.52  0.001850813    1.042    0.041
       157  -9.9657    155.4244     46.4602   4.2296367259e+01   4.0283088745e+01    0.2551916    0.2328945  24.42  0.001572041    1.320    0.243
       158  -9.2449    146.7419     47.6402   4.4151056179e+01   4.2121174749e+01    0.1299989    0.1031846  22.17  0.000697149    1.623    0.384
       159 -10.3033     68.7764     46.4960   6.4489271841e+01   5.9004174313e+01    0.2159466    0.1763959  16.27 0.0002356355    1.105    0.095
       160 -10.7967     79.2118     45.3505   6.0395008606e+01   5.7226628207e+01    0.2210124    0.2072705  30.49 0.0002915744    1.143    0.125
       161 -10.2187     25.7646     44.4179   8.2409393776e+01   6.5584648527e+01    0.2842005    0.2110316 -47.83  0.001730666    1.515    0.340
       162 -11.2189     16.5813     42.3179   8.6326878934e+01   6.6859692786e+01    0.4466278    0.2454396 -37.97  0.001388113    1.551    0.355
       163 -10.3033     21.6201     37.6278   8.1962877246e+01   6.7199322394e+01    0.2266318    0.1305701  24.24  0.001274169    1.676    0.403
       164  -9.7529     93.7663     43.9425   5.5330818748e+01   5.4488731785e+01    0.2934441    0.1434214  31.05  0.001168421    2.645    0.622
       165 -10.6170    184.1835     40.8079   3.6639450568e+01   3.4543616131e+01    0.3349446    0.2306283 -77.50  0.001446558    1.459    0.315
       166 -11.5665     37.1464     40.5244   7.5414150813e+01   6.4896515552e+01    0.2906723    0.2594155   2.03 0.0004136187    1.203    0.169
       167 -10.2292    140.0615     39.8043   4.3164504088e+01   4.4688053120e+01    0.3106556    0.2024984 -62.94  0.001131909    1.864    0.463
       168 -10.8344      4.5900     41.1506   9.2309023215e+01   6.8003182083e+01    0.2608081    0.1395894  34.36  0.001397051    2.402    0.584
       169  -9.8465    170.9059     40.1710   3.8268540839e+01   3.7580333228e+01    0.1852408    0.1492102 -83.28   0.00112241    1.163    0.140
       170 -10.8315    133.7418     39.8845   4.4390758066e+01   4.6133797077e+01    0.2228178    0.1745708  64.25 0.0003052885    1.162    0.139
       171  -9.8839     44.5764     40.0643   7.1832685993e+01   6.3943803103e+01     0.201912    0.1466948  23.09 0.0005520264    1.241    0.194
       172 -12.5848    121.8371     37.2361   4.6029880887e+01   4.9189125119e+01    0.4101045    0.3167465 -63.81  0.002314253    1.545    0.353
       173 -11.3123      2.4556     34.2314   9.1133000837e+01   6.9410562594e+01    0.3726656     0.200023 -32.52  0.002171894    1.501    0.334
       174 -10.0172     90.3362     34.3078   5.2898051827e+01   5.6470835911e+01    0.2001085    0.1355169 -19.82 0.0009579135    1.678    0.404
       175 -10.1671     92.3386     31.3283   5.1256256110e+01   5.6410401486e+01    0.1961992    0.1298046 -19.69 0.0006866616    1.740    0.425
       176  -9.8585     49.9615     33.4657   6.6818040573e+01   6.4112383616e+01    0.1821416    0.1523433  -5.93 0.0003052152    1.115    0.103
       177  -9.8864     40.5171     34.6273   7.1474421404e+01   6.5362592568e+01    0.2641134    0.1066735  30.93  0.001015613    2.356    0.575
       178 -10.7603     28.2658     33.3520   7.6856260130e+01   6.7161633159e+01    0.2233419    0.1444132 -14.44  0.001296764    1.456    0.313
       179 -11.7639    135.9023     29.2191   4.0853753932e+01   4.6907254606e+01    0.3059782     0.238154 -52.08 0.0003417263    1.402    0.287
       180  -9.4096     79.4363     33.4439   5.5886178421e+01   5.8804492811e+01    0.1290876    0.1145946  33.30 0.0008034227    1.074    0.069
       181  -9.4236     55.5002     33.5550   6.4561831575e+01   6.3196126918e+01     0.130605    0.1067337  14.13 9.464476e-05    1.025    0.025
       182 -10.2258    205.9654     32.1231   3.2236706737e+01   3.0977227247e+01    0.1781163    0.1486528 -74.46 0.0004446926    1.039    0.038
       183  -9.7547    187.5503     31.5647   3.4083754386e+01   3.4955338253e+01    0.2379145    0.1167822 -34.81  0.001197982    2.144    0.534
       184 -10.9518    144.3626     31.1726   3.9959951871e+01   4.4737035348e+01    0.2738769    0.2087549 -45.23 0.0007984797    1.408    0.290
       185  -9.9865    188.6938    248.3577   7.9792089375e+01  -4.3185716127e+00    0.1118158    0.1010174  55.77 0.0004916782    1.725    0.420
       186 -12.3641     10.0721     29.5658   8.5063924984e+01   6.9643695762e+01    0.4010382    0.2340148  34.59  0.002305003    2.140    0.533
       187 -10.1482      2.9808     26.5066   8.7955617291e+01   7.0715195819e+01    0.1626472   0.09874729  10.61 0.0003786796    1.522    0.343
       188  -9.5807    128.6431     31.0367   4.2735203465e+01   4.8369425165e+01     0.302265    0.1803362  74.48  0.001495792    1.795    0.443
       189 -10.1148     44.2358     30.8621   6.8221024159e+01   6.5367887390e+01    0.2333043    0.1651941   3.26 0.0006785251    1.334    0.250
       190 -11.5415     38.8423     30.6798   7.0601401494e+01   6.6183395105e+01    0.2306415    0.1821915   9.84 0.0003129628    1.046    0.044
       191  -9.6468    164.2987     29.1481   3.6412004485e+01   4.0408310698e+01    0.3027118    0.2003265   8.49  0.001474453    2.816    0.645
       192  -9.1386    152.7435     29.7579   3.8238100665e+01   4.2973057970e+01    0.2034369   0.09856994  78.82 0.0008737086    2.404    0.584
       193 -10.4201     80.9532     27.2300   5.3046815937e+01   5.9249004572e+01    0.2006866    0.1810979  -0.53 0.0005276087    1.170    0.145
       194 -10.8814     76.6052     17.4190   5.0544282060e+01   6.1183798699e+01    0.3562031    0.1839236  44.79  0.001688548    1.602    0.376
       195 -10.6687     69.5560     25.6718   5.6113316104e+01   6.1674355924e+01    0.4340447    0.2609612 -11.35  0.002144387    2.012    0.503
       196 -10.8493     74.3683     21.5896   5.2893729104e+01   6.1196913327e+01    0.2587496    0.2028046  74.21 0.0006838084    1.748    0.428
       197 -10.5697     91.9349     26.9838   4.9795498123e+01   5.6995911899e+01    0.3893019    0.1888941  60.26  0.001298502    2.105    0.525
       198 -10.4261    216.9419     25.6828   2.9889920944e+01   2.9514355951e+01    0.1616365    0.1228006 -82.07 0.0003512831    1.099    0.090
       199 -10.1311     46.0392     26.0373   6.5364385179e+01   6.5747261671e+01    0.1614316    0.1522878  54.08 0.0004752519    1.576    0.365
       200  -9.5678    131.8129     25.3675   4.0447810264e+01   4.8269252404e+01    0.1653532    0.1469517 -82.63 0.0004122251    1.162    0.140
       201 -10.2848     59.4034     24.1616   5.9136541617e+01   6.3730615963e+01    0.2710988    0.1503385 -26.30  0.001438877    1.939    0.484
       202 -10.0851    190.4902     24.0517   3.2060644579e+01   3.5194183838e+01    0.3442386    0.1430777 -88.31  0.001314632    3.731    0.732
       203  -9.5616    224.7981    247.2095   7.2572306092e+01  -8.4705419434e+00    0.1724195    0.1119247 -10.09 0.0008234719    1.325    0.245
       204  -9.8941     40.4848     20.5142   6.5387627347e+01   6.7316482576e+01    0.2089372    0.1045244  37.83 0.0008182921    1.795    0.443
       205 -10.1766    109.0450     22.0077   4.3886628070e+01   5.3788638143e+01    0.1922543    0.1599886  50.88 0.0003914569    1.041    0.039
       206  -9.8088    102.8001     22.0514   4.5311496127e+01   5.5169633959e+01    0.2414739    0.1775407 -57.08  0.001381109    1.750    0.429
       207  -9.3275     81.2514     22.6763   5.1211425705e+01   5.9694876696e+01    0.1119077   0.09890031 -72.23 0.0002950829    1.540    0.351
       208  -9.9455    170.9572    246.7684   8.3236771659e+01  -1.7263279483e+00    0.2097888    0.1525185  -0.93  0.001216143    1.314    0.239
       209  -9.6036    116.0230    246.4847   9.5326065385e+01   5.9792527194e+00    0.1944108    0.1172899  30.28 -0.0001783413    1.470    0.320
       210  -9.5997     22.2259     21.4851   7.4884822401e+01   6.9661175943e+01    0.1639545   0.09416442  12.63 0.0009250278    1.642    0.391
       211 -11.2842     15.4028     20.6820   7.8282756484e+01   7.0535592061e+01    0.4935041     0.226657  31.13  0.002653834    2.150    0.535
       212  -9.9085    146.6890    244.6464   8.8186749287e+01   2.0013672690e+00    0.1385929   0.09424099  -9.71 0.0007044381    1.727    0.421
       213  -9.6405     84.9323     21.4659   4.9686678790e+01   5.9064046182e+01    0.1972151    0.1083972  51.69 0.0005941637    1.553    0.356
       214  -9.1467     86.5588    244.5783   1.0178836398e+02   1.0420933547e+01    0.1311737    0.1133042  45.98 0.0003076691    1.037    0.036
       215  -9.6109    118.8273    239.7924   9.3801415434e+01   6.9115358253e+00    0.1866534    0.1519255  55.36  0.001070075    1.356    0.263
       216  -9.4618     61.1707    240.6673   1.0712557687e+02   1.4526256132e+01    0.1753813    0.1146251  20.48 0.0004334142    1.728    0.421
       217 -10.1369     35.6247    240.0039   1.1270139366e+02   1.7649678676e+01    0.2101663    0.1435402  50.27 0.0005096002    1.265    0.209
       218  -9.2021     88.9387     18.7512   4.7574515173e+01   5.8499380577e+01    0.1583592   0.09225978  52.27  0.000262877    1.442    0.306
       219 -10.0852     68.3635     17.8648   5.3329322388e+01   6.2765165671e+01    0.2150667     0.148107  53.18 0.0006228334    1.432    0.302
       220 -10.5933    238.2814     16.7045   2.6544662272e+01   2.6440635833e+01    0.1542718    0.1162445 -60.23  0.000176319    1.127    0.113
       221 -10.4307     30.6237    240.8212   1.1383281901e+02   1.8012995829e+01    0.2237023    0.0905109  26.33 0.0009559307    2.639    0.621
       222 -10.7148    203.1275     16.3918   2.9195360011e+01   3.3373785052e+01    0.2428082    0.1420333 -65.53  0.001446637    1.558    0.358
       223 -10.6613     82.9487     15.9737   4.8146957410e+01   6.0026989840e+01    0.1896728    0.1552647  39.08 0.0003084638    1.024    0.024
       224 -10.2290    174.1493    235.8340   8.0827300145e+01  -2.4225642200e-01    0.1858017    0.1378013  -8.75  0.000454796    1.300    0.231
       225 -11.1621     24.9931    235.9128   1.1469367346e+02   1.9669226690e+01    0.2553042    0.1499912  43.71 0.0007648095    1.489    0.329
       226 -12.1400      4.1419    232.8890   1.1888575991e+02   2.2332228063e+01    0.3271102    0.2512832  61.52  0.002228151    1.092    0.084
       227  -9.2712    204.0257    235.2559   7.4573835857e+01  -4.1224993176e+00    0.1517121   0.09770143  22.19 0.0004632123    1.453    0.312
       228  -9.7586     18.6542    195.2602   1.1306026511e+02   2.9803943147e+01    0.1897055    0.1032832 -66.65 0.0009319388    1.653    0.395
       229  -9.3653    249.4961    233.4355   6.5903289328e+01  -9.1152867825e+00    0.1190334   0.08673004 -14.20 0.0001425716    1.013    0.012
       230  -9.9090     32.2729    233.3836   1.1293330516e+02   1.9464072644e+01    0.1707171   0.09954188  42.80 0.0004373285    1.514    0.339
       231  -9.2656     88.6616    230.2554   9.9631139714e+01   1.3192442095e+01    0.1402924   0.09308478  55.02 0.0004896751    1.575    0.365
       232  -9.5365     47.3451    229.9844   1.0927454719e+02   1.8542429192e+01    0.2112839    0.1285921 -19.32 0.0009090141    3.178    0.685
       233  -9.4576    243.9296    230.0000   6.6277925262e+01  -8.0117203241e+00    0.2823736   0.06238731  31.63  0.001038748    4.821    0.793
       234  -9.1385     97.5016     10.5566   4.2506405941e+01   5.7413537862e+01    0.1251011     0.103554  52.78 7.214489e-05    1.015    0.015
       235  -9.8300    209.9085    229.4960   7.2443212164e+01  -3.9166150556e+00    0.1797327    0.1138593  24.27 0.0006194525    1.525    0.344
       236 -10.7654    140.0937    227.7231   8.7122711917e+01   6.2347221323e+00    0.3035646     0.214435 -73.32  0.001485576    2.099    0.524
       237 -11.8596      2.3370    224.8238   1.1882286081e+02   2.4272307643e+01    0.4344043    0.2265757  78.70  0.001273358    1.759    0.431
       238  -9.6519    223.4298    226.5355   6.9361210089e+01  -5.1115745457e+00    0.1268142    0.0983978 -13.01 7.651686e-05    1.010    0.010
       239 -11.4805     11.4061    226.4545   1.1699003240e+02   2.3096589671e+01     0.340365    0.1192102  24.53  0.001456488    3.187    0.686
       240 -10.2080     29.4260     16.0175   6.8594835924e+01   6.9480319173e+01     0.399967    0.1358771  33.23  0.001587172    2.658    0.624
       241  -9.1774     60.9957    224.2818   1.0553658404e+02   1.8194296952e+01    0.1632839    0.1112359  34.16 0.0004854932    1.398    0.285
       242 -10.0058     26.6249    223.8003   1.1346373599e+02   2.2217421713e+01    0.1757163    0.1052583  86.76 0.0004584276    1.626    0.385
       243  -9.3120    167.3781    221.2086   7.9866419089e+01   3.4510012482e+00    0.1780146    0.1305045 -53.22 0.0006077163    1.610    0.379
       244 -11.0931      8.1831    218.8682   1.1721788373e+02   2.5110335703e+01     0.290852    0.1628508 -66.38  0.001179556    1.713    0.416
       245  -9.0098     85.6924    215.2528   9.8445541875e+01   1.7005995254e+01     0.141055   0.09927066  57.66 0.0001634264    1.512    0.339
       246  -9.5749     29.9696    214.5050   1.1195546289e+02   2.4038599365e+01    0.1801798    0.1218113  32.85 0.0003985761    1.499    0.333
       247  -9.5121    205.4867    212.0139   7.0234683257e+01  -3.2092698383e-01    0.1999197    0.1166336 -38.29  0.001021802    1.560    0.359
       248  -9.1813    229.6893    209.3235   6.5179701823e+01  -3.0559124799e+00    0.1106562    0.1003432 -57.66 0.0007038338    1.653    0.395
       249  -9.5618     20.2563    209.4349   1.1382358642e+02   2.6209193985e+01    0.1770279    0.1024686  44.87 0.0009209953    1.610    0.379
       250  -9.6599    193.8559    201.8808   7.0719103747e+01   3.2162049867e+00    0.2155444    0.1664783 -12.29 0.0008544943    1.220    0.180
       251 -11.2375      4.2202    201.4416   1.1698664752e+02   2.9536436308e+01    0.2341668    0.1534675 -82.95 0.0006872372    1.314    0.239
