#   1 NUMBER                 Running object number                                     
#   2 MAG_AUTO               Kron-like elliptical aperture magnitude                    [mag]
#   3 X_IMAGE                Object position along x                                    [pixel]
#   4 Y_IMAGE                Object position along y                                    [pixel]
#   5 X_WORLD                Barycenter position along world x axis                     [deg]
#   6 Y_WORLD                Barycenter position along world y axis                     [deg]
#   7 A_WORLD                Profile RMS along major axis (world units)                 [deg]
#   8 B_WORLD                Profile RMS along minor axis (world units)                 [deg]
#   9 THETA_WORLD            Position angle (CCW/world-x)                               [deg]
#  10 FWHM_WORLD             FWHM assuming a gaussian core                              [deg]
#  11 ELONGATION             A_IMAGE/B_IMAGE                                           
#  12 ELLIPTICITY            1 - B_IMAGE/A_IMAGE                                       
         1 -13.1428     84.5123     24.1153   3.3719974043e+01   5.8729767746e+01    0.2912465    0.2654452 -87.46  0.001567071    1.531    0.347
         2 -12.0721     66.9804     15.3851   3.5614691989e+01   6.3000942345e+01    0.3955465    0.1722616 -23.31  0.001809123    2.413    0.586
         3 -11.5354    100.1469     12.6706   2.5071329328e+01   5.6700258072e+01    0.1877224    0.1710576 -24.53 0.0003432724    1.253    0.202
         4 -11.3778     55.3397     11.1278   3.7792865426e+01   6.5460806203e+01    0.2097593    0.1391689  27.51  0.001286543    1.313    0.238
         5 -12.3739     81.8094      8.8420   2.8293193530e+01   6.0855183928e+01    0.2958454    0.1969604  43.18 0.0009773467    1.285    0.222
         6 -13.6030     91.1596      4.9141   2.4241484490e+01   5.9291316089e+01    0.3468978    0.3115359  76.71  0.001106222    1.358    0.264
         7 -11.0124     48.3214      7.8984   3.8933507723e+01   6.6935597049e+01    0.1648771     0.127328   6.17 0.0005483043    1.057    0.054
         8 -10.7465    103.5523      7.4603   2.2321371510e+01   5.6426353739e+01    0.1279603     0.108053  40.45 5.470601e-05    1.012    0.012
         9 -11.0663    106.6748      4.0346   2.0377089696e+01   5.6021632145e+01    0.1673823    0.1494434  30.05 0.0003932902    1.091    0.084
        10 -12.1176      5.2942      3.4399   5.6835093262e+01   7.2797373460e+01    0.1916256    0.1371684 -18.54  0.000502513    1.076    0.071
        11 -11.4425    101.1633      2.2487   2.0887803127e+01   5.7371205127e+01    0.2659893    0.1333207  50.56  0.001241252    1.626    0.385
        12 -12.1047     49.7887      1.9225   3.5521967719e+01   6.7302774250e+01    0.1884302    0.1462921  29.23 0.0003862494    1.163    0.140
        13 -10.7094    158.6774    241.2935   6.8428213953e+01   2.4345161872e+00    0.1226504   0.09105993  60.01 0.0004414957    1.614    0.381
        14 -12.2359    246.7339    248.5830   5.3297537879e+01  -1.1566986234e+01    0.3775747    0.1761764  21.43  0.002010292    2.142    0.533
        15 -12.3682    236.9817    249.3059   5.5088251327e+01  -1.0379816651e+01    0.2635682    0.1966838  12.20  0.001062291    1.041    0.039
        16 -10.5910    179.5371    250.5135   6.5738415440e+01  -2.2452933704e+00    0.1226951    0.1003659  26.52 0.0001103769    1.009    0.009
        17 -12.2754    139.5012    248.4536   7.3152012235e+01   4.3121078024e+00    0.2589992    0.2193428 -34.34 0.0009941778    1.440    0.306
        18 -12.4051    135.0677    245.9293   7.3692342066e+01   5.4237059039e+00    0.3078038    0.1498536  36.58  0.001049554    1.789    0.441
        19 -14.2863    111.8151    234.5547   7.6884102245e+01   1.1066481245e+01    0.7016237    0.2540269  38.52  0.002982759    2.424    0.587
        20 -11.8784    114.9984    244.7141   7.7472937378e+01   8.7475254042e+00    0.2004294    0.1783032 -77.55  0.000748067    1.274    0.215
        21 -12.7656    115.5120    240.5146   7.6871211353e+01   9.4114080685e+00    0.2716296    0.1834266  44.49  0.001046725    1.249    0.199
        22 -13.3771    117.9974    237.7417   7.6036474962e+01   9.5222030261e+00     0.287007    0.2698895  82.00  0.001299929    1.159    0.137
        23 -13.3492     97.5313    249.3384   8.1362314197e+01   1.0545979898e+01     0.444659    0.2661986  48.84  0.002619353    1.378    0.274
        24 -12.5408     85.0664    250.5345   8.3840668423e+01   1.2119190995e+01    0.2478367    0.1335238  42.88 0.0007192523    1.542    0.352
        25 -12.0154     85.3702    246.0658   8.3349864564e+01   1.2881668483e+01    0.2338891    0.1789352 -86.55  0.001057763    1.362    0.266
        26 -12.2372     68.2180    225.5122   8.4665758242e+01   1.9203624969e+01    0.3671719    0.2091194  87.50  0.001249016    2.026    0.507
        27 -11.3689     53.4928    232.1847   8.8167785163e+01   1.9800285080e+01    0.1600354    0.1239282 -89.59  0.001044656    1.193    0.162
        28 -13.3067     61.0398    232.2199   8.6717590386e+01   1.8825691002e+01     1.057714    0.6252612  77.64  0.006010781    1.753    0.430
        29 -11.2887     71.5286    240.4628   8.5455169307e+01   1.5841237033e+01    0.2978843    0.2280989   2.80  0.001295705    2.333    0.571
        30 -13.2498     71.5558    234.2819   8.4865379355e+01   1.7019531663e+01    0.3139556    0.2268167  52.27 0.0006201401    1.172    0.147
        31 -12.9142     73.8017    229.0530   8.3905425055e+01   1.7733799349e+01    0.3661296    0.2905076 -21.28  0.002186772    2.102    0.524
        32 -12.9159     70.3922    248.4850   8.6391624236e+01   1.4505077836e+01    0.2586223    0.2232328  89.48  0.000753134    1.220    0.180
        33 -13.2277     67.4109    245.4681   8.6682735788e+01   1.5457863772e+01     0.428827    0.3103351 -53.50  0.002796948    1.782    0.439
        34 -12.3547     55.9073    250.5124   8.9206700737e+01   1.6021397887e+01    0.3478201    0.1157511  43.99   0.00170486    2.323    0.570
        35 -13.4596     29.6042    171.3713   8.7427910115e+01   3.5718157125e+01     1.009689     0.347123  38.32  0.003177535    2.792    0.642
        36 -14.9509     11.3435    188.4803   9.3022443410e+01   3.3607972354e+01      1.17722    0.7872319 -64.00  0.007606761    1.473    0.321
        37 -13.6092     34.3606    242.6813   9.2497319167e+01   2.0075488510e+01    0.4094785    0.2616386 -67.58  0.002743356    1.676    0.403
        38 -15.1949     18.8321    214.4976   9.3431411935e+01   2.7339009590e+01     1.047948    0.7483827  78.79  0.006901827    1.104    0.094
        39 -14.8167      4.6387    208.5802   9.5737652795e+01   2.9928920696e+01    0.8975522    0.4859822 -68.64  0.005590066    1.705    0.414
        40 -13.9627     26.9788    234.5784   9.3278789907e+01   2.2453854737e+01    0.6723339    0.2372955 -78.80   0.00327199    2.785    0.641
        41 -14.5699     26.1993    248.1131   9.4267010423e+01   1.9978813418e+01    0.6179372     0.296111  42.13  0.003794056    1.813    0.448
        42 -16.8888     16.0141    236.0120   9.5314270535e+01   2.3343228931e+01     1.632228     1.023018 -73.39   0.01125917    1.555    0.357
        43 -16.1617      4.7122    227.2242   9.6800614742e+01   2.6166528188e+01      1.69089    0.3632575 -75.04  0.007143151    3.850    0.740
        44 -11.7872     89.6080    239.5995   8.1873839384e+01   1.3465916069e+01    0.3163344    0.1648041 -60.35  0.001696669    2.120    0.528
        45 -12.0946     91.6119    235.1795   8.1004599705e+01   1.4004591179e+01    0.4346222    0.2338664 -88.87  0.002004094    2.833    0.647
        46 -10.4103     82.4912    241.4953   8.3449923767e+01   1.4130130866e+01    0.1186257    0.1020743  57.47 -0.0002357957    1.098    0.089
        47 -11.5044    240.0485    239.6421   5.2970933811e+01  -9.5986440442e+00    0.1683827    0.1406377  -4.75 0.0004057908    1.191    0.161
        48 -12.1009    148.7776    238.7798   7.0027026264e+01   4.4370571587e+00    0.3123184    0.1862994  20.96  0.001309327    2.102    0.524
        49 -12.1346    122.6992    238.6516   7.5210902748e+01   8.6224845549e+00    0.2213888    0.1554474 -63.65 0.0006006479    1.677    0.404
        50 -12.4867     52.5984    237.3515   8.8768492646e+01   1.8906794405e+01    0.2298233    0.1788447 -62.12   0.00142868    1.534    0.348
        51 -10.5678    190.4229    237.4150   6.1676462052e+01  -2.0108141379e+00    0.1244824    0.1037584  21.43 0.0001210905    1.012    0.012
        52 -10.9328     78.8441    237.4216   8.3751938204e+01   1.5409413466e+01    0.1751301    0.1014701  43.05  0.000421703    1.495    0.331
        53 -10.8249    211.1627    236.1295   5.7565132870e+01  -5.0089162949e+00    0.1525014    0.1407144  26.92 0.0004906975    1.323    0.244
        54 -12.5123    114.8318    249.7614   7.8089984355e+01   7.8985611605e+00    0.2564223    0.2462921  74.20  0.001171542    1.193    0.162
        55 -13.3642    100.4740    226.9580   7.8265446859e+01   1.4254308569e+01    0.3923688    0.1949319 -70.48  0.001123145    2.548    0.608
        56 -13.7954    113.6987    218.9967   7.4482444832e+01   1.3733789511e+01    0.4266192    0.3380812 -63.42  0.002545346    1.378    0.274
        57 -13.8736    109.8562    214.4664   7.4681264769e+01   1.5253054070e+01    0.5699278     0.366396 -38.05  0.002870144    2.088    0.521
        58 -13.7845    118.4012    226.7279   7.4538806832e+01   1.1489042911e+01    0.5620468    0.2470515  54.80  0.001570451    2.731    0.634
        59 -12.7418    113.0618    227.6477   7.5761050121e+01   1.2164302572e+01     0.281995    0.2410844  58.68 0.0008457613    1.062    0.058
        60 -14.5092    105.4770    227.0679   7.7249825627e+01   1.3462628178e+01    0.7014244    0.3589877  51.80  0.003426622    1.854    0.461
        61 -10.8543    180.8114    232.3966   6.2738894372e+01   2.8539864535e-01    0.1811205     0.106096  28.81 0.0005319805    1.593    0.372
        62 -12.6628    219.9540    230.2719   5.4967751478e+01  -5.5021661164e+00    0.2919465    0.1874326  36.87 0.0008478428    1.492    0.330
        63 -13.0776    128.6209    231.0657   7.3021911051e+01   9.0410429611e+00    0.4305956    0.1723573  38.06  0.001388714    2.215    0.549
        64 -11.8662    127.6958    227.0490   7.2662065004e+01   9.9273920436e+00    0.2181762    0.1677388 -43.48 0.0008974342    1.526    0.345
        65 -11.5510    193.9036    229.5017   5.9729057535e+01  -1.3670333975e+00    0.2194212    0.2070525  67.56  0.001459332    1.449    0.310
        66 -11.6279    178.0605    228.3715   6.2636252802e+01   1.3735643500e+00    0.1923435    0.1638465  -5.92  0.000354408    1.209    0.173
        67 -11.6695    149.3378    229.5735   6.8588045220e+01   5.9157618708e+00    0.2568188    0.1085913  42.89  0.001125932    2.079    0.519
        68 -10.9666     83.8770    229.5133   8.1935418020e+01   1.6220764992e+01    0.1790442    0.1088764  41.39 0.0005903327    1.479    0.324
        69 -13.8878     39.7150    245.3622   9.1728227488e+01   1.8950401259e+01    0.7603878    0.3106194 -66.70  0.004141719    2.449    0.592
        70 -12.6729    231.8593    226.7564   5.2214921224e+01  -6.7628834839e+00     0.310977    0.2414545 -25.78  0.002048852    1.312    0.238
        71 -11.9473     91.3051    226.0447   8.0038995626e+01   1.5815296787e+01    0.2907994    0.2126928 -73.81  0.001001117    1.448    0.309
        72 -10.9617    222.4049    225.7076   5.3736539054e+01  -5.2250280977e+00    0.1569344    0.1063713 -19.73 0.0005209626    1.445    0.308
        73 -12.2267     96.0509    225.5087   7.9001101885e+01   1.5209571403e+01    0.2332229    0.1673904  85.04   0.00134135    1.543    0.352
        74 -10.9892    213.0400    222.4847   5.4904784206e+01  -3.3279099068e+00    0.2727652    0.1447141  -4.41  0.001057566    3.619    0.724
        75 -12.6782    159.7206    222.1979   6.5339961977e+01   5.4675534778e+00    0.3566678    0.2273313  36.95 0.0007629031    1.394    0.283
        76 -13.5344    125.6599    213.2342   7.1112145300e+01   1.2901400110e+01    0.4557814    0.2554597  38.70  0.001221409    1.634    0.388
        77 -13.5074    125.1169    221.3090   7.2396880240e+01   1.1427636833e+01    0.4247625    0.2998971  36.65 0.0006676832    1.312    0.238
        78 -12.2324    130.0775    218.1941   7.0903190303e+01   1.1200693351e+01    0.2730196    0.2206252  77.68  0.001277656    1.433    0.302
        79 -11.9596    247.4450    221.3714   4.8546415343e+01  -8.2425503582e+00    0.2499615    0.1999792  70.41  0.001411192    2.863    0.651
        80 -13.4567     87.7070    213.7065   7.9322749763e+01   1.8845324835e+01    0.5622702    0.4860875 -83.86  0.002776845    1.153    0.133
        81 -14.0649     77.4674    219.0781   8.2102639664e+01   1.9227164842e+01    0.5691126    0.3615269  76.70  0.001621111    1.718    0.418
        82 -13.2731     79.5691    212.4471   8.0904722192e+01   2.0300541949e+01     0.363663    0.2718211  45.52  0.001292019    1.249    0.199
        83 -12.6361     75.5292    212.4644   8.1764461491e+01   2.0873539702e+01    0.2730286    0.1934991  51.84  0.001016052    1.262    0.207
        84 -11.9651    237.9671    221.0430   5.0131010371e+01  -6.8597084652e+00    0.1956903    0.1567375   3.55   0.00111585    1.011    0.011
        85 -11.5271    223.0665    220.3236   5.2673067596e+01  -4.5532623490e+00    0.2020219    0.1603554 -12.96 0.0004872814    1.158    0.136
        86 -11.3388    225.4998    216.5530   5.1557910640e+01  -4.3753496157e+00    0.2242087    0.1649323  22.93 0.0006793482    1.220    0.181
        87 -12.0562    189.4613    220.2858   5.9046995932e+01   8.0141281968e-01    0.2681854    0.1872411   4.38  0.000730294    1.654    0.395
        88 -11.2098    194.7191    220.4457   5.8046112073e+01  -8.8651052874e-02    0.2383771    0.1142974  41.72 0.0006804606    1.972    0.493
        89 -12.8047    173.5228    218.5888   6.1941206922e+01   3.7538395654e+00    0.4038808    0.2800704 -13.50  0.002108433    1.839    0.456
        90 -12.6402    145.5948    215.7307   6.7252016039e+01   9.0399950818e+00    0.6675137    0.3439133 -28.85  0.002558387    3.523    0.716
        91 -13.7518    141.0125    210.5530   6.7405330648e+01   1.0808202006e+01    0.7027782    0.3821839 -69.11  0.002311107    3.127    0.680
        92 -10.8709     61.2327    220.3240   8.5559951545e+01   2.1189019017e+01    0.3000896    0.0893303  50.15  0.001171091    3.175    0.685
        93 -13.0691    100.2032    184.4462   7.2420443931e+01   2.3224925892e+01    0.4049644    0.3106459 -44.69  0.001236828    1.454    0.312
        94 -14.9591     91.4221    182.1676   7.4143889917e+01   2.5149373536e+01     1.023759     0.747867 -87.93  0.005337961    1.513    0.339
        95 -13.6530     58.7830    213.0106   8.5334290260e+01   2.3030025794e+01    0.7466597    0.3715867  57.30   0.00316246    1.956    0.489
        96  99.0000     61.8285    204.7004   8.3818323483e+01   2.4406079308e+01    0.9107177     0.399653 -81.81  0.003735252    3.019    0.669
        97 -13.3736     81.3144    195.0404   7.8342071070e+01   2.3799182296e+01    0.8137916    0.4203759  73.63   0.00206547    3.201    0.688
        98 -11.6400     69.1672    193.6340   8.0909188035e+01   2.5848764066e+01    0.1942395    0.1677498 -79.07 0.0007052166    1.116    0.104
        99 -14.8434     69.1900    184.7818   7.9766044627e+01   2.7846425783e+01     1.181125    0.9594953  71.86  0.005454935    1.153    0.132
       100 -13.0456     90.1048    201.9835   7.7298015274e+01   2.0961610885e+01    0.5050436    0.3219843 -45.37  0.001686575    1.894    0.472
       101 -14.2801     94.5673    194.5559   7.5259230448e+01   2.1885137686e+01     1.133237    0.5329241  48.35  0.004940938    2.068    0.516
       102 -13.0752    120.2535    214.5867   7.2469362535e+01   1.3534036786e+01    0.2763704     0.218972  54.44  0.001262555    1.178    0.151
       103 -13.3340    118.1938    211.6010   7.2480810808e+01   1.4469028629e+01    0.4412364    0.2343818  36.73  0.002072758    1.789    0.441
       104 -13.5010    123.2657    206.4328   7.0606288082e+01   1.4662605769e+01    0.4960896    0.2417393 -39.87  0.002042187    2.763    0.638
       105 -13.2532    118.1897    206.9106   7.1790707703e+01   1.5419024796e+01    0.3308195    0.2954149  36.73 0.0003620155    1.123    0.109
       106 -12.4256    115.6854    203.3196   7.1803147785e+01   1.6576694356e+01    0.2125366    0.1805538  64.55 0.0003627706    1.151    0.131
       107 -13.8156     77.4956    201.9496   8.0085856927e+01   2.2839983754e+01    0.4948269    0.3203518 -54.15  0.002100613    1.670    0.401
       108 -10.6384     36.8461    215.1850   8.9980521135e+01   2.5251177138e+01    0.1406897    0.1270132 -81.39 0.0006941048    1.281    0.220
       109 -11.9027    156.0571    213.8180   6.4747847206e+01   7.5922091614e+00    0.3059672    0.1933826  -4.87  0.001278138    2.929    0.659
       110 -12.2952    247.6528    212.9035   4.6988748950e+01  -7.1222712051e+00    0.2076269     0.161444  27.45 0.0005345065    1.315    0.240
       111 -12.7210    107.6447    207.2500   7.4152419011e+01   1.7084081088e+01    0.3587086    0.2641948   1.98  0.001792266    2.161    0.537
       112 -12.3385     97.5249    212.4603   7.7061914759e+01   1.7610272313e+01    0.3467883     0.223705 -76.94 0.0005929373    1.779    0.438
       113 -12.1065    102.1281    207.1384   7.5346353161e+01   1.7992320393e+01    0.5141009    0.3113871  14.10  0.002122124    3.118    0.679
       114 -13.2076     32.7476    235.0748   9.2267352705e+01   2.1714905040e+01    0.4620523    0.2445459 -57.06  0.002679058    2.301    0.565
       115 -12.0735     26.2841    208.3564   9.1526561095e+01   2.7848492892e+01    0.2069164    0.1499027  73.99  0.000511231    1.130    0.115
       116 -12.5431    229.1415    207.5701   4.9260547706e+01  -3.6074908375e+00    0.4737943     0.241221 -33.47  0.002383685    1.900    0.474
       117 -10.7003    215.3792    210.6795   5.2363443839e+01  -1.9101730502e+00    0.1202688    0.1050583  74.09 7.632402e-05    1.824    0.452
       118 -11.5135    181.1705    207.6811   5.8507769699e+01   4.3221120010e+00    0.2536298    0.1707811  28.37  0.001323482    1.428    0.300
       119 -12.2919     55.0130    206.2323   8.5433014029e+01   2.4958582678e+01    0.2771466    0.1714296 -64.24 0.0008215032    1.594    0.373
       120 -11.5814    160.3587    206.6980   6.2649207027e+01   8.1526117261e+00    0.2282017    0.1699213 -63.13  0.001201147    1.699    0.411
       121 -13.2604     36.0702    203.4319   8.9129294188e+01   2.7832499711e+01     0.411532    0.2532328 -47.35  0.001564877    2.176    0.540
       122 -10.5287     35.4824    198.6233   8.8817433052e+01   2.8943354248e+01    0.1617956    0.0998562 -64.88 0.0006373457    1.555    0.357
       123 -12.6756     42.8469    205.6765   8.7928856666e+01   2.6568146347e+01    0.2511092    0.1993457  50.31  0.000854509    1.245    0.197
       124 -11.3485    166.4816    204.5158   6.0981252453e+01   7.4720373535e+00    0.2814346    0.1365655 -46.14  0.001227693    2.228    0.551
       125 -12.6623    145.4855    201.9302   6.5022549722e+01   1.1700211970e+01    0.4853162    0.3059525 -62.56  0.002304294    1.996    0.499
       126 -13.7249    140.3512    196.3031   6.5188963955e+01   1.3737837245e+01     0.458246    0.3891334  38.77  0.001315378    1.106    0.096
       127 -11.1304     82.1566    205.5460   7.9511011762e+01   2.1386497854e+01    0.1746372     0.124707  23.14 0.0009316741    1.785    0.440
       128 -11.5545    239.1622    201.3283   4.6312645774e+01  -4.2173003104e+00      0.23328    0.1131387  33.47  0.001137844    2.062    0.515
       129 -11.7818    224.8365    204.2427   4.9423581955e+01  -2.4281279073e+00    0.2186941    0.1514915  35.67 0.0004500163    1.432    0.302
       130 -11.1905     49.1702    203.4384   8.6386366835e+01   2.6291931155e+01    0.2137847    0.1290283 -79.63  0.001186989    1.560    0.359
       131 -10.7178    189.4144    202.4472   5.5893255442e+01   3.7946267332e+00    0.1334472     0.122197  13.93 -1.15032e-05    1.047    0.045
       132 -10.8458     30.0911    202.0889   9.0245610507e+01   2.8780911022e+01    0.1625958    0.1107661  71.06            0    1.274    0.215
       133 -13.1041     20.9618    198.2391   9.1801416657e+01   3.0562563011e+01    0.5841759    0.2812348  85.12  0.002993735    2.083    0.520
       134 -11.5054    212.2163    199.8675   5.0951938378e+01   3.2155875378e-01    0.1879795    0.1819141 -16.99 0.0009470433    1.258    0.205
       135 -14.3123    123.1032    197.2466   6.9198208146e+01   1.6581734681e+01    0.6094264    0.3916686  40.96   0.00303952    1.456    0.313
       136 -11.8964    225.1841    198.2065   4.8220144952e+01  -1.5474408817e+00    0.2911856    0.1477696 -46.14  0.001338281    2.346    0.574
       137 -11.4735     60.1862    198.3027   8.3463489553e+01   2.6020545210e+01    0.3366985    0.1213413 -50.17  0.001290521    3.503    0.715
       138 -10.8807     41.0305    198.0770   8.7589403013e+01   2.8433085315e+01    0.1431188    0.1186541  78.85 0.0003255888    1.019    0.018
       139 -11.3998     29.4117    197.9432   9.0029931764e+01   2.9753604723e+01    0.2327299    0.1796797   0.56  0.001426214    2.132    0.531
       140 -12.6512    113.9853    197.0257   7.1217813846e+01   1.8183960866e+01    0.2090098    0.1914308  64.14 0.0004409763    1.027    0.027
       141 -11.4239      1.2129    196.5011   9.5636933667e+01   3.2765429280e+01    0.1882925   0.07357383 -77.75 0.0006610045    2.091    0.522
       142 -11.5443     49.9763    195.4575   8.5389577215e+01   2.7945790826e+01    0.2377929     0.152163  87.75 0.0008391242    1.528    0.346
       143 -13.3075    190.3765    193.6668   5.4051589193e+01   5.1656301752e+00    0.4648972    0.3598651  39.19  0.001292451    1.268    0.212
       144 -11.6405    153.0388    195.7602   6.2304303273e+01   1.1555723910e+01    0.1897316    0.1118842  40.64 0.0004651656    1.587    0.370
       145 -10.7790     36.9872    195.2765   8.8184855165e+01   2.9510920401e+01    0.1624805    0.1329245  71.26 0.0001926273    1.076    0.070
       146 -12.1554    217.4180    193.5202   4.8756036948e+01   4.8273723273e-01     0.227306    0.2189099 -17.90 0.0001566419    1.247    0.198
       147 -12.1290    162.9340    193.1937   5.9694648891e+01   1.0248129414e+01    0.2331351    0.2124338  31.67  0.000436324    1.033    0.032
       148 -12.6801    243.9968    191.8681   4.3670044815e+01  -3.5431868457e+00    0.3572141    0.2402566   0.68  0.001112882    1.588    0.370
       149 -11.3339    212.7024    193.0061   4.9545554919e+01   1.3663948595e+00    0.1882861     0.158957 -21.53 0.0003502915    1.129    0.114
       150 -14.1549    121.8860    187.0322   6.7778831050e+01   1.8965150789e+01    0.6817488    0.3834226  26.88  0.002480061    2.234    0.552
       151 -14.3074    119.0903    180.8979   6.7368993956e+01   2.0796461799e+01    0.9337773    0.4692665  63.15  0.002145072    3.619    0.724
       152 -13.6407     56.5571    176.1950   8.1622927752e+01   3.1510337028e+01    0.4844387    0.3677291 -55.22  0.002171088    1.370    0.270
       153 -14.0151     65.2996    161.4158   7.7380381199e+01   3.3849219170e+01    0.6350302    0.3974322 -78.95  0.003104411    1.687    0.407
       154 -12.7756     58.1994    157.7737   7.8646075294e+01   3.5656058066e+01    0.3965642    0.2408913  44.78 0.0007371043    1.698    0.411
       155 -13.2375     61.1944    169.1157   7.9542691780e+01   3.2570060030e+01    0.5734518    0.3852623 -81.63  0.003019592    1.485    0.327
       156 -12.6740     57.1921    162.8852   7.9654116581e+01   3.4564625638e+01    0.4581425    0.2702251  89.84  0.002129773    2.031    0.508
       157 -12.6058     51.5303    189.6208   8.4406251741e+01   2.9061272635e+01     0.334539    0.2958077  -6.10  0.002092998    1.604    0.376
       158 -12.9544     51.6099    184.4334   8.3793234862e+01   3.0229410705e+01    0.6093916    0.2291003  42.09  0.002658396    2.493    0.599
       159 -11.9974     63.0052    156.9880   7.7283858331e+01   3.5216311985e+01    0.2000636    0.1779628 -49.64 0.0003177428    1.206    0.171
       160 -14.5615     65.8989    153.8696   7.6030457894e+01   3.5574766915e+01    0.5948928    0.4734703 -81.48  0.000564728    1.214    0.176
       161 -13.8925    134.2063    188.0581   6.5130366663e+01   1.6545958223e+01    0.5519237    0.3596207 -42.04  0.001764542    1.680    0.405
       162 -12.9736    110.5727    188.1393   7.0586039121e+01   2.0678840160e+01    0.2835886    0.2302707  49.59 0.0009427505    1.169    0.144
       163 -10.6798    167.5118    195.5271   5.9145910485e+01   8.9648333584e+00     0.139465    0.1299839  27.63 -2.597438e-05    1.030    0.029
       164 -11.3639    152.0000    188.0069   6.1122595979e+01   1.3291332358e+01    0.2285021   0.08205183 -48.10 0.0006060229    2.930    0.659
       165 -10.6701     43.4378    187.4756   8.5984804015e+01   3.0517570884e+01    0.1260958     0.106662  88.13 0.0005411034    1.030    0.030
       166 -11.5455      2.6492    186.5323   9.4677148831e+01   3.4790055895e+01    0.1774737    0.1430284 -71.07 0.0004841603    1.283    0.221
       167 -12.1560    248.0853    185.3246   4.1704711708e+01  -3.1836842823e+00    0.3548825    0.2279216   7.68  0.001888595    1.810    0.447
       168 -11.9891    178.9730    191.4327   5.5965424959e+01   7.6376519146e+00    0.3518538    0.2477074 -80.98  0.001357963    2.746    0.636
       169 -11.7781    157.7464    195.0018   6.1145168054e+01   1.0846960054e+01    0.1766242    0.1217686 -46.12 0.0005117206    1.542    0.352
       170 -11.2944    167.4549    181.5184   5.6493070737e+01   1.1683099243e+01    0.2035358    0.1353456 -33.84 0.0001206961    1.622    0.383
       171 -11.9320    167.0280    178.0277   5.5894544604e+01   1.2455716297e+01     0.237653    0.2071774 -37.80 0.0003306867    1.173    0.147
       172 -11.9423      5.0088    181.3287   9.3805700382e+01   3.5734475406e+01    0.2045057    0.1702356 -47.95 0.0008568826    1.546    0.353
       173 -11.6675    142.3603    180.8661   6.1957346786e+01   1.6559412165e+01    0.2026157     0.132863 -38.77 0.0004937106    1.675    0.403
       174 -13.6201    106.4614    176.6913   6.9647982281e+01   2.3929389429e+01    0.4833261    0.2843211 -62.64  0.002194862    1.800    0.444
       175 -12.1797    198.7571    179.8247   4.9643434405e+01   6.1235198856e+00    0.2291098    0.2213432  -1.60 0.0002885644    1.119    0.106
       176 -12.8160    154.2193    178.2328   5.8766661094e+01   1.4866320237e+01    0.4916251    0.2372976  28.92  0.001397587    2.737    0.635
       177 -13.3581     69.3284    207.3785   8.2507277989e+01   2.2817670656e+01    0.5411881    0.4062339   8.71  0.002991481    2.091    0.522
       178 -12.1883    192.1346    177.8920   5.0581204500e+01   7.7065366674e+00    0.2041738    0.1971758  74.40 0.0005450767    1.245    0.197
       179 -13.2830    136.5200    175.9738   6.2378149448e+01   1.8693975064e+01    0.3677631    0.2627686 -88.95  0.001648709    2.057    0.514
       180 -10.9480    250.6571    176.2635   3.9488625182e+01  -2.1977069821e+00    0.1751468    0.1038504 -26.53 0.0003292121    1.535    0.349
       181 -12.7188    149.2565    175.9780   5.9446053401e+01   1.6281991731e+01      0.29034    0.2151857  30.62  0.001433623    1.389    0.280
       182 -14.9769     40.1049    224.8132   9.0126639757e+01   2.2898866132e+01     1.209989    0.9975011   7.76   0.00806745    1.945    0.486
       183 -12.9151     12.6905    175.0744   9.1636513793e+01   3.6472610298e+01    0.3290973    0.2021535 -55.10  0.001801931    1.714    0.417
       184 -11.9771      5.5044    175.9294   9.3281845117e+01   3.6892473109e+01    0.4382206    0.1348601  43.57   0.00165718    2.978    0.664
       185 -11.6449      2.7508    171.8486   9.3558376823e+01   3.8027200416e+01    0.2031409     0.146675  58.18   0.00066877    1.352    0.260
       186 -13.3795    126.5643    173.2588   6.4208562293e+01   2.1134792622e+01    0.4391885    0.2489345 -58.29   0.00148896    1.921    0.480
       187 -14.5065    125.5116    167.8403   6.3426324866e+01   2.2533449350e+01    0.6350951    0.5631389  59.88  0.003452296    1.139    0.122
       188 -13.2750    100.7564    172.1833   7.0258667635e+01   2.5920594752e+01    0.3697667    0.2438616 -50.04  0.001795011    1.552    0.356
       189 -12.4210     76.4949    171.0128   7.6044995576e+01   2.9998804202e+01    0.3348736    0.2102955  87.20   0.00153796    2.010    0.503
       190 -12.2073     73.0643    169.0000   7.6586776648e+01   3.0968128952e+01     0.276939    0.1941606  34.09 0.0009490268    1.543    0.352
       191 -11.5581    235.1627    171.6516   4.1178865011e+01   1.0640962209e+00    0.2366151     0.164391  26.27  0.001283994    1.516    0.341
       192 -12.1991    197.4563    170.5269   4.7988571110e+01   8.0638858630e+00    0.2663234    0.1915296  -0.07  0.001282301    1.718    0.418
       193 -13.3173    152.5154    166.7973   5.6855374594e+01   1.7581580750e+01    0.6309865    0.2252606 -47.96  0.002145302    2.881    0.653
       194 -10.9797     19.0035    170.0168   8.9747858442e+01   3.7056212560e+01    0.1858308    0.1168273  71.28            0    1.541    0.351
       195 -11.0361     15.7915    167.6135   9.0256733421e+01   3.7897238582e+01    0.1561176    0.1199881  34.82 0.0005522526    1.526    0.345
       196 -13.7394     91.3094    170.0387   7.2222338048e+01   2.7961042687e+01    0.4116102    0.3747621  78.60  0.002009747    1.049    0.046
       197 -10.7323     49.6148    169.6838   8.2454964931e+01   3.3893673198e+01    0.1319274   0.09609253 -35.03 0.0007017845    1.829    0.453
       198 -11.9530     41.0341    168.0786   8.4334665335e+01   3.5266327928e+01    0.2807496    0.1672526 -80.38 0.0008699179    1.579    0.367
       199 -13.9272     28.7114    187.2243   8.9212532359e+01   3.2198090367e+01     1.156922     0.716643 -67.82  0.005541176    1.456    0.313
       200 -11.9156     54.4008    166.9332   8.0917352918e+01   3.3956041504e+01    0.2174982    0.1684462  59.07 0.0005845646    1.283    0.221
       201 -11.9332     10.3673    166.9424   9.1439629641e+01   3.8517456336e+01    0.2551827    0.1505585  44.91 0.0006922176    1.748    0.428
       202 -12.5314    110.7706    164.3527   6.6371199580e+01   2.6000171021e+01    0.2638919    0.2517789 -71.24  0.000298383    1.039    0.038
       203 -14.3294     89.7399    162.2152   7.1276181717e+01   3.0046612873e+01    0.6027738    0.4583226 -31.91  0.003061813    1.632    0.387
       204 -12.5264     77.3504    160.7448   7.4190726443e+01   3.2301316581e+01    0.3682168    0.2061182 -68.16  0.001657974    1.825    0.452
       205 -13.6432     75.3398    155.6829   7.3859599193e+01   3.3805637461e+01    0.5154907    0.3019454  77.43  0.002082077    2.650    0.623
       206 -11.9538     73.0502    164.8642   7.5950239435e+01   3.1948111470e+01    0.2434751    0.1933846  88.98  0.000440814    1.263    0.208
       207 -12.0613     73.5596    161.2210   7.5239768055e+01   3.2741071752e+01     0.244129    0.2086592 -41.65  0.000626221    1.311    0.237
       208 -12.5534     47.5846    162.9849   8.2077113618e+01   3.5717216521e+01    0.3344657    0.2323713 -76.02  0.001868192    1.297    0.229
       209 -13.9555     37.0217    161.4548   8.4504673264e+01   3.7264594225e+01    0.7216304    0.4858036  30.60  0.004113183    1.717    0.417
       210 -14.3570     17.8047    150.8192   8.8036719291e+01   4.1620625951e+01    0.8876042    0.6097284 -56.98  0.005305545    1.378    0.274
       211 -15.5302     38.0279    147.1397   8.2362755012e+01   4.0564341268e+01     1.654763     1.128153 -64.62  0.009379179    1.267    0.211
       212 -14.0308      6.7227    118.8912   8.7124337359e+01   4.9936618243e+01    0.9068038    0.5848559  19.37  0.005506247    1.951    0.488
       213 -14.0076      6.0737    144.6064   9.0309740616e+01   4.3999734111e+01     0.866438    0.6075674  85.17  0.005419226    1.294    0.227
       214 -13.4337     20.9598    114.9441   8.2356439679e+01   4.9815701096e+01    0.5850224    0.5066377  70.02  0.003875753    1.291    0.226
       215 -14.2301     11.2454    107.4757   8.4138594530e+01   5.2276455221e+01     1.110138    0.5210449 -84.13  0.004957693    2.627    0.619
       216 -11.6879     15.1235    102.9938   8.2194932888e+01   5.3036018040e+01    0.2694401    0.1965995  34.79  0.001168732    1.642    0.391
       217 -14.5390     21.0146    127.9637   8.4300889566e+01   4.6743771483e+01    0.8678839    0.6153056 -86.90  0.005152828    1.363    0.266
       218 -13.9970     26.9402    152.4265   8.5922660680e+01   4.0416914867e+01    0.9491507    0.3996357 -77.18  0.002839397    2.310    0.567
       219 -14.5468     13.7579    137.5375   8.7537079837e+01   4.5070963972e+01     0.853672    0.4800833 -75.99  0.004688427    1.498    0.333
       220 -14.6330      6.8535    130.5159   8.8544348992e+01   4.7222887412e+01     1.077313    0.6681675 -46.27    0.0056151    1.642    0.391
       221 -13.1548     22.1431    161.8296   8.8176973253e+01   3.8659502472e+01    0.5141895    0.3607215 -64.21  0.002214791    1.285    0.222
       222 -12.9522     15.5000    160.7265   8.9650846251e+01   3.9509945993e+01    0.4329144    0.2756959  32.66  0.001715732    1.805    0.446
       223 -13.6523     31.3633    139.0455   8.3007266710e+01   4.3175119371e+01    0.6378259    0.2969806  19.20  0.001609421    2.961    0.662
       224 -14.8814     35.6704    132.0515   8.0772517591e+01   4.4422786190e+01      1.03144     0.578357  63.00  0.004832695    2.359    0.576
       225 -11.3921    205.9870    164.2568   4.4986838762e+01   7.5938879787e+00    0.1990515    0.1781125  18.08 0.0004595198    1.101    0.092
       226 -12.9492      4.8895    162.1050   9.2264913088e+01   4.0061623508e+01    0.3657369    0.3260236 -51.25  0.001927584    1.367    0.268
       227 -11.7907    242.8809    162.3585   3.7953823324e+01   1.2741947469e+00    0.2118622    0.1632109 -37.68 0.0003754815    1.239    0.193
       228 -12.9908    170.1375    160.2248   5.1511981986e+01   1.5432107904e+01    0.3189567    0.2996891 -50.52  0.001756834    1.118    0.105
       229 -13.4735     81.5346    157.8663   7.2623844405e+01   3.2358933075e+01    0.4984647    0.2767849 -63.24   0.00131325    1.763    0.433
       230 -11.9817    158.9921    160.0980   5.3968899029e+01   1.7703830730e+01    0.2213297    0.2135287  15.24  0.000329968    1.021    0.021
       231 -11.7066     96.9994    175.4668   7.1730788219e+01   2.5786442718e+01    0.2173069    0.1353806  39.94  0.001030355    1.590    0.371
       232 -11.4519    105.2303    158.5488   6.6658979838e+01   2.8318385568e+01    0.2891939    0.1909319  60.20 0.0007375284    1.764    0.433
       233 -12.0738    132.0479    157.1984   5.9696094827e+01   2.3675021828e+01     0.233196    0.2078125  -1.99 0.0009380933    1.279    0.218
       234 -11.5745    117.5119    157.5106   6.3354258795e+01   2.6354291100e+01    0.1463461    0.1444647 -84.01 2.888004e-05    1.024    0.023
       235 -11.1505    204.9099    156.1743   4.3451477536e+01   9.2830393256e+00    0.2004766    0.1932876 -69.51 0.0003145623    1.211    0.174
       236 -11.9206    112.2476    156.4005   6.4457850190e+01   2.7571239142e+01    0.2123587    0.1352364  50.04 0.0009475913    1.631    0.387
       237 -12.1490    141.2076    154.1052   5.6823384152e+01   2.2560472941e+01    0.2890865    0.2179835 -69.26  0.001155315    1.594    0.373
       238 -12.1375      2.1697    153.3498   9.2116326261e+01   4.2266449440e+01    0.3421251    0.1797581 -88.78  0.001871295    1.704    0.413
       239 -13.9365     49.5420    151.8220   8.0007178563e+01   3.8151442612e+01    0.4929238     0.339024  50.95 0.0006715232    1.531    0.347
       240 -12.3595    121.7518    156.0023   6.1987601085e+01   2.5910185182e+01    0.2070568    0.1918456 -58.23 0.0002052199    1.075    0.070
       241 -12.5975     88.1093    152.8728   7.0011917287e+01   3.2522952009e+01    0.2633319    0.2317058  70.44 0.0009629437    1.157    0.136
       242 -11.5635     79.4992    151.5119   7.2035028816e+01   3.4186723972e+01    0.2136987    0.1251102 -50.46  7.95361e-06    1.665    0.399
       243 -14.2593     84.8661    148.3194   7.0018207112e+01   3.4124178054e+01    0.6871281     0.336406 -54.35  0.002178746    1.915    0.478
       244 -13.0392     80.0430    147.1271   7.1087826160e+01   3.5156074434e+01    0.3466632    0.2571696 -33.60 0.0005577193    1.604    0.377
       245 -11.4164    232.4750    151.9086   3.7509742582e+01   4.8397629587e+00    0.2014465     0.123392 -36.06 0.0003594049    1.476    0.322
       246 -10.3874    249.6591    151.6862   3.4636179948e+01   1.8588856399e+00    0.1358187   0.09559238  -1.34 0.0007047164    1.702    0.412
       247 -12.7666    170.3115    150.0220   4.9220196054e+01   1.7481823568e+01    0.3882142    0.2794001  64.48  0.001764131    1.763    0.433
       248 -12.6184    131.0051    150.4262   5.8510941892e+01   2.5397083071e+01    0.4596011    0.2224853  28.47  0.001158711    3.002    0.667
       249 -12.2705    147.5232    149.5163   5.4310676834e+01   2.2289403301e+01    0.3322977    0.2773051 -85.22  0.001118722    1.468    0.319
       250 -12.8702    108.5531    148.7858   6.3859714837e+01   3.0008965882e+01    0.4026625    0.2904701 -64.05 0.0008867322    1.451    0.311
       251 -13.6043    101.4399    142.2851   6.4376803805e+01   3.2800108257e+01    0.6796615    0.3907137  57.18  0.001821933    2.190    0.543
       252 -13.7685     97.7765    148.5233   6.6627997924e+01   3.1960300619e+01    0.4454727    0.3798456  66.48  0.001199198    1.237    0.191
       253 -11.8038    121.2267    146.7802   6.0174577294e+01   2.8118692364e+01    0.2059917     0.179937  -9.78 0.0005587641    1.337    0.252
       254 -10.8420    229.4725    145.9779   3.6743557174e+01   6.4108372368e+00    0.2055986    0.1253529 -36.89 0.0003465408    1.487    0.328
       255 -10.7828    207.5316    146.4637   4.0803286768e+01   1.0560295487e+01    0.1456941    0.1330162 -13.29 2.972333e-05    1.048    0.046
       256 -12.8873     72.4157    145.8886   7.2920471195e+01   3.6583152800e+01    0.2444125    0.1898472  53.01 0.0006736189    1.353    0.261
       257 -12.3381    168.6731    144.9810   4.8433669510e+01   1.8860363096e+01    0.4076704    0.2220024  40.53  0.001664277    1.886    0.470
       258 -11.7410     77.4747    139.4916   7.0336333134e+01   3.7378853806e+01    0.1431636    0.1326086 -69.77 -1.519192e-05    1.004    0.004
       259 -13.7735     57.0198    139.8427   7.6075073952e+01   4.0123670343e+01    0.5298081    0.2403358 -36.66  0.001880793    3.581    0.721
       260 -14.0965     61.6917    133.4158   7.3609596151e+01   4.1071068666e+01    0.4937045    0.3189192   8.73  0.002280429    2.310    0.567
       261 -12.1649    223.0694    139.5955   3.6445961425e+01   8.7453946799e+00    0.2984134    0.1875328 -32.54 0.0001218579    1.498    0.332
       262 -10.9775    189.2212    139.7979   4.2873035951e+01   1.5575381392e+01    0.2526911    0.1703743 -81.02  0.000962315    2.841    0.648
       263 -10.7684    230.5210    139.5533   3.5160700488e+01   7.3253935353e+00    0.1387801    0.1250378 -29.31 0.0001643649    1.028    0.027
       264 -12.4091    179.5031    135.3963   4.3852544478e+01   1.8507220424e+01    0.3806788    0.2778002   2.24 -0.0006069086    1.898    0.473
       265 -12.9948    118.3125    134.9902   5.8293823974e+01   3.1382156232e+01    0.4446162    0.3400443 -87.76  0.001541689    1.718    0.418
       266 -13.1447    103.5077    133.9742   6.2015679769e+01   3.4384437982e+01    0.3666923    0.3150977 -14.88  0.001033057    1.359    0.264
       267 -14.8740     81.8239    128.1617   6.6790058719e+01   3.9420839851e+01    0.7074848    0.5563436  88.59   0.00307563    1.519    0.342
       268 -12.5352     77.4479    133.8337   6.9220566460e+01   3.8740893194e+01    0.3394119    0.2090313 -17.22  0.001302107    3.046    0.672
       269 -11.7764     96.3281    132.6795   6.3695427659e+01   3.5955429107e+01    0.1527383    0.1158564  79.96   0.00070479    1.687    0.407
       270 -11.8881    236.8464    130.9478   3.2230936288e+01   7.6055296493e+00    0.2009556    0.1938928  -3.10 0.0003079806    1.111    0.100
       271 -11.5696    201.6976    130.9728   3.8363303446e+01   1.4641116845e+01     0.209547    0.1797508 -38.11 0.0003779773    1.105    0.095
       272 -12.4289     51.5348    116.4798   7.3318770496e+01   4.6400893056e+01    0.4730538      0.30882  52.68  0.001576516    1.848    0.459
       273 -11.9645     49.2210    123.4186   7.5363959314e+01   4.5022014353e+01    0.2161429    0.1734318  77.52 0.0006164999    1.408    0.290
       274 -11.9707     35.9852    119.7224   7.8640820823e+01   4.7332945446e+01    0.2736888    0.2477129  22.60   0.00152677    1.298    0.230
       275 -13.9237     44.3913    120.9112   7.6336849875e+01   4.6168029563e+01    0.6285014    0.3753136 -41.04  0.002276384    1.746    0.427
       276 -12.6730     50.5552    130.4671   7.6260220295e+01   4.3174863209e+01    0.2789713    0.1805034 -70.82 0.0005245288    1.476    0.322
       277 -13.5825     46.5160    129.0153   7.7168943047e+01   4.3991529465e+01    0.4351473    0.2467851  49.26  0.001740039    2.045    0.511
       278 -12.5239    206.5828    129.3645   3.7073494120e+01   1.3917944990e+01    0.2648741    0.2466263 -50.05 0.0003215535    1.098    0.090
       279 -11.6288    127.9841    133.4770   5.5436826493e+01   2.9816141250e+01    0.3171738    0.1964767 -83.37  0.001033975    3.547    0.718
       280 -14.6115     60.1679    126.3685   7.2701729093e+01   4.2964733575e+01    0.7092251    0.5142621  82.44  0.002941187    1.711    0.415
       281 -11.1295    224.9240    128.8448   3.3717471445e+01   1.0277227914e+01    0.2018896    0.1784995  -9.28 0.0003322522    1.167    0.143
       282 -11.5222    121.7540    128.2594   5.5805922223e+01   3.2238976572e+01    0.2727161    0.1856943 -51.17 0.0007204178    1.457    0.314
       283 -10.5344    130.5116    128.4445   5.3585681200e+01   3.0427729143e+01    0.1518717    0.1501469 -30.08 6.823218e-05    1.011    0.011
       284 -10.9929    162.5584    127.2259   4.5575489189e+01   2.3847936312e+01    0.2174297    0.1463066 -30.04 0.0009385665    1.636    0.389
       285 -13.4003     74.1819    126.0951   6.8553172231e+01   4.1079183694e+01    0.3607166    0.1956443 -55.99  0.001289121    1.697    0.411
       286 -13.2597    104.1750    121.7714   5.8992110706e+01   3.7093508511e+01    0.5380135    0.3125358  40.00  0.001753107    1.784    0.439
       287 -12.6598     99.3252    118.0232   5.9444348371e+01   3.8838349467e+01    0.3286516    0.2627947 -76.91 0.0009439323    1.480    0.324
       288 -11.5489    188.9563    121.6449   3.8606371272e+01   1.9151404071e+01     0.241541    0.2023475 -26.60 0.0002036841    1.210    0.174
       289 -11.1235    165.3340    122.0051   4.3658541972e+01   2.4308431506e+01    0.2173858    0.1943211 -44.94 0.0004210598    1.103    0.094
       290 -13.1332     68.3291    122.1557   6.9436644222e+01   4.2863364096e+01    0.2373333    0.2023146  12.14   0.00132143    1.363    0.266
       291 -11.4678    197.2283    120.9609   3.6834414683e+01   1.7475736528e+01    0.2018441      0.11818 -39.85 0.0006221435    1.621    0.383
       292 -13.1451     78.7234    120.1077   6.5913497819e+01   4.1810121405e+01    0.3691497    0.2433164 -83.21  0.001422462    2.208    0.547
       293 -11.3131    224.1953    120.1405   3.1859161032e+01   1.1949150680e+01    0.2026881    0.1823733 -15.32  0.000388767    1.136    0.120
       294 -12.0830    178.1459    124.9425   4.1619458324e+01   2.0884855289e+01    0.4710524     0.313993   9.94  0.001848658    2.483    0.597
       295 -11.1216    228.9867    119.1937   3.0863454595e+01   1.1148686198e+01    0.2223715    0.1635677 -85.03  0.001082267    1.987    0.497
       296 -12.4333     63.9247    118.6301   7.0003415257e+01   4.4309891178e+01    0.2420307    0.1719102 -47.25  0.000478265    1.307    0.235
       297 -11.9569     94.0198    117.4526   6.0824396134e+01   3.9910464608e+01    0.3006329    0.1951123 -38.34  0.001361515    1.603    0.376
       298 -12.1093     83.3272    115.6711   6.3524196920e+01   4.2119584841e+01     0.250249    0.1370457 -57.41 0.0006363834    1.818    0.450
       299 -12.4446     82.5695    111.2030   6.2673897664e+01   4.3274824740e+01    0.4373489    0.1532451 -46.56  0.001520122    2.687    0.628
       300 -10.9218    124.2491    114.2464   5.1641642737e+01   3.4849289762e+01    0.2080445    0.1818772 -83.36  0.001040278    1.326    0.246
       301 -12.0043    104.8262    114.0503   5.6895000648e+01   3.8728871387e+01    0.2662287    0.2128205  51.01 0.0008872723    1.339    0.253
       302 -12.2334    109.8807    111.6426   5.4859909165e+01   3.8302502064e+01    0.3209848    0.2331974 -36.24 0.0005794438    1.408    0.290
       303 -13.6457     64.0117    113.5220   6.8865484660e+01   4.5502584752e+01    0.4649252    0.2867848  16.94  0.001905663    2.137    0.532
       304 -13.4892     61.7877    110.3568   6.8844939362e+01   4.6543675106e+01    0.7043222    0.2090654 -46.70  0.002368767    3.172    0.685
       305 -11.1046    242.0352    112.5174   2.7365824724e+01   9.7097276131e+00    0.1846719    0.1370684  55.28 0.0004401856    1.539    0.350
       306 -10.8911    171.7070    112.6763   3.9910901666e+01   2.4747805915e+01     0.154035    0.1218462   2.78 0.0006191687    1.616    0.381
       307 -12.9657     91.0333    109.5427   5.9735166831e+01   4.2237717610e+01     0.446285    0.2698578 -29.26  0.001861211    2.106    0.525
       308 -11.7433     52.8361    110.7989   7.1737184094e+01   4.7582951742e+01    0.2754917    0.2134951  41.49  0.000890741    1.450    0.310
       309 -12.0147    220.0042    109.1272   2.9995908352e+01   1.4736494476e+01    0.3596385    0.1958708  49.12  0.001607861    1.985    0.496
       310 -13.7005    120.8313    107.0659   5.0653296665e+01   3.7109041838e+01    0.4741994    0.3695386  28.46  0.001044915    1.401    0.286
       311 -10.6386    140.3419    107.6812   4.5795102710e+01   3.2808043549e+01    0.1591183    0.1244171 -86.50 0.0007049461    1.717    0.418
       312 -10.5680    105.2854    107.3099   5.5017179373e+01   4.0144782430e+01     0.150333    0.1171399 -12.66 0.0001929054    1.572    0.364
       313 -11.4158     77.0021    106.9888   6.3330856181e+01   4.5123230072e+01    0.2084405    0.1708115  79.69  0.001080689    1.544    0.352
       314 -13.1267      3.4298    106.1018   8.6332267719e+01   5.3090253858e+01    0.3705245    0.2640371 -63.23  0.001606828    1.098    0.089
       315 -11.5819    156.8093    105.1972   4.1232008164e+01   2.9615482721e+01    0.2715435    0.1754243 -80.01 0.0009639018    2.931    0.659
       316 -11.9100    210.0183    107.5668   3.1294359703e+01   1.7144560751e+01    0.2862947    0.1889542 -53.10 0.0008264729    1.587    0.370
       317 -11.2013    230.0020    103.0597   2.7020811432e+01   1.3690749181e+01    0.2063524     0.185134 -44.35 0.0003302114    1.004    0.004
       318 -12.6137    166.1007    100.4879   3.7927002490e+01   2.8398640360e+01    0.4655395    0.1791332 -49.16  0.001490133    3.031    0.670
       319 -12.2324     78.9073    101.4035   6.1326546282e+01   4.6087847931e+01    0.2950032    0.2317279  67.06 0.0006964289    1.647    0.393
       320 -13.0057    208.2188     99.6098   2.9675594715e+01   1.8939698750e+01    0.2897398    0.2724479 -55.12 0.0004677064    1.026    0.025
       321 -10.9817     55.4693    100.9640   6.8689039429e+01   4.9534707419e+01    0.2150494    0.1189153 -51.54  0.001012645    1.581    0.368
       322 -13.2630     93.1340     99.2916   5.6413028377e+01   4.4149564886e+01    0.5175776    0.3161238  53.87  0.002245922    2.026    0.506
       323 -11.7268     31.5466     99.3114   7.6176566738e+01   5.2530658793e+01    0.4007803    0.1421713 -45.80  0.001636902    2.539    0.606
       324 -11.2091    178.7620     97.9939   3.4657150265e+01   2.5931303266e+01    0.2035596    0.1245134 -38.53 0.0004863142    1.599    0.375
       325 -11.6446     58.5773     96.9775   6.6709693023e+01   5.0038862896e+01    0.3711997    0.1959806 -38.34   0.00165267    1.950    0.487
       326 -12.1131     24.2747     97.2926   7.8178082627e+01   5.3632087597e+01    0.4537637    0.3043315  28.43  0.002653433    1.748    0.428
       327 -11.7508    168.5062     96.9471   3.6471977508e+01   2.8511638096e+01    0.2435142    0.1486168 -38.28  0.001042898    1.621    0.383
       328 -13.1305     82.1893     96.3011   5.8949421717e+01   4.6685629119e+01    0.4458187    0.2821599 -26.85  0.001987477    1.918    0.479
       329 -11.5940     75.4602     97.4957   6.1386914130e+01   4.7501189239e+01    0.1437364    0.1304282 -34.25 2.657702e-05    1.027    0.026
       330 -12.5410     98.5120     93.7206   5.3258112145e+01   4.4361003817e+01    0.5520033    0.2275835 -54.82  0.001332081    3.114    0.679
       331 -11.9296     68.5924     95.2944   6.3009927107e+01   4.9025230553e+01    0.2509729     0.128226  32.62  0.001092077    2.137    0.532
       332 -11.8035     78.8041     92.6421   5.9014474806e+01   4.8034952168e+01    0.2045797    0.1716787 -32.90 0.0007226139    1.131    0.116
       333 -12.2241     62.5015     92.5167   6.4278660095e+01   5.0505229896e+01    0.2683758    0.1299238 -56.46 0.0008371651    2.045    0.511
       334 -11.5166     59.4797     91.4419   6.5003772124e+01   5.1152943069e+01    0.2094847    0.1780986  42.84 6.147439e-05    1.345    0.257
       335 -12.5858    207.0515     90.6579   2.7677349076e+01   2.0743057517e+01     0.444611    0.1896011 -42.28  0.001735842    2.178    0.541
       336 -11.9459    184.9535     92.0050   3.1898121495e+01   2.5578337574e+01    0.2683598    0.1669304  82.89  0.001030064    2.595    0.615
       337 -12.2588    161.8962     99.1449   3.8477072951e+01   2.9629117433e+01    0.2465518    0.2125485 -72.52  0.001238488    1.298    0.230
       338 -11.4845    244.9864     91.1371   2.2223625695e+01   1.2597390612e+01    0.1957594    0.1704644 -48.48 0.0003619315    1.005    0.005
       339 -12.9634    230.3010     89.5988   2.3878919767e+01   1.5850467914e+01    0.2817053    0.2562087 -52.19 0.0004885814    1.016    0.016
       340 -11.2301    220.2253     89.8411   2.5409240644e+01   1.7966238788e+01     0.207338    0.1746941 -60.45 0.0003997496    1.161    0.139
       341 -12.8863     70.7203     90.0141   6.0898673586e+01   4.9865928069e+01    0.3043531    0.1934951  42.94  0.001479523    1.758    0.431
       342 -11.6051     28.4828     90.3306   7.5315635889e+01   5.4844199012e+01    0.2017286    0.1196577  22.51  0.001081911    1.965    0.491
       343 -11.4986     11.3498     87.0239   8.0560153832e+01   5.6905361344e+01    0.2478113    0.1751666  17.99  0.001061221    1.703    0.413
       344 -11.8708      4.9704     87.2052   8.2789129481e+01   5.7260156166e+01    0.3244181    0.2061367 -36.56  0.001595784    1.513    0.339
       345 -12.6696    149.4615     86.3393   3.7708425389e+01   3.4937615396e+01    0.5400838     0.184796 -35.29  0.001693787    3.196    0.687
       346 -11.8174    162.6103     87.1885   3.5058752801e+01   3.1698334228e+01    0.2109844    0.1450531 -25.87 0.0004198563    1.640    0.390
       347 -11.4547    125.1530     85.5133   4.3411640787e+01   4.0594921779e+01    0.3548895    0.2523825 -14.03  0.001583147    1.806    0.446
       348 -11.9100     54.3475     85.7951   6.5255750698e+01   5.3057500123e+01    0.5159132     0.384151  -0.07   0.00282753    1.565    0.361
       349 -12.3040     60.7297     85.4763   6.2984635845e+01   5.2282134251e+01    0.3522588    0.1666442 -40.68  0.001512374    2.025    0.506
       350 -12.7406     65.3212     82.6750   6.0639490419e+01   5.2230622126e+01    0.3304696    0.2187504  48.55 0.0008062703    1.863    0.463
       351 -10.7601     35.4571     86.3933   7.1990560083e+01   5.5064507514e+01    0.1288712    0.1093977 -41.88 0.0001257274    1.026    0.025
       352 -12.7047    110.9703     83.7108   4.6719442769e+01   4.3951354321e+01    0.4429724    0.2539781  47.91  0.001528323    1.805    0.446
       353 -12.3297     77.4881     82.4196   5.6517377606e+01   5.0410808390e+01    0.3650576    0.3281891  77.82  0.001335186    1.418    0.295
       354 -11.9036    171.1502     83.2207   3.2218595845e+01   3.0384387094e+01     0.223856    0.2041313  18.06 0.0005885355    1.218    0.179
       355 -12.2878    182.1557     80.8973   2.9492714696e+01   2.8172757796e+01    0.2627008    0.1920671 -48.55 0.0004301895    1.360    0.265
       356 -11.1947    206.5149     80.5192   2.5257382666e+01   2.2556352352e+01    0.1416434    0.1337449 -57.89 0.0001643655    1.023    0.023
       357 -11.3126    178.5716     86.7499   3.1724417201e+01   2.8006492335e+01    0.2031956    0.1366282 -48.24 0.0002982454    1.498    0.332
       358 -11.7978     87.9865     79.0867   5.2149746609e+01   4.9290974779e+01     0.326856    0.2502413  59.11  0.001114271    1.653    0.395
       359 -11.3271     85.7890     75.2168   5.1644462324e+01   5.0443612732e+01    0.1966494     0.176457  16.80 0.0004861004    1.110    0.099
       360 -11.7189     29.3188     79.8767   7.2612806132e+01   5.7071481173e+01     0.207607    0.1698668  35.19  0.001314536    1.466    0.318
       361 -12.1254    112.1042     76.0790   4.4066730772e+01   4.5173976680e+01    0.4615636    0.2437409 -47.87  0.001233418    2.057    0.514
       362 -11.2873    115.9605     74.4942   4.2513769490e+01   4.4650780406e+01    0.2761324    0.1842665  39.28 0.0006663128    1.511    0.338
       363 -11.2551     51.5303     78.9416   6.4367304517e+01   5.4877575369e+01    0.1942088    0.1830462 -84.13 0.0006627733    1.304    0.233
       364 -12.8569    215.0236     75.8363   2.2823714920e+01   2.1384419785e+01    0.3587485    0.2342951 -28.63 0.0009400476    1.642    0.391
       365 -12.0877    188.1124     77.8176   2.7613412798e+01   2.7280590021e+01    0.2712609    0.1963216  -0.51 0.0009620421    2.041    0.510
       366 -11.0359      8.3372     78.2939   7.9890745239e+01   5.9012015467e+01    0.1277817   0.07075668 -37.97  0.000702771    1.647    0.393
       367 -12.4700    169.5717     74.8728   3.0229032926e+01   3.2193958280e+01    0.3155019    0.2557504 -50.95 0.0005060936    1.251    0.200
       368 -12.2140    160.5747     75.3932   3.2174908501e+01   3.4260579641e+01    0.3496823    0.2277596 -66.68  0.001465769    2.122    0.529
       369 -11.9267     75.0909     75.4096   5.5188825461e+01   5.2221122433e+01    0.3052091     0.197646 -40.98  0.001051418    1.444    0.307
       370 -12.9747     51.1580     71.8919   6.2469117532e+01   5.6384237444e+01    0.4685366    0.2696498 -41.16  0.001476429    1.541    0.351
       371 -11.4836     47.9811     67.5056   6.2318705050e+01   5.7663414881e+01    0.2893473    0.1569128  35.28  0.001131688    2.038    0.509
       372 -12.3936      3.3053     73.8515   8.0822824540e+01   6.0262227163e+01    0.2532688    0.1525812 -45.68  0.001022083    1.327    0.246
       373 -11.5990      1.7583     68.2091   8.0222146810e+01   6.1541569066e+01     0.288918    0.1754876 -87.49  0.001571553    2.312    0.567
       374 -11.2611    105.3231     72.9705   4.5008662166e+01   4.7147699756e+01    0.2078046    0.1837344 -24.17 0.0006409746    1.107    0.096
       375 -11.5267    181.0620     70.2692   2.6841959652e+01   3.0192962025e+01    0.3419923    0.1795701  74.72   0.00127065    2.722    0.633
       376 -10.7318    246.9930     69.0684   1.7133545287e+01   1.5570477842e+01    0.1609429     0.129642 -48.45  0.000612498    1.078    0.072
       377 -10.9600    101.0477     69.7874   4.5234434375e+01   4.8590222653e+01    0.1859094    0.1146607  44.69 0.0003264674    1.635    0.388
       378 -11.2790     94.0917     68.7522   4.6984628588e+01   5.0135832625e+01    0.1985255    0.1950206  79.47  0.001168927    1.197    0.165
       379 -11.9819     60.1627     67.2602   5.7790971572e+01   5.6096497006e+01    0.2220307    0.1611153 -32.47 0.0003306004    1.257    0.204
       380 -11.2088    203.0831     66.6542   2.2320608102e+01   2.5548028995e+01    0.1919148    0.1732576  71.81 0.0003577956    1.117    0.105
       381 -11.0805     88.9897     66.9725   4.7982628996e+01   5.1419784476e+01    0.2034823    0.1746435 -78.02 0.0003493031    1.600    0.375
       382 -11.9123    199.1440     65.6183   2.2653372703e+01   2.6627439074e+01     0.239076    0.1810525 -51.30 0.0005461681    1.276    0.216
       383 -10.9002     19.2582     76.1832   7.5422217191e+01   5.8711359961e+01     0.243474   0.09772833  10.57 0.0008632821    3.613    0.723
       384 -11.5678      7.5883     65.7485   7.7415352167e+01   6.1721184488e+01    0.2405016   0.08334493 -56.15  0.001131809    2.112    0.527
       385 -12.0952    178.6685     64.2459   2.5628392924e+01   3.1719811197e+01    0.2469125    0.2372144  43.60 0.0003245489    1.109    0.099
       386 -12.4162    105.8011     56.0141   3.9299605026e+01   4.9977213646e+01    0.2638953    0.2403333 -39.48 0.0002950573    1.186    0.157
       387 -11.9710    110.0591     64.0627   4.0798289642e+01   4.7748950294e+01    0.2271941    0.2020114 -23.98 0.0003569888    1.118    0.106
       388 -12.0191    108.9691     59.9980   3.9758198294e+01   4.8661932862e+01    0.2868666     0.246932  74.41  0.001008383    1.432    0.302
       389 -12.5897     43.3861     61.6528   6.2243283804e+01   5.9367560695e+01    0.4203501    0.2259784  48.62  0.001906529    2.932    0.659
       390 -11.7906     13.7232     61.4169   7.3908236113e+01   6.2204904334e+01    0.2295413     0.106005 -42.01  0.001198401    1.755    0.430
       391 -10.7192     63.2992     61.6636   5.4845044229e+01   5.6703719747e+01    0.1240835    0.1086617 -81.74 0.0004152903    1.657    0.396
       392 -12.0578     98.7012     59.6439   4.2571475909e+01   5.0834997994e+01    0.2646626    0.1676938 -23.27  0.001234922    1.749    0.428
       393 -11.9716     33.8077     57.8634   6.4807101098e+01   6.1161286674e+01    0.2173004    0.1712947  13.33 0.0006641773    1.341    0.255
       394 -13.6437     30.6796     50.2841   6.3641726314e+01   6.2916911449e+01    0.3635686     0.286662 -18.47  0.002388553    1.109    0.098
       395 -11.8981    192.8681     57.1956   2.1440862404e+01   2.9374841715e+01    0.2215952     0.184674 -76.58   0.00101123    1.207    0.171
       396 -11.5248    160.1558     57.3975   2.7075694730e+01   3.7250413859e+01     0.201985    0.1360263  72.44   0.00055858    1.640    0.390
       397 -12.1828     52.0965     55.1867   5.6782344835e+01   5.9486150222e+01    0.4233632    0.3198127 -89.23  0.002092256    2.790    0.642
       398 -10.7373    217.5310     55.4833   1.7592197177e+01   2.3884781351e+01    0.1343878    0.1219279 -68.20 0.0001139664    1.023    0.023
       399 -11.2008    126.5782     53.8066   3.3172704327e+01   4.5755521328e+01    0.1991611    0.1316305 -45.01 0.0008372071    1.652    0.395
       400 -11.5993     99.5626     54.2093   4.0459321780e+01   5.1553045201e+01    0.1911801    0.1314121 -20.83 0.0004822419    1.562    0.360
       401 -12.4461    142.1308     52.4813   2.9234523492e+01   4.2317346694e+01    0.2452732     0.232797 -30.42 0.0002723143    1.101    0.092
       402 -10.9609    115.5319     53.5632   3.5849565927e+01   4.8272142718e+01    0.1415465    0.1322007  25.30 8.029172e-05    1.006    0.006
       403 -10.1784    240.6868     52.7005   1.4259251683e+01   1.9218537102e+01    0.1169051    0.1011203  23.96  0.000284581    1.607    0.378
       404 -12.7937     37.3068     51.6920   6.1396284926e+01   6.1949183889e+01    0.2444049    0.2234116 -34.15  0.001290027    1.232    0.188
       405 -10.5261      1.5349     51.4816   7.6339699928e+01   6.4958610252e+01    0.1148364   0.09080381 -44.15 0.0001689073    1.065    0.061
       406 -10.7950    222.9688     49.9970   1.5637049324e+01   2.3433923807e+01    0.1579255    0.1392785 -75.81 0.0003435339    1.035    0.033
       407 -11.7562     19.0294     48.6526   6.8029153455e+01   6.4298125359e+01    0.2019012     0.149237 -51.62 0.0007876565    1.326    0.246
       408 -14.3833     36.8294     40.7272   5.7706937904e+01   6.3942014236e+01    0.4624537    0.3884658 -44.45  0.001579082    1.387    0.279
       409 -11.5956    142.8327     45.4884   2.6912081790e+01   4.3141156015e+01    0.2719927    0.1903815  -1.29 0.0008811745    1.903    0.474
       410 -11.5012    226.9699     43.5160   1.3693169514e+01   2.3424413960e+01    0.1898116    0.1597002 -57.53 0.0003840444    1.069    0.065
       411 -10.8047    175.3349     44.6716   2.0805578666e+01   3.5364521692e+01    0.1489627    0.1015676 -69.93 0.0007051917    1.724    0.420
       412 -10.4108    203.2755     43.6904   1.6547268525e+01   2.8800435768e+01    0.1389217   0.09331083 -65.22 0.0002325879    1.554    0.356
       413 -12.7546     25.7446     37.3734   6.1238828394e+01   6.5712469377e+01    0.2155208    0.1579587  15.09 0.0008823635    1.391    0.281
       414 -10.6208      1.5912     42.5058   7.3821888703e+01   6.6682292655e+01    0.1147119   0.08665083 -39.30  0.000103743    1.030    0.029
       415 -11.2492    130.9865     40.9791   2.7975852448e+01   4.6552411138e+01     0.211308    0.1919213  47.36 0.0004222725    1.026    0.025
       416 -13.6052    135.8248     38.8712   2.6260752104e+01   4.5688234048e+01    0.3375223    0.3077008  45.98 0.0008070421    1.028    0.027
       417 -11.7307    118.3310     40.9793   3.0886487768e+01   4.9461012205e+01    0.3598895    0.2033075  36.80  0.001630173    1.861    0.463
       418 -11.4357    103.2653     39.9862   3.4397156574e+01   5.2892085654e+01    0.1927127    0.1766072   1.32  0.001161044    1.072    0.067
       419 -11.9686     53.3542     38.0741   5.0019010190e+01   6.2204490883e+01    0.2096043    0.1715104  23.25 0.0003974519    1.226    0.185
       420 -12.2630    102.0192     34.7934   3.2853400571e+01   5.3844063553e+01    0.3449731    0.1945674  51.14  0.001381395    1.672    0.402
       421 -12.9084    106.7840     32.2753   3.0694670550e+01   5.3137974468e+01    0.3363784    0.2546793  -5.20 0.0004730306    1.434    0.303
       422 -11.9444    230.3621     34.6754   1.1353565190e+01   2.3825123157e+01    0.2129584     0.196866 -84.24 0.0003245009    1.148    0.129
       423 -12.8486     43.9919     33.8134   5.2056751933e+01   6.4167761075e+01    0.3021966    0.2461768  35.12 0.0005231904    1.468    0.319
       424 -12.8783     31.8216     32.2093   5.6578673705e+01   6.5917800870e+01    0.3708243    0.2501352 -33.42  0.002334318    1.288    0.224
       425 -11.5427    134.9756     30.9440   2.3874638509e+01   4.6864870031e+01    0.3733617    0.1884728 -22.08  0.001635307    2.325    0.570
       426 -12.9386     78.3045     30.8328   3.8301279609e+01   5.9087249058e+01    0.2653121    0.2460908 -52.68 0.0009968341    1.432    0.302
       427 -10.6145     65.6704     32.3446   4.3168042739e+01   6.1119076736e+01    0.1167626    0.1044906 -72.17 0.0007050566    1.752    0.429
       428 -11.1670      8.7242     31.9790   6.7096407600e+01   6.8117923650e+01    0.1585186    0.1157515 -33.01 0.0002561354    1.064    0.060
       429 -12.1685    159.4344     31.0377   1.9489392402e+01   4.0961205169e+01    0.2477315    0.1849443  64.63 0.0003149068    1.230    0.187
       430 -12.1007    207.8986     29.3692   1.2495485548e+01   2.9539191893e+01     0.264617    0.1961157 -62.95 0.0008665995    1.270    0.213
       431 -11.4008     19.1381     30.0801   6.1480291979e+01   6.7570431988e+01    0.1876865    0.1225042 -21.39 0.0007693194    1.306    0.235
       432 -12.8959     46.3211     26.1737   4.7951332402e+01   6.4974368834e+01    0.2779064    0.2391108  19.66 0.0005778516    1.248    0.199
       433 -10.9713    221.0293     25.3073   1.0177326691e+01   2.7034643816e+01    0.1742949     0.144524 -88.07 0.0003753727    1.083    0.077
       434 -11.8591    162.2568    247.0813   6.8552699210e+01   9.5392898808e-01    0.2265356    0.1715432  23.18 0.0007258178    1.244    0.196
       435 -12.4991     67.8184     24.3697   3.9148597085e+01   6.1803110176e+01    0.2936894    0.1549937 -43.22  0.001419563    2.437    0.590
       436 -10.8903     37.0000     23.9683   5.0907670904e+01   6.6540796130e+01    0.1871233   0.06002117 -38.55 0.0007957214    2.896    0.655
       437 -11.8879    238.1402     22.8820   8.0831680069e+00   2.3588068481e+01    0.2008066    0.1537118 -87.61 0.0004035297    1.179    0.152
       438 -11.7973    166.1051     22.2650   1.5942004611e+01   4.0329501648e+01    0.2152885    0.1880733 -48.08  0.000276322    1.211    0.174
       439 -11.6698     92.1763     16.4882   2.8554531360e+01   5.8012900819e+01     0.206183     0.170015  -6.91  0.000342209    1.239    0.193
       440 -10.5971     44.5709    248.4148   9.1079294841e+01   1.7805514813e+01    0.1052757   0.09133081  69.55 0.0001208584    1.217    0.178
       441 -10.8897     31.5021     16.0169   4.9802344549e+01   6.8330646317e+01    0.1632046    0.0984347 -29.58 0.0003894402    1.485    0.327
       442 -11.2995     80.2938    246.2742   8.4334180243e+01   1.3556261783e+01    0.1588647     0.108733  62.69 0.0003281547    1.286    0.222
       443 -11.1668    180.6004    243.9035   6.4558503488e+01  -1.4407143467e+00    0.1654923    0.1488296  24.30  0.001075121    1.124    0.110
       444 -10.9429    167.8225    243.1750   6.6914617534e+01   6.8049060894e-01    0.1655799    0.1330063  12.00 0.0006636221    1.265    0.210
       445 -11.5683    124.9521    249.5871   7.6115116456e+01   6.3831910262e+00    0.1925022    0.1676352 -27.71 0.0005396394    1.476    0.322
       446 -13.1732    103.7531    242.0716   7.9372135880e+01   1.0923913603e+01    0.4281549    0.2070006  33.17 0.0003038209    2.119    0.528
       447 -11.0286     52.6342    243.3334   8.9241804438e+01   1.7763181568e+01    0.1261667   0.09775354 -77.68 0.0001411031    1.342    0.255
       448 -11.2437    135.0239    241.4705   7.3122626350e+01   6.1834274914e+00    0.1750498    0.1670117  51.68 0.0004875203    1.131    0.116
       449 -11.5627     60.3723    241.8651   8.7688038981e+01   1.7055375514e+01    0.1502559    0.1212773  84.61 0.0003682531    1.157    0.136
       450 -10.5575     47.4459    241.7756   9.0072126492e+01   1.8698502581e+01    0.1408632   0.09761375 -65.81 0.0009290148    1.603    0.376
