#   1 NUMBER                 Running object number                                     
#   2 MAG_AUTO               Kron-like elliptical aperture magnitude                    [mag]
#   3 X_IMAGE                Object position along x                                    [pixel]
#   4 Y_IMAGE                Object position along y                                    [pixel]
#   5 X_WORLD                Barycenter position along world x axis                     [deg]
#   6 Y_WORLD                Barycenter position along world y axis                     [deg]
#   7 A_WORLD                Profile RMS along major axis (world units)                 [deg]
#   8 B_WORLD                Profile RMS along minor axis (world units)                 [deg]
#   9 THETA_WORLD            Position angle (CCW/world-x)                               [deg]
#  10 FWHM_WORLD             FWHM assuming a gaussian core                              [deg]
#  11 ELONGATION             A_IMAGE/B_IMAGE                                           
#  12 ELLIPTICITY            1 - B_IMAGE/A_IMAGE                                       
         1 -10.6909    213.5071     20.9809   6.4071103783e+01   2.8569987070e+01    0.3126652    0.1396359  67.51  0.001223516    2.311    0.567
         2 -18.9053    240.5053    134.1638   9.0372187069e+01   8.4042759492e+00     12.37164      1.72798 -27.94   0.02944539    7.687    0.870
         3  99.0000    147.1209     33.9853   7.9641249266e+01   4.4434333107e+01     8.122169     6.196684  52.90   0.03948603    1.319    0.242
         4 -14.2767     33.3696    198.9484   1.4072099114e+02   3.0781574417e+01    0.7399191    0.4582262  73.03  0.005354517    1.323    0.244
         5 -15.3676     37.5779    183.2711   1.3903046901e+02   3.3085258267e+01     2.764379    0.9864386  37.58   0.01209224    2.425    0.588
         6 -11.5301    191.9406    193.4849   1.1057431538e+02   9.6867944182e+00    0.6613938    0.3603269 -60.45  0.002197478    7.601    0.868
         7 -11.2925    212.9279    173.3537   1.0328331131e+02   8.6061567483e+00    0.1853982    0.1532972  10.99 0.0004950466    1.090    0.083
         8 -13.7169    207.9723    178.5447   1.0512672878e+02   8.8271573218e+00    0.7547088    0.4249838 -29.93  0.004104211    1.975    0.494
         9 -13.7299    200.4158    169.7736   1.0491132596e+02   1.1288806165e+01    0.8392419    0.5721087 -17.08  0.004784032    1.598    0.374
        10 -14.1814     68.1893    144.7571   1.2910056207e+02   3.7161813845e+01     2.175097    0.6935519  46.22  0.005509427    3.011    0.668
        11 -13.7601     62.0853    165.9628   1.3277813716e+02   3.3700143518e+01    0.4688539    0.4055132  62.60 0.0008839907    1.094    0.086
        12 -13.7718     68.6737    160.6241   1.3082971664e+02   3.3954307255e+01    0.5730272    0.3822358  62.19  0.002249266    1.408    0.290
        13 -14.7025     73.4285    155.3029   1.2918848931e+02   3.4412447729e+01    0.8334806    0.7184817  75.89  0.002510293    1.024    0.023
        14  -9.5852    171.3521    163.6975   1.0942168043e+02   1.7419515285e+01    0.1275519    0.1013764  67.68 0.0007039501    1.702    0.412
        15 -11.0875    192.3703    153.1442   1.0322572358e+02   1.5092514429e+01     0.181517    0.1248366 -43.15 0.0009517393    1.774    0.436
        16 -10.4651    139.0999    149.8084   1.1367982324e+02   2.5526551151e+01    0.2005688    0.1675897  62.27 0.0006633693    1.298    0.230
        17 -10.9872    189.6444    148.4592   1.0280621180e+02   1.6305700930e+01    0.2372827    0.1711191 -64.28  0.001133705    2.454    0.593
        18 -11.3463    133.3407    144.7046   1.1403121845e+02   2.7466021684e+01    0.8448431    0.2067644 -54.48  0.002122004    7.475    0.866
        19 -13.8114    207.8500    132.8758   9.5894417250e+01   1.4986468613e+01    0.8526707     0.751584 -54.91  0.004310268    1.585    0.369
        20 -12.0733    197.3651    136.3867   9.8700417127e+01   1.6586251704e+01    0.3841413    0.2874942  51.66 0.0009889556    1.493    0.330
        21 -13.0846    184.5356    134.9996   1.0095954052e+02   1.9381416146e+01    0.6442901    0.3024269  49.66  0.001829245    2.196    0.545
        22 -13.6521    189.7216    132.6955   9.9393501088e+01   1.8691605882e+01    0.6857707    0.5805097  81.30  0.003056515    1.771    0.435
        23 -13.3423    130.9964     96.9947   1.0408885707e+02   3.7137339394e+01    0.4310672    0.3844443 -37.78  0.002363182    1.119    0.107
        24 -13.4633    150.9676     95.3491   9.8677481904e+01   3.3292860088e+01     1.121826    0.4531828  42.47  0.004030842    2.460    0.593
        25 -13.2320    134.9994    120.4894   1.0874940266e+02   3.1754262342e+01    0.8331389    0.2700598 -47.12  0.002861847    3.246    0.692
        26 -14.3460    134.5146    107.5358   1.0585786555e+02   3.4369340198e+01      2.35785    0.4828026 -46.94  0.006042197    5.450    0.817
        27 -11.9954    148.3410    102.6461   1.0124268044e+02   3.2497513922e+01    0.2651388    0.2592219 -86.99 0.0005241183    1.170    0.145
        28 -13.7202    143.2739    100.9954   1.0204488317e+02   3.3864997501e+01    0.7593238    0.4608567  21.11  0.002970804    2.315    0.568
        29 -12.6096    160.5604    128.2221   1.0455799600e+02   2.5337480044e+01    0.3949398     0.318787 -44.67  0.001655985    1.367    0.268
        30 -12.4067    166.0995    125.2586   1.0266788144e+02   2.4736006265e+01    0.4379866    0.2997977  62.34  0.001371314    1.930    0.482
        31 -11.3579    141.4967    126.9720   1.0862344856e+02   2.9287040596e+01    0.2413819    0.1927171  85.73 0.0009620759    1.731    0.422
        32 -12.5712    212.0123    130.9988   9.4685716396e+01   1.4411853434e+01    0.4165738    0.3370776  48.96  0.001085331    1.401    0.286
        33 -13.1134    135.4908     90.8548   1.0128446402e+02   3.7423737031e+01    0.4020138    0.3751923  18.02 0.0009781615    1.045    0.043
        34 -11.2957    174.6404    138.3430   1.0373484585e+02   2.0820933302e+01    0.2014097    0.1723958  82.37 0.0007525514    1.657    0.396
        35 -11.3139    201.5156    121.3220   9.4415894276e+01   1.7981539723e+01    0.2462452    0.2378923  47.86 0.0001875812    1.287    0.223
        36 -12.3884    160.1913    119.9316   1.0274465742e+02   2.6878393376e+01    0.3099812    0.2743395  41.44 0.0004611764    1.121    0.108
        37 -12.8966    152.3271    119.4342   1.0442009046e+02   2.8566330560e+01    0.4463012    0.3287238  -4.38  0.001694658    1.709    0.415
        38 -11.2196    185.0898    119.4927   9.7264481403e+01   2.1741392098e+01    0.2271927    0.1364584  44.65  0.001031579    1.586    0.370
        39 -12.7317    167.1041    113.4843   9.9648984766e+01   2.6571496434e+01    0.5289924    0.4317067 -23.19  0.001344538    1.245    0.197
        40 -10.5408    214.7437    116.0659   9.0649722611e+01   1.5955342426e+01    0.2609707    0.1970096  36.04  0.001374879    1.245    0.197
        41 -10.4485    197.8763    115.2963   9.3662832611e+01   1.9666565850e+01     0.371045    0.1825977  61.80  0.001259343    3.528    0.717
        42 -12.3459    146.8242    113.7074   1.0435648508e+02   3.0736561192e+01    0.3054859    0.2444352 -62.00 0.0008974437    1.534    0.348
        43 -12.8978    120.3749    111.8476   1.1044356870e+02   3.6175876485e+01    0.6375363    0.3429241  61.89  0.002373734    3.118    0.679
        44  -9.7764     26.7507    112.9796   1.3558112927e+02   4.8041942389e+01    0.1403333    0.0818494 -74.23  0.000231403    1.418    0.295
        45  -9.4525    192.6103    112.2917   9.3962921395e+01   2.1269826845e+01    0.1420637    0.1204823 -87.02 0.0007009893    1.771    0.435
        46 -11.3142    186.8142    111.5494   9.4954560579e+01   2.2648732967e+01    0.2635466    0.2468925  -4.16 0.0005534714    1.105    0.095
        47 -12.7641    127.3799    110.6000   1.0837812179e+02   3.5134616390e+01    0.4365568    0.2414748 -40.17  0.001531916    1.881    0.468
        48 -10.7425    205.9000    109.5424   9.0678994673e+01   1.8794696362e+01    0.3200196    0.1797858  41.64 0.0009056348    1.687    0.407
        49 -11.7511    153.4795    109.3699   1.0173070685e+02   3.0176803851e+01    0.2972255    0.1830167  47.88  0.001338437    1.625    0.385
        50 -13.5006    117.9291     91.6709   1.0614932569e+02   4.0744663380e+01    0.6251909    0.3068522 -49.75  0.002539763    2.104    0.525
        51 -13.8694    120.2874    100.8196   1.0785709881e+02   3.8435966035e+01      1.14785     0.659258  37.18  0.005146435    1.801    0.445
        52 -12.9545    146.8279     85.6388   9.6964277925e+01   3.5986220852e+01    0.3630159    0.3132447 -41.93 0.0009987197    1.215    0.177
        53 -12.5994    182.7628     83.1737   8.8141650864e+01   2.8133123793e+01    0.3748286    0.2885876   9.43  0.001800433    1.369    0.269
        54  -9.9955     24.0404    105.0511   1.3543004118e+02   4.9978762307e+01    0.1359352    0.1135693 -83.14   0.00051477    1.037    0.036
        55 -10.7768    184.0929     76.9035   8.6042317709e+01   2.8800814669e+01    0.2707504    0.2243617  55.71  0.001026859    1.312    0.238
        56 -12.8024    175.4435     74.9323   8.7238611099e+01   3.1197152561e+01    0.6737332    0.3935969  31.89  0.002732032    1.905    0.475
        57 -12.1396    168.2250     71.2740   8.7671698385e+01   3.3528535120e+01    0.5273795    0.4845394 -73.80  0.001581001    1.347    0.257
        58 -10.7170    202.8464    250.0507   1.1659746259e+02   1.9428263079e+00    0.1959295    0.1103193  36.45  0.001378944    1.228    0.186
        59 -13.6558      4.6884    248.5721   1.4704152857e+02   2.5820397721e+01    0.5542114    0.2934728  57.97   0.00386812    1.217    0.178
        60 -11.7845    204.5488     59.4363   7.7040015983e+01   2.6304695781e+01    0.3038654    0.2175138 -53.57  0.001182236    1.740    0.425
        61  99.0000    198.7966     57.3677   7.7396296356e+01   2.8017954809e+01    0.4354089    0.1993882  32.20  0.001456367    2.925    0.658
        62 -14.9244     10.4983    239.5024   1.4598200664e+02   2.6589228994e+01     1.393084    0.4400952  66.15  0.008981408    2.569    0.611
        63 -10.9514     80.0090     56.9366   1.0756806863e+02   5.4526677968e+01    0.2101852    0.1861709 -34.01 0.0003069717    1.011    0.011
        64 -11.2977    189.7810     51.2603   7.7081607553e+01   3.1126151124e+01    0.2233396    0.1884589 -34.21 0.0007955637    1.221    0.181
        65 -10.3469     35.0772     50.8721   1.2242210988e+02   6.1241417188e+01    0.1786093    0.1467973 -68.40 0.0003979172    1.198    0.165
        66 -12.3205     24.7750    224.6496   1.4333901047e+02   2.7497798079e+01    0.3424237    0.1481055  64.26  0.002050382    1.837    0.456
        67 -10.3486    209.7578     39.0660   7.0065776990e+01   2.7554880323e+01    0.1969594    0.1702284 -29.69  0.001018956    1.148    0.129
        68 -11.3687     23.2794    214.9060   1.4317536727e+02   2.9130520076e+01    0.2069199    0.1049675 -88.23  0.001389326    1.811    0.448
        69  99.0000    187.4979     32.4239   7.1366316064e+01   3.4107775557e+01    0.1488669    0.1455698 -33.13 0.0002123687    1.102    0.093
        70 -10.8341    201.4814     25.0538   6.6886604682e+01   3.1261807117e+01    0.2139872    0.1419498 -21.52 0.0009903474    1.471    0.320
        71 -10.5709    205.8592     23.7708   6.5894264297e+01   3.0256794773e+01    0.2344847    0.2219238  44.72  0.001316602    1.059    0.056
