#   1 NUMBER                 Running object number                                     
#   2 MAG_AUTO               Kron-like elliptical aperture magnitude                    [mag]
#   3 X_IMAGE                Object position along x                                    [pixel]
#   4 Y_IMAGE                Object position along y                                    [pixel]
#   5 X_WORLD                Barycenter position along world x axis                     [deg]
#   6 Y_WORLD                Barycenter position along world y axis                     [deg]
#   7 A_WORLD                Profile RMS along major axis (world units)                 [deg]
#   8 B_WORLD                Profile RMS along minor axis (world units)                 [deg]
#   9 THETA_WORLD            Position angle (CCW/world-x)                               [deg]
#  10 FWHM_WORLD             FWHM assuming a gaussian core                              [deg]
#  11 ELONGATION             A_IMAGE/B_IMAGE                                           
#  12 ELLIPTICITY            1 - B_IMAGE/A_IMAGE                                       
         1 -13.6675    245.2469    158.3024   8.7157321179e+01   4.5484392988e-01     2.658719     0.861814 -47.87  0.008897132    3.482    0.713
         2 -13.0636    196.1173     31.8888   6.5587684926e+01   3.2674776203e+01    0.9652455      0.74419  53.77  0.005342927    1.385    0.278
         3 -13.8722    209.9999     14.7355   5.9996435704e+01   3.1443522076e+01      1.23902    0.9625057  31.77  0.007408572    1.912    0.477
         4 -11.7246      2.0000     12.5340   1.1300839037e+02   7.1113190830e+01    0.5894595    0.1378953 -46.35  0.002606849    3.878    0.742
         5 -11.9421      2.1274      4.1036   1.0934292305e+02   7.2223219310e+01    0.5766227    0.3029483   7.90  0.003887214    1.820    0.451
         6 -10.1798    143.1598    249.6357   1.2397440840e+02   2.3305058777e+00    0.2037323    0.1740083  89.67 0.0006839867    1.345    0.256
         7  -9.4734    193.1669    249.8356   1.1424193361e+02  -6.0647149033e+00    0.1712537    0.1319799  13.27 0.0003352136    1.298    0.229
         8 -10.5087    184.3852    250.2334   1.1599561165e+02  -4.6908661474e+00    0.2771824      0.16094  35.61  0.001485286    1.487    0.327
         9 -10.5686    169.7635    248.5176   1.1858427200e+02  -1.9806567222e+00    0.3463253    0.2368003   6.84 0.0007891947    2.093    0.522
        10 -11.3431    149.4768    248.1546   1.2252608868e+02   1.5176964272e+00    0.3647707    0.2819023 -66.49  0.002196079    1.573    0.364
        11 -10.7654    132.2359    248.8284   1.2601573027e+02   4.3119130704e+00     0.420126    0.2560568  65.42   0.00213623    1.948    0.487
        12 -10.5769    135.6980    248.6452   1.2531054475e+02   3.7629993792e+00    0.2331446    0.2209067  54.51 0.0008795813    1.142    0.124
        13 -11.5101    125.0411    249.4422   1.2750534023e+02   5.4015735291e+00    0.7356995    0.3545009  41.59  0.003590052    1.780    0.438
        14 -10.4923    121.4957    244.5469   1.2758581250e+02   6.8914493417e+00    0.4064669    0.1897927  50.98  0.001200664    1.936    0.483
        15 -12.3629    125.3043    240.5258   1.2630590910e+02   7.0067808521e+00    0.7732031    0.3922875  36.98  0.003662094    1.906    0.475
        16 -10.8002    115.4601    250.4233   1.2949172184e+02   6.7985664556e+00    0.4171685    0.3002434  36.77 0.0008738681    1.399    0.285
        17 -11.4509    109.6553    247.1433   1.3023120112e+02   8.3511249006e+00    0.5237432    0.3702112 -78.17  0.002278463    1.569    0.362
        18 -10.5270     84.2975    240.8284   1.3445222158e+02   1.3561845714e+01    0.4185027    0.2457058 -77.56    0.0022723    1.808    0.447
        19 -10.2159     84.7371    229.4871   1.3311814955e+02   1.5802295268e+01    0.2234002    0.2073681 -50.18 0.0001806511    1.443    0.307
        20 -10.7181     84.9261    234.5486   1.3364882305e+02   1.4730936698e+01     0.381598    0.2072968  58.31  0.001592966    1.701    0.412
        21 -11.6375     98.7727    232.7171   1.3066664711e+02   1.2931186294e+01     0.749018    0.3429542 -72.50  0.003196639    2.803    0.643
        22 -10.5456    113.1164    230.4126   1.2744810123e+02   1.1036924709e+01    0.2978967    0.2604842  62.17   0.00103963    1.034    0.033
        23 -11.8627    105.4094    228.2838   1.2875779826e+02   1.2754015345e+01    0.7300096    0.4214221  60.71  0.003590673    1.758    0.431
        24 -11.0942     99.3758    223.3745   1.2937697493e+02   1.4764256404e+01    0.4459222    0.2771876  54.51    0.0011466    1.454    0.312
        25 -11.2319     99.0645    247.5712   1.3233317183e+02   9.9628142651e+00    0.6195253    0.3101395  66.87  0.002803553    2.509    0.601
        26 -10.4528    102.9398    247.3190   1.3155630261e+02   9.3967550038e+00     0.357952    0.1938242  63.13  0.001777531    1.953    0.488
        27 -10.8010     91.0612    241.6896   1.3323264630e+02   1.2354122223e+01    0.3595898    0.2399216  72.17  0.001509719    1.451    0.311
        28 -10.7893     89.8187    238.2267   1.3309241986e+02   1.3234477139e+01    0.2901252    0.1808418 -62.45 0.0009360173    1.717    0.418
        29 -11.0927     87.3984    247.8038   1.3458972064e+02   1.1725302593e+01    0.3927318    0.2784157  46.43  0.001147595    1.289    0.224
        30 -12.5826     61.6384    246.1805   1.3924217874e+02   1.5784521479e+01     1.611781    0.6529558  37.74  0.007682436    2.525    0.604
        31 -13.2821     16.1082    168.6185   1.4109680447e+02   3.8176627746e+01     2.098364     1.234111  53.05  0.007314695    1.760    0.432
        32 -14.1435     11.6529    151.8637   1.4033913321e+02   4.2453242683e+01     2.092987    0.9692684 -80.80  0.005903164    1.940    0.485
        33 -10.8011    166.1406    242.0090   1.1832248961e+02  -2.7775929219e-01    0.3607626    0.1720157  38.30  0.001414038    1.852    0.460
        34 -11.1656    244.8602    240.4385   1.0307014808e+02  -1.2619298655e+01    0.1996717    0.1313833 -22.74  0.001031785    1.446    0.308
        35 -10.7326    105.0069    237.9942   1.3005375417e+02   1.0867471202e+01    0.2878352    0.1986089  32.06  0.001579351    1.664    0.399
        36  -9.1871     61.1438    238.8825   1.3867649218e+02   1.7309589220e+01    0.1890098    0.1320262  67.36 0.0008270261    1.167    0.143
        37 -10.6818    116.6234    238.5147   1.2778915568e+02   8.8506156121e+00    0.3900252    0.2740607 -37.57   0.00157775    2.032    0.508
        38  -9.5468    173.0820    235.9195   1.1598689075e+02  -4.3501914978e-01    0.1874718    0.1650035  55.98            0    1.206    0.171
        39 -11.5877    122.5729    233.3549   1.2590044555e+02   8.8497784137e+00    0.4050058    0.3522057  54.60  0.001336861    1.043    0.042
        40 -11.1977     96.9126    239.9414   1.3189020397e+02   1.1782098457e+01    0.3523248    0.3066503 -37.34  0.002226787    1.634    0.388
        41  -9.6113     55.2976    235.5465   1.3947124861e+02   1.8785087335e+01    0.3108876    0.1619748  72.88  0.001606287    1.950    0.487
        42  -9.6366    165.5414    234.5058   1.1728408113e+02   1.1294355604e+00    0.1335604    0.1179538  35.52 0.0008090643    1.026    0.025
        43  -9.4053    162.6451    233.3136   1.1768503465e+02   1.8512617902e+00    0.1371965    0.0993508  67.46 0.0003745284    1.737    0.424
        44 -10.7740    156.7678    231.6994   1.1863354416e+02   3.1830471190e+00    0.2369209    0.2320938  11.49  0.000363691    1.129    0.114
        45 -10.4131     62.9807    232.9921   1.3777201951e+02   1.8260526115e+01    0.1813771    0.1485873  75.06 0.0003175627    1.063    0.059
        46 -10.9052    142.3460    229.7231   1.2130469410e+02   6.1103064245e+00    0.4053727    0.2707201 -34.99  0.002052623    1.984    0.496
        47  -8.9121     57.3813    231.1461   1.3867137909e+02   1.9413358123e+01    0.1659365   0.09988049 -87.92 0.0009274255    1.569    0.363
        48  -9.0607    180.5323    229.4898   1.1343954522e+02  -6.2534842987e-01    0.1339075     0.119366  30.31 6.957889e-05    1.004    0.004
        49 -10.2044    128.4075    228.7751   1.2405908163e+02   8.7443155498e+00    0.1852007    0.1252104 -43.61 0.0008300547    1.807    0.447
        50 -10.7042     79.3440    225.9683   1.3380737308e+02   1.7359778680e+01    0.4524287     0.291511 -74.87  0.001525625    1.530    0.346
        51  -9.7388     77.2816    220.9645   1.3365852995e+02   1.8736500468e+01    0.2469636    0.1598045  73.26 0.0004279535    1.516    0.340
        52 -10.1004     92.4837    225.9319   1.3112367152e+02   1.5335896923e+01     0.287981     0.165234  52.54 0.0009982169    1.553    0.356
        53 -10.3286    143.4954    244.1624   1.2315658812e+02   3.2388566208e+00    0.2626997    0.1345611  57.35  0.001168517    2.280    0.561
        54  -9.9944    131.6177    223.5820   1.2263050327e+02   9.2146254418e+00    0.4424191    0.2513269  64.55   0.00192171    2.289    0.563
        55 -10.1345    117.3288    224.2635   1.2573710067e+02   1.1570206530e+01    0.2412933    0.2115483  64.86 0.0002506811    1.014    0.014
        56 -10.0148     64.6666    223.9153   1.3653346512e+02   1.9933162917e+01    0.3683661    0.2017782 -84.63  0.001682438    1.893    0.472
        57 -10.3324    161.1009    223.3170   1.1640060304e+02   3.9634833420e+00    0.3805258    0.2443737  14.73  0.001153545    2.376    0.579
        58  -8.7994    155.6777    223.3100   1.1753067391e+02   4.9472021553e+00    0.1390653    0.1031727  70.29 0.0004389158    1.649    0.394
        59 -11.0981    142.2918    221.6195   1.2007690062e+02   7.6974223900e+00    0.4003089    0.2526526  41.98  0.001019923    1.438    0.304
        60  -9.6771    110.8507    221.3022   1.2669135260e+02   1.3289568170e+01    0.3633862   0.07764457 -53.57  0.001106924    4.760    0.790
        61 -10.6296    245.5722    219.7603   9.9253587074e+01  -9.7829905681e+00     0.308548    0.1119063 -39.86  0.001324935    2.725    0.633
        62 -10.6140     69.8369    217.4306   1.3478801370e+02   2.0596736172e+01    0.6896206    0.3259883 -84.80  0.002911403    2.728    0.633
        63  -9.1138    104.8706    218.7347   1.2760709557e+02   1.4838575789e+01     0.186039    0.1583155  65.74  0.000254969    1.023    0.023
        64  -8.6264    173.2652    218.7004   1.1309613006e+02   2.6140691585e+00    0.1291118    0.1068067  76.08 0.0001551445    1.517    0.341
        65  -9.1747     99.3097    218.0172   1.2869120130e+02   1.5913144405e+01    0.1849469    0.1651522 -88.73 0.0005549223    1.114    0.103
        66  -9.7043     88.3858    213.3018   1.3039992401e+02   1.8697553479e+01    0.3636164     0.197327 -85.59  0.001466978    2.405    0.584
        67 -10.4294    137.1726    214.1792   1.1999542577e+02   1.0128540321e+01    0.2825791    0.2451452  73.01   0.00139519    1.160    0.138
        68  -9.1455    160.0989    213.8260   1.1502177440e+02   5.9699182355e+00    0.2008153    0.1808194  68.06 0.0004585072    1.171    0.146
        69 -10.0054    102.5856    212.6546   1.2725994855e+02   1.6529836279e+01    0.4436361    0.2195873  69.70   0.00157908    3.452    0.710
        70  -9.1788    216.3047    243.3240   1.0878755746e+02  -8.7791657930e+00    0.1277263   0.08632097   4.66 0.0007032736    1.641    0.391
        71  -9.4808    107.2584    209.4151   1.2578162781e+02   1.6448192355e+01     0.329755    0.2328386 -25.15  0.001526272    2.445    0.591
        72 -10.2428     73.4428    209.5851   1.3312253669e+02   2.1803734385e+01    0.3944544    0.2572827  21.39  0.001924635    2.407    0.585
        73  -9.6919    112.5807    208.3777   1.2446023246e+02   1.5757822037e+01     0.238145    0.2293044  70.97 0.0007890173    1.141    0.123
        74 -10.0131     96.6684    206.9640   1.2775420985e+02   1.8766145718e+01    0.3807127     0.217098 -89.40  0.001211288    2.435    0.589
        75 -10.3982     91.5364    204.6348   1.2855920381e+02   2.0124284557e+01     0.473257    0.3594399  39.28  0.001393664    1.397    0.284
        76 -10.1274    157.9479    242.5033   1.2003139769e+02   1.0476755430e+00    0.2248884    0.1981167 -54.74 0.0006399615    1.319    0.242
        77  -8.6906    134.3464    208.3228   1.1966484887e+02   1.1867807102e+01    0.1407333    0.1142168  -1.72 0.0007049803    1.739    0.425
        78  -9.1832     32.8685    206.9087   1.4123042950e+02   2.7721252979e+01    0.1713013    0.1389505 -74.90 0.0003446254    1.257    0.205
        79  -8.9492    149.2499    204.1826   1.1569538130e+02   9.9544229483e+00    0.2361736    0.1605791  -3.88 0.0008442201    2.771    0.639
        80  -9.5660     74.8491    203.6340   1.3208550110e+02   2.2937237093e+01    0.2842651    0.2248413   0.59  0.000707744    2.153    0.535
        81  -8.3182    133.0000    202.9924   1.1908146924e+02   1.3254540557e+01    0.2233353   0.08211152 -53.54   0.00046454    2.868    0.651
        82  -9.9256    103.2526    202.7423   1.2568683428e+02   1.8611081252e+01    0.3781686    0.2134942  57.74  0.001516025    1.843    0.457
        83 -10.6969    250.1336    200.9689   9.4910417332e+01  -7.5928871224e+00    0.3429752    0.1470493 -27.51  0.001388227    2.698    0.629
        84 -10.8435     84.1922    201.7106   1.2978191069e+02   2.1952545912e+01     0.339059    0.2271114 -45.15 -0.000430966    1.883    0.469
        85  -9.2357     86.1299    195.6299   1.2850425080e+02   2.3045568601e+01    0.1903017    0.1707274  63.73 0.0003876636    1.114    0.102
        86 -13.6525     28.2343    247.0577   1.4521476787e+02   1.9882125796e+01     1.401587    0.8314301  59.58  0.007863054    1.331    0.249
        87  -8.4788    183.1649    200.3797   1.0771181231e+02   4.2471907315e+00    0.1902348    0.1288208  50.30 0.0002811448    1.530    0.346
        88  -9.2165    127.9447    199.7023   1.1966179785e+02   1.4905589905e+01    0.1960045    0.1732582  57.10 0.0004187381    1.053    0.050
        89  -8.8128    115.1798    200.4019   1.2265073820e+02   1.7063189422e+01    0.1903232    0.1231348  53.72 0.0001576564    1.490    0.329
        90 -13.4704     40.5603    243.4417   1.4281648234e+02   1.9100138371e+01     1.089042    0.7489663  86.50  0.005692982    1.198    0.165
        91 -12.3298    135.9162    241.0442   1.2424299002e+02   5.1028982060e+00    0.7169676    0.5181396 -33.43  0.003136629    1.897    0.473
        92  -9.4246     57.8104    198.8448   1.3520419724e+02   2.6442444750e+01    0.2143519    0.1499147  79.28 0.0002831333    1.319    0.242
        93 -10.0210     53.8173    197.8343   1.3595075458e+02   2.7203234014e+01    0.3691067    0.1885604  45.82  0.001847727    1.878    0.468
        94 -11.6129     61.0335    194.4184   1.3396965051e+02   2.7028119292e+01    0.5694938    0.3556566  40.66   0.00201636    1.664    0.399
        95  -9.5157    102.5822    195.9397   1.2480808370e+02   2.0268540232e+01    0.3284953    0.2115961 -38.39  0.001196487    2.135    0.532
        96  -9.5961     97.3245    196.3617   1.2606987653e+02   2.1058413982e+01    0.4312115    0.2286846  53.11  0.001760221    1.884    0.469
        97 -10.8476    134.7718    236.9955   1.2391259701e+02   6.0540843647e+00    0.2374046    0.2018691  53.68 0.0006703308    1.022    0.022
        98  -8.5009    153.5707    196.4867   1.1336644198e+02   1.0740801839e+01    0.1439743    0.1385033  46.69 5.587672e-05    1.030    0.029
        99  -9.1976     38.5971    195.8172   1.3898415163e+02   2.9551989860e+01     0.261656    0.1249564  86.96  0.001168958    2.391    0.582
       100  -9.7482     38.6205    192.1985   1.3860318406e+02   3.0378772269e+01    0.2502576    0.1514625 -58.40  0.001046853    1.666    0.400
       101  -9.8553     42.0171    189.7560   1.3760580270e+02   3.0542807705e+01    0.4282491    0.2260163  87.79  0.001755077    2.021    0.505
       102 -10.5506    249.6596    194.2196   9.3684187469e+01  -6.4383223454e+00    0.3178902    0.2443326 -16.05  0.001634962    1.201    0.167
       103 -11.1558    249.5364    187.6418   9.2411110693e+01  -5.3417674252e+00    0.3944668    0.2726397 -28.10  0.002209979    1.314    0.239
       104  -8.9881     31.6182    195.2106   1.4038904287e+02   3.0487404186e+01      0.27875   0.09463984  49.47  0.001204064    2.829    0.646
       105  -8.6364    159.7131    194.3328   1.1161023777e+02   9.9996638600e+00    0.1467543    0.1149924  83.12 0.0002418007    1.622    0.384
       106  -8.9614    119.4307    194.2087   1.2067469878e+02   1.7690320957e+01    0.3137037   0.08309706  49.04 0.0006571456    4.381    0.772
       107  -9.5611     72.6123    192.9606   1.3119386727e+02   2.5727439857e+01     0.196648     0.180413  51.73 0.0002654281    1.238    0.192
       108  -9.5459     25.7030    192.3896   1.4135223368e+02   3.1769297051e+01     0.221689    0.1522307  72.28 0.0008658763    1.284    0.221
       109  -9.8327    191.4747    191.4579   1.0424940072e+02   4.3871586770e+00     0.247136    0.2327236  24.13 0.0006114623    1.027    0.026
       110  -9.5320    113.0254    191.9480   1.2177164743e+02   1.9359398385e+01    0.2102363    0.1786592 -18.12 0.0003696362    1.608    0.378
       111  -9.9257     32.1097    189.8362   1.3975229454e+02   3.1660663005e+01    0.3303316    0.2359834  39.40  0.002038352    1.588    0.370
       112  -9.7271     19.9946    191.0725   1.4241427225e+02   3.2655858668e+01    0.1914216    0.1441577 -87.20  0.001264203    1.041    0.039
       113  -8.6947    135.0498    190.0350   1.1636563505e+02   1.5712294578e+01    0.1728948    0.1643759  82.62 0.0003612885    1.031    0.030
       114 -10.4117     51.0286    189.5132   1.3559546619e+02   2.9490280279e+01    0.2311144    0.1628223 -75.79 0.0003026144    1.235    0.190
       115 -12.9966     52.8009    208.8020   1.3736468595e+02   2.4851474322e+01      1.55451    0.7165141  44.91  0.007671072    2.019    0.505
       116  -9.9302     76.6357    188.8096   1.2970649620e+02   2.6103637611e+01    0.2778995    0.2318649  22.25 0.0007280984    1.574    0.365
       117 -11.6572     67.7321    187.2467   1.3153725256e+02   2.7774456147e+01     0.322879    0.2328461 -54.13 0.0005507305    1.481    0.325
       118 -13.5991      4.8333    245.1709   1.4897643806e+02   2.2827379370e+01     1.104839    0.6053661  82.50  0.005083673    1.394    0.283
       119 -10.0791     29.1211    184.0918   1.3980938086e+02   3.3308637631e+01    0.3191212    0.2691064  11.05  0.001495629    1.759    0.432
       120  -9.9803     24.0451    184.2729   1.4092300082e+02   3.3795574738e+01    0.1817709    0.1719733  50.66 0.0006349015    1.377    0.274
       121  -9.2038     36.9889    183.8431   1.3805851717e+02   3.2502439591e+01    0.2122624    0.1158378  59.81 0.0007325878    1.868    0.465
       122  -9.3804    140.0599    183.0817   1.1392372490e+02   1.6299171386e+01    0.2200689    0.2079449  73.05 0.0003464485    1.018    0.018
       123 -12.7372    248.0691    100.9855   7.4424713248e+01   1.0166754620e+01    0.9133613    0.5531477 -44.87  0.004592661    1.436    0.304
       124 -10.1980     81.3885    246.6913   1.3561417847e+02   1.2846047005e+01    0.4078689     0.229426  89.49   0.00212152    2.065    0.516
       125 -12.5202    248.9935    132.8032   8.1140019410e+01   4.3405863918e+00     1.233478    0.6469018 -37.59   0.00566276    1.723    0.420
       126  -8.7261     65.9245    182.0215   1.3124250574e+02   2.9269313367e+01    0.1603127    0.1391565  79.31 0.0003215332    1.057    0.054
       127 -10.9967    249.6269    150.9729   8.4892846434e+01   9.7148585481e-01    0.5071259    0.3077188 -44.57  0.002534667    1.498    0.333
       128  -9.3665    115.6231    177.9826   1.1873899022e+02   2.2131621397e+01    0.2942157     0.192358 -56.39  0.001090822    1.520    0.342
       129  -8.8870     47.8926    179.8031   1.3512893245e+02   3.2166716129e+01    0.1562095    0.1030663  35.61 0.0008027708    1.725    0.420
       130 -10.1762     19.9481    179.0292   1.4129213285e+02   3.5409723926e+01    0.1824971    0.1543766  82.46  0.001254798    1.129    0.114
       131 -12.9367     14.1713    238.7840   1.4706617150e+02   2.3095477277e+01    0.6576334     0.437312  69.03  0.001358292    1.136    0.120
       132  -8.9373     92.6140    178.2249   1.2432147701e+02   2.6099825906e+01    0.1865039    0.1280554 -53.63 0.0001012922    1.469    0.319
       133 -11.2283     77.5257    175.0815   1.2746439674e+02   2.9244442505e+01    0.2972468    0.2374567 -59.72 0.0003935075    1.235    0.190
       134 -11.7990     64.3769    173.3427   1.3037989699e+02   3.1565848914e+01    0.4364843    0.2460552 -50.38 0.0006453026    1.873    0.466
       135 -10.1860     68.6679    166.5360   1.2830297559e+02   3.2614113855e+01    0.2463418    0.2099169 -79.02 0.0002934667    1.035    0.034
       136 -11.9216    107.8506    172.8895   1.1969582228e+02   2.4750535940e+01    0.2734339    0.2546909  80.68 0.0002935967    1.022    0.022
       137  -8.8526     84.9644    174.0428   1.2549121555e+02   2.8343357852e+01    0.1698335     0.151365  66.60 0.0003036141    1.099    0.090
       138 -10.0600     45.9646    172.3306   1.3463439652e+02   3.4178318379e+01    0.2261308    0.1754585 -87.51  0.000299471    1.114    0.102
       139 -10.8662     43.8279    168.9779   1.3470746826e+02   3.5232210587e+01    0.3325517    0.2925858 -68.61  0.001031273    1.171    0.146
       140 -10.0025     45.0337    164.9455   1.3388338355e+02   3.6058645682e+01    0.2253233    0.1609468 -69.27  0.000390563    1.198    0.166
       141  -9.9185     28.4666    170.7452   1.3851695370e+02   3.6491423144e+01    0.3631648    0.1617735 -59.72  0.001767476    1.944    0.486
       142  -8.6436     52.5266    170.9774   1.3289477626e+02   3.3698496916e+01    0.1885128    0.1160272 -67.97  6.16758e-05    1.417    0.294
       143  -8.3129    150.7216    170.2969   1.0891231206e+02   1.7037607152e+01    0.1512219    0.1197214  85.38 -0.0001541599    1.535    0.349
       144 -11.8412     85.3483    166.7074   1.2417094037e+02   3.0059742247e+01     0.625789    0.5072418  44.06  0.003394758    1.297    0.229
       145  -8.6038     58.4664    167.4757   1.3096150467e+02   3.3779951099e+01    0.1383382    0.1174407 -85.50 4.507705e-05    1.023    0.022
       146  -8.3213    118.6759    162.7314   1.1508545168e+02   2.5174756889e+01    0.1452315    0.1228023  -6.93 0.0002628352    1.570    0.363
       147 -10.1844     89.6818    160.1633   1.2191709694e+02   3.0953403607e+01     0.233859    0.1889763  58.45 0.0003095724    1.256    0.204
       148  -8.8702     73.5064    159.5078   1.2593926229e+02   3.3629602037e+01    0.1433062    0.1268218 -81.38 3.188849e-08    1.009    0.009
       149  -8.5790     52.4576    158.4717   1.3112482981e+02   3.6729414774e+01    0.1362313     0.116477 -73.19 0.0007997308    1.048    0.046
       150  -8.7880     47.3620    158.3127   1.3238241195e+02   3.7384204936e+01    0.1344086   0.09517242 -38.60 0.0007041256    1.753    0.430
       151 -10.8776     31.8892    155.7013   1.3587420205e+02   3.9709825453e+01    0.3876817    0.2116427 -50.88   0.00106587    1.829    0.453
       152 -14.3784     10.5549    209.1680   1.4573152501e+02   2.9602549140e+01     2.801431     1.180813 -77.79    0.0149159    1.927    0.481
       153  -8.3465    112.3071    157.7147   1.1567546203e+02   2.7576319707e+01    0.1534632    0.1153971  78.61 0.0002884204    1.567    0.362
       154  -9.5228     71.9881    156.4797   1.2581376300e+02   3.4591624689e+01    0.2938682    0.2131746   8.44   0.00142478    2.087    0.521
       155  -9.0702    228.4491    155.5087   8.9490317189e+01   4.1079008427e+00    0.2433994    0.1245932 -49.59 0.0006804996    2.042    0.510
       156 -10.4558     84.4049    155.3720   1.2239842166e+02   3.2975831403e+01     0.347622    0.2438703  20.25  0.001644116    1.923    0.480
       157 -10.5634     23.5403    149.4972   1.3714573800e+02   4.1988019784e+01    0.2970529    0.1514428 -41.30  0.001152942    2.489    0.598
       158 -11.1184     22.4972    154.9970   1.3808576190e+02   4.0784230252e+01    0.3226417      0.20375  76.80  0.001800754    1.651    0.394
       159 -10.1109     25.6927    154.6851   1.3726822908e+02   4.0559588836e+01    0.2253103    0.1612601 -31.12 0.0009224463    1.911    0.477
       160  -8.5801    104.6700    153.3651   1.1675081951e+02   3.0026519111e+01    0.1623113    0.1146779  81.83 0.0007036809    1.811    0.448
       161 -14.1697     41.7835    218.6928   1.4053766671e+02   2.4080500016e+01     1.489669     1.081714  44.18  0.009525856    1.470    0.320
       162  -9.9178    113.9551    150.6065   1.1378514628e+02   2.8974948755e+01    0.3426042    0.2407413 -62.62 0.0003819196    1.438    0.305
       163 -10.3906     97.8886    151.2135   1.1808107870e+02   3.1748730604e+01    0.3564404    0.2983431 -61.92  0.001300836    1.128    0.114
       164  -9.4176    101.1991    146.4611   1.1623982762e+02   3.2320319027e+01    0.3388381    0.2071307 -33.48  0.001377461    2.205    0.546
       165  -9.3697     86.4319    149.9545   1.2084715033e+02   3.3975634881e+01    0.2240793    0.1349109 -59.58 0.0003854355    1.552    0.356
       166  -9.3949     55.4610    150.5038   1.2911291863e+02   3.8291161880e+01    0.2053593    0.1196478 -75.17 8.735939e-05    1.703    0.413
       167  -9.0618     53.3122    146.6230   1.2904473368e+02   3.9501928031e+01    0.2142001    0.1464745  78.01 0.0005839142    1.690    0.408
       168  -9.3530     30.5245    150.5271   1.3552900173e+02   4.1080370228e+01     0.226839    0.1280821  30.23  0.001033908    2.112    0.527
       169 -10.5268    133.4322    142.3473   1.0699827843e+02   2.7057905260e+01    0.8976104    0.2677451 -52.27  0.002551149    3.600    0.722
       170 -12.0744    134.2004    233.1518   1.2348641413e+02   6.8834550962e+00    0.5652409    0.3967296 -39.95  0.002658754    1.798    0.444
       171 -10.6210    236.2770    145.9264   8.6043767179e+01   4.3812785318e+00    0.2487589     0.243286  -7.48 0.0007152344    1.096    0.088
       172  -9.6494     32.1906    145.8397   1.3445725708e+02   4.2033889190e+01    0.1860823      0.13468 -50.03  0.001088685    1.385    0.278
       173 -10.9367     32.5981    140.5544   1.3358514593e+02   4.3254630398e+01    0.3332661    0.1839949 -87.17  0.001106405    2.080    0.519
       174  -9.9504     37.0344    140.2922   1.3236664878e+02   4.2869981938e+01      0.17992    0.1587015 -79.20 0.0005905219    1.071    0.066
       175  -9.6319     56.0032    138.8645   1.2699285957e+02   4.1049739709e+01    0.2014917     0.178462 -68.13 0.0003464695    1.025    0.024
       176 -10.4212     46.4035    138.3929   1.2953500572e+02   4.2310103473e+01    0.2605741    0.2186345 -27.19  0.001393069    1.440    0.306
       177 -13.0253     34.9574    227.8095   1.4260946899e+02   2.2974027820e+01    0.4808501    0.4106511 -77.73 0.0008264331    1.352    0.260
       178 -10.9585     60.5420    136.7632   1.2536071641e+02   4.0977942790e+01    0.3286794     0.229646 -75.32 -3.883161e-05    1.426    0.299
       179  -9.9595    109.7288    136.3205   1.1176286662e+02   3.3193831666e+01    0.3580418    0.2542944 -27.88  0.001129694    1.808    0.447
       180 -11.8510      9.8851    127.7258   1.3782523534e+02   4.8184993168e+01    0.4249259    0.1979204  26.94  0.002240831    2.603    0.616
       181 -12.0334      7.7303    120.7626   1.3745560802e+02   4.9928435691e+01    0.5178853     0.245198  16.73  0.002698652    2.847    0.649
       182 -11.4185      2.4978    131.5939   1.4026354953e+02   4.7800941017e+01    0.5046023    0.2352136 -66.79  0.002735007    1.596    0.374
       183 -11.6580      2.1420    122.7704   1.3925295817e+02   4.9832283471e+01    0.6864346    0.1559708 -74.26  0.002169351    4.887    0.795
       184 -11.5740     67.3422    128.6018   1.2185572463e+02   4.2028423958e+01     0.403517    0.3443556  71.94  0.001931941    1.292    0.226
       185 -11.4479     33.1551    131.0189   1.3196109646e+02   4.5466533073e+01    0.4593908    0.1914137 -63.09  0.002081953    1.941    0.485
       186 -12.4986     68.6208    143.9848   1.2448464323e+02   3.8126980538e+01    0.7339555    0.5936295 -72.98  0.002273405    1.142    0.124
       187  -8.7681    106.3108    129.6419   1.1114645214e+02   3.5418228348e+01    0.1588965    0.1188987  87.69 0.0007042652    1.738    0.425
       188  -8.8687     80.4331    129.4968   1.1831891722e+02   3.9887092320e+01    0.1456219     0.132319 -64.67 0.0001556895    1.022    0.021
       189 -10.3784     59.2416    128.1893   1.2409051781e+02   4.3209541867e+01    0.2044933    0.1729885 -45.87 0.0005356767    1.160    0.138
       190  -9.9254     23.5363    127.0896   1.3400708824e+02   4.7266934939e+01    0.3005439     0.112551 -73.08 0.0008865343    2.705    0.630
       191 -10.4709    209.8865    125.7219   8.6192434634e+01   1.3708924558e+01    0.3015879    0.2361386 -46.63 0.0004915469    1.202    0.168
       192  -8.6411     87.9879    125.0239   1.1518184800e+02   3.9739581248e+01    0.1663499    0.1627954 -73.41 0.0009453677    1.056    0.053
       193 -11.5537     22.0258    121.3470   1.3353214117e+02   4.8729403036e+01    0.2825384    0.2315692  -2.16  0.001840585    1.556    0.357
       194  -9.8918     54.9101    120.7644   1.2386583003e+02   4.5516117706e+01    0.2573379    0.1953987 -15.63  0.001389567    1.675    0.403
       195 -11.6718     30.1551    119.3711   1.3086515369e+02   4.8482809431e+01    0.4021679    0.2287321  41.94  0.002130083    2.068    0.516
       196 -11.9778    247.6880    142.3938   8.3392731714e+01   2.8618867826e+00    0.6983166     0.624561 -88.65  0.004166005    1.331    0.249
       197 -10.5361     66.5153    115.2954   1.1924562186e+02   4.5286893003e+01    0.3775532     0.203647  36.38   0.00127375    2.031    0.508
       198 -11.8230      9.6844    112.8352   1.3573955183e+02   5.1596105269e+01    0.2701716     0.208235  59.80  0.001780801    1.564    0.361
       199 -11.2991     44.9028    131.2533   1.2872698082e+02   4.4190869792e+01    0.3990102    0.3296482 -78.57  0.002409355    1.140    0.123
       200 -10.6265    167.9829    113.1695   9.1586643177e+01   2.5842178384e+01    0.3757187    0.3021948 -85.43 0.0007725575    1.464    0.317
       201  -9.1810    203.4994    111.5013   8.3998409967e+01   1.7915766387e+01    0.1507348    0.1427372 -59.74 -0.000380573    1.025    0.024
       202  -9.0694     29.3182    109.3300   1.2930012405e+02   5.0869237453e+01    0.1346669   0.08029579 -39.03 0.0003550801    1.686    0.407
       203  -9.5002     44.6894    105.1890   1.2370544944e+02   5.0296565270e+01    0.1958651    0.1749056  44.17 0.0005066667    1.311    0.237
       204 -11.9914    248.9864    171.5486   8.9266087637e+01  -2.5282102351e+00    0.5944073    0.4899577  -3.59  0.003522874    1.251    0.201
       205 -11.2531     14.7697    103.9945   1.3277596806e+02   5.3230833647e+01    0.2588327    0.1589671  18.64  0.001525352    2.031    0.508
       206  -9.9789     17.1422     99.1603   1.3116557378e+02   5.4132716298e+01    0.1565215    0.1330114 -89.68 0.0003499397    1.331    0.249
       207 -12.7224    248.3213    114.4938   7.7305602844e+01   7.7440380389e+00     1.269555    0.8803074 -17.48  0.006198392    1.989    0.497
       208  -8.5605    184.5480     77.4791   7.8952343359e+01   2.8686490207e+01    0.1471386    0.1398962 -88.75 0.0001037578    1.037    0.036
       209 -11.6637    199.3753    246.2590   1.1248295268e+02  -6.5281491943e+00    0.4596905    0.2075761  42.16  0.002184813    2.003    0.501
       210 -10.4037    193.9391    245.0564   1.1333626557e+02  -5.4588837077e+00    0.1967858     0.178342 -12.40  0.000374368    1.181    0.154
       211 -11.1344    176.3133    242.4676   1.1637396682e+02  -2.0954643581e+00     0.339193    0.2532621  50.11  0.001518309    1.332    0.249
