#   1 NUMBER                 Running object number                                     
#   2 MAG_AUTO               Kron-like elliptical aperture magnitude                    [mag]
#   3 X_IMAGE                Object position along x                                    [pixel]
#   4 Y_IMAGE                Object position along y                                    [pixel]
#   5 X_WORLD                Barycenter position along world x axis                     [deg]
#   6 Y_WORLD                Barycenter position along world y axis                     [deg]
#   7 A_WORLD                Profile RMS along major axis (world units)                 [deg]
#   8 B_WORLD                Profile RMS along minor axis (world units)                 [deg]
#   9 THETA_WORLD            Position angle (CCW/world-x)                               [deg]
#  10 FWHM_WORLD             FWHM assuming a gaussian core                              [deg]
#  11 ELONGATION             A_IMAGE/B_IMAGE                                           
#  12 ELLIPTICITY            1 - B_IMAGE/A_IMAGE                                       
         1 -13.8592    193.9206     32.9856   5.5486744884e+01   3.2737219713e+01     2.122121     1.451823  16.17  0.008167735    1.920    0.479
         2 -13.7970    204.4850     20.3548   5.0196743618e+01   3.1500236671e+01     1.552753     1.141257  15.42  0.003844052    1.705    0.413
         3 -10.4430     58.8771      3.3803   7.6588974335e+01   6.6380995088e+01     0.226753    0.1500166 -43.82  0.001314402    1.943    0.485
         4 -10.6099     41.1654      2.5578   8.3212440293e+01   6.8885984341e+01    0.2152134    0.1388447  13.09  0.001359117    1.595    0.373
         5 -10.0811    199.6196    241.7355   1.0162140018e+02  -9.8919461417e-01    0.2002772    0.1451833  28.17 0.0009163999    1.263    0.208
         6 -11.1810    197.1208    249.9018   1.0309821935e+02  -1.5013441692e+00    0.7739699    0.2217518  41.47  0.003501225    2.674    0.626
         7 -11.0518    189.9302    246.5284   1.0382240055e+02   3.2502064745e-02    0.3878295    0.2693128 -11.96  0.002539329    2.165    0.538
         8 -10.8813    102.6993    250.1023   1.1812482254e+02   1.3092576006e+01    0.8423237    0.2102141  45.30  0.003890555    2.985    0.665
         9 -12.4736    120.6070    244.2444   1.1478180620e+02   1.1316132845e+01     1.340451     1.129003  26.58   0.01010446    1.706    0.414
        10 -11.7158    154.5398    196.4857   1.0304893192e+02   1.3125866866e+01    0.8852365    0.5638011 -76.62   0.00382948    2.411    0.585
        11 -11.5149     96.8292    228.1594   1.1713196180e+02   1.7293512456e+01    0.7646276    0.4007452  48.86  0.004728116    1.530    0.346
        12 -12.9052    101.8873    217.2536   1.1521427317e+02   1.8348812200e+01    0.5388894     0.425606  87.59  0.002031127    1.213    0.176
        13 -13.3481    144.4434    207.1374   1.0643665219e+02   1.3160856995e+01     1.222601     1.046338 -18.27  0.007790165    1.684    0.406
        14 -12.6134    128.5430    204.5050   1.0899336594e+02   1.6297078948e+01    0.9838531    0.4178165  57.60  0.003498239    2.564    0.610
        15  -9.1451     81.2878    250.2027   1.2139721101e+02   1.6023805086e+01    0.2246811   0.09962208  52.88   0.00142166    1.643    0.391
        16 -15.2433     53.3581    205.0283   1.2244180405e+02   2.7078321776e+01     3.846494     2.098532 -77.69   0.02498575    1.663    0.399
        17 -11.4386    107.0628    226.4472   1.1526123216e+02   1.6063643650e+01    0.3651216    0.2806268  53.44  0.001208448    1.166    0.142
        18 -10.7439    163.5869    225.2829   1.0546744839e+02   7.1266343171e+00    0.2088869    0.1285691  32.37  0.001196567    1.737    0.424
        19 -17.2032      8.6540    236.0196   1.3114028158e+02   2.6601271122e+01     8.007946     1.459278 -76.44    0.0385066    4.518    0.779
        20 -10.6886    184.2792    214.7979   1.0039899974e+02   5.0088587486e+00    0.3274658    0.1574061 -40.03  0.001669385    2.578    0.612
        21 -13.0141    144.7976    194.8377   1.0463736859e+02   1.5147881330e+01     1.328504    0.8763686  86.93  0.006847154    2.175    0.540
        22  -9.1417    171.0108    206.8100   1.0156833142e+02   8.5263021018e+00       0.2036    0.1569586 -68.41 0.0008391515    1.686    0.407
        23 -12.9340    114.6293    231.0992   1.1446238128e+02   1.4187079680e+01    0.8777979    0.4441092  41.74  0.003745257    1.809    0.447
        24 -11.4827    193.5651    193.8832   9.5396408779e+01   6.3121695476e+00    0.7550202    0.5083754 -65.76  0.003838833    2.427    0.588
        25  -9.5960     81.4065    195.8174   1.1664239795e+02   2.5130149130e+01    0.2871875    0.2462113 -31.03  0.001936817    1.984    0.496
        26  -8.8204    180.1451    192.4102   9.7617638550e+01   9.0545251111e+00    0.1931044    0.1092706  54.30 0.0009163691    1.755    0.430
        27 -10.4051    165.5096    235.4760   1.0644325565e+02   5.4057609904e+00    0.3022792   0.09021053  41.42  0.001272844    2.859    0.650
        28  -9.1185     84.4278    234.2882   1.1968194646e+02   1.8053513294e+01    0.1623205   0.09425792 -65.33  0.001086724    1.940    0.484
        29  -9.6366    211.4895    178.9671   8.9438375901e+01   5.0907436108e+00    0.1897912    0.1310164 -36.00  0.001030484    1.599    0.375
        30 -10.4208    207.7652    183.9982   9.1055554686e+01   5.0718320885e+00    0.2574008    0.1992232 -36.99  0.001258617    1.461    0.315
        31 -11.8208     91.9963    157.8083   1.0981228446e+02   3.1123380255e+01     0.674381    0.4136309 -42.76  0.002160341    2.200    0.545
        32 -14.0068     67.9851    144.2025   1.1311093467e+02   3.7412973672e+01     2.308957     1.061937 -85.34  0.005092775    3.439    0.709
        33 -11.2958     77.5767    174.9373   1.1505634187e+02   2.9707138446e+01    0.3030655    0.2382316 -53.36 0.0009014598    1.573    0.364
        34  -8.9327     99.2613    180.7426   1.1148814742e+02   2.5375861172e+01    0.1493398    0.1447969  75.17   0.00070917    1.312    0.238
        35 -13.1202    127.3440    213.7099   1.1035445087e+02   1.4957901598e+01     1.002661    0.6820765 -33.69  0.005712637    2.514    0.602
        36  -9.3020     59.0401    176.8429   1.1888749969e+02   3.1753328110e+01    0.1758375    0.1392187  80.21 0.0005523482    1.027    0.026
        37  -9.1544    197.0162    175.9649   9.1539961147e+01   8.3741721188e+00    0.2067261    0.1653904  82.02 0.0005700794    1.749    0.428
        38 -11.4619     73.3939    180.4962   1.1650862992e+02   2.9173832881e+01    0.3462943    0.2408362 -48.91  0.002118437    1.935    0.483
        39 -12.8031     31.5771    206.2083   1.2615131756e+02   2.9333375327e+01    0.6549348    0.2275311  58.76  0.001531453    2.455    0.593
        40  -9.6565    195.9099    170.3546   9.0675845833e+01   9.4832269705e+00    0.2926348    0.2288621  34.49   0.00115539    1.185    0.156
        41 -10.3842    193.9858    164.9993   8.9992263202e+01   1.0741772993e+01    0.4513729    0.2747529 -56.69   0.00204802    2.284    0.562
        42  -9.5712    137.4995    170.5018   1.0226788034e+02   2.0864110449e+01     0.134251    0.1205611  63.63 0.0008106448    1.016    0.015
        43  -9.1695    140.1498    156.8946   9.9333260352e+01   2.2998813645e+01    0.2132189    0.1744062  80.71 0.0006163992    1.300    0.231
        44 -13.3286     83.2719    166.9185   1.1291004970e+02   3.0528592844e+01     1.498714    0.7177289  46.40  0.007611458    1.974    0.493
        45  -9.6440    188.5078    154.5169   8.8927500663e+01   1.3642227287e+01    0.3099082    0.1321506  46.80  0.001215576    2.185    0.542
        46 -10.0555    134.1599    147.2143   9.8804944344e+01   2.6077819931e+01    0.5224646    0.1923173 -56.84  0.001807746    3.309    0.698
        47 -10.4481    133.6079    141.8189   9.7871630790e+01   2.7286336451e+01    0.5306094    0.2274528 -59.81  0.001910266    3.032    0.670
        48  -9.4066    175.1636    149.1894   9.0492423030e+01   1.7397319820e+01    0.1987192    0.1702776  80.01  0.000525659    1.344    0.256
        49  -9.2800    181.9840    233.4991   1.0342989365e+02   2.9189826368e+00    0.1681668   0.08506083  59.57 0.0008103716    2.562    0.610
        50 -11.8114    145.8369    230.3015   1.0912688938e+02   9.3675825074e+00    0.4748131    0.2276678  33.88  0.002312737    2.592    0.614
        51 -10.8387    104.7019    141.9147   1.0442011983e+02   3.2464466007e+01    0.5343493    0.3502401 -26.78  0.002370756    2.775    0.640
        52 -11.6168     92.4877    142.3599   1.0728296336e+02   3.4329200680e+01    0.2640987     0.235602 -56.46 0.0003974196    1.236    0.191
        53  -9.5790     76.9457    133.9290   1.0949433067e+02   3.8445666696e+01    0.2021267    0.1381086  79.25 0.0004448227    1.601    0.375
        54  -9.8482    113.2080    131.5976   1.0050640533e+02   3.3215798284e+01     0.286014    0.2520626   7.74  0.001017984    1.494    0.331
        55  -9.6356    105.9916    130.7825   1.0204999081e+02   3.4645071218e+01    0.3111695    0.2607206 -79.36  0.001394364    1.151    0.132
        56 -11.5056    118.4079    126.7620   9.8288085554e+01   3.3314948072e+01    0.6911991    0.3549571 -43.57  0.002945401    2.094    0.522
        57 -10.5749     73.4883    129.3201   1.0955822795e+02   3.9933181035e+01    0.3061098    0.2021901  70.42  0.001171582    1.697    0.411
        58 -10.3659    100.4875    128.0846   1.0284009083e+02   3.6153589073e+01    0.2768747    0.2300603 -38.48 0.0006638046    1.404    0.288
        59 -10.4730     45.4502    129.5048   1.1623949472e+02   4.3270868260e+01    0.2190547    0.1180867  35.11  0.001213593    2.174    0.540
        60  -9.5235    126.0127    127.9408   9.6744986428e+01   3.1639705406e+01     0.234544    0.1716622  86.74 0.0007334506    1.722    0.419
        61 -12.5509     33.3564    114.1625   1.1705275983e+02   4.7819835720e+01    0.9613589    0.1785645 -62.90  0.003577624    3.549    0.718
        62  -9.3440    110.1924    115.8334   9.7924799878e+01   3.7161063782e+01    0.2082019    0.1794474 -82.89 0.0005572789    1.178    0.151
        63 -15.8436      2.0069     23.4566   1.0883704738e+02   6.8775878468e+01     9.790644     1.043955 -60.43   0.02432185    9.958    0.900
        64  -9.5602    134.4340    102.6633   8.8768552945e+01   3.5276471547e+01    0.3628023    0.1432692 -42.67  0.001194292    2.519    0.603
        65 -10.5135    119.8820    111.3510   9.4496701717e+01   3.6344266470e+01    0.2596974    0.1982143 -63.45  0.001151242    1.340    0.254
        66 -13.2329     73.7495    160.9315   1.1411215697e+02   3.3095697515e+01     0.587034    0.5595174  63.82  0.001289525    1.317    0.241
        67  -9.2062    205.7305    109.9811   7.5226491381e+01   1.7578512656e+01    0.2626526    0.2178012  49.47 0.0006268447    1.211    0.174
        68  -9.0749    167.8640    112.5825   8.3597098152e+01   2.5943701180e+01    0.3052682    0.1976969 -59.12  0.001288291    1.902    0.474
        69 -10.2687    135.1291    121.7116   9.3231317892e+01   3.1163587404e+01    0.5151644   0.09400842 -49.76  0.001193552    6.208    0.839
        70  -9.2250    109.0432    120.0155   9.9117900059e+01   3.6455826418e+01    0.2041995    0.1910587 -74.17 0.0003095398    1.025    0.025
        71  -9.6976     24.7407     82.5284   1.1439940319e+02   5.5430653356e+01    0.1643216    0.1200309  13.46 0.0004045615    1.862    0.463
        72  -8.6520    183.5233     77.6331   7.0769261574e+01   2.8632398631e+01    0.3255245     0.111552  43.39 0.0009538667    3.417    0.707
        73  -9.0364     63.5122     69.9577   9.9721020238e+01   5.4229943550e+01    0.2020249    0.1113873 -52.58 0.0006543113    1.548    0.354
        74 -10.2559    159.5490     61.2732   7.0810693200e+01   3.7408227112e+01    0.3639728    0.2790292 -77.97 0.0007894367    1.723    0.420
        75  -9.4387    116.7959     56.5727   7.9701704961e+01   4.7982647177e+01    0.2009968    0.1420373  60.85 0.0009542832    1.723    0.420
        76  -9.5703    161.4462     54.8160   6.8340597783e+01   3.7998026406e+01    0.2729405    0.2295997 -73.38  0.000496367    1.404    0.288
        77 -12.6022    184.6290     40.3181   5.9269094713e+01   3.4200342090e+01    0.9738077    0.5969064  41.26  0.002145035    1.747    0.428
        78  -8.7108    174.0265    248.4961   1.0663321002e+02   2.3616726443e+00    0.1794308   0.08479742  45.09  0.001029064    1.578    0.366
        79  -9.0026     77.9742    243.5987   1.2141623210e+02   1.7463184745e+01    0.1433381   0.09576409  58.49  0.001077981    1.118    0.105
        80  -8.6331    150.8023     23.1121   5.9782242039e+01   4.5168730101e+01    0.2177051    0.1916383 -65.25 0.0007991354    1.305    0.234
        81  -9.6529    189.5403     15.0318   5.0619975926e+01   3.6037516403e+01    0.2122644    0.1438338 -22.58 0.0005565285    1.567    0.362
        82 -11.6515    135.8125    236.8040   1.1154421802e+02   1.0039953227e+01    0.4202347     0.172021  47.60  0.002228054    1.880    0.468
        83 -10.1525     92.9918    235.9476   1.1845157423e+02   1.6601723425e+01    0.1633233    0.1225945  73.68  0.000349719    1.118    0.105
        84 -10.9143    139.8158    241.3875   1.1138222319e+02   8.7568293590e+00    0.3952562    0.1822259  41.12  0.002187823    1.882    0.469
