#   1 NUMBER                 Running object number                                     
#   2 MAG_AUTO               Kron-like elliptical aperture magnitude                    [mag]
#   3 X_IMAGE                Object position along x                                    [pixel]
#   4 Y_IMAGE                Object position along y                                    [pixel]
#   5 X_WORLD                Barycenter position along world x axis                     [deg]
#   6 Y_WORLD                Barycenter position along world y axis                     [deg]
#   7 A_WORLD                Profile RMS along major axis (world units)                 [deg]
#   8 B_WORLD                Profile RMS along minor axis (world units)                 [deg]
#   9 THETA_WORLD            Position angle (CCW/world-x)                               [deg]
#  10 FWHM_WORLD             FWHM assuming a gaussian core                              [deg]
#  11 ELONGATION             A_IMAGE/B_IMAGE                                           
#  12 ELLIPTICITY            1 - B_IMAGE/A_IMAGE                                       
         1 -14.4132     10.9055     71.8453   8.5808640117e+01   6.2067568440e+01     2.512011     1.514037  -8.95   0.01254746    1.634    0.388
         2 -14.2796     42.8128     75.3364   7.0919695333e+01   5.7767693103e+01     1.932647     1.123089 -24.65  0.008416675    2.142    0.533
         3 -10.2541     31.0263     21.2213   5.7091975782e+01   6.8879472033e+01    0.7873625    0.4779768 -25.56  0.004464527    1.904    0.475
         4 -12.0835     77.1729      5.7928   3.3462425576e+01   6.1412781454e+01    0.7707586    0.4527478  72.82   0.00429623    1.650    0.394
         5 -13.6008     92.1626     66.1611   4.9406920902e+01   5.0505938381e+01     1.898259     1.188191 -67.06  0.008221805    2.557    0.609
         6 -13.2333     58.0441     34.5213   5.0378387690e+01   6.2281042946e+01     2.688651     0.943443  43.96   0.01097648    2.366    0.577
         7 -13.8257     12.3752     36.0284   7.4107769953e+01   6.9110611508e+01     1.800711     1.471304 -45.51   0.01165794    1.470    0.320
         8 -13.3399     70.6348     23.1774   4.1694454375e+01   6.1122156021e+01     1.161525    0.7422712  86.65  0.001079533    2.760    0.638
         9 -12.2361     79.2058     21.2152   3.8471457025e+01   5.9497109755e+01     1.421294    0.8271686 -83.65   0.00574332    3.846    0.740
        10 -12.6826     58.2228      5.6063   3.8754745969e+01   6.5478696496e+01     1.352316    0.7935246  55.53  0.007890348    1.345    0.256
        11 -13.6752     37.4754     56.3275   6.7471593648e+01   6.2299235086e+01     1.371101    0.9114443  19.50  0.004054667    1.382    0.276
        12 -13.2148     49.9685     49.5055   5.9276466893e+01   6.1505972097e+01     1.140185    0.5992133 -27.44  0.004722892    2.549    0.608
        13 -10.6832    233.8491     25.0413   1.8809276056e+01   2.7402703892e+01     0.321389    0.2759295  16.68  0.002026177    2.492    0.599
        14 -14.1717    243.7348      8.7979   1.5701458262e+01   2.7569424474e+01    0.9569548    0.3943861 -80.41  0.006016238    2.337    0.572
        15  -8.9835    222.6795     10.3477   1.7066060129e+01   3.0847278362e+01     0.792789    0.4123501  78.40  0.005571114    1.752    0.429
        16 -12.8133    226.7982     21.3251   1.8641738821e+01   2.8979450340e+01    0.5352911     0.399565 -24.93  0.002769233    2.184    0.542
        17 -12.4219    219.1701     29.2438   2.0502880485e+01   2.9385516421e+01    0.7686108    0.3462198  89.61  0.003726293    2.392    0.582
        18 -11.7649    210.4211     21.1003   1.9705127560e+01   3.1838316211e+01    0.3830569    0.2509633  56.59  0.002669788    2.026    0.506
        19 -13.9076    220.7921     38.2073   2.1936180389e+01   2.8050962791e+01    0.5255808    0.3242824 -67.17 0.0009560096    1.316    0.240
        20 -12.1220    180.7088     50.9339   2.8249087078e+01   3.3832092588e+01    0.7835596    0.5145193 -43.40  0.004842613    1.527    0.345
        21 -13.5433    189.9377     57.2476   2.8451732291e+01   3.1187425582e+01    0.8969221    0.6132095 -39.93  0.005653684    1.554    0.356
        22 -13.3623    189.3509     35.2469   2.4127623456e+01   3.4128311461e+01     1.198885     0.681466 -52.64  0.007467152    1.549    0.354
        23 -10.6306    201.7241     19.3345   2.0024253530e+01   3.3609625190e+01    0.4582078     0.294081  80.56  0.003267293    1.382    0.276
        24 -12.0228    190.1408     22.9694   2.1645047629e+01   3.5392164532e+01    0.5598881      0.35236  51.00  0.003534315    2.185    0.542
        25 -12.2944    161.3565     37.9062   2.7818056516e+01   3.9450023520e+01    0.8430935    0.6388995  55.83   0.00482071    1.462    0.316
        26 -13.5836    234.7615     47.7624   2.2482433995e+01   2.4566125797e+01    0.7331369    0.5596474 -46.45  0.001564174    1.374    0.272
        27 -11.7870    242.2000     22.8069   1.7952292538e+01   2.6315764185e+01    0.3128884    0.2477007  65.98  0.001113837    1.749    0.428
        28 -10.3879    139.0016     16.2636   2.5571501687e+01   4.6677058409e+01    0.2382583    0.1608353 -57.10 0.0008622642    1.505    0.336
        29 -11.6240    160.0350     14.9730   2.2825288402e+01   4.2298131130e+01    0.2212764    0.1446953 -49.91 0.0004676126    1.515    0.340
        30 -11.1816    150.0913     13.2467   2.3504490878e+01   4.4576193905e+01    0.4192597    0.1836434  72.47 0.0005981901    1.899    0.474
        31 -11.0292     40.7668     21.2783   5.2320166799e+01   6.7217460574e+01     1.039373     0.655823  -1.12  0.005524925    2.149    0.535
        32 -10.4700    187.5012     13.2989   1.9982600328e+01   3.6935138679e+01    0.2359053    0.1138448 -66.77   0.00103208    1.919    0.479
        33 -12.1990     53.8024     21.4054   4.6857960867e+01   6.4759809213e+01     1.061553    0.6906421  70.28  0.005431182    2.292    0.564
        34 -11.9057    173.1451      6.6195   1.9814477132e+01   4.0433585904e+01    0.2981505    0.2030671 -25.53  0.001401277    2.084    0.520
        35 -10.5746    131.2660     11.3767   2.5350737526e+01   4.8854022252e+01    0.3485159    0.2200095 -83.25  0.001564607    1.542    0.351
        36 -11.0785    123.5287     11.1059   2.6357566571e+01   5.0596074743e+01    0.2942153    0.2136747  23.15  0.001793277    2.111    0.526
        37 -12.2744    116.4157      8.7041   2.6756722385e+01   5.2403901325e+01    0.4978974    0.3233491 -10.81  0.002329577    2.397    0.583
        38 -10.2319    110.3597      9.0167   2.7811410904e+01   5.3733520095e+01     0.276545    0.1046458 -34.15  0.001326176    2.985    0.665
        39 -10.1714    112.1435      4.1421   2.6113118547e+01   5.3755382325e+01    0.2423734    0.1339281  67.37 0.0008594997    1.406    0.289
        40 -11.4006     94.0904     11.7295   3.1671267611e+01   5.7140608500e+01     0.213416    0.1568049  58.22 0.0002375272    1.120    0.107
        41  -9.7991     88.6945     11.9315   3.2903275252e+01   5.8326265881e+01    0.1523601    0.1470224 -88.98 0.0006869937    1.231    0.187
        42 -10.8444     27.4333      9.3838   5.3463733774e+01   7.0921214032e+01    0.2312151    0.1399179  35.95  0.001379546    1.290    0.225
        43 -10.7730    145.8505      6.9219   2.2484452024e+01   4.6089748503e+01    0.2874473    0.1772185 -51.94  0.001828733    1.631    0.387
        44 -10.9227    142.2627      2.2479   2.1755986752e+01   4.7281278686e+01     0.227051    0.1581361 -71.81 0.0005548379    1.314    0.239
        45  -9.9960     84.8600      8.5709   3.2625499793e+01   5.9479983913e+01    0.2818632    0.1597493 -21.69  0.001564383    2.354    0.575
        46 -11.3409     86.1999      1.7083   2.9979087001e+01   5.9753668364e+01    0.4592772    0.1239717  57.34  0.001960012    2.521    0.603
        47 -11.3964    193.6811      7.7125   1.8453304102e+01   3.6321792694e+01    0.2369517    0.1593905  75.44  0.001735069    1.390    0.281
        48 -10.6404      2.9419      6.2299   6.7486218527e+01   7.4759039755e+01    0.2543169    0.1408368  17.67  0.001026238    1.474    0.322
        49  -9.8312    210.4857      6.5361   1.7140500534e+01   3.3358474085e+01    0.1030774   0.07480747 -74.91 0.0005290755    1.027    0.026
        50  -9.6000    160.2121      6.1385   2.0854941304e+01   4.3125018211e+01    0.1511074   0.09886695 -82.36 0.0005016611    1.270    0.213
        51  -9.6124    101.3299      4.8745   2.8110097812e+01   5.6117533237e+01    0.2973818    0.2192927  60.62   0.00196215    1.143    0.125
        52 -11.0443    182.7747      2.7093   1.8278498481e+01   3.8901174900e+01    0.3611578     0.176429  87.32  0.002200449    1.742    0.426
        53 -10.5940    217.6018      2.4582   1.6034446499e+01   3.2515531460e+01    0.1890481    0.1521909  77.82  0.001608488    1.473    0.321
        54 -11.0273    231.8507      1.6417   1.5167519230e+01   3.0196053892e+01    0.2727705    0.1044648  83.52  0.001290175    2.384    0.580
        55  -9.5884    135.4794      2.9506   2.2682699335e+01   4.8690869109e+01    0.1636249   0.07092391 -56.54 0.0008094923    2.562    0.610
        56  -9.5135    207.4592      2.5375   1.6624721851e+01   3.4295532089e+01    0.1007526   0.07590939 -78.16 2.283596e-05    1.095    0.087
        57  -9.5937    122.6604      2.2183   2.4079644282e+01   5.1573212944e+01    0.1287446    0.1136631  -6.56 0.0003559262    1.607    0.378
        58 -11.4073     48.6854      1.5013   4.0261146067e+01   6.7778741428e+01    0.4363234   0.09789323  53.21  0.001406941    3.101    0.677
        59 -10.1715    250.3694      1.4095   1.4290779701e+01   2.7292204143e+01    0.1116658   0.06306253 -76.88  0.000305679    1.342    0.255
        60  -9.4353    223.3098    124.9681   3.7040942549e+01   1.5094167614e+01    0.1667388   0.09285568 -52.98 0.0008836919    1.595    0.373
        61 -10.3820    220.1069    123.5694   3.7218768389e+01   1.5793166386e+01    0.3302437    0.1663921 -45.30  0.001659012    1.624    0.384
        62  -9.9147    152.9033    124.1432   4.8787033847e+01   2.7068373821e+01    0.1991036    0.1800928 -77.47 0.0002749727    1.165    0.142
        63 -10.1783     57.5025    120.0772   7.6101172754e+01   4.5238092023e+01    0.2279482    0.1495223 -53.95 0.0007153048    1.538    0.350
        64  -9.8288    141.0218    119.7620   5.0457684384e+01   3.0218869294e+01    0.1855498    0.1199299  45.43 0.0004652886    1.573    0.364
        65 -12.1784     24.7453     43.1719   6.9477119350e+01   6.6414114861e+01    0.7768784    0.3937049  28.03  0.003678659    1.716    0.417
        66 -12.1059     26.2412     35.8825   6.5867760929e+01   6.7441566916e+01    0.3093292    0.2328004   5.95 0.0008692676    1.183    0.155
        67 -12.3701     55.1934     71.7125   6.4400032410e+01   5.6586179729e+01    0.5188892    0.3647847 -53.60 0.0003363676    1.670    0.401
        68  -9.7191    167.0129    117.7416   4.4571964510e+01   2.5684068513e+01    0.1633589    0.1170803  49.94 0.0003355446    1.485    0.327
        69 -10.3165    204.1672    116.1367   3.8076629420e+01   1.9507936427e+01     0.273367    0.1588275  71.64  0.001300213    2.667    0.625
        70 -10.1772     90.7002    115.7270   6.3345008432e+01   4.0797099155e+01    0.2103664    0.1811848  68.24  0.001051649    1.345    0.256
        71 -10.1775     88.2868    114.3399   6.3794156174e+01   4.1558511502e+01    0.2826301    0.2198104   0.88 0.0009408445    1.539    0.350
        72 -12.7299     59.2650     61.0397   5.9310315805e+01   5.7883846001e+01     1.078516     0.824322 -75.29  0.005483143    2.061    0.515
        73 -10.5242    181.1900    115.3775   4.1534749575e+01   2.3549184984e+01    0.1757905    0.1218541  64.20 0.0009490639    1.682    0.406
        74 -12.9996     79.2862     59.3147   5.1361348378e+01   5.4320623512e+01     0.765793    0.4645926  40.31  0.003738584    1.491    0.329
        75 -13.5787     79.6047     50.3835   4.8360353803e+01   5.5663474621e+01     1.127275    0.5951888  35.28  0.005034194    2.035    0.509
        76 -13.3933     80.0099     40.9856   4.5093859773e+01   5.6926798605e+01     1.056842    0.3451943  45.62  0.004011179    2.669    0.625
        77 -10.5100    206.4695     94.4582   3.3669095731e+01   2.2679094700e+01    0.2325637   0.08793116 -51.93  0.001030434    2.497    0.600
        78 -12.1903    106.3171     97.2228   5.3911307737e+01   4.1773836772e+01    0.3886158    0.2910686 -26.84 0.0006140944    1.603    0.376
        79  -9.8797    249.8726     93.4429   2.8697770684e+01   1.6146548238e+01    0.1718145    0.1017233  68.85  0.001152388    2.126    0.530
        80 -10.6770    227.8936     92.0548   3.0695094702e+01   1.9575443140e+01    0.2306475    0.1355883  53.72   0.00144032    2.082    0.520
        81 -10.6650    172.8459     91.2595   3.7904460116e+01   2.9306110814e+01    0.2867886    0.2025572 -88.31  0.001277257    1.682    0.406
        82 -10.1677    167.6700     90.0394   3.8502356022e+01   3.0520174813e+01    0.2644244    0.1771933  74.37  0.001065661    1.702    0.412
        83 -11.5344     96.4391     90.8797   5.5150563313e+01   4.5052499711e+01    0.5320012    0.3672775  56.93  0.002468709    1.565    0.361
        84 -11.1449     79.8035     90.8867   6.0585565479e+01   4.8300715220e+01    0.2436947    0.2137386  19.60 0.0003632398    1.120    0.107
        85 -10.2131     22.3230     91.3014   8.4619771756e+01   5.6580418485e+01    0.1534579    0.0953795 -26.21 0.0005013397    1.632    0.387
        86 -13.6141    195.1281     85.7458   3.3474996168e+01   2.6032638634e+01    0.5747746    0.5132926  53.88  0.002933149    1.360    0.264
        87 -12.3241    188.5621     81.9062   3.3598163397e+01   2.7835036781e+01    0.3203381    0.2698349   0.13  0.000389822    1.877    0.467
        88 -12.4588    192.6725     75.8684   3.1839779376e+01   2.7996242381e+01    0.3470779    0.2392272  51.25  0.001707085    1.719    0.418
        89 -11.5269    203.5197     79.6877   3.1232269262e+01   2.5464002939e+01    0.2415278    0.1836275  61.44 0.0009619109    1.465    0.318
        90 -12.7577    199.5592     76.2298   3.1048244288e+01   2.6685815038e+01    0.4812953    0.2306169  63.43  0.001308337    2.242    0.554
        91  -9.6399     85.9883     90.5072   5.8379243714e+01   4.7197748279e+01    0.2201558    0.1385502  40.91 0.0003541701    1.483    0.326
        92 -11.8540    222.9662     88.3824   3.0587730593e+01   2.0897834551e+01    0.3101534    0.1961242  63.40  0.002002148    1.810    0.447
        93 -10.7135    210.1753     88.8133   3.2147154509e+01   2.2931229878e+01     0.145646    0.1332371 -38.20 0.0004076063    1.322    0.244
        94 -11.9437    236.3589     86.0909   2.8788000585e+01   1.9157138998e+01    0.4574872    0.2463096  78.81  0.001489923    2.583    0.613
        95 -13.2881     81.0521     73.3012   5.5095411491e+01   5.1523001853e+01     2.005903     0.443274  45.11  0.003382083    4.195    0.762
        96 -11.0819    184.7289     86.6572   3.5107726946e+01   2.7799896907e+01    0.1650825    0.1454628 -58.43 0.0005926386    1.093    0.085
        97 -11.8312    175.7102     86.0602   3.6340476371e+01   2.9612052722e+01    0.4241486    0.2418197  43.41  0.001468147    2.215    0.549
        98 -12.2869    161.8528     84.6186   3.8300836548e+01   3.2586534780e+01     1.068777    0.4623414  42.99  0.004295184    3.059    0.673
        99 -12.0073    168.6447     80.1881   3.6190612134e+01   3.1947678704e+01     0.356923    0.2967937 -85.38  0.000726207    1.145    0.127
       100 -11.2775    167.4436     76.5476   3.5582988293e+01   3.2766424301e+01    0.2878969    0.1911753  53.59 0.0006677661    1.573    0.364
       101 -12.3467     49.9113     86.2825   7.0887778918e+01   5.4375969681e+01    0.6257319    0.2438084  36.60  0.002334571    2.394    0.582
       102 -10.9754    249.7691     67.8110   2.4575603719e+01   1.9688631708e+01    0.3571981    0.1348174 -43.18  0.001397305    2.111    0.526
       103 -11.5550    249.8734     82.7273   2.6964198651e+01   1.7654290787e+01    0.3845548    0.1994363 -47.35  0.001730658    1.464    0.317
       104 -12.2257    249.7443     75.3639   2.5789095088e+01   1.8681773791e+01    0.2332841    0.1742833 -55.51 0.0002702424    1.074    0.069
       105 -12.7674    215.1968     83.7589   3.0624123129e+01   2.2853959922e+01    0.4215452    0.3177012  78.26  0.002909523    1.414    0.293
       106 -11.7564    214.3558     77.1874   2.9515328620e+01   2.3963034040e+01    0.2542261    0.1541913 -46.34  0.001227092    1.421    0.297
       107 -11.5572    218.1346     75.6175   2.8822620499e+01   2.3555804531e+01    0.2148517    0.1692739  47.62  0.001497203    1.751    0.429
       108 -11.0332     83.5253     83.0359   5.7108928875e+01   4.9179431247e+01    0.3036577    0.2703315  34.99 0.0005167788    1.035    0.034
       109 -10.8362     55.2178     81.9590   6.7436610357e+01   5.4488571803e+01    0.2480349    0.1932749  28.42 0.0002684352    1.181    0.153
       110 -12.0682    222.1505     79.7792   2.9144573569e+01   2.2294180958e+01    0.3187795    0.2126291  82.43  0.002099302    1.664    0.399
       111 -11.6304     27.1055     81.2049   7.9937190058e+01   5.8456985333e+01    0.4661015    0.1655473  28.01  0.001482067    2.542    0.607
       112 -12.1677    176.8108     70.4788   3.2868762337e+01   3.1835091678e+01    0.6134759    0.3139531 -65.14  0.001317528    2.461    0.594
       113 -10.9664    225.8263     76.4097   2.8170545701e+01   2.2183068299e+01    0.2410528    0.1076513 -54.61  0.001315174    1.948    0.487
       114 -10.8175    155.3668     76.5721   3.7601033957e+01   3.5229352531e+01    0.3132074    0.2178712  72.17 0.0009462308    1.469    0.319
       115 -10.4746    104.0519     75.4837   4.8684520166e+01   4.6374380838e+01    0.3190719    0.2036694  39.50 0.0009041043    1.566    0.361
       116 -10.1559    106.0000     71.9493   4.7162708512e+01   4.6573108477e+01     0.324439    0.1688534 -54.50  0.001065255    2.417    0.586
       117 -13.5674    242.1147     62.2815   2.4298568090e+01   2.1558601938e+01     1.262461    0.7672045  54.90  0.008431908    2.226    0.551
       118 -10.4304    240.8839     47.8265   2.2035353138e+01   2.3591362928e+01    0.1773831    0.1211401 -66.44 0.0002827279    1.112    0.101
       119 -10.8102    139.0079    111.9913   4.9152729071e+01   3.2181700310e+01     0.224287     0.180123  -2.86 0.0007177865    1.680    0.405
       120 -11.0669     96.7147    110.2289   6.0088095569e+01   4.0912157729e+01    0.3865787    0.2160272 -35.64  0.001540173    2.145    0.534
       121 -10.4549     63.3075    110.3304   7.1659387662e+01   4.6769255392e+01    0.1604845    0.1141961 -18.16 0.0007039444    1.662    0.398
       122 -11.2412    196.1987    107.9598   3.7677581192e+01   2.2222644650e+01    0.3940371    0.2541166 -78.11  0.002044564    2.142    0.533
       123 -11.3402    161.6426    106.8094   4.3247876403e+01   2.8736135043e+01    0.2526658    0.1664134 -53.27  0.001176495    1.478    0.324
       124 -10.5108    210.5038    105.4643   3.5203149799e+01   2.0248668161e+01    0.2279643    0.1994982  83.85 0.0008903397    1.240    0.193
       125 -11.0172    216.8791     20.8413   1.9209710442e+01   3.0727533011e+01    0.2068905    0.1635243 -44.72 0.0005532244    1.484    0.326
       126 -10.8865    183.9123    104.1679   3.8809209956e+01   2.5036007306e+01    0.4490473    0.1946004 -49.37  0.002017383    2.140    0.533
       127 -11.9084    229.2299     40.6268   2.1706148005e+01   2.6342258669e+01    0.3409137    0.1916535 -54.21  0.002218435    1.379    0.275
       128  -9.8437    243.1419     73.1165   2.5990254373e+01   1.9955892110e+01    0.1461443    0.1288021 -55.27  0.001202849    1.305    0.234
       129  -9.9134    151.1470     72.9302   3.7497655351e+01   3.6691745718e+01    0.1951209    0.1578036 -71.89 0.0004446497    1.215    0.177
       130 -13.0456    221.0791     69.7851   2.7474779771e+01   2.3891926424e+01    0.6582415     0.343146  75.08  0.003830491    2.232    0.552
       131 -10.2997    179.9555     99.5212   3.8489084180e+01   2.6559294428e+01    0.2292268    0.1616422 -56.59 0.0006942443    1.325    0.245
       132 -11.7008    155.8121    105.1649   4.4017006396e+01   3.0174400081e+01     0.292505    0.1805516 -56.38  0.001412634    1.688    0.407
       133 -10.3832     15.4791    106.4707   9.0739457785e+01   5.3395977672e+01    0.1443719    0.1296827 -28.26 0.0001151078    1.006    0.006
       134 -11.3548    144.9588    102.8491   4.5722919419e+01   3.2766922780e+01    0.3585574    0.2870568   6.88  0.001856326    1.769    0.435
       135 -12.9040    195.6780     68.4827   3.0005376386e+01   2.8528903419e+01    0.6687179     0.290264  64.94  0.002042634    2.438    0.590
       136 -10.9727    109.7257    103.5929   5.4572364334e+01   3.9778516790e+01    0.2750271    0.1832877 -35.99  0.001256786    1.683    0.406
       137 -13.1207    118.6331     96.4025   5.0352440539e+01   3.9406210190e+01      0.95109    0.4708378 -60.90  0.003425007    3.073    0.675
       138 -12.7354    203.7407     40.7692   2.3834658796e+01   3.0753034069e+01     1.160615    0.4922846 -73.65  0.005161766    3.452    0.710
       139 -13.8854    203.5553     61.8981   2.7838033692e+01   2.8021924342e+01    0.9504218    0.5482358 -45.73  0.004592214    1.549    0.355
       140 -13.7824    217.7197     58.4021   2.5766922085e+01   2.6011811170e+01     0.918695    0.6630678 -52.04  0.006592555    1.207    0.172
       141 -11.6560    209.6213     58.5310   2.6576809052e+01   2.7399793333e+01    0.2358097    0.1691094 -63.69 0.0002131318    1.137    0.121
       142 -12.0260    201.1298     31.4621   2.2323451659e+01   3.2352244522e+01    0.4078442    0.3300643 -86.40  0.001849507    1.144    0.126
       143 -12.3344    172.3478     44.8346   2.7970162319e+01   3.6306912299e+01     1.022866     0.483151  54.74  0.005257597    2.250    0.556
       144 -11.7908    175.6465     39.2526   2.6390221803e+01   3.6343099664e+01    0.5672104    0.2600881  51.93  0.001104555    2.624    0.619
       145 -11.5341    187.3223     71.6667   3.1687450951e+01   2.9626146216e+01    0.2788076    0.1724702 -71.94  0.001540709    1.764    0.433
       146 -11.2963    183.8033     68.8661   3.1576022414e+01   3.0712866383e+01    0.3347553    0.2096077  52.28  0.001056222    1.813    0.449
       147 -11.6595    181.8994     61.9425   3.0390432039e+01   3.2083369686e+01    0.5350483     0.257228 -66.59  0.002402337    2.770    0.639
       148 -10.0656    232.5548     78.6349   2.7891146865e+01   2.0803507939e+01    0.1946232     0.125306  73.74  0.001318765    1.750    0.429
       149 -10.4486    164.0245     70.7239   3.4830531626e+01   3.4364217666e+01     0.241191    0.1785263  59.07 0.0007945972    1.357    0.263
       150 -11.7890    167.1694     64.8419   3.3041370198e+01   3.4605309663e+01    0.4996403    0.4264257  83.15  0.003277622    1.081    0.075
       151 -10.3007    161.4797     66.5518   3.4291667356e+01   3.5519510470e+01    0.2400165    0.1219804 -39.84  0.000648707    2.042    0.510
       152 -11.3060    234.3792     37.2922   2.0778175980e+01   2.5902571044e+01     0.613187    0.2427555 -73.61  0.002504576    3.480    0.713
       153  -9.4085    238.4057    102.5098   3.1354781657e+01   1.6439866342e+01    0.1114213   0.08517785 -52.38 -3.015689e-05    1.028    0.027
       154 -11.8719    248.0720     56.3998   2.2884155595e+01   2.1418243393e+01    0.2496722    0.2081226 -61.46  0.002124395    1.244    0.196
       155 -11.8854    126.9207     59.0553   3.8681887038e+01   4.4059720989e+01    0.5125843    0.2672781  43.00  0.002311432    2.189    0.543
       156 -11.5850    162.1426     56.1296   3.1831535722e+01   3.6892189948e+01    0.4474564    0.3307726 -55.08   0.00275882    1.298    0.229
       157 -11.3451    173.9999     54.0734   2.9747428454e+01   3.4747307666e+01    0.3369408    0.1896934 -53.24  0.001114758    1.668    0.401
       158 -10.3189    170.0360     55.7612   3.0638534933e+01   3.5318089477e+01    0.2275204    0.1712897 -81.75  0.001427345    1.229    0.186
       159  -9.6846    105.4306     43.6882   3.9101726865e+01   5.1006291671e+01    0.2679373    0.2017266 -22.06 0.0008537934    1.722    0.419
       160 -11.1342    100.5561     53.9449   4.3381578175e+01   5.0638394930e+01    0.4918931    0.2511904  49.80  0.001677267    1.720    0.419
       161 -10.7893     99.3244     47.7385   4.1825726312e+01   5.1805737443e+01    0.4687042    0.2804126  31.49  0.001783102    2.232    0.552
       162 -11.0751    208.0707     52.9381   2.5693635772e+01   2.8419605388e+01     0.283038    0.1740505 -73.38  0.001792121    1.537    0.350
       163 -10.9313     27.9916     97.4229   8.3359025082e+01   5.4543311762e+01    0.3072604    0.1943977  89.81  0.001292374    2.488    0.598
       164 -11.3101     90.4774     51.0831   4.5271681057e+01   5.3253474968e+01    0.2335707    0.1826466  52.72 0.0003185073    1.118    0.106
       165  -9.8565    245.3636     50.1762   2.2088539097e+01   2.2609526300e+01    0.1444279   0.07897895 -46.65 0.0002053906    1.477    0.323
       166 -10.6867    248.1368     46.8575   2.1364873595e+01   2.2598400375e+01    0.2058649    0.1155484  87.38 0.0008521321    1.849    0.459
       167 -11.5980    246.9343     42.5085   2.0759755954e+01   2.3308364728e+01    0.5194794    0.1941596 -60.81  0.002900366    2.470    0.595
       168  -9.7305    133.7797     40.5939   3.2546906214e+01   4.5079258809e+01     0.607554    0.4510789 -72.43  0.003647009    1.388    0.280
       169 -11.1284    128.9561     46.1781   3.4870481647e+01   4.5424685311e+01    0.5768034    0.2737053  66.45   0.00264832    2.023    0.506
       170 -10.3864    125.5706     43.2358   3.4720768659e+01   4.6565356647e+01    0.2155033     0.208374  26.05 0.0007898053    1.288    0.224
       171  -9.2928    118.6994     48.6614   3.7579471963e+01   4.7372370755e+01    0.1293911    0.0985961  31.05 0.0007036113    1.665    0.399
       172 -10.8875    142.4879     46.3620   3.2553623778e+01   4.2418856754e+01    0.3306327    0.2152614  43.30  0.001788934    1.877    0.467
       173 -10.2997    150.4423     45.6337   3.1128414127e+01   4.0791247764e+01    0.2656561    0.1288954 -29.46  0.001216862    2.842    0.648
       174 -11.3639    148.8133     39.7658   2.9965612720e+01   4.1892283981e+01    0.5395551    0.3501637 -48.21  0.003178971    1.570    0.363
       175  -9.9753     94.2310     42.9519   4.1671703287e+01   5.3584783514e+01    0.3055552    0.1906937 -48.63  0.001581153    1.905    0.475
       176 -10.0120     90.8678     39.0534   4.1326386897e+01   5.4838924398e+01     0.189844    0.1594739  85.44 0.0004543872    1.324    0.245
       177 -10.4223     99.7844     40.9713   3.9636950799e+01   5.2620965699e+01    0.3055536    0.2276664  63.19  0.001507429    1.187    0.158
       178 -11.2499    241.2891     39.7346   2.0698943197e+01   2.4512743757e+01    0.2218455    0.1459754 -44.04 0.0004496443    1.477    0.323
       179  -9.5611    121.7364     45.5694   3.6101880704e+01   4.7113597345e+01    0.1759669    0.1132687  71.73 0.0003343713    1.493    0.330
       180 -10.0588    250.0747     38.3251   1.9900018065e+01   2.3330569355e+01    0.1555247     0.108266 -53.43 0.0006402924    1.207    0.171
       181 -10.2800    123.0297     34.3947   3.2790035040e+01   4.8236925869e+01    0.3800218     0.170919 -53.70  0.001678958    2.787    0.641
       182 -10.2079    113.9074     28.3471   3.2792927153e+01   5.0987636786e+01    0.2198367    0.1360532  38.57  0.001154122    1.993    0.498
       183 -10.8076    109.9916     36.0435   3.5820484727e+01   5.0963679656e+01     0.241758    0.1772782  46.89 0.0004269312    1.350    0.259
       184 -10.4033    112.6975     32.6686   3.4278116185e+01   5.0761671514e+01    0.2223551    0.1946407  62.71 0.0006061691    1.095    0.087
       185  99.0000    239.8666     30.8125   1.9361387880e+01   2.5782268687e+01    0.3188732    0.2527281 -88.90  0.002733501    1.302    0.232
       186 -10.3786    131.5164     33.6698   3.1124468693e+01   4.6429259539e+01    0.2526148    0.1578077 -71.55 0.0004685983    1.848    0.459
       187 -11.5040     92.5102     33.3217   3.9045984334e+01   5.5197628367e+01     0.278381    0.2514158  12.11 0.0008344352    1.331    0.249
       188 -10.4972     74.9968     33.4871   4.4061179589e+01   5.8972720958e+01    0.2940665    0.1938328  51.66 0.0009225438    1.270    0.213
       189 -10.4392    247.1961     32.8304   1.9223744500e+01   2.4408604344e+01    0.1450363   0.08934985 -63.78 0.0003240125    1.180    0.153
       190 -11.7287    198.6664     25.9462   2.1495419818e+01   3.3444450804e+01    0.3107297    0.2517802 -76.10  0.001053288    1.110    0.099
       191 -12.8533    198.3043     48.7386   2.5870161133e+01   3.0746614353e+01    0.4972168    0.4482361 -89.65  0.002752113    1.258    0.205
       192 -10.2042    104.8495     29.7062   3.5029198482e+01   5.2870453423e+01    0.2202439    0.1847261 -56.86  0.001007742    1.352    0.260
       193 -11.9290     86.2003     28.2146   3.9000254368e+01   5.7192455877e+01     0.276639    0.2075359  61.74 0.0004774976    1.155    0.134
       194 -10.1552    149.6529     27.6870   2.6962875084e+01   4.3144811922e+01    0.2331185    0.1808808  52.95  0.001382967    1.467    0.318
       195 -11.2126    146.8042     25.4374   2.6797868888e+01   4.4011088797e+01    0.3192281      0.22467  56.27  0.001235974    1.469    0.319
       196 -11.4789    150.7880     22.2619   2.5536786801e+01   4.3497554202e+01    0.3114301     0.253377  77.57  0.001076603    1.116    0.104
       197 -10.6256    123.6436     26.7563   3.0594165673e+01   4.8978519721e+01     0.299171    0.2245726 -42.62  0.001881322    1.517    0.341
       198 -10.4812    176.2826     24.1433   2.3155864847e+01   3.7986485470e+01    0.2898968    0.1797658 -41.54  0.001251074    1.680    0.405
       199  -9.4375    180.0204     20.2209   2.1995940773e+01   3.7669350349e+01    0.1689972    0.1598655 -20.03   0.00068508    1.594    0.373
       200 -10.2965    160.0729     25.4401   2.5163664714e+01   4.1177152515e+01    0.2322003    0.1713764 -23.62  0.001396637    1.920    0.479
       201 -10.4386    136.4377     25.2867   2.8195662750e+01   4.6294610541e+01    0.3201412    0.1600886 -79.51  0.001409431    2.874    0.652
       202  -9.8340    137.9750     21.7064   2.7071511501e+01   4.6341436637e+01    0.1794014    0.1396679  66.76 0.0003328644    1.183    0.155
       203  -8.9577    167.3152     25.6983   2.4411019728e+01   3.9639666438e+01    0.1217439   0.07250314 -73.10  0.000296746    1.616    0.381
       204 -10.4735    246.6327     23.2722   1.7773307005e+01   2.5574182641e+01    0.1884032    0.1130811 -69.41 0.0006675083    1.250    0.200
       205  -9.2213     89.6429    108.3322   6.1863724387e+01   4.2672443208e+01    0.1591874    0.1194424  71.39 0.0007043062    1.794    0.443
       206  -9.1448     98.1609     21.9162   3.4065454752e+01   5.5227380859e+01    0.3526609    0.1826239  53.69  0.001173255    1.596    0.374
       207  -8.8922    103.0000     23.0428   3.3388104661e+01   5.4022121246e+01    0.2122594    0.1565547 -36.52 0.0006827491    1.623    0.384
       208  -9.7695    103.4065     19.4886   3.2215763114e+01   5.4299929638e+01     0.195907    0.1340174  67.78  0.000471216    1.207    0.171
       209 -10.1608    163.2815     20.9834   2.3813853123e+01   4.0992298051e+01    0.1538696    0.1335071  81.54 0.0004460453    1.206    0.171
       210 -11.2899    130.3521     19.4925   2.7591817219e+01   4.8256662222e+01    0.2443078    0.1945074  71.19 0.0005949273    1.093    0.085
       211  -9.9323    157.6700     19.7443   2.4150869706e+01   4.2300769820e+01    0.2227877    0.1154132  61.87  0.001261536    1.765    0.433
       212  -9.7603     20.0350     19.2627   6.2379026297e+01   7.0805029333e+01    0.1756267    0.1260509  25.69 0.0008444351    1.139    0.122
       213 -10.8951    164.9606    101.6115   4.1498260691e+01   2.9038099676e+01    0.2565797    0.1841639 -55.34 0.0006359642    1.340    0.254
       214 -10.4110    112.1490     17.1761   2.9883860586e+01   5.2564141414e+01    0.2049062    0.1664146  82.83 0.0004334406    1.104    0.094
       215 -12.8346     86.1240     98.8713   6.0586618685e+01   4.5412873497e+01    0.7340512    0.3900424  32.33   0.00245113    1.932    0.482
       216 -10.3378    153.6688     16.3091   2.3813893336e+01   4.3505439112e+01    0.2176584    0.1785356  69.00   0.00111005    1.254    0.203
       217 -11.0436     89.2630     93.9517   5.8242031024e+01   4.5849910011e+01    0.2642938    0.2332382  33.34 0.0002030769    1.071    0.066
       218  -9.9531     93.9710     15.9536   3.3067666519e+01   5.6768311979e+01    0.2358588    0.1390413  57.82 0.0008395281    1.351    0.260
       219  -9.4487    102.7460     15.6223   3.1159634950e+01   5.4831795847e+01    0.1193852   0.08401989  37.38 0.0006963528    1.654    0.395
       220  -9.7551     36.8693     14.6669   5.1207139417e+01   6.8701328577e+01    0.1667708    0.1223792  38.39 0.0001420641    1.116    0.104
       221 -10.5680    205.8265     98.7064   3.4555327515e+01   2.2111664854e+01    0.1683899    0.1538402  36.33  0.001118187    1.439    0.305
       222 -10.7184    170.3719     97.7292   3.9703622557e+01   2.8678508573e+01    0.2992134    0.2317086 -59.71  0.001680075    1.225    0.183
       223 -10.3145    159.1120     99.1780   4.2046728820e+01   3.0617254408e+01    0.2049295    0.1718527 -88.24 0.0003361642    1.247    0.198
       224  -9.4744    192.0660     12.3729   1.9451004407e+01   3.6155471921e+01    0.1418594   0.08382625  81.98 0.0009458081    1.434    0.303
       225 -12.3734    153.9110     96.0411   4.2336734923e+01   3.2216078893e+01    0.7036487     0.364943  51.32  0.001379297    1.948    0.487
       226 -12.4041    107.6070     92.2104   5.2237345990e+01   4.2507960482e+01    0.6000183    0.2397895  42.01   0.00202133    2.449    0.592
       227 -10.2236    225.4924     97.9259   3.1994547008e+01   1.9059723081e+01    0.1749915   0.09257041 -46.00 0.0005256682    1.539    0.350
       228 -11.4283    199.6583     96.0087   3.4867225562e+01   2.3600213812e+01    0.3200934    0.1861033 -55.13  0.000479112    1.573    0.364
       229 -11.7753    147.5438     83.4810   4.0660635519e+01   3.5714074160e+01    0.5799423    0.4173382 -61.88  0.002841321    1.449    0.310
       230 -11.4312    135.9162     52.8506   3.5321251214e+01   4.2975326601e+01    0.6637495    0.4613089 -88.16   0.00223037    1.586    0.369
       231 -13.7308    136.6823     82.0440   4.2514037042e+01   3.8245512857e+01     2.066246     1.006712 -36.73   0.00133626    2.377    0.579
       232 -11.1828    146.2386     52.4912   3.3443272341e+01   4.0775302880e+01    0.3984077    0.2680209  35.71  0.001081445    2.146    0.534
       233  -9.6647     51.9203     12.5652   4.3892046290e+01   6.6096145959e+01    0.1762519   0.09831589  49.49  0.000309252    1.417    0.294
       234 -11.8894    133.7544     70.7665   4.0304981402e+01   4.0752095979e+01     1.029872    0.6287022  63.03  0.004877285    1.605    0.377
       235 -11.7771    144.9029     68.7786   3.7637280145e+01   3.8667765916e+01    0.9369652    0.5241247  86.95  0.003801977    3.000    0.667
       236 -12.9411    152.3426     62.3861   3.4804353527e+01   3.8052819763e+01     1.231537    0.6455471  69.14  0.005502715    1.987    0.497
       237 -10.7612    140.9863     61.8926   3.6668673638e+01   4.0560928305e+01    0.3522618     0.196931  66.73  0.000345989    1.775    0.437
       238 -13.8889    124.9233     83.1001   4.5405055767e+01   4.0564347060e+01     1.417482    0.9045739 -31.68   0.00671429    1.932    0.482
       239 -11.0114    215.5163     43.2006   2.3244769334e+01   2.8350487891e+01      0.38691    0.2072649 -63.32  0.001573983    1.630    0.387
       240 -13.0290    114.4165     81.1699   4.7481048836e+01   4.3151612787e+01     1.368991    0.8075644  30.46  0.005786567    2.327    0.570
       241 -11.8658    124.1013     69.8671   4.2148776971e+01   4.2994437411e+01    0.4012735    0.3027764 -76.78 0.0002585763    1.550    0.355
       242 -11.7467    112.6766     67.8466   4.4296137621e+01   4.5815063235e+01    0.4526062    0.2547133  52.50 0.0006743402    1.619    0.382
       243 -13.7781    117.2347     61.2104   4.1374872090e+01   4.5869154609e+01     1.067523    0.6684146  51.01  0.002103762    1.464    0.317
       244 -11.5235     11.6928     97.1818   9.0774677424e+01   5.6013363245e+01    0.3102694    0.2611581 -63.78  0.001514109    1.235    0.190
       245 -11.5350     72.9024     96.3386   6.4527203251e+01   4.8391659866e+01    0.3221522    0.2800099  53.84  0.001112155    1.253    0.202
       246 -11.8953    232.9758     94.6491   3.0596969206e+01   1.8413470241e+01    0.2138282     0.133648 -45.75  0.000815226    1.313    0.239
       247 -14.5336     63.8464     86.2699   6.5184170927e+01   5.2144444381e+01     2.202589     1.504508  -2.15  0.009880272    1.939    0.484
       248 -11.5174    113.0713    247.0556   8.0295206696e+01   6.5079390128e+00    0.4191382    0.2398319 -32.44  0.001646625    1.919    0.479
       249 -11.9520     64.5867     48.1959   5.2855508119e+01   5.9025768494e+01    0.9176357     0.637695  88.91  0.002272926    3.043    0.671
       250  -9.5314     16.2606    238.3343   1.0419983358e+02   1.8947980149e+01    0.1239213   0.09411024 -38.63 0.0002405112    1.576    0.365
       251 -13.2237      4.9744     54.3659   8.4590501209e+01   6.6265451805e+01    0.8937998    0.6403896 -48.93  0.003156631    1.388    0.279
