#   1 NUMBER                 Running object number                                     
#   2 MAG_AUTO               Kron-like elliptical aperture magnitude                    [mag]
#   3 X_IMAGE                Object position along x                                    [pixel]
#   4 Y_IMAGE                Object position along y                                    [pixel]
#   5 X_WORLD                Barycenter position along world x axis                     [deg]
#   6 Y_WORLD                Barycenter position along world y axis                     [deg]
#   7 A_WORLD                Profile RMS along major axis (world units)                 [deg]
#   8 B_WORLD                Profile RMS along minor axis (world units)                 [deg]
#   9 THETA_WORLD            Position angle (CCW/world-x)                               [deg]
#  10 FWHM_WORLD             FWHM assuming a gaussian core                              [deg]
#  11 ELONGATION             A_IMAGE/B_IMAGE                                           
#  12 ELLIPTICITY            1 - B_IMAGE/A_IMAGE                                       
         1 -13.8866    230.3022      4.7195   3.4185812763e+01   2.7659886369e+01     1.618641    0.9002017  54.53  0.007061111    2.089    0.521
         2 -14.0760    186.0597     48.2072   5.0068762616e+01   3.2831661956e+01     1.647629     1.197608  22.73  0.001376069    1.877    0.467
         3 -14.1950    196.7233     39.9684   4.6261750058e+01   3.1348878552e+01     1.429941     1.176384 -29.90  0.003602278    1.299    0.230
         4 -14.6291    206.1540     30.1341   4.2508103740e+01   3.0335014549e+01     1.486018     1.243089  26.44  0.001502406    1.551    0.355
         5 -12.1106     19.7733     34.0630   9.5658504396e+01   6.7612970034e+01    0.3167409    0.1922967  19.02  0.001141156    1.778    0.438
         6 -10.2837     63.0357      8.5377   6.4757545590e+01   6.5691051546e+01    0.1831411    0.1098709  43.52 0.0006384664    1.565    0.361
         7 -10.6828     43.4910      6.5102   7.1674474084e+01   6.9098048419e+01    0.1221138   0.09458759   4.29 5.388294e-05    1.008    0.008
         8 -10.6360    113.1954    206.0084   1.0361800460e+02   1.6340500196e+01    0.2368762    0.1828641  43.01 0.0008534564    1.182    0.154
         9 -10.8208    140.1086    249.8375   1.0380944724e+02   4.1093447685e+00    0.2572283    0.1879018  55.87   0.00160729    1.397    0.284
        10 -11.3481    140.0495    245.0026   1.0322023923e+02   4.8947929774e+00    0.2206034    0.1881188 -33.80  0.001127448    1.436    0.304
        11 -14.3615     58.1471    188.5270   1.1380947107e+02   2.8170205063e+01     1.189722     1.091021  76.00  0.007881846    1.128    0.113
        12 -18.6065     20.6560    231.7673   1.2486704995e+02   2.3311179532e+01     9.085472     5.332718  89.31   0.06042252    1.456    0.313
        13 -12.3970    109.4908    200.7135   1.0369301943e+02   1.8039177437e+01    0.6929991      0.46538 -29.63  0.001421911    2.242    0.554
        14 -15.1158     47.5197    200.3858   1.1734911703e+02   2.6820793668e+01      2.91282    0.9740107  59.92  0.008247094    4.210    0.762
        15  -9.7118    133.8899    196.1658   9.7495639723e+01   1.4890234942e+01    0.2103945    0.1783768  61.03 0.0004572681    1.213    0.176
        16  -9.5652     82.3004    194.6591   1.0903433787e+02   2.3522041250e+01    0.3312919    0.2420403 -29.96  0.001730074    2.042    0.510
        17  -9.3481     79.6437    192.3066   1.0934322368e+02   2.4427518027e+01    0.2174999    0.1213047  45.73 0.0007668359    1.665    0.399
        18  -9.1884    150.3343    195.3115   9.3677775893e+01   1.2162082365e+01    0.1426918    0.1084127   0.95  0.000479684    1.681    0.405
        19 -10.2221    127.3980    193.1909   9.8482008231e+01   1.6631708342e+01    0.2734315    0.1792987 -72.94  0.001281553    1.976    0.494
        20  -8.9178    120.2799    194.3197   1.0028847153e+02   1.7609643203e+01    0.1326609    0.1094339 -13.60 0.0003140933    1.582    0.368
        21  -9.3958     92.6703    184.5534   1.0524807583e+02   2.4238585163e+01    0.2350667    0.1332407  33.68 0.0008266157    1.841    0.457
        22 -10.8263     98.8855    180.9296   1.0321983299e+02   2.4086059248e+01     0.380486    0.2545957  20.25  0.001519798    1.975    0.494
        23 -11.0017    150.3602    178.5645   9.0623827333e+01   1.5556820931e+01    0.4587856    0.2670344 -67.73  0.001783625    2.750    0.636
        24 -11.4912    144.0194    178.4036   9.2056154019e+01   1.6772900713e+01        0.424    0.3172626 -61.07  0.001428254    1.504    0.335
        25 -11.1588     41.5803    178.6530   1.1655773053e+02   3.2393643467e+01    0.2806152    0.2236105 -76.59  0.001387117    1.145    0.127
        26 -11.5874     48.6900    171.4866   1.1409548647e+02   3.3266548089e+01     0.583409    0.3134342 -44.77  0.002624145    2.392    0.582
        27 -11.6102     45.4381    168.0585   1.1448657064e+02   3.4450177415e+01     0.691051     0.333522 -42.89  0.002915863    2.962    0.662
        28 -10.3266    187.3812    173.1077   8.1367133067e+01   9.6130565018e+00    0.3715789    0.2533724 -67.11  0.001612614    2.398    0.583
        29 -10.0299    188.7964    178.0098   8.2073455980e+01   8.4261420130e+00     0.274081    0.2458192 -34.68 0.0009306226    1.166    0.142
        30 -12.7585     53.3935    109.5570   1.0310278079e+02   4.7871996498e+01    0.8807507    0.2947319 -60.04  0.002487619    2.602    0.616
        31 -13.8085     44.3208    111.7713   1.0644278825e+02   4.8337700546e+01     2.101557     1.111843  66.91  0.008145164    3.357    0.702
        32 -12.9748     83.7560    160.5163   1.0374176187e+02   3.1235986808e+01     1.103039    0.6241242  69.33 0.0003872125    2.576    0.612
        33 -13.8676     72.5541    155.1292   1.0580038401e+02   3.4168839399e+01    0.6458179    0.5187158 -49.95  0.002029468    1.293    0.227
        34 -15.1223     68.3358    144.1221   1.0512735629e+02   3.7452431487e+01     4.955127     2.217303  58.70  0.004851662    3.606    0.723
        35 -11.1855    138.4152    170.2157   9.1812208824e+01   1.9581781610e+01    0.4135214    0.2908542  43.62  0.001585906    1.382    0.277
        36 -11.6059    133.7628    144.9036   8.7695992077e+01   2.6161474294e+01     1.246215    0.3350339 -54.63  0.003011453    5.352    0.813
        37 -10.4653    187.8016    152.0512   7.6733553671e+01   1.3603665554e+01    0.2297277    0.2102657 -65.25   0.00120751    1.277    0.217
        38  -9.6554    112.5223    150.8531   9.4443991918e+01   2.8794751348e+01    0.2351659    0.1997576  72.32  0.000372959    1.277    0.217
        39 -10.5724    174.4246    149.1122   7.8965367046e+01   1.6932910568e+01    0.2906212    0.2822089 -75.30 0.0007229848    1.145    0.127
        40 -10.6795    144.1439    146.3478   8.5426761896e+01   2.3755462794e+01    0.4906709    0.2493457 -62.33  0.001652055    2.992    0.666
        41 -11.0358     41.1116    147.3120   1.1301917333e+02   3.9929390078e+01    0.3109862    0.2884223  53.91   0.00128273    1.207    0.172
        42 -12.4309     91.4478    138.8258   9.7705728097e+01   3.5313569173e+01    0.2995898    0.2789209 -60.91 0.0004634861    1.033    0.032
        43 -11.1424    103.9148    139.0330   9.4299395208e+01   3.3152807469e+01    0.5641419    0.3564498 -26.16  0.002264676    2.352    0.575
        44 -10.3874     84.0235    173.6989   1.0574047060e+02   2.8057103205e+01    0.1907155      0.17247  57.43 0.0003025068    1.092    0.085
        45 -12.6217     43.0191    126.4899   1.0942443540e+02   4.4855345875e+01    0.6335164    0.4189239  48.87  0.002413356    1.688    0.407
        46 -10.8892    105.8536    130.8253   9.1962527171e+01   3.4780891998e+01    0.3610176    0.3216066 -68.86   0.00119778    1.132    0.117
        47 -11.3288    135.8306    127.9749   8.3205712931e+01   2.9600915911e+01    0.7518418    0.2104019 -51.12  0.001997715    4.127    0.758
        48 -10.6905    135.0044    119.1533   8.1203309633e+01   3.1760635561e+01    0.4474456     0.196463 -41.25  0.001565249    2.315    0.568
        49 -10.3757     34.7136    131.5218   1.1260460603e+02   4.4441424851e+01    0.2117052    0.1367966  15.99 0.0008396497    2.011    0.503
        50 -10.6196    112.4760    129.6222   8.9847692070e+01   3.3848461016e+01    0.3186134    0.2687334   1.14  0.000639978    1.427    0.299
        51 -11.8897    118.8468    124.0352   8.6760382007e+01   3.3940045454e+01    0.7965698    0.4603035 -28.44  0.002953992    2.463    0.594
        52 -10.1564    160.8872    127.8099   7.6987774535e+01   2.4281976203e+01    0.2969429    0.2393153 -58.93  0.001412859    1.360    0.265
        53 -11.1393     99.9233    125.6503   9.2459008081e+01   3.7080294818e+01    0.3165395    0.2571513   4.13  0.000932818    1.530    0.346
        54 -12.3672     90.7984    153.2726   1.0064354026e+02   3.1898491374e+01    0.6861034    0.4909411 -27.29  0.003231764    1.892    0.471
        55 -10.0743    108.5256    118.8134   8.8362824547e+01   3.7144787223e+01      0.24235    0.2098755  34.87 0.0002998291    1.208    0.172
        56  -9.5690    168.2859    113.1827   7.1545886660e+01   2.5687443002e+01    0.2982723    0.2141207  84.45  0.001222992    2.131    0.531
        57 -12.0401    118.0545    108.7094   8.3052091821e+01   3.7621423303e+01    0.8480839    0.6926115 -56.37  0.004162259    1.257    0.205
        58 -11.8568     20.5780    111.2008   1.1381826553e+02   5.0592365294e+01    0.4522751    0.1944318  39.68    0.0015898    2.671    0.626
        59 -10.3221    205.2930    110.1717   6.3237454364e+01   1.7933049494e+01    0.3355691    0.2392566  38.33  0.001062942    1.551    0.355
        60 -10.8013     26.4593    107.8661   1.1144070658e+02   5.0941933735e+01    0.2458866    0.1639537 -18.07  0.001332784    1.941    0.485
        61 -10.1324    134.6055    105.8159   7.7758566548e+01   3.4786529316e+01    0.3662506    0.1522805 -49.03  0.001226769    2.527    0.604
        62  -9.2199    135.4841    102.5065   7.6610516310e+01   3.5306309171e+01    0.2527373    0.1999499  -8.41  0.001154091    1.548    0.354
        63 -12.0254     55.5214     95.1157   9.9169706780e+01   5.1081985024e+01    0.7034981     0.342584  48.54  0.002877439    2.805    0.643
        64 -11.0562     38.1020     96.2475   1.0540767212e+02   5.2706642383e+01    0.3289722    0.1890049  12.91  0.001609455    2.241    0.554
        65  -8.6667    120.6727     88.3323   7.6519767511e+01   4.1506089452e+01    0.1567449    0.1250048 -83.90 0.0007051505    1.714    0.417
        66 -10.1226    157.6504     81.9569   6.5268258201e+01   3.4300211995e+01    0.2213894    0.1990736 -36.07 0.0005406103    1.104    0.094
        67  -9.5395    184.5168     77.0017   5.8364394748e+01   2.8692763489e+01    0.2263194    0.1465139 -33.47 0.0005272661    1.545    0.353
        68  -9.7620     60.3229     68.0090   8.9917449447e+01   5.6517238650e+01    0.1930821    0.1604308 -39.49 0.0003761613    1.096    0.087
        69 -10.4445     92.5533    250.0803   1.1295812034e+02   1.1067387502e+01    0.3177195     0.173786  29.06  0.001695201    2.111    0.526
        70 -11.1932    125.3964    243.8035   1.0595100530e+02   7.3393563337e+00    0.2644788    0.1168464 -52.76  0.001085337    2.682    0.627
        71 -10.3277    169.0265    236.0118   9.6274053288e+01   1.7926604426e+00    0.1950685    0.1730799 -26.75 0.0004115322    1.283    0.221
        72  -8.8131    220.2928    227.6729   8.5092983947e+01  -4.8968024970e+00     0.104946   0.09947209  54.35 0.0003947984    1.623    0.384
        73 -12.8368    203.9032    197.4330   8.2806975790e+01   2.3067042795e+00    0.7206524    0.4719063  -7.06  0.003575204    1.849    0.459
        74 -11.9604    147.3831     51.5355   5.8169784161e+01   4.1933908830e+01    0.4953454    0.3402232 -81.13  0.002153582    2.127    0.530
        75  -9.9416    189.3835     14.9102   4.0477478969e+01   3.6122371550e+01    0.2222269    0.1689475 -87.00 0.0006022459    1.239    0.193
        76 -12.1233    193.4725    195.6377   8.4555364657e+01   4.4111052535e+00    0.9524177    0.5508727 -63.71  0.003515486    4.002    0.750
