#   1 NUMBER                 Running object number                                     
#   2 MAG_AUTO               Kron-like elliptical aperture magnitude                    [mag]
#   3 X_IMAGE                Object position along x                                    [pixel]
#   4 Y_IMAGE                Object position along y                                    [pixel]
#   5 X_WORLD                Barycenter position along world x axis                     [deg]
#   6 Y_WORLD                Barycenter position along world y axis                     [deg]
#   7 A_WORLD                Profile RMS along major axis (world units)                 [deg]
#   8 B_WORLD                Profile RMS along minor axis (world units)                 [deg]
#   9 THETA_WORLD            Position angle (CCW/world-x)                               [deg]
#  10 FWHM_WORLD             FWHM assuming a gaussian core                              [deg]
#  11 ELONGATION             A_IMAGE/B_IMAGE                                           
#  12 ELLIPTICITY            1 - B_IMAGE/A_IMAGE                                       
         1 -10.2373     64.9898     21.8281   7.6128820929e+01   6.3852631179e+01     0.394998    0.3079634  68.07   0.00219133    2.219    0.549
         2 -10.0494     75.6489     20.6107   7.1678137895e+01   6.2170895808e+01    0.4598195    0.2623765  58.60  0.002137289    2.535    0.605
         3 -10.4311     98.0845     15.5398   6.2425044120e+01   5.8322064839e+01    0.3961876    0.2641059 -43.45   0.00205541    1.832    0.454
         4  -9.3257     40.8770     13.7411   8.2448249488e+01   6.8544572395e+01    0.2028276    0.1349729 -18.39            0    1.298    0.229
         5  -9.2271    103.7677      9.6242   5.8416093197e+01   5.7700836751e+01    0.1837818    0.1234775  66.83 0.0006462702    1.674    0.403
         6  -9.6120     91.7310      9.4498   6.1571432959e+01   6.0318620161e+01    0.2464079    0.1260955  59.42  0.001137609    2.117    0.528
         7 -10.0068     71.7091      7.0004   6.6706665231e+01   6.4521280092e+01    0.2293765    0.1685718  81.43  0.001178459    2.668    0.625
         8  -9.0530    229.3288      2.3190   3.7865921296e+01   2.7462077815e+01     0.123228   0.09313113  43.71 0.0007047362    1.685    0.407
         9  -9.2184     79.7928      2.3809   6.1861017507e+01   6.3441566297e+01    0.1863582   0.09828833  42.33 0.0009505733    1.653    0.395
        10 -10.1221    170.2131    232.5460   1.0047416155e+02   2.8278878750e+00    0.2818139     0.174902  50.82  0.001320855    1.589    0.371
        11 -11.3902    166.3620    248.9993   1.0341974888e+02   1.0812228280e+00    0.5152349    0.3799229  59.81  0.003341962    1.568    0.362
        12 -11.3035    173.9755    244.7160   1.0146255808e+02   4.7134818419e-01     0.433115    0.3206615 -89.89  0.002521488    2.457    0.593
        13 -11.7556    168.1516    242.9060   1.0229154466e+02   1.6532511524e+00    0.4608719    0.2576846  47.01  0.002593736    1.569    0.363
        14  -8.9691    236.3551    230.2982   8.8055345750e+01  -7.3456300008e+00    0.2214157    0.1373969 -35.92  0.001346755    1.894    0.472
        15 -11.3945     99.0783    226.8409   1.1346151448e+02   1.5202273351e+01    0.3553252    0.3036696  65.44   0.00141873    1.080    0.074
        16  -9.5123    114.8195    228.6489   1.1062317212e+02   1.2468969359e+01    0.2024771   0.09104528 -56.19 0.0009935701    2.580    0.612
        17  -9.1158     73.0610    228.5679   1.1856061693e+02   1.8598473894e+01    0.2538418    0.1076073  70.84  0.001046358    3.529    0.717
        18  -9.4603    171.0809    225.6476   9.9304861288e+01   3.7283034082e+00    0.2199544    0.1753786  58.64 0.0002952893    1.413    0.292
        19 -11.0521    164.4475    226.0828   1.0064822126e+02   4.7753006271e+00     0.425245    0.3053168  40.40  0.001811351    1.159    0.137
        20 -10.3033    160.6610    227.3044   1.0155530713e+02   5.2178722995e+00    0.2318885    0.2211125  73.33 0.0009910788    1.232    0.188
        21  -9.9753    184.9344    226.1707   9.6737624996e+01   1.3314583281e+00    0.2724411    0.1803954 -53.12  0.001537803    2.057    0.514
        22 -11.5925    125.7984    221.1201   1.0755994188e+02   1.2046385265e+01     0.401096    0.3264059  37.78  0.001069261    1.197    0.165
        23 -10.2283     88.5050    224.7002   1.1527572854e+02   1.7152399951e+01    0.3999956    0.1095925 -62.11  0.001612583    3.887    0.743
        24  -9.9281    108.6105    222.8270   1.1116386552e+02   1.4477641807e+01    0.2413261    0.2074464 -18.50  0.001457233    1.744    0.426
        25  -9.5301    190.7705    223.0257   9.5140844475e+01   8.1844427962e-01    0.3174023    0.1467924  28.42  0.001151915    2.396    0.583
        26  -9.1425    148.8649    220.9218   1.0295710118e+02   8.2428378736e+00     0.309725    0.1587434 -45.92  0.001539267    2.332    0.571
        27  -9.1260    157.7912    221.8327   1.0132840159e+02   6.5794160616e+00    0.1902511    0.1573501  27.39 0.0005970288    1.176    0.150
        28 -11.0745    131.4405    215.4804   1.0568807426e+02   1.2124444241e+01    0.4049004    0.2306763 -62.23  0.002071799    2.136    0.532
        29  -8.9844    115.1834    220.8943   1.0963857068e+02   1.3796200137e+01    0.1554341    0.1454018  24.09 0.0005345198    1.318    0.241
        30  -8.9453     75.1351    219.8479   1.1737907577e+02   1.9956192258e+01    0.1937644    0.1276621  62.12 0.0005640491    1.279    0.218
        31  -9.4665     99.5751    218.2899   1.1243232929e+02   1.6708081481e+01    0.2786539    0.1547751 -72.30  0.001466928    2.082    0.520
        32  -9.1285    192.1419    217.8427   9.4046261181e+01   1.3512109383e+00    0.1904238    0.1672803  45.86  0.001204691    1.256    0.204
        33  -8.9504    175.9787    216.4383   9.6943083224e+01   4.3317242193e+00    0.1854669    0.1754092 -19.62  0.000943395    1.210    0.173
        34  -9.2584    143.7725    216.8709   1.0339825850e+02   9.7987006349e+00    0.2088855    0.1776202 -65.03  0.001028387    1.378    0.275
        35  -8.4748     62.3401    217.6590   1.1963753945e+02   2.2088729458e+01    0.1308235   0.06974697  66.43 0.0007049528    1.771    0.435
        36  -9.2490     78.6705    211.3188   1.1584946272e+02   2.1124189151e+01    0.2426403    0.1342463  39.92  0.001318186    1.702    0.412
        37  -8.4908    115.5030    210.4401   1.0826626178e+02   1.5688164512e+01    0.1315334    0.1087419  58.81 6.324742e-05    1.047    0.045
        38  -9.4310    202.7100    208.8683   9.0519818137e+01   8.8869292811e-01    0.2099626    0.1843269 -51.38 0.0009800824    1.500    0.333
        39  -8.8100    212.2429    207.4486   8.8474416040e+01  -5.2374578612e-01    0.1799784    0.1127018  46.29 0.0009532706    1.669    0.401
        40  -9.1466     19.4988    222.5179   1.2777749402e+02   2.6111171493e+01    0.1096663   0.07778121  72.46 0.0008104231    1.001    0.001
        41  -9.3553     11.0154    207.4933   1.2846222389e+02   2.9843426863e+01    0.2073988     0.109038  25.78  0.001212597    2.739    0.635
        42  -8.3637     99.3094    206.6423   1.1112737641e+02   1.8997455245e+01    0.1370203   0.08602578  70.27 0.0007042287    1.733    0.423
        43  -8.5148     56.6746    205.3615   1.1966287085e+02   2.5260158191e+01    0.1332589   0.07195848  68.40 0.0007041694    1.787    0.440
        44  -9.0146    149.9523    199.5467   9.9514132811e+01   1.1822599401e+01    0.2968318    0.1733526  65.05  0.001266944    2.552    0.608
        45  -9.2305     89.2129    199.5657   1.1238391657e+02   2.1963008131e+01     0.254806    0.1693607  69.08  0.001244623    1.488    0.328
        46  -8.2961      3.3520    200.6610   1.2948479579e+02   3.1894586847e+01      0.12124   0.05513774  65.75 0.0007043812    1.799    0.444
        47 -10.5987    177.3242    198.4909   9.3692673504e+01   7.0448732015e+00    0.3050809    0.2910873 -35.92  0.001928186    1.192    0.161
        48 -11.2527    173.3125    194.7962   9.3862550367e+01   8.4187379420e+00    0.5030072    0.3097358 -36.52  0.002500475    1.840    0.456
        49  -8.4777    251.0000    198.0018   7.9815233454e+01  -5.5057902597e+00    0.1917723   0.06410433 -33.42 0.0005548022    2.902    0.655
        50  -8.5902    165.3209    198.3021   9.6113529799e+01   9.2653986427e+00    0.1356616    0.1024055   9.69 0.0002262201    1.629    0.386
        51  -9.6372    126.4224    197.4199   1.0416808452e+02   1.6378060487e+01      0.28794    0.2347927  22.43  0.001648078    1.447    0.309
        52  -8.9763    112.6680    198.0950   1.0720745957e+02   1.8565537162e+01    0.2141091     0.154864  81.43  0.001165046    1.556    0.357
        53  -8.6891    131.9658    195.4783   1.0268680595e+02   1.5794333391e+01    0.1970841    0.1018823  59.11 0.0008084178    2.417    0.586
        54  -8.9008     66.8319    195.2385   1.1660876003e+02   2.6040776739e+01    0.2277548    0.1035657  67.87 0.0009555139    2.836    0.647
        55 -10.0849    180.4815    193.5927   9.2184084619e+01   7.3054939382e+00    0.2565934     0.206912 -70.81  0.001328875    1.721    0.419
        56  -8.8838     44.9435    194.4737   1.2106117834e+02   2.8940457187e+01    0.1843512   0.06630015  54.97  0.000809237    2.667    0.625
        57  -8.4828     78.3098    193.6411   1.1400208455e+02   2.4792629261e+01    0.1387324   0.08383756  71.07 0.0007041942    1.737    0.424
        58  -8.9565    124.2948    192.0257   1.0381544073e+02   1.7818573324e+01    0.1854179    0.1665027  89.73  0.000409258    1.143    0.125
        59  -9.5720    139.1068    189.7228   1.0022967567e+02   1.5650693565e+01    0.2296496    0.1905643 -79.87  0.001282021    1.378    0.275
        60  -9.0911     87.9703    190.1277   1.1148960420e+02   2.4122247519e+01    0.2311689    0.1237762  61.31  0.001079963    2.008    0.502
        61  -8.7036    129.7783    189.1780   1.0217522325e+02   1.7430334196e+01    0.2322611    0.1386733  74.62 0.0009400916    2.766    0.638
        62 -10.1869    203.4434    188.2171   8.6611983514e+01   3.9790969690e+00    0.3473438    0.1814175  47.80  0.001575164    1.997    0.499
        63  -9.3256    156.5102    188.1827   9.6218228609e+01   1.2745294088e+01    0.2516566    0.1853205  41.61  0.000729506    1.235    0.190
        64 -10.5664     95.6457    187.3885   1.0944339004e+02   2.3527116356e+01    0.5159909    0.2424725  58.14  0.002032801    2.447    0.591
        65  -9.2125     55.8552    187.8705   1.1817022628e+02   2.9032867769e+01    0.3291489    0.1297108  59.20  0.001380108    2.861    0.650
        66  -9.6738    109.1538    185.8397   1.0622226915e+02   2.1671732876e+01     0.362853    0.2065564  72.06  0.001521392    2.559    0.609
        67  -8.6564     34.4991    187.5292   1.2260840197e+02   3.1584880418e+01    0.1229511   0.09076732  76.11 6.203865e-05    1.084    0.078
        68 -10.4081    211.2063    183.1963   8.4140084008e+01   3.3717879017e+00    0.5038957    0.2950285  16.67   0.00222586    2.272    0.560
        69  -9.6061    198.8004    185.5698   8.7014239444e+01   5.2694827996e+00    0.2129478     0.204641 -36.70 0.0007920038    1.225    0.184
        70  -9.2290    197.4799    182.0018   8.6584038270e+01   6.1159776119e+00    0.2226877    0.1677319 -13.40 0.0008079999    1.461    0.315
        71 -10.5037     13.4038    183.4498   1.2657561379e+02   3.4537656450e+01    0.3145539     0.268523 -29.77  0.002011233    1.874    0.467
        72  -8.7881     44.4860    182.5458   1.2007470393e+02   3.1552000616e+01    0.1260711    0.0964268  76.86 0.0001321566    1.076    0.071
        73  -8.3662    183.3297    181.2816   8.9307869166e+01   8.9288872116e+00    0.1425764    0.1048593  11.12 0.0007003146    1.605    0.377
        74  -9.1809    120.7500    186.8032   1.0379056606e+02   1.9498057013e+01    0.3449865    0.1796393 -64.71  0.001234213    2.295    0.564
        75  -9.4020    147.9852    181.0485   9.6804207724e+01   1.5726142681e+01    0.2271744    0.1682709  73.23  0.001122081    1.708    0.414
        76  -8.5641    138.3333    179.6901   9.8702776583e+01   1.7802619801e+01     0.145963    0.1065338  72.54 0.0007042813    1.674    0.403
        77 -10.2978    204.6955    176.1870   8.4005797199e+01   5.7369665604e+00    0.3475119    0.2476153 -32.71  0.001011506    1.430    0.301
        78  -9.1623     87.8483    177.1812   1.0979778264e+02   2.6951341015e+01    0.3058034   0.07646383  42.49  0.001031731    3.501    0.714
        79  -9.9407     77.1478    176.1426   1.1210892014e+02   2.8763017816e+01    0.4339358    0.1972085  57.55   0.00182976    2.492    0.599
        80  -9.0845     60.3841    177.1250   1.1602756773e+02   3.0817783628e+01    0.3601426     0.152815  57.44  0.001544949    2.593    0.614
        81  -9.4511     13.2905    177.0954   1.2616659952e+02   3.5903258142e+01    0.2294986    0.1007063  59.17  0.001227222    2.095    0.523
        82  -8.3534    183.2943    176.6212   8.8407562855e+01   9.7736282631e+00    0.1394353    0.1142703 -89.12 0.0007021659    1.749    0.428
        83  -9.3076    159.9458    175.7875   9.3215465742e+01   1.4475319417e+01    0.2383962    0.1588047  65.06  0.001069511    1.982    0.495
        84  -9.5442    106.3342    175.5018   1.0529045410e+02   2.4363579469e+01     0.296564    0.1668242  64.48  0.001268307    2.243    0.554
        85  -9.6808    149.4992    175.0254   9.5373943262e+01   1.6642390749e+01    0.2044747    0.1430955 -47.77 0.0004306441    1.527    0.345
        86  -8.8087      4.0550    175.1773   1.2791727958e+02   3.7096366172e+01    0.1926016   0.08587882  59.37 0.0009371421    2.010    0.502
        87  -8.7196     45.3328    172.6735   1.1891310206e+02   3.3639034578e+01     0.135011   0.07799169  69.46 0.0007051365    1.713    0.416
        88 -10.3168    207.4402    170.2921   8.2266161111e+01   6.2115257255e+00    0.3733311     0.202733  36.51    0.0015145    1.810    0.448
        89  -8.4951    176.7039    171.3288   8.8737504238e+01   1.2042868696e+01    0.1399706    0.1157329  85.72 0.0005244307    1.633    0.388
        90  -9.2350    122.2107    170.1457   1.0071520689e+02   2.2766010979e+01    0.2915906    0.1718577  63.65  0.001234547    2.159    0.537
        91  -9.3819     55.3415    170.1958   1.1637594536e+02   3.3009240042e+01     0.255611    0.1305057  60.95  0.001108004    2.071    0.517
        92  -9.0701     15.2527    170.5604   1.2528432658e+02   3.7147269921e+01    0.1334279    0.1156008  10.55 0.0009546365    1.726    0.421
        93  -9.2206     99.8500    166.6425   1.0540606858e+02   2.7407978682e+01    0.4159132    0.1677562  55.73  0.001421808    3.360    0.702
        94  -9.3818    139.8972    165.6693   9.5788285432e+01   2.0421080158e+01     0.386965    0.2297423  66.82  0.001466261    2.525    0.604
        95  -9.6105     80.7005    164.7757   1.0970619125e+02   3.0821037040e+01    0.4660013    0.2326984  74.27  0.001656064    3.609    0.723
        96 -10.2841    214.0716    168.3065   8.0575047660e+01   5.2787412162e+00    0.3008298    0.1922267 -18.65 0.0007962356    1.775    0.437
        97  -9.2527    159.7193    164.6994   9.1096868089e+01   1.6720292816e+01    0.3054308    0.1712431  61.61  0.001162601    2.577    0.612
        98  -8.7894     37.9951    164.9547   1.1977708415e+02   3.6190599465e+01    0.2086914    0.1195961  68.51 0.0008517948    1.731    0.422
        99  -9.1982    148.9975    164.1701   9.3408448684e+01   1.8960396955e+01    0.2801434    0.1978657  60.25  0.001267097    1.582    0.368
       100  -9.4120     10.0388    162.1808   1.2577179763e+02   3.9432812712e+01    0.2211613    0.1240685  59.02  0.001334856    1.656    0.396
       101  -8.8383    177.8322    160.9831   8.6368563968e+01   1.3785449175e+01    0.2396252    0.1775504 -76.90  0.001083306    2.054    0.513
       102  -8.5302     70.3234    163.6585   1.1203679633e+02   3.2554700786e+01    0.1437858   0.09080438  72.74 0.0007050798    1.728    0.421
       103  -9.2051     93.3404    160.9064   1.0604900949e+02   2.9769202690e+01    0.3239698    0.1870495  64.68   0.00141391    2.130    0.531
       104  -8.7407     62.4838    161.0110   1.1356350746e+02   3.4212563946e+01    0.1897055    0.1007334  84.95 0.0008085258    2.444    0.591
       105  -8.8401     23.8498    160.2300   1.2254062445e+02   3.8668132162e+01    0.2210855   0.09022823  65.56 0.0009561426    2.910    0.656
       106  -8.8738    205.2399    159.5797   8.0434600948e+01   8.4960241162e+00    0.2012132    0.1297342  32.55 0.0009420018    1.582    0.368
       107  -8.2129    144.5136    159.5584   9.3521918360e+01   2.0813906817e+01    0.1477262      0.13939  60.04 8.890314e-05    1.037    0.035
       108  -9.3633    106.0194    158.4815   1.0253643939e+02   2.8221060975e+01    0.3904522    0.1964307  59.48  0.001369824    2.624    0.619
       109 -10.0468     50.3701    155.5962   1.1579972063e+02   3.6964397906e+01    0.4391611    0.2009909  63.94  0.001826218    2.843    0.648
       110  -9.9490    213.4735    155.4938   7.7950880253e+01   7.5718031158e+00    0.2615168    0.2286636  23.00 0.0008100988    1.103    0.093
       111  -9.1232    119.8976    155.8236   9.8654532859e+01   2.6349980713e+01    0.2889219    0.1922085 -87.72  0.001237686    2.149    0.535
       112  -9.6743     82.1911    155.1561   1.0787611018e+02   3.2828383258e+01    0.3848504    0.2098592  72.56  0.001528014    2.759    0.638
       113  -9.1766    133.5383    153.4368   9.4880837339e+01   2.4292934855e+01    0.3384447    0.2235066  80.27  0.001370493    2.392    0.582
       114  -9.3346     68.4423    154.1542   1.1115249806e+02   3.5023395971e+01    0.2749798    0.1522169  56.67  0.001028784    1.938    0.484
       115  -9.5006     28.9379    150.2645   1.2037389356e+02   4.0469430589e+01    0.4313849    0.1776258  74.93   0.00163437    3.711    0.731
       116  -9.0581     23.0028    152.1120   1.2197301411e+02   4.0591374032e+01    0.2097171    0.1049642  60.25  0.001084509    2.057    0.514
       117  -8.9582    190.3339    150.6965   8.1495859045e+01   1.3162256166e+01    0.2238223    0.1813383 -85.02 0.0007292551    1.749    0.428
       118  -8.7807     98.9783    151.1827   1.0298626453e+02   3.1096216346e+01    0.2458937     0.149927  65.59  0.001063515    2.054    0.513
       119  -8.3728    229.5389    149.0580   7.3564552883e+01   5.5102563524e+00     0.184529    0.1159892 -55.64 0.0007449558    2.288    0.563
       120  -9.9552     40.1816    148.2600   1.1740115845e+02   3.9811908326e+01    0.4539829    0.2072991  60.41  0.001843987    2.623    0.619
       121 -10.2803     56.9424    146.4231   1.1293835200e+02   3.8334533050e+01    0.5999287    0.2776233  63.33  0.002356292    3.089    0.676
       122 -10.3304    149.3191    145.3417   8.9402513290e+01   2.2874634892e+01    0.5498596    0.3474396  86.96  0.001870006    3.460    0.711
       123  -9.9932    107.8759    145.6622   9.9692744586e+01   3.0846740066e+01    0.6309288    0.3276273  68.47  0.001989017    4.024    0.752
       124  -9.1403     78.4140    147.1712   1.0753915260e+02   3.5267336862e+01    0.1988454    0.1239485 -77.35 0.0009391371    1.700    0.412
       125  -9.5844     13.6825    146.5987   1.2365545656e+02   4.2639177907e+01    0.2946304    0.1606161  45.86  0.001361676    1.886    0.470
       126  -9.8646    195.8825    144.8030   7.9025608705e+01   1.3101915548e+01    0.3904972    0.1988885 -22.80  0.001359507    2.979    0.664
       127  -9.5642     88.4855    144.4599   1.0446514775e+02   3.4379057820e+01    0.3253106    0.1963593  74.27 0.0009958933    2.351    0.575
       128  -8.3075    165.6771    144.3470   8.5402452234e+01   1.9638010178e+01    0.1561757    0.1225914 -88.73 0.0007049635    1.741    0.425
       129  -8.0576    218.2767    143.3431   7.4334850402e+01   8.7119719141e+00     0.148179    0.1080393  -0.07 0.0003778107    1.624    0.384
       130  -9.2984      3.3060    142.4847   1.2574813792e+02   4.4343398710e+01    0.2486541    0.1120316  61.43  0.001289258    2.314    0.568
       131  -8.5096    182.4953    142.5005   8.1286167834e+01   1.6400284043e+01    0.1481713    0.1474471  28.44  3.73653e-05    1.066    0.062
       132  -8.7925    215.6609    140.3032   7.4128428018e+01   9.7783131769e+00    0.1416312    0.1175555 -77.23 0.0004052348    1.672    0.402
       133 -10.1624     23.9373    138.6029   1.2034619006e+02   4.3631706227e+01    0.5275565    0.2311045  66.48  0.002281525    2.984    0.665
       134  -9.6666    125.7137    143.7528   9.4798116282e+01   2.7973268616e+01    0.4589466    0.2909456  86.47  0.001710227    2.837    0.648
       135  -9.7949     39.3769    136.6627   1.1613859650e+02   4.2630567763e+01    0.2780476    0.1714947  70.62  0.001059501    1.770    0.435
       136  -8.9102    113.6319    134.1212   9.5830249201e+01   3.2479314688e+01     0.397851    0.1856099  58.35  0.001300169    3.319    0.699
       137 -10.3092     84.3497    132.4576   1.0333331674e+02   3.7882238204e+01     0.561285    0.2948859  59.38  0.001842795    2.571    0.611
       138 -10.1941    132.8440    132.2260   9.0463151712e+01   2.9153076683e+01     0.436382    0.2970303  85.51  0.001578423    2.353    0.575
       139  -8.9637    143.6277    132.3207   8.7806500453e+01   2.6890777106e+01    0.2483803    0.1897532  89.52  0.001109333    1.754    0.430
       140  -9.9703     13.3202    129.7057   1.2209118536e+02   4.6553133548e+01    0.4183688    0.1963283  71.36  0.001907424    2.555    0.609
       141  -8.5093    169.4689    130.5009   8.1301054477e+01   2.1654746497e+01    0.1536345    0.1501931 -83.34 0.0008086753    1.078    0.072
       142 -10.0575     99.6831    128.4460   9.8332654883e+01   3.6321525017e+01    0.5219622    0.3286944  86.71  0.001771657    2.619    0.618
       143 -10.6265     73.3527    129.7775   1.0584818199e+02   4.0154602172e+01     0.520978    0.2016468  46.78  0.001972871    2.877    0.652
       144  -8.6567      2.6422    130.3362   1.2486424296e+02   4.7143578977e+01    0.1252478   0.06978522  69.17 0.0003561913    1.808    0.447
       145 -10.6861     60.8738    125.2962   1.0852461662e+02   4.2905331812e+01    0.7774128    0.3804134  61.95   0.00298231    3.191    0.687
       146 -10.7838     45.3316    124.1175   1.1270556351e+02   4.5001554787e+01    0.7689218    0.3806603  68.41  0.002898182    3.223    0.690
       147  -9.7533    118.8488    126.0307   9.2641409603e+01   3.3354226954e+01    0.6215461     0.316011  63.71   0.00193898    3.748    0.733
       148 -10.5462     28.9356    122.7665   1.1708057568e+02   4.6921353559e+01    0.7382308    0.3192133  75.92  0.002537746    4.576    0.781
       149  -8.9061    179.7472    124.9566   7.7677791164e+01   2.0469208029e+01    0.2544267    0.1795232 -69.74  0.001062327    2.019    0.505
       150  -9.1078    132.3270    125.3252   8.8968500173e+01   3.0806309452e+01    0.1573294    0.1243449  -5.04  0.000704959    1.696    0.410
       151  -9.6236     72.4493    121.1955   1.0445980170e+02   4.2345960391e+01    0.4550663    0.2435983  63.44  0.001775298    2.892    0.654
       152  -9.9806    142.5329    120.1452   8.5116130767e+01   2.9789150975e+01    0.4697508    0.3259891 -79.19  0.001566029    2.189    0.543
       153  -9.5833    131.2890    119.1083   8.7713218047e+01   3.2413022121e+01    0.3940988    0.2583563  89.25  0.001430263    2.830    0.647
       154  -9.9808      3.4180    117.4127   1.2340750900e+02   5.0054260963e+01    0.5076787    0.2129567  75.75  0.002208292    3.164    0.684
       155 -10.0072    110.0706    115.1753   9.2429638544e+01   3.7542821008e+01     0.498505     0.322302  77.37  0.001920922    2.616    0.618
       156 -10.3776     80.1897    113.6264   1.0062543870e+02   4.3023310884e+01    0.5133756    0.3292045  72.24  0.002033958    2.300    0.565
       157 -10.6064     67.5282    111.5591   1.0394122528e+02   4.5336662235e+01    0.4672554    0.2518113  57.12  0.001697062    2.538    0.606
       158 -10.3103     94.1355    113.4822   9.6529591316e+01   4.0807092473e+01    0.5980285    0.3087145  52.73   0.00217337    2.369    0.578
       159  -9.1130    123.0767    113.3677   8.8430208792e+01   3.5396294331e+01    0.3144171    0.1946243  58.49  0.001288472    1.951    0.488
       160 -10.6404     14.4309    110.2046   1.1949921237e+02   5.1013626093e+01     0.454123    0.2543413 -87.65  0.002467365    1.728    0.421
       161 -10.0091     59.9372    109.9694   1.0590052843e+02   4.6704903704e+01    0.2157348     0.157012  76.01  0.000951323    1.664    0.399
       162 -11.0908     47.0210    103.5300   1.0858986806e+02   4.9741549616e+01    0.9264378    0.4487375  63.43  0.003325962    4.121    0.757
       163 -11.0532     23.6659    103.2138   1.1575892817e+02   5.1972923137e+01     0.734012    0.3571805  69.32  0.003067668    3.378    0.704
       164  -9.9190    130.4342    103.6323   8.3899291974e+01   3.6010253861e+01    0.6472052    0.3878488  77.42  0.002008124    3.906    0.744
       165  -9.5218    140.2811    105.1651   8.1764364163e+01   3.3523695334e+01     0.303295    0.2122775  76.76  0.001134104    2.086    0.521
       166  -9.0948    150.3467    103.8685   7.8908154137e+01   3.1519351073e+01    0.3100025    0.2392567 -71.42  0.001020076    1.616    0.381
       167  -9.8249      7.5793    103.7432   1.2065999559e+02   5.2953780026e+01    0.2873381    0.1724777  53.90  0.001574645    1.951    0.487
       168 -10.7754    111.2846    100.6440   8.8345047180e+01   4.0614927914e+01    0.9637846     0.472066  61.53  0.002931646    4.020    0.751
       169  -9.4696     83.0751    100.8754   9.6768357144e+01   4.5578517352e+01    0.4279792    0.2513739  66.75  0.001627547    3.007    0.667
       170 -10.8188     65.2108     97.5120   1.0154481056e+02   4.8973746492e+01    0.6213555    0.4286074  69.84  0.002573871    2.014    0.504
       171  -9.8382     96.8805     98.0037   9.1840451931e+01   4.3910354888e+01    0.5838929     0.228629  46.33  0.002056499    2.863    0.651
       172  -9.0182    139.5129     93.0049   7.8548853362e+01   3.6249946701e+01    0.3135723    0.2001693  88.20  0.001031795    3.382    0.704
       173  -9.8762    126.1119     92.1184   8.1817842553e+01   3.9411329553e+01    0.5820811    0.3307011  61.31  0.002188536    2.408    0.585
       174  -9.9896      5.9789     92.6138   1.1965309972e+02   5.5601772295e+01    0.4099888    0.1865629  42.59  0.002133497    2.689    0.628
       175  -8.6040    107.3158     92.3309   8.7182740672e+01   4.3229821649e+01    0.1553855    0.1186994 -10.13 0.0007046194    1.682    0.406
       176  -9.8024     43.9619     92.0149   1.0721888176e+02   5.2772219104e+01    0.2193717    0.1328702 -13.66  0.001018295    2.554    0.608
       177 -10.8515     35.3454     90.1591   1.0969262228e+02   5.4040890053e+01    0.4767499    0.2802855  88.77  0.002233658    2.431    0.589
       178 -10.8802     88.2532     88.0653   9.1764623487e+01   4.7646098636e+01    0.6764302    0.3380851  56.77  0.002404252    3.289    0.696
       179 -10.5816     49.9819     85.7677   1.0378324321e+02   5.3567519481e+01    0.6248233    0.3425348  59.82  0.002605331    3.143    0.682
       180 -10.0388    106.4638     84.7164   8.5213006167e+01   4.5040234346e+01    0.6379241     0.379997  68.46  0.002271907    3.191    0.687
       181  -8.9537    141.8126     83.9898   7.5307721094e+01   3.7536527447e+01    0.4114752    0.2212801  74.02  0.001098385    4.990    0.800
       182 -10.2864      9.5567     82.4013   1.1692087816e+02   5.7724431231e+01    0.3825471    0.3222423  -6.19  0.002225057    1.476    0.322
       183 -10.5620     25.2141     81.4470   1.1137460389e+02   5.6894586370e+01    0.4464862    0.2782108  66.77  0.001820848    2.324    0.570
       184  -9.9025     75.3802     81.4038   9.4044141417e+01   5.1194452487e+01    0.3069224    0.2163243  84.53  0.001370351    2.404    0.584
       185  -9.7633     36.1614     81.0835   1.0747325028e+02   5.6051118061e+01    0.2933116    0.1436592 -35.38  0.001339945    2.334    0.571
       186  -8.7512    119.9876     80.7274   8.0095899121e+01   4.3090734669e+01    0.2637487    0.1617363 -72.62 0.0008795573    3.374    0.704
       187  -9.5223     61.6864     77.0576   9.7484189422e+01   5.4100154820e+01    0.3474803    0.2050482 -74.05  0.001423933    2.684    0.627
       188  -9.1211    129.1928     76.7200   7.6332160606e+01   4.1861265361e+01    0.4032216    0.2713404 -87.03   0.00150091    2.810    0.644
       189 -10.2072     83.9346     74.1704   8.9053115194e+01   5.1384460932e+01    0.5684522    0.3818554  75.60  0.002315948    2.929    0.659
       190  -9.1184      8.5416     73.7849   1.1576867145e+02   5.9715125053e+01    0.3935096    0.1579179  45.34  0.001774003    3.648    0.726
       191  -9.1572    106.7820     72.9062   8.1450153917e+01   4.7414261380e+01    0.2777534      0.20238  76.22  0.001223163    2.108    0.526
       192  -9.4425     95.9468     72.3439   8.4597928721e+01   4.9631452987e+01    0.3742402    0.2690861 -77.88  0.001646687    2.253    0.556
       193  -9.0823     43.4819     73.5138   1.0302316483e+02   5.7032397456e+01    0.2079168    0.1136465  41.16 0.0009153576    2.229    0.551
       194 -10.4389     52.8721     70.8589   9.8882052659e+01   5.6564986788e+01    0.5579035    0.3837554  64.17  0.002723966    2.288    0.563
       195  -9.7733     16.5802     70.0913   1.1212290020e+02   6.0055099193e+01    0.3420726    0.2011289  89.93  0.001749858    2.354    0.575
       196  -8.8602     31.6489     67.6959   1.0592376181e+02   5.9442110141e+01    0.1341848    0.0794326 -33.37 0.0007040779    1.703    0.413
       197 -10.2244     39.2575     65.5519   1.0247097527e+02   5.9200848682e+01    0.5231695    0.2246421  43.79  0.002232984    3.274    0.695
       198  -9.3692    112.2267     65.2052   7.7305684477e+01   4.7781144319e+01     0.469068    0.2085695  54.56   0.00167291    2.760    0.638
       199  -9.2478    101.8237     61.9207   7.9296441315e+01   5.0536611643e+01    0.3760476    0.2456533  78.59   0.00138534    3.381    0.704
       200 -10.5139     75.2322     60.6112   8.7621431984e+01   5.5578210957e+01    0.6520119    0.3091976  47.14  0.002655323    2.619    0.618
       201  -9.4002     26.1878     60.0685   1.0607055480e+02   6.1544187550e+01    0.4053174    0.1566937  40.73  0.001744085    3.603    0.722
       202 -10.1492      8.3139     58.2005   1.1271091401e+02   6.3131693686e+01    0.3414269     0.224357  58.31  0.001808941    2.230    0.552
       203  -8.9774    122.3249     57.6760   7.1906700385e+01   4.6925282379e+01     0.252708    0.1557014  53.32  0.001108429    1.680    0.405
       204  -9.7991     54.9896     55.2146   9.3261501838e+01   5.9567431457e+01    0.4536601    0.2821457 -71.83  0.001965872    2.978    0.664
       205  -9.9274     45.1240     56.3762   9.7489596642e+01   6.0514492082e+01    0.3387119    0.2455287  59.28  0.001531461    2.134    0.531
       206 -10.1364     64.3092     55.6144   8.9865169643e+01   5.8219616257e+01    0.4301987    0.2443144  43.46  0.001658304    2.090    0.522
       207  -9.3778    108.3750     55.2256   7.4980309477e+01   5.0405388664e+01    0.3443411    0.1984322  63.40  0.001240693    2.560    0.609
       208  -9.3918    100.2329     53.9646   7.6984812801e+01   5.2304049475e+01    0.2711952    0.2409531  89.71 0.0007578541    1.482    0.325
       209 -10.0989     93.5939     51.7635   7.8278625845e+01   5.3997537998e+01    0.4947819     0.315713  63.35  0.002157993    2.403    0.584
       210  -9.0953     21.0929     53.3910   1.0634046782e+02   6.3341987246e+01    0.2580318    0.1588161  39.43  0.001278526    2.128    0.530
       211 -10.2813     32.6095     52.4610   1.0131910976e+02   6.2586029767e+01    0.4756192    0.2364986  44.21  0.002258943    2.949    0.661
       212  -9.5958     81.9831     47.3110   8.0488990976e+01   5.6924090997e+01    0.2391334    0.1974973  56.12 0.0009232441    1.527    0.345
       213  -9.7396     17.8947     45.6348   1.0550305925e+02   6.5163855800e+01    0.3704039    0.1758694  35.70  0.001824235    2.715    0.632
       214  -9.9719     45.4058     44.8894   9.3515102430e+01   6.2753507645e+01    0.2321215    0.1990132  64.97 0.0008443238    1.759    0.432
       215 -10.0606     71.3744     42.8969   8.2576576981e+01   5.9492224936e+01    0.5671333    0.3067013  55.49   0.00234462    3.132    0.681
       216  -9.9386     58.9231     43.2857   8.7464644902e+01   6.1310787428e+01    0.3305711    0.2542456 -78.91  0.001710936    2.377    0.579
       217  -9.7479      5.4716     42.3555   1.1003857678e+02   6.6579959273e+01    0.3671105     0.207535 -79.46  0.001968883    2.414    0.586
       218  -9.8258    107.3299     42.2924   7.0542232816e+01   5.2763540302e+01    0.3870275    0.2079154  62.65  0.001534251    2.596    0.615
       219  -9.4914     37.4998     41.2588   9.5552196647e+01   6.4317816910e+01    0.2850073    0.2042312  48.90  0.001257717    2.055    0.513
       220  -9.5429     96.4747     39.1551   7.2583977870e+01   5.5515510928e+01    0.2760809    0.2207045 -78.51  0.001336098    1.961    0.490
       221  -9.6154     83.0531     38.3901   7.6651101467e+01   5.8225250526e+01    0.4093544     0.318873  86.50  0.001803752    2.327    0.570
       222  -9.1189     26.6945     36.5908   9.8664657900e+01   6.6242237126e+01    0.1869486    0.1443098 -66.76  0.001175883    1.680    0.405
       223  -9.3985    112.6906     35.6757   6.6527187196e+01   5.2567907065e+01    0.2817501    0.2081221 -71.71  0.001329457    2.079    0.519
       224  -9.1940    105.8769     35.9250   6.8519457721e+01   5.4030954130e+01    0.2220276    0.1857866   9.32  0.001226878    1.179    0.152
       225  -8.9764    120.6362     34.2209   6.3900644361e+01   5.0956132403e+01    0.3391255    0.1992747  71.42  0.001401704    2.375    0.579
       226  -9.9084     62.1600     33.5422   8.2317478996e+01   6.2516792353e+01    0.4828201    0.2228502  49.84  0.001993347    3.270    0.694
       227  -9.9454     50.7580     33.6597   8.6984769144e+01   6.4119729046e+01    0.3113355    0.2325809  57.49  0.001732867    2.222    0.550
       228  -9.4098    222.3549     32.3765   4.5901841430e+01   2.5663055946e+01    0.3056377    0.1817322 -49.94  0.001322887    1.588    0.370
       229  -9.6224     74.5110     32.4771   7.7227308193e+01   6.0675439706e+01    0.3793477    0.2163167  53.21  0.001774007    2.330    0.571
       230  -9.2612     12.9052     31.3591   1.0327973386e+02   6.8298772353e+01    0.1915938    0.1388757 -54.96 0.0006787797    1.325    0.245
       231  -9.7073    103.4184     30.0204   6.6894184495e+01   5.5388277954e+01    0.3609047    0.1966518  63.07   0.00152453    2.399    0.583
       232 -10.4751     83.0087     28.7109   7.2682182909e+01   5.9697419867e+01    0.4779976    0.3374937  81.50  0.002122702    3.084    0.676
       233  -9.7217     93.4589     27.6135   6.8862889236e+01   5.7800634166e+01    0.3777619    0.2579586  69.47  0.001818618    2.184    0.542
       234  -8.5346      3.6083     27.8040   1.0662465720e+02   6.9526629584e+01    0.1514015   0.09284382 -64.00 0.0008618031    1.674    0.403
       235  -9.2749    110.0959     24.6516   6.2923288325e+01   5.4613644022e+01    0.1982844    0.1671065  38.70 0.0006354199    1.095    0.087
       236  -8.6548     42.2898     30.6467   8.9383707999e+01   6.5700628892e+01    0.1110838    0.0979429 -65.49 0.0006847238    1.675    0.403
       237  -8.7389     44.0175     25.5516   8.6466575270e+01   6.6338859533e+01    0.1658834    0.1130857  22.34 0.0004211067    1.500    0.333
       238  -8.6650    107.5326    248.9706   1.1412908437e+02   1.0154643711e+01    0.1439131    0.1110666 -74.38 0.0006983416    1.510    0.338
       239  -9.1134     58.6169     22.8583   7.9096311744e+01   6.4716892313e+01    0.2665182    0.1096822 -35.05 0.0009500083    2.252    0.556
       240  -9.9960     49.8938     22.3305   8.2478506259e+01   6.6068468987e+01    0.3851078    0.1767266  43.12  0.001828717    2.637    0.621
       241  -9.0611     12.7635     21.4407   9.9733242187e+01   7.0125190044e+01    0.1724597    0.1439165 -11.20 0.0008874094    1.215    0.177
       242 -10.0951    245.6524    247.7492   8.9280365820e+01  -1.0613497572e+01     0.369022     0.160879  38.14  0.002062185    1.981    0.495
       243  -8.9624    188.3268     20.3320   4.6763099657e+01   3.5618589564e+01    0.1452424    0.1011723  36.68 0.0004097016    1.712    0.416
       244  -8.5393     84.3467     20.6910   6.8786600420e+01   6.0522707514e+01    0.1233906    0.1072338 -70.31 0.0007044458    1.704    0.413
       245  -9.8342     89.3902     18.1881   6.6104298277e+01   5.9829965758e+01    0.3898215    0.1911786  58.96  0.001685948    2.490    0.598
       246  -9.2540    195.4975    248.5257   9.8089976825e+01  -3.3971691061e+00    0.1194637   0.09186996  28.42 4.533742e-05    1.009    0.009
       247  -9.3993     30.9742     16.9858   8.8679424704e+01   6.9233128051e+01    0.1614321    0.1463117 -57.30 0.0007604833    1.702    0.412
       248 -10.2146    237.2693    240.7244   8.9588913027e+01  -8.6840737599e+00    0.3339273    0.2422146  21.33  0.002107458    1.067    0.063
       249  -9.5742     84.7684     11.4468   6.4532160205e+01   6.1531621598e+01     0.241799     0.125232  56.65  0.001135062    2.118    0.528
       250  -8.3476     48.3342     10.6660   7.7599258623e+01   6.7945656934e+01    0.1069571   0.09778091 -53.60 0.0003792702    1.736    0.424
       251  -7.9188    103.3308    241.6845   1.1417968277e+02   1.1974529821e+01      0.12461   0.07308669  63.62 0.0005118273    1.681    0.405
       252  -9.3509    109.2406    239.2312   1.1283824877e+02   1.1505415350e+01    0.2582134    0.1476113  78.46  0.001327709    2.478    0.596
       253  -9.0917     40.5116     19.7534   8.5453557028e+01   6.7694193499e+01    0.2661361    0.1973385 -60.36  0.001521306    2.319    0.569
       254  -8.8184    160.5534    234.5338   1.0258264333e+02   4.1158424497e+00     0.124406    0.1015285  38.75 5.086839e-05    1.006    0.006
       255  -8.8318    100.2978    234.3362   1.1400669243e+02   1.3684710277e+01    0.1045834   0.09390311   3.13  0.000703204    1.653    0.395
