#   1 NUMBER                 Running object number                                     
#   2 MAG_AUTO               Kron-like elliptical aperture magnitude                    [mag]
#   3 X_IMAGE                Object position along x                                    [pixel]
#   4 Y_IMAGE                Object position along y                                    [pixel]
#   5 X_WORLD                Barycenter position along world x axis                     [deg]
#   6 Y_WORLD                Barycenter position along world y axis                     [deg]
#   7 A_WORLD                Profile RMS along major axis (world units)                 [deg]
#   8 B_WORLD                Profile RMS along minor axis (world units)                 [deg]
#   9 THETA_WORLD            Position angle (CCW/world-x)                               [deg]
#  10 FWHM_WORLD             FWHM assuming a gaussian core                              [deg]
#  11 ELONGATION             A_IMAGE/B_IMAGE                                           
#  12 ELLIPTICITY            1 - B_IMAGE/A_IMAGE                                       
         1  -9.6914      1.8135     30.2994   1.1796257694e+02   6.8272172355e+01    0.5193431    0.2188683 -59.04  0.002512018    3.403    0.706
         2 -11.6349     80.3652     23.3881   8.4431138400e+01   5.9397579514e+01    0.5465178    0.2225929  37.04   0.00247406    2.352    0.575
         3  -8.8678     45.9026     20.7351   9.5237456912e+01   6.5227053779e+01    0.3177611    0.1846192 -39.62  0.001572662    2.024    0.506
         4  -9.8630    133.9853     13.5089   6.8422725379e+01   4.9236524705e+01     0.289635     0.185787  51.28 -1.462438e-05    1.338    0.253
         5  -9.4180    130.0113     10.0238   6.8092486374e+01   5.0447479293e+01    0.3044942    0.2374253   2.52  0.001495896    1.558    0.358
         6  -8.3476    125.3680     10.1552   6.8991532259e+01   5.1470765077e+01    0.2331483    0.1375003  48.20 0.0003231113    1.454    0.312
         7  -9.6347     64.7375     13.6572   8.5597126402e+01   6.3150400373e+01    0.4338766    0.2688115  12.16  0.002419319    1.662    0.398
         8  -9.8366     77.8358     13.1532   8.1319044052e+01   6.0915685308e+01    0.6190807    0.2055021  47.98  0.002773565    2.498    0.600
         9  -8.2920     96.9956     12.0363   7.5746986832e+01   5.7335369680e+01    0.1962691    0.1505776  36.60 0.0007185594    1.104    0.094
        10  -9.5129     31.6121     10.8650   9.6898998800e+01   6.8235197110e+01    0.5007398    0.2319299  15.01  0.002508498    2.735    0.634
        11  -9.3434     32.1724      6.1173   9.4576919023e+01   6.8691066921e+01    0.2621362    0.1572746  16.41 0.0002908766    1.450    0.310
        12  -8.6055     71.6772      8.9330   8.1519935774e+01   6.2414581519e+01    0.2062167    0.1300614  34.39 0.0006676058    1.317    0.241
        13  -9.4148     76.5836      6.4019   7.9082415851e+01   6.1757676451e+01    0.3021774    0.2352646  12.48  0.001409503    1.191    0.160
        14 -10.1924      7.4190      5.5480   1.0568310170e+02   7.1384774949e+01    0.5180883      0.20439  12.88  0.002596552    3.225    0.690
        15  -8.0690    156.0524      7.0757   6.3071964776e+01   4.4764771993e+01    0.1478086    0.1246389  70.41 0.0003517904    1.021    0.020
        16  -8.9193    119.3035      6.8642   6.9121171587e+01   5.3085964417e+01    0.2213493    0.1540874  47.70 0.0002369618    1.215    0.177
        17  -9.1126     46.5721      6.3315   8.8938916036e+01   6.6715762390e+01    0.2420737     0.159107  23.29  0.001245645    1.248    0.199
        18  -9.1849     41.2013      5.8048   9.0768617520e+01   6.7531905583e+01    0.2901137    0.1968085   9.17  0.001130838    1.230    0.187
        19  -9.1628     92.5276      5.4299   7.4486922005e+01   5.8796864714e+01    0.5013906    0.1456202  51.74  0.001797553    2.578    0.612
        20  -9.6415     84.8577      5.5675   7.6489342387e+01   6.0280501147e+01    0.2304893    0.1828602  28.88 0.0001260933    1.069    0.064
        21  -7.8226    179.5158      4.9833   5.9536838111e+01   3.9531865799e+01    0.1612705    0.1201998 -38.05 0.0005680543    1.534    0.348
        22  -9.1198    110.8276      3.3717   6.9678109136e+01   5.5193067846e+01    0.3143681    0.2065349 -42.31  0.001182673    1.906    0.475
        23  -8.6714    105.5608      2.1224   7.0356296643e+01   5.6399808578e+01    0.2853317    0.1410462  55.09  0.001529131    1.615    0.381
        24  -8.6895    143.0620      2.4028   6.3700405818e+01   4.8145904903e+01    0.1950551    0.1585826  31.50 0.0003723629    1.384    0.277
        25  -8.4191    134.0812      3.3231   6.5388325522e+01   5.0101206112e+01    0.1780717    0.1303922  60.10 0.0004329925    1.120    0.107
        26  -7.9518     57.3279      3.4031   8.3858870111e+01   6.5334743190e+01    0.2111898   0.08730696  42.81  0.001115723    2.011    0.503
        27  -8.2117    236.9861      2.5033   5.3650632825e+01   2.7064591362e+01    0.1606619   0.07387981  55.33 0.0008105176    2.663    0.624
        28  -7.9560    154.0126      3.0000   6.2271749616e+01   4.5592195554e+01     0.208754    0.0593359  67.27 0.0006382573    2.899    0.655
        29  -7.9815      2.7290      1.3846   1.0617788072e+02   7.2288507146e+01     0.137555   0.07552066   7.85 0.0005633878    1.625    0.385
        30  -9.0376    133.6287    106.6963   9.5795179516e+01   3.4891038768e+01     0.487423    0.3300189 -28.32  0.002111958    1.755    0.430
        31 -11.0313    196.2941    249.4301   1.1122177418e+02  -6.8370047684e+00    0.5937006    0.3754835  33.77  0.003356657    1.381    0.276
        32  -7.6490     39.2110    109.9872   1.2455030259e+02   4.9609960351e+01     0.183627   0.09279209 -59.48 0.0008647392    1.697    0.411
        33  -8.8471    250.5142    109.9930   7.3872061170e+01   8.5248237517e+00      0.21752    0.1170012 -43.03 0.0005683218    1.600    0.375
        34  -8.3577    123.3235    107.6801   9.8760385104e+01   3.6874232066e+01    0.3138586    0.1908816  21.81  0.001175316    2.534    0.605
        35  -8.7516    115.5298    107.0112   1.0070335654e+02   3.8615110641e+01    0.2777669    0.2145205 -89.69  0.001270268    1.779    0.438
        36  -7.9990    109.7316    106.3484   1.0214618766e+02   3.9907865773e+01    0.3952479    0.2308883  14.46  0.001319959    3.479    0.713
        37  -9.0260     15.0846    104.6448   1.3110191705e+02   5.2890739925e+01    0.3097849     0.150931 -32.79  0.001512104    2.353    0.575
        38  -7.7480     66.6747    104.6506   1.1466495395e+02   4.7531361800e+01    0.1494116     0.100232 -25.12  2.37162e-05    1.753    0.430
        39  -7.8278     95.0122    103.0000   1.0552060512e+02   4.3389056911e+01    0.2436424   0.08417033  39.43 0.0008123338    3.011    0.668
        40  -8.1133    139.8833     99.3843   9.2252947845e+01   3.5032296573e+01     0.225817    0.1404671  36.80 0.0006826213    1.780    0.438
        41  -8.3206    130.3147     97.1612   9.4067453851e+01   3.7592856486e+01    0.3431633    0.1624283  34.97  0.001196587    2.686    0.628
        42 -10.0535     15.5057     94.5177   1.2908460344e+02   5.5105866726e+01    0.3857524    0.1584626 -49.21  0.001704541    1.882    0.469
        43  -7.7892    150.7772     95.3922   8.8557440281e+01   3.3358327914e+01    0.2199669    0.1406326  40.49 0.0009446471    1.666    0.400
        44  -8.2037     31.0804     94.9954   1.2401412659e+02   5.3757668499e+01    0.1870444    0.1491309  76.92 0.0006744993    1.684    0.406
        45  -7.5271    117.7142     93.6703   9.6449690996e+01   4.0974031169e+01    0.1508421    0.1177885  -3.92 0.0002814206    1.614    0.380
        46  -7.8759     83.3290     93.3285   1.0646063320e+02   4.7469066064e+01    0.1491943    0.1073234 -13.49 0.0003313636    1.709    0.415
        47  -9.0323     42.8612     92.5131   1.1949056848e+02   5.3141377351e+01    0.2536055     0.186805 -37.77  0.001137464    1.208    0.172
        48  -9.3302      1.7253     91.5313   1.3305130860e+02   5.6601208669e+01     0.590194          nan -58.50  0.001876893    4.697    0.787
        49  -7.8794    164.5067     92.0170   8.4592193049e+01   3.0814569841e+01    0.2157881    0.1385355 -14.07 0.0008101198    2.659    0.624
        50  -8.3286     96.7588     90.2085   1.0147291743e+02   4.5775022026e+01     0.366412    0.2241253   8.79  0.001385343    2.929    0.659
        51 -10.2395     12.3891     93.7394   1.2996069488e+02   5.5487427497e+01    0.4604296    0.2143099 -44.16  0.002212541    1.805    0.446
        52  -7.2980    176.0043     90.6711   8.1866928534e+01   2.8359694321e+01    0.2487009    0.1249367  75.59 0.0007051901    4.358    0.771
        53  -8.3889    110.5388     90.5027   9.7547718421e+01   4.3071580473e+01    0.2619081    0.1376405  32.81 0.0009896555    2.238    0.553
        54  -8.0292    150.6639     87.6621   8.6483447962e+01   3.4870807063e+01    0.1559957    0.1204788  12.78 0.0007051537    1.751    0.429
        55  -7.6341    139.6436     87.6606   8.9083651309e+01   3.7395307836e+01    0.1586138    0.1194348  11.49 0.0007039934    1.813    0.448
        56  -7.8739     66.0153     84.2815   1.0953351177e+02   5.2003365988e+01    0.1859618    0.1636005  -4.04 0.0001730702    1.120    0.107
        57 -10.4405     37.8906     80.9549   1.1833108762e+02   5.6100414188e+01    0.6985309    0.3554757   5.78  0.003108303    2.928    0.658
        58  -7.6061     21.2843     84.6412   1.2505946126e+02   5.6805372354e+01    0.1149978   0.09186411  87.29  0.000701973    1.675    0.403
        59  -9.0757    230.9273     80.6623   7.0324922728e+01   1.7585200797e+01    0.2438676    0.1955956 -55.69 0.0004429151    1.107    0.096
        60  -7.5636    159.3544     80.2794   8.2549903015e+01   3.4188849223e+01    0.1507005    0.1156476  24.71 0.0005388542    1.654    0.396
        61  -8.8792     88.0832     78.7953   1.0078627405e+02   4.9587120627e+01    0.4775518    0.2567374  21.53  0.001877444    2.732    0.634
        62  -9.7940      7.2732     77.9958   1.2853574138e+02   5.9146042598e+01    0.4868632    0.1953806 -29.26  0.002232553    2.921    0.658
        63  -8.2479    184.2166     78.1254   7.7099066153e+01   2.8663891766e+01    0.2103712    0.2022541  36.43 0.0005759608    1.190    0.160
        64  -9.1287     50.0790     76.7373   1.1288142984e+02   5.5611204773e+01     0.415133    0.2025339  12.32  0.001690392    3.200    0.687
        65  -9.8556     23.4028     74.0363   1.2178807146e+02   5.8827383652e+01    0.5348326    0.1796238 -41.77  0.002326423    2.538    0.606
        66  -9.8505     28.7437     68.9843   1.1849207179e+02   5.9374258997e+01     0.372128    0.1873699 -14.43  0.001630942    2.862    0.651
        67  -8.1789     23.3038     69.0597   1.2054832332e+02   5.9825718248e+01    0.2347509    0.1595633 -46.82 0.0006380287    1.217    0.179
        68  -8.0849     74.8859     74.5628   1.0374251846e+02   5.2589784420e+01    0.2112989    0.1608235   8.77 0.0006203461    1.413    0.292
        69  -7.8609    157.3270     74.3291   8.1354701851e+01   3.5708098375e+01    0.1501921    0.1157764  19.87 0.0007050817    1.705    0.414
        70  -7.8832    163.2315     69.7191   7.8883675247e+01   3.5083904750e+01    0.2184701    0.1241895 -24.74 0.0008809393    2.362    0.577
        71  -8.0721    128.8845     69.3729   8.6455415797e+01   4.3100998594e+01    0.2165044    0.1252932  40.66 0.0009442922    1.757    0.431
        72  -8.5514    106.2552     67.1707   9.1790564630e+01   4.8271427312e+01    0.2843119    0.1526302  32.75  0.001198521    2.117    0.528
        73  -8.7242     83.5766     64.4235   9.7744626239e+01   5.2991566177e+01    0.4604003    0.2756216  11.08   0.00197785    2.522    0.603
        74  -9.2072     18.2990     62.0344   1.2058180073e+02   6.1578769210e+01    0.5452428    0.2110295 -24.12  0.002071477    4.199    0.762
        75  -8.3328     24.8114     62.5862   1.1821729955e+02   6.0948646977e+01    0.1787135    0.1460128  35.58 0.0008194881    1.572    0.364
        76  -9.3288     27.0574     60.0407   1.1662040483e+02   6.1229589498e+01    0.2054983    0.1497371  50.29  0.001231332    2.121    0.528
        77  -8.6374     58.1564     62.3984   1.0569849939e+02   5.7288512717e+01    0.3233697    0.1588197  38.37  0.001463206    2.191    0.544
        78  -9.5766     62.8725     61.2595   1.0366303005e+02   5.6828490675e+01    0.5440949    0.2667576  21.14  0.002115591    2.683    0.627
        79  -8.5437      5.5679     61.8459   1.2546762185e+02   6.2467947276e+01    0.1670987    0.1294361  10.44  0.001012861    1.478    0.323
        80  -9.9630     36.9812     58.9202   1.1245342036e+02   6.0470831147e+01    0.3785151    0.2003105 -22.81  0.001879296    2.154    0.536
        81  -8.7571     96.6435     59.5162   9.2136915395e+01   5.1429260276e+01    0.3512916    0.1904352 -12.96  0.001288101    3.420    0.708
        82  -7.9437    157.4097     59.1654   7.7147808883e+01   3.8149867241e+01    0.2126357    0.1271942 -48.31 0.0009677376    1.800    0.444
        83  -8.2100    111.7005     58.1686   8.7455119908e+01   4.8628605767e+01    0.3841018    0.1898534  27.03  0.001351822    3.388    0.705
        84  -7.1460    165.3472     57.3314   7.5121192620e+01   3.6536601248e+01    0.1465351    0.1075428  28.73 0.0007049361    1.764    0.433
        85  -8.4980     72.2965     54.3179   9.8115362150e+01   5.6563061240e+01    0.1982224    0.1568284 -24.39    0.0005015    1.192    0.161
        86 -10.1011     75.2344     50.0126   9.5663625214e+01   5.6763149707e+01    0.3482656    0.2548543  36.37 0.0002301547    1.340    0.254
        87  -9.4103    129.9503     50.1375   8.0393284484e+01   4.5859439801e+01    0.2094843    0.1967461  -7.17 0.0002662667    1.137    0.121
        88  -8.5496    118.6829     51.0549   8.3389971504e+01   4.8215831945e+01    0.2725973    0.1802107  57.96 0.0008127936    1.542    0.352
        89  -9.3020     45.5899     48.7334   1.0583753937e+02   6.1254783583e+01    0.3549633     0.219752  -4.35  0.001385456    1.848    0.459
        90  -7.5511     40.6581     49.7240   1.0807661450e+02   6.1673658996e+01     0.125508   0.08039752 -11.20 0.0007001571    1.620    0.383
        91  -8.1298    106.8555     48.6178   8.5684880418e+01   5.1061989028e+01    0.2715985    0.1438839  34.58  0.001206725    2.031    0.508
        92  -8.8579      3.1307     45.8268   1.2219395765e+02   6.5572222919e+01    0.4346143     0.230912  38.55  0.002488194    2.839    0.648
        93  -8.9033     10.5051     47.0843   1.1946743639e+02   6.4881032377e+01    0.3026945     0.156192 -40.06 0.0007203288    1.494    0.331
        94  -9.3810     13.6812     45.6907   1.1771551044e+02   6.4897804920e+01    0.2231273    0.1440184 -41.21 0.0007566572    1.253    0.202
        95 -10.8296     83.1823     40.0162   8.9612064562e+01   5.6835299219e+01    0.3581525    0.2524625  -9.21 0.0002294967    1.517    0.341
        96  -9.1811     87.5131     38.0159   8.7584394039e+01   5.6309002038e+01    0.2567365    0.2141137   4.11 0.0007608203    1.138    0.122
        97  -9.7336     57.1648     42.1716   9.9190647212e+01   6.0747946183e+01    0.5932878    0.3011714   5.35  0.002194698    4.209    0.762
        98  -8.4195     32.0158     43.3452   1.0935127850e+02   6.3667695771e+01     0.368315    0.1333567  27.04  0.001714711    2.894    0.654
        99  -8.9481     35.7579     38.0199   1.0595321320e+02   6.4107082322e+01    0.3460006    0.1150232 -40.02  0.001565215    2.677    0.626
       100 -10.0129     38.9665     35.2888   1.0365601922e+02   6.4149222360e+01    0.7112889    0.1429836  34.00  0.002503907    4.975    0.799
       101  -7.7315    113.3363     42.3372   8.1943618988e+01   5.0572419135e+01    0.1433681   0.09609258  22.52 0.0007051643    1.750    0.429
       102  -9.4468     92.1842     43.8258   8.8217120009e+01   5.4643208018e+01    0.4236359    0.1450582 -34.41  0.001654261    3.047    0.672
       103  -9.9647      6.3564     33.6231   1.1701911342e+02   6.7440769841e+01    0.6669778    0.4009692 -16.69  0.004092984    1.474    0.322
       104  -7.5291    193.6572    111.6832   8.3640502633e+01   2.0226011887e+01    0.1514861    0.1221995   8.87 0.0003916393    1.714    0.417
       105  -7.2446    124.4223     39.5151   7.8377577927e+01   4.8528622528e+01    0.1351465    0.1194553  37.40 0.0002784582    1.062    0.059
       106  -8.3024    105.8557     37.0847   8.2128827730e+01   5.2819925761e+01    0.2646988    0.1643178  11.04  0.001005987    2.249    0.555
       107  -9.7017     68.7981     36.9668   9.3187662306e+01   5.9714919298e+01     0.548579    0.2314735  28.98   0.00229748    2.865    0.651
       108  -8.9281     22.0040     32.0698   1.0956634349e+02   6.6426158204e+01    0.2258625    0.1692899   4.93  0.001065708    1.224    0.183
       109  -9.4588     23.0016     35.5236   1.1037973654e+02   6.5800428100e+01    0.2973502    0.1883983  38.30   0.00183779    2.146    0.534
       110  -8.2301     19.0298     36.0000   1.1225465291e+02   6.6081613610e+01    0.1368468    0.1046158  -4.47 0.0004094806    1.158    0.136
       111  -9.0278     55.8731     35.8267   9.7339402947e+01   6.1852370890e+01    0.2391529    0.1793761   3.81 0.0005917531    1.196    0.164
       112  -8.3530    225.4061     31.9649   6.0525769864e+01   2.6056421306e+01    0.2543302    0.1136085 -37.86  0.001212623    2.250    0.556
       113  -8.8330    192.4360     29.3568   6.3760355299e+01   3.3888091032e+01    0.3403619    0.1876843 -79.04  0.001557677    2.247    0.555
       114  -7.9011     59.3070     30.3424   9.4021251325e+01   6.2086048807e+01    0.1276895   0.08149154   4.29 0.0007042863    1.689    0.408
       115  -9.5830     41.5246     26.7745   9.9376824276e+01   6.5033895195e+01    0.3294737    0.1895662 -46.44  0.001140093    2.352    0.575
       116  -8.2857    174.2066     27.1911   6.5712429933e+01   3.8436417306e+01    0.2714805    0.1220106  53.84  0.001222313    2.055    0.513
       117  -9.3090     63.3028     26.9156   9.1297418275e+01   6.1899107245e+01    0.4532478    0.1522788  43.98  0.001484902    2.863    0.651
       118  -7.7322    142.6521    111.6947   9.4837570330e+01   3.1845805649e+01    0.1591013    0.1255419   5.67 0.0007041847    1.698    0.411
       119  -8.3735     25.7802     25.2025   1.0533262189e+02   6.7060273219e+01    0.2281737    0.1124508 -20.74  0.001231768    2.115    0.527
       120  -8.7560     28.8028     21.1152   1.0240013309e+02   6.7294788887e+01    0.2683402    0.1665995  -2.13 0.0005004486    1.517    0.341
       121  -8.7555    144.6961     23.3237   6.9387582361e+01   4.5801538665e+01    0.2172734    0.1860709  51.45 0.0002883068    1.098    0.089
       122  -9.1547      9.6059    109.8031   1.3365466508e+02   5.2098799404e+01    0.2911979    0.1915085 -85.53  0.001161435    1.636    0.389
       123  -7.6551    128.8464     22.4251   7.2104879041e+01   4.9516866615e+01    0.1929375   0.09963834  49.57 0.0008128751    1.669    0.401
       124  -8.5548     92.3148     21.0006   8.0148538854e+01   5.7394559075e+01    0.2682753    0.1655309  33.65 0.0008869345    1.491    0.329
       125  -8.1539     63.9460     23.0000   8.9558128950e+01   6.2264294042e+01    0.1946597   0.06089619  44.35 0.0008060904    2.968    0.663
       126  -8.1094    140.4636     19.9933   6.9175210875e+01   4.7126089649e+01    0.1919585    0.1496902  59.25  5.77103e-05    1.100    0.091
       127  -8.3992      9.5255     19.7288   1.1054934874e+02   6.9323983026e+01     0.236341    0.1189765   9.31  0.001018106    2.032    0.508
       128  -8.0580      5.4279     19.0041   1.1220959274e+02   6.9744376550e+01    0.1509862   0.08470213 -40.17 0.0003668701    1.542    0.352
       129  -8.6001    127.4938     16.9906   7.0696413396e+01   5.0365987932e+01    0.2360406    0.1437217  47.16 0.0003674009    1.444    0.308
       130 -11.9603    241.0884    243.2400   1.0172363650e+02  -1.2539803948e+01    0.2431345    0.2048012  -0.74 0.0002028159    1.100    0.091
       131  -9.3203     19.8101    245.1213   1.4512516041e+02   2.0554036317e+01    0.1415315    0.1189022 -82.73 0.0003671404    1.358    0.263
       132  -9.4845      5.2557    237.1775   1.4713886080e+02   2.3692835363e+01    0.2099486    0.1759507  54.02 0.0008042853    1.415    0.293
       133  -8.2132    189.6817     15.4171   6.0816148372e+01   3.6128529363e+01    0.1842192    0.1550089  21.82  0.001091826    1.680    0.405
       134  -9.7986    188.4664    233.7006   1.1019551096e+02  -3.0058248977e+00    0.2349214    0.2252851  85.37  0.001009965    1.318    0.241
       135  -8.3890     49.3186    224.3320   1.3799118796e+02   2.1363670181e+01     0.114566   0.09452765 -45.87 0.0007048178    1.692    0.409
       136  -7.2489    147.5211     14.4892   6.6396128187e+01   4.6045791144e+01    0.1286734    0.1085367  62.70 0.0001441353    1.027    0.026
       137  -8.1503    105.2158     14.2163   7.4538778348e+01   5.5449966947e+01     0.214461     0.102693  28.25 0.0009401176    2.712    0.631
       138  -8.6804     88.4115     13.0203   7.8304083882e+01   5.8941350568e+01     0.240547    0.1334662  38.65 0.0009039791    1.554    0.357
       139  -8.6648    153.3888    220.3840   1.1530127451e+02   5.5668234089e+00    0.2111282    0.2041389 -20.41 0.0004476081    1.121    0.108
       140  -9.3359     41.0098    221.0180   1.3933873846e+02   2.3128707290e+01    0.2168289    0.1199711  70.41  0.001146605    1.741    0.425
       141  -7.7141    155.2611    205.9852   1.1242134446e+02   8.1548750635e+00    0.1874083    0.1827063 -54.96 0.0002300237    1.083    0.077
       142  -7.5895    109.2805     11.3664   7.2659330008e+01   5.4854593493e+01    0.1295671   0.08042476  29.56 0.0007013731    1.684    0.406
       143  -8.8104    246.2648    165.5251   8.6075571406e+01  -7.1112417320e-01    0.2297778    0.1851318 -39.81  0.000222432    1.123    0.110
       144  -9.0539    247.0600    160.7138   8.4958761616e+01   1.6780323711e-02     0.240623    0.1723673 -33.57 0.0003274748    1.245    0.197
       145  -7.4520    168.4501    158.5744   9.9963369935e+01   1.5841726196e+01    0.1514855    0.1504087 -48.54 0.0001174247    1.008    0.008
       146  -7.8659    247.2131    155.5947   8.3881799726e+01   9.1369678513e-01    0.1668368    0.1287511  27.30 0.0002628859    1.517    0.341
       147 -10.4159    215.1959    153.8984   8.9190101364e+01   7.1967680856e+00    0.2720169    0.2662445 -66.98  0.000346292    1.096    0.087
       148  -9.3998     67.1908    144.6295   1.2303941523e+02   3.7949083671e+01    0.4469382    0.3197502  75.95   0.00220848    1.691    0.409
       149  -7.7553     34.9054    145.5977   1.3200072139e+02   4.1573096838e+01    0.1763141    0.1116247  48.45 0.0009316789    1.768    0.434
       150  -8.6290    234.1397    136.1721   8.1962577162e+01   6.9093103384e+00    0.2309672    0.1837848 -53.00 0.0002913696    1.197    0.165
       151  -7.6203    219.3783    134.7311   8.4201636882e+01   1.0122393034e+01       0.1463    0.1124402 -83.42  0.000699275    1.686    0.407
       152  -8.1312    132.0022    125.3686   1.0101573072e+02   3.1126950897e+01    0.3493692    0.2126468 -13.01  0.001067179    3.925    0.745
       153  -7.3908     85.3995    121.2851   1.1294511634e+02   4.0866830922e+01    0.1522613    0.1127741 -14.05 0.0004787787    1.779    0.438
       154  -7.7249    119.6810    118.6739   1.0259606183e+02   3.5189031643e+01    0.1577738    0.1233112  -8.59 0.0007046153    1.678    0.404
       155  -7.7062    100.9688    118.5223   1.0776622956e+02   3.8825289926e+01    0.2112441    0.1357331  10.73 0.0008100929    2.564    0.610
       156  -7.5533    158.5379    117.5452   9.2534824333e+01   2.7033346593e+01    0.1548771     0.151838 -70.82 0.0008076756    1.012    0.012
       157  -7.8489     65.8994    116.8088   1.1775173959e+02   4.4844155587e+01    0.1863596    0.1616171 -85.26 0.0004870498    1.289    0.224
       158  -8.1202    131.3566    113.3231   9.8125060450e+01   3.3952318782e+01    0.3109571    0.2182481  14.15  0.001112322    2.105    0.525
       159  -8.1689    134.6986    113.0427   9.7190531764e+01   3.3295667247e+01    0.4009019    0.2019188 -60.70  0.001336162    2.917    0.657
