#   1 NUMBER                 Running object number                                     
#   2 MAG_AUTO               Kron-like elliptical aperture magnitude                    [mag]
#   3 X_IMAGE                Object position along x                                    [pixel]
#   4 Y_IMAGE                Object position along y                                    [pixel]
#   5 X_WORLD                Barycenter position along world x axis                     [deg]
#   6 Y_WORLD                Barycenter position along world y axis                     [deg]
#   7 A_WORLD                Profile RMS along major axis (world units)                 [deg]
#   8 B_WORLD                Profile RMS along minor axis (world units)                 [deg]
#   9 THETA_WORLD            Position angle (CCW/world-x)                               [deg]
#  10 FWHM_WORLD             FWHM assuming a gaussian core                              [deg]
#  11 ELONGATION             A_IMAGE/B_IMAGE                                           
#  12 ELLIPTICITY            1 - B_IMAGE/A_IMAGE                                       
         1 -12.6977     91.1741     26.6205   3.0530811004e+01   5.9328873596e+01    0.3931518    0.2840986 -31.65 0.0004847386    1.451    0.311
         2 -11.7273     33.1965     23.0158   5.3278056597e+01   7.3133386097e+01    0.7289296    0.3811638 -53.87  0.003101787    2.460    0.593
         3 -11.1923    100.6007     21.2239   2.5869489952e+01   5.7538984526e+01    0.4101681    0.3650166  83.36  0.001666408    1.043    0.041
         4 -10.8289     14.3439     16.1987   6.4078167645e+01   7.7342840392e+01     0.341282    0.2886364 -27.31   0.00130917    1.110    0.099
         5 -10.5328    148.0226     16.8792   1.7259384150e+01   4.5698687590e+01    0.2410987    0.1661345 -45.55 0.0003429589    1.308    0.236
         6 -10.3460     24.6751     13.1997   5.2547531805e+01   7.6323005926e+01    0.2224497    0.2017622  16.15 0.0005907535    1.031    0.031
         7 -11.6979     91.0740     10.2118   2.2595974277e+01   6.1209923244e+01    0.2693951    0.2386093 -71.02            0    1.117    0.105
         8  -9.6395     97.0000     13.9683   2.3250702033e+01   5.9278836664e+01    0.2497219    0.1771921  -7.37  0.001040273    1.726    0.421
         9 -10.1327     95.6178     10.2207   2.1735084264e+01   6.0011247551e+01    0.2523501    0.2321761  40.75 0.0008578713    1.185    0.156
        10 -11.5064     35.9872     12.0436   4.3581726751e+01   7.4364884081e+01    0.3580047    0.2648621 -83.40  0.001764817    2.248    0.555
        11 -11.1099     35.5906      8.0502   4.0653032938e+01   7.4987456845e+01     0.264306     0.227833  45.58 0.0002987472    1.110    0.099
        12 -12.9110     29.5947      4.9178   4.1841913981e+01   7.6622180623e+01    0.3857489    0.3332039 -21.86 0.0004706284    1.202    0.168
        13 -10.6067    203.2751     11.7444   1.1730085099e+01   3.3488798639e+01    0.2016921    0.1672397 -50.26 0.0002171281    1.107    0.097
        14 -10.2852    135.7287     11.8501   1.6798861326e+01   4.9327616991e+01    0.3738016    0.1549353 -68.88  0.001378275    2.936    0.659
        15 -11.5023    126.0050     10.9265   1.7550770438e+01   5.1933720347e+01    0.2500339    0.1986557 -69.60 0.0002826782    1.148    0.129
        16 -12.4019     55.0277      9.6842   3.2372731721e+01   7.0411454663e+01    0.4777691    0.2931791  44.16    0.0023608    1.560    0.359
        17 -11.3485     43.9446     10.4673   3.7895363592e+01   7.2877631320e+01     0.580554    0.3281758  17.81  0.002376425    2.818    0.645
        18 -11.5829     39.4981      3.0635   3.4347028724e+01   7.4724811030e+01    0.3206299    0.2591874  23.98  0.001080985    1.232    0.188
        19 -10.6768     43.7499      3.6386   3.2743601489e+01   7.3699906806e+01    0.3297768    0.2185571  68.49 0.0008845681    1.582    0.368
        20 -11.0594     48.4315      4.7648   3.1544983969e+01   7.2496460910e+01    0.2934293    0.2680407 -17.62 0.0009218588    1.173    0.147
        21 -11.1207     49.4507      1.4299   2.8624587898e+01   7.2573394872e+01    0.2523149    0.1201657  63.03 0.0001125687    1.903    0.475
        22  -9.8281    100.9559     11.2108   2.1250820498e+01   5.8506283526e+01    0.1935377    0.1656077  76.90 0.0003160022    1.073    0.068
        23 -10.9484     80.3122     10.1434   2.4897918787e+01   6.4029667646e+01    0.2522402    0.2208521  72.63 0.0003952085    1.051    0.048
        24 -10.4737    226.0825     11.4598   1.0591369480e+01   2.8992755622e+01    0.2006556     0.111057 -49.56 0.0008077577    1.323    0.244
        25  -9.4166    176.9667      9.9393   1.2767162759e+01   3.9433289072e+01    0.1516624    0.1220495 -54.27 0.0003008611    1.045    0.043
        26 -10.8560    116.5354      9.0662   1.7990767588e+01   5.4589204349e+01    0.2742166    0.2497554 -71.47  0.001340519    1.051    0.048
        27 -10.5858     19.4326      9.4696   5.3970965812e+01   7.7817645345e+01    0.3689075    0.1701494  36.31  0.001149619    2.117    0.528
        28  -9.5464    188.5237      9.5597   1.1965109473e+01   3.6868024722e+01    0.1264039    0.1014409 -58.08 8.966262e-05    1.019    0.018
        29 -10.5471      7.5540      8.1081   6.5216107512e+01   7.9738695926e+01    0.2902405    0.2118857 -88.08  0.001487857    2.489    0.598
        30 -10.1612    142.4071      6.8675   1.4396530674e+01   4.8091737292e+01    0.3485885    0.2098881  79.48 0.0008934642    1.550    0.355
        31 -10.2622     61.9233      6.5289   2.7827825911e+01   6.9055736049e+01    0.2434223    0.1836313  16.28 0.0005623349    1.517    0.341
        32  -9.4831    111.8372      6.1720   1.7397437558e+01   5.6084647138e+01    0.1829059    0.1494344  57.18 0.0004654872    1.259    0.206
        33 -10.8343     70.6698      5.0478   2.4387663441e+01   6.6985274012e+01    0.2445617    0.1937657  58.81 0.0001394674    1.148    0.129
        34 -10.5699     66.0787      5.3652   2.5829781797e+01   6.8123615657e+01    0.2754856    0.1793354 -36.53 0.0009767739    1.634    0.388
        35  -9.2142    247.3009      5.7244   8.5735968648e+00   2.5734888112e+01    0.1147587   0.05341579 -52.55 0.0002062681    1.537    0.349
        36 -11.1626    193.9014      4.8720   1.0446550657e+01   3.6146428838e+01    0.1942613    0.1646771 -60.78 0.0003304953    1.106    0.096
        37 -10.6352     80.5129      5.1640   2.2140138627e+01   6.4432097326e+01    0.3011393    0.1683383  61.03 0.0009741845    1.584    0.369
        38 -11.8059     19.9641      2.5266   4.7068955930e+01   7.8784682995e+01    0.3587627    0.2337173  12.56  0.001234227    1.893    0.472
        39 -10.3434    224.8657      2.8762   8.6974515482e+00   3.0056910686e+01    0.1539158    0.1349247 -44.56 0.0004628865    1.258    0.205
        40 -10.9012    204.8194      2.5670   9.3790544123e+00   3.4057653218e+01    0.2147689    0.1569494 -51.75 7.160366e-05    1.041    0.039
        41 -10.8421    148.6363      2.4458   1.2405377084e+01   4.6918000760e+01    0.2392862    0.2006287 -70.60 0.0005461674    1.012    0.012
        42  -9.8469     12.2811      2.3217   5.4425739849e+01   8.0103862548e+01    0.2812808    0.1963751  70.71  0.001330131    2.988    0.665
        43 -10.0292    210.6950      2.0092   9.0113675388e+00   3.2910887627e+01    0.1628634    0.1166353 -46.87 0.0002418665    1.086    0.079
        44  -9.0799    120.2848      2.7139   1.4985232766e+01   5.4151639518e+01    0.1412448   0.08831017 -60.69 0.0001870812    1.526    0.345
        45 -10.6190    245.3250      1.5330   7.7643601107e+00   2.6471812543e+01    0.1517259    0.1128068 -64.35 0.0004279981    1.208    0.172
        46  -9.3668    138.2584      1.3949   1.2837682240e+01   4.9616960873e+01    0.1291368   0.09674334  35.75 0.0006734116    1.702    0.412
        47 -10.9622      2.7827    111.8050   9.6260676846e+01   5.3292837775e+01    0.3595279    0.2261653  66.87 0.0002997255    1.525    0.344
        48  -9.6342    110.0280    250.7880   7.8248045950e+01   9.6013843578e+00    0.1562503   0.07370511  27.22  0.000449863    1.639    0.390
        49 -11.8189     24.1820    249.1167   9.6764433435e+01   1.8607274330e+01    0.3760994    0.1761897  38.37  0.002198827    1.502    0.334
        50 -11.7484     16.8617    248.7834   9.8340396029e+01   1.9303990468e+01    0.4711581    0.2200624   8.95  0.002302301    2.895    0.655
        51 -11.0603      1.4780    233.9607   1.0135346520e+02   2.3356622347e+01    0.3005407    0.1046953  89.67  0.001095412    3.073    0.675
        52 -12.3714     10.1140    244.6127   9.9688655243e+01   2.0635997875e+01    0.4102378    0.2456731 -57.36  0.002543686    2.265    0.558
        53 -11.5747      3.4975    248.1925   1.0119455154e+02   2.0513139888e+01    0.4977122    0.2157362  39.03   0.00292565    1.559    0.359
        54 -12.2178      4.7436    242.4171   1.0080741102e+02   2.1481715465e+01     0.536821    0.2183125  56.29  0.002588972    1.950    0.487
        55 -10.8065     23.3294    113.2810   8.7728756243e+01   5.1415879813e+01    0.2306953    0.1979483 -55.38  0.000431959    1.187    0.157
        56 -10.8081     25.9526    111.2228   8.6339743544e+01   5.1759919492e+01    0.3199517    0.2114253  30.10    0.0012924    1.533    0.347
        57  -9.6373    128.0714    112.2451   5.0852542611e+01   3.4465429737e+01    0.2038103    0.1812317  48.43 0.0004616005    1.167    0.143
        58  -9.9357     13.0000    108.9237   9.1627589051e+01   5.3480051721e+01    0.2441495   0.07727224 -77.74 0.0007971008    2.906    0.656
        59  -9.6882      8.5060    107.5433   9.3446000641e+01   5.4169341544e+01    0.1462567    0.1293743  77.08 5.696349e-05    1.053    0.050
        60 -12.3847      1.8104    104.6692   9.6145481787e+01   5.5354633377e+01    0.3399956    0.2403553 -57.44  0.001749628    1.378    0.275
        61 -10.8631     89.3773    105.3248   6.0303680352e+01   4.3921501466e+01    0.2825121    0.2778134 -89.56 0.0003911611    1.021    0.021
        62 -10.1925    249.5593    105.5039   2.9122457297e+01   1.3623010237e+01    0.1172086    0.0859182 -32.86 9.835153e-05    1.010    0.010
        63  -9.5862     38.6318    104.8094   7.9832903361e+01   5.2222060786e+01    0.2072141     0.139959 -83.69 0.0002243073    1.542    0.351
        64 -10.7299    109.0146    103.4174   5.3657012455e+01   4.0401006360e+01    0.2822724    0.2235623 -48.98 8.545809e-05    1.235    0.190
        65 -10.0359    112.7073    102.0520   5.2221436520e+01   3.9933568280e+01    0.2160518    0.1946837 -48.98 0.0002394787    1.085    0.078
        66 -11.3394     20.9468     98.9662   8.6776594837e+01   5.5692689503e+01    0.4502202    0.2770284  47.71  0.002043796    1.668    0.400
        67 -10.6071     18.3529     93.9676   8.7245602472e+01   5.7325083137e+01    0.3467583    0.2535146  69.29   0.00165694    1.415    0.293
        68 -10.1315    104.0033    101.2537   5.4538854517e+01   4.1947918023e+01    0.2760096      0.21519  26.01  0.000819666    1.504    0.335
        69 -10.0024    217.9567     98.3465   3.1175281722e+01   1.9522708997e+01    0.1620194    0.1478243 -35.66 0.0004960186    1.137    0.121
        70  -9.6028    139.6515     97.9040   4.4236434062e+01   3.4998483875e+01    0.2177055    0.1294252 -51.86 0.0004225424    1.709    0.415
        71 -10.1711     37.9826     97.5234   7.8680034897e+01   5.4339892926e+01    0.2929656    0.2079715  86.48 0.0007823407    1.547    0.353
        72 -10.1345     45.8992     97.1088   7.5054695919e+01   5.3435242334e+01    0.2363092    0.1956315  72.08 0.0002808445    1.273    0.215
        73 -11.6180     66.6987     92.1255   6.4983876477e+01   5.1497453480e+01    0.4364468    0.2527912 -56.44  0.001072178    1.690    0.408
        74  -9.5883    125.3055     92.9900   4.6268261284e+01   3.9157877079e+01    0.2096564     0.187114 -43.36 0.0001998586    1.096    0.088
        75 -10.5799     93.3665     92.8301   5.5455449668e+01   4.6143466390e+01    0.3822029    0.2608089  35.06 0.0007035414    1.602    0.376
        76 -11.3831     74.6128     92.9944   6.2142438513e+01   4.9832879715e+01    0.2721375    0.2262201  42.23 0.0003198621    1.217    0.178
        77 -12.0044     57.9126     91.2840   6.8385071866e+01   5.3209608661e+01     0.371506    0.3194115 -40.68 0.0008531437    1.216    0.178
        78 -10.1876    105.9702     91.7328   5.1186725184e+01   4.3702440937e+01    0.2196798    0.2103031  74.27  0.000480359    1.047    0.045
        79 -10.6366    145.6732     91.0197   4.1005414591e+01   3.5021984208e+01    0.2072931    0.1796918 -44.95  0.000617745    1.078    0.073
        80  -9.5377      7.5135     91.3913   9.2198117819e+01   5.8803734768e+01    0.1428799    0.1290375 -61.25 0.0002001071    1.083    0.077
        81  -9.9190      1.4543     89.7203   9.5025603993e+01   5.9584361482e+01    0.1978337     0.117508 -66.34  0.000567989    1.501    0.334
        82 -12.2188     31.1623     87.3396   7.9747296499e+01   5.7964124951e+01    0.2593873    0.2434662 -69.05 0.0003411787    1.014    0.014
        83 -13.7661     65.3494     81.9656   6.2515813805e+01   5.4324657919e+01    0.5883012    0.5091177  81.50 0.0008167938    1.262    0.208
        84 -10.4572     92.0097     85.1913   5.3554525905e+01   4.8210994671e+01    0.2445819    0.2166382 -52.13  0.000269671    1.112    0.101
        85 -10.3283     54.7500     84.8869   6.7977732748e+01   5.5404560481e+01     0.215474    0.1973369 -45.04 0.0002974291    1.106    0.096
        86 -10.6915      9.3935     80.8031   8.9824454935e+01   6.1666630897e+01    0.3429808    0.1181269  34.45  0.001245181    2.824    0.646
        87 -10.6169    145.5246     80.4567   3.8001238203e+01   3.7026071954e+01    0.1489377    0.1383191 -55.86 9.761513e-05    1.009    0.009
        88 -10.3352     47.4182     78.8785   6.9620190144e+01   5.8124635656e+01    0.4865072    0.2941642   6.88  0.001856352    2.525    0.604
        89 -10.1815    176.7866     76.9168   3.1553753991e+01   3.0697434835e+01     0.234708    0.2053297  70.63  0.001377107    1.266    0.210
        90 -12.1213     75.0134     76.6499   5.6869124699e+01   5.3752668887e+01    0.2738934    0.2603897 -83.55 0.0002967293    1.051    0.048
        91 -11.8658     10.7359     73.0632   8.7814928755e+01   6.3728363868e+01    0.4977061    0.3120315  64.30  0.001726196    1.803    0.446
        92 -11.9992      4.7568     72.9716   9.1257387677e+01   6.4099150340e+01    0.4757325    0.2463103  50.77 0.0003496202    2.142    0.533
        93  -9.8650     34.6562     73.6067   7.4558534798e+01   6.1287954962e+01     0.232024    0.1611497 -34.69   0.00106624    1.586    0.369
        94  -9.5570    105.5306     71.6066   4.4820529668e+01   4.8107623162e+01    0.1563156    0.1447193 -86.75 0.0001073795    1.075    0.070
        95 -12.2485     81.1651     66.8506   5.1036387875e+01   5.4671692892e+01    0.3317736    0.2925746 -33.56  0.000332828    1.204    0.169
        96 -11.7494     16.2647     65.2058   8.2898774764e+01   6.5459531780e+01    0.3914682    0.3655784 -35.50 0.0002481435    1.070    0.066
        97 -11.7737     11.7267     59.6081   8.4442823029e+01   6.7303707165e+01    0.2885146    0.2516723 -12.36 0.0003020697    1.198    0.166
        98 -10.3800     52.0266     63.9565   6.2416397874e+01   6.1127553630e+01    0.2303694    0.1820082 -15.65  0.000426349    1.549    0.354
        99  -9.3601    128.5114     63.5590   3.6282676499e+01   4.4089690536e+01    0.1514741    0.1407803 -71.27 9.414362e-05    1.011    0.011
       100  -9.1494    166.4839     64.4698   2.9666308025e+01   3.4933304868e+01    0.1416975    0.1271333 -52.14 0.0008094935    1.031    0.030
       101  -9.6297    154.3543     67.1975   3.2418048333e+01   3.7285832703e+01     0.207432    0.1193364 -45.40 0.0002863012    1.589    0.371
       102  -9.4281     97.5849     60.7673   4.3245007562e+01   5.2137461379e+01    0.2098685     0.142309 -52.15 0.0004433986    1.514    0.340
       103  -9.7678     37.1743     60.2211   6.8927481361e+01   6.4398465197e+01    0.2564126    0.1443329 -24.47 0.0009392681    2.769    0.639
       104 -12.3629     20.8521     56.9483   7.7772717009e+01   6.7217017667e+01    0.4662384    0.2417003 -62.68  0.001385328    1.793    0.442
       105 -11.8994     77.8606     58.0544   4.8840422569e+01   5.7257872086e+01     0.264575    0.2405206 -48.81 0.0003017107    1.104    0.094
       106 -11.0929     58.2412     58.9387   5.7478596122e+01   6.1159512235e+01    0.2561892    0.2127487  34.28 0.0002688489    1.233    0.189
       107 -10.0175     41.9311     58.7205   6.5712072287e+01   6.4056065426e+01    0.2030294    0.2022845  66.84  0.001149191    1.038    0.037
       108  -9.5007    216.9873     58.4685   2.2129161220e+01   2.5278239092e+01    0.1515048    0.1214226  80.49 0.0001971139    1.456    0.313
       109  -8.9684    115.7091     58.7064   3.7553911837e+01   4.8093929100e+01    0.1459951    0.1212061  19.21 0.0002135552    1.551    0.355
       110  -9.4746    121.1119     57.6783   3.5913755710e+01   4.6933822360e+01    0.2053878    0.1310581  50.01 0.0009055565    1.640    0.390
       111 -10.0978     30.2956     56.8595   7.1792827628e+01   6.6165160508e+01    0.2204839    0.1863553  34.23 0.0003055396    1.225    0.183
       112 -10.5494     86.4227     54.5616   4.4362084941e+01   5.5982659210e+01     0.348787    0.2583489  45.07 0.0009959189    1.376    0.273
       113 -12.5597     62.0470     49.9011   5.1871943010e+01   6.2348087572e+01    0.4427142    0.2665182 -46.91 0.0004729365    1.682    0.406
       114 -10.0159    182.2067     54.2156   2.4688451230e+01   3.2938593535e+01     0.187237    0.1682521 -45.82 0.0003943984    1.102    0.093
       115  -9.7955     35.3047     54.4741   6.7886846891e+01   6.6074921954e+01    0.2825893    0.1417953  11.93 0.0009508004    3.377    0.704
       116 -10.6857    114.8628     52.8502   3.5620988840e+01   4.9315087892e+01    0.3078429    0.2374509  54.72 0.0008279905    1.314    0.239
       117 -11.9603    105.1082     51.9714   3.7732051593e+01   5.1905847391e+01    0.2799023    0.2537852 -63.40 0.0002875432    1.078    0.072
       118  -9.8634    102.0168     48.0618   3.7012389617e+01   5.3344701141e+01    0.2191758      0.20854  19.56 0.0004242336    1.190    0.160
       119  -9.8206     67.5249     52.5272   5.0640742713e+01   6.0653622817e+01    0.2564779    0.1407831  35.57 0.0008818911    2.098    0.523
       120 -10.4525     83.5408     50.8871   4.3811588656e+01   5.7356849563e+01    0.3702398    0.2050337  42.26 0.0007011863    1.942    0.485
       121 -11.2835     78.3558     50.0296   4.5284742781e+01   5.8729621609e+01    0.2708381    0.2298643  57.96 0.0002430619    1.167    0.143
       122  -9.9647      4.1907     51.3403   8.7709288346e+01   6.9950153841e+01    0.1971219    0.1538995 -53.58  0.000549957    1.151    0.131
       123 -10.5292    138.4296     50.1966   2.9836250828e+01   4.3831580626e+01    0.2404553    0.1978542  72.58 0.0004029351    1.219    0.180
       124  -9.5953     92.8301     50.1707   4.0500440826e+01   5.5255018494e+01    0.1975468    0.1750183  26.88 0.0003729272    1.287    0.223
       125  -9.7413     53.2198     48.8169   5.5588248632e+01   6.4342455415e+01    0.2444153    0.1642201  88.50  0.000938917    2.777    0.640
       126  -9.5870    155.1314     47.2517   2.6205585812e+01   4.0169381159e+01    0.2011316    0.1451625 -61.15 0.0007077317    1.324    0.245
       127  -9.9533     17.4683     45.9421   7.6450124073e+01   7.0331739375e+01    0.2116232    0.1278754 -58.64 0.0005465429    1.538    0.350
       128 -10.2788      9.8597     45.6097   8.1998932520e+01   7.1069553536e+01    0.2674085    0.1573821 -80.89 0.0009396274    1.903    0.474
       129 -11.7967      2.6350     45.8941   8.7608200016e+01   7.1440432400e+01    0.2237953    0.2080302 -19.57 0.0001296195    1.101    0.091
       130 -11.4938    103.4357     41.4878   3.3970225513e+01   5.4047834038e+01    0.4352581    0.3288441  -4.07  0.001787053    1.793    0.442
       131 -11.3917    109.2709     41.1175   3.2415836316e+01   5.2612070579e+01    0.4966308    0.3027036  73.06  0.001639382    1.745    0.427
       132 -12.0695     91.4394     40.3056   3.6707474095e+01   5.7267710088e+01    0.4081715    0.2794084 -53.89 0.0005655336    1.568    0.362
       133 -12.1876     85.8617     42.3029   3.9296511257e+01   5.8321736530e+01    0.4177329    0.2640873 -33.72 0.0007101158    1.667    0.400
       134 -10.3346     27.2595     42.6670   6.8173670558e+01   6.9982625658e+01    0.3331257    0.1777123  28.85  0.001472232    1.906    0.475
       135 -12.0480    141.7852     41.0283   2.6193444510e+01   4.4329586605e+01    0.2899142    0.2063761  79.13 0.0003814406    1.416    0.294
       136 -11.5979     38.4497     41.7024   6.0432873384e+01   6.8520677384e+01    0.3616913    0.2784942  45.67 0.0001728578    1.365    0.267
       137  -9.8027     37.4947     36.0228   5.8138869956e+01   6.9877252796e+01    0.3461058    0.1868766 -28.01  0.001181881    2.626    0.619
       138 -10.3979    183.6331     40.6441   2.0815573895e+01   3.4442851617e+01    0.3692919    0.2037732 -83.46  0.001746098    2.145    0.534
       139 -11.0110     61.8966     41.0564   4.7772666190e+01   6.4114344309e+01    0.2423588    0.2064529  41.10  0.001279744    1.159    0.137
       140  -9.5914     50.3805     41.2354   5.3431806923e+01   6.6457192939e+01    0.1957155    0.1372689 -54.68 0.0007003958    1.561    0.359
       141 -10.6518     19.0641     39.7946   7.2865796190e+01   7.1651966705e+01    0.4182391     0.267751 -15.50  0.001972203    1.889    0.471
       142 -10.3229     22.9368     34.9958   6.7721929509e+01   7.2292587306e+01    0.2769089    0.1801894 -49.83 0.0005144954    1.471    0.320
       143 -10.6442    116.0372     38.9210   3.0066448966e+01   5.1196187575e+01    0.3159935    0.1895184 -44.92 0.0009514614    1.626    0.385
       144 -11.0794    112.5287     34.3089   2.8970253435e+01   5.2755041254e+01    0.4020455    0.2331426 -55.04  0.001310552    1.857    0.461
       145  -9.9744      2.6462     39.7805   8.6015354634e+01   7.2992873833e+01    0.2440131    0.1463042  28.99  0.001218587    1.775    0.437
       146 -10.4058     81.1683     38.8273   3.9238436150e+01   6.0044710423e+01    0.2127993     0.194228 -79.07 0.0002776197    1.134    0.118
       147 -11.4634    121.6665     36.9836   2.8206409448e+01   5.0018231052e+01    0.3513596    0.2594721 -31.14  0.001007581    1.410    0.291
       148 -11.3745     67.5315     35.8376   4.2765557355e+01   6.3780458077e+01    0.3686106    0.2642514  54.98 0.0003686865    1.364    0.267
       149  -9.3653     30.2903     37.3151   6.3557410117e+01   7.0758320863e+01    0.1438067    0.1045723 -19.00 0.0004747111    1.592    0.372
       150  -9.4154    150.5379     35.9873   2.3261657630e+01   4.2827612479e+01    0.1943368    0.1312791 -33.72 0.0001327592    1.435    0.303
       151  -9.0389    103.2820     36.2870   3.1841621574e+01   5.4868332671e+01    0.1427863    0.1131866  30.57 0.0002748246    1.523    0.344
       152  -9.6724     50.0654     33.6236   4.9594886588e+01   6.7978315446e+01      0.19486    0.1767977  39.43 0.0004511899    1.074    0.069
       153  -9.6928      6.8926     34.1518   8.0556674712e+01   7.4114836153e+01    0.1952451    0.1829713  53.57  0.001209957    1.218    0.179
       154 -10.5766    117.2531     30.4152   2.6491980851e+01   5.2045077185e+01    0.3933509    0.1647553 -35.19 0.0008722265    2.258    0.557
       155  -9.3292    161.5141    249.4506   6.7842252200e+01   4.2546261467e+00    0.1117318   0.08318637   9.40 4.040596e-05    1.005    0.005
       156 -12.3116     10.7679     29.7379   7.5269410140e+01   7.4836502096e+01    0.3643472    0.2201224  32.54  0.001839811    1.723    0.420
       157  -9.5193    154.5755     29.5733   2.0690125675e+01   4.2636596851e+01    0.1399118     0.118864 -63.80 5.123359e-06    1.025    0.024
       158 -10.1378    135.7626     29.0736   2.2962283440e+01   4.7423419673e+01    0.2080323    0.1688776 -59.20 0.0003265885    1.133    0.118
       159 -10.7130     80.6026     27.5851   3.3960456818e+01   6.1890736494e+01    0.3462232    0.2526411  -5.63  0.001665911    1.764    0.433
       160  -9.6240     69.4949     28.9991   3.8439957203e+01   6.4412715947e+01    0.2015664     0.143775 -33.78 -0.0002080184    1.465    0.317
       161 -10.0069     40.8981     29.6945   5.2490959047e+01   7.0500798099e+01    0.4367281    0.1222785  46.54  0.001365081    3.736    0.732
       162 -12.2871    216.9730     25.6203   1.4341421561e+01   2.9256198722e+01    0.2402666    0.1845795 -65.43 0.0003101725    1.170    0.145
       163 -11.9699    213.0228     23.9311   1.4175625300e+01   3.0221027009e+01    0.2535461    0.1648349 -54.46 0.0002922387    1.226    0.185
       164 -10.1108     98.8586     29.8470   3.0112423439e+01   5.6912937591e+01     0.310784    0.1888761 -43.67   0.00141676    1.656    0.396
       165 -10.7775    183.0092     25.5600   1.6709158842e+01   3.6403773800e+01    0.2269121    0.1640813 -39.59  0.000202916    1.218    0.179
       166 -10.5999     60.3554     26.0301   4.0421326402e+01   6.7008350776e+01    0.3319387    0.2000623  60.16 0.0004284933    1.705    0.413
       167  -9.9250    229.9522    247.6252   5.6007080838e+01  -2.0640391324e+00    0.1367106   0.09097115   3.84 0.0005264327    1.113    0.102
       168 -11.3310     33.9912     17.4870   4.8935560490e+01   7.3931081125e+01    0.4361172     0.225321  47.24  0.001988047    1.911    0.477
       169 -11.1684    130.9360     22.1264   2.1128297388e+01   4.9486201982e+01    0.3920808    0.3252036  -1.54  0.001795092    1.512    0.339
       170 -10.0082     42.2744     25.3756   4.9051115517e+01   7.1006074476e+01    0.2207151    0.1594431   5.98 0.0006579844    1.803    0.445
       171  -9.3459     25.7292     25.2971   6.0191022074e+01   7.3944793045e+01     0.124899    0.1088715  78.41            0    1.522    0.343
       172  -9.9415     52.7384     23.5930   4.2402520936e+01   6.9098885527e+01    0.2397453    0.1725358  58.85 0.0007886406    1.426    0.299
       173 -10.5274     47.7869     23.3347   4.4718555303e+01   7.0211928048e+01      0.23448    0.2148781 -11.61 0.0003751589    1.117    0.105
       174 -10.5692     31.9772    247.9355   9.5014938552e+01   1.8118211445e+01    0.1810904    0.1357048  40.54 0.0005106232    1.006    0.006
       175  -9.5871    103.3248     17.7438   2.3775881313e+01   5.7212916689e+01    0.1448544    0.1315446  71.67 0.0002897636    1.069    0.065
       176  -8.4822      4.0000     22.9264   7.8597324696e+01   7.6956989614e+01    0.2146716   0.06996328 -64.50 0.0008041391    2.954    0.662
       177  -9.5054     21.8156     22.0916   6.1307251890e+01   7.5160542351e+01    0.1873591    0.1482857  -7.33  0.001047907    1.325    0.245
       178 -10.2108     15.6701     21.3339   6.6226284788e+01   7.6143401635e+01    0.2186124    0.2113913  71.10  0.001120887    1.256    0.204
       179  -9.8265    188.4057    246.8295   6.2646374129e+01   1.8553601529e+00    0.2140703    0.0883382 -36.55  0.001232891    2.423    0.587
       180 -10.6095    163.3146     20.1892   1.6845120024e+01   4.1587941457e+01    0.2321286    0.2102835 -72.56 0.0007988671    1.102    0.093
       181  -9.5860     64.5129     21.4199   3.6087842918e+01   6.6692466198e+01     0.141406    0.1314526  51.63 5.538022e-05    1.015    0.015
       182  -9.3884     26.5192     21.4993   5.7131916583e+01   7.4550285909e+01    0.1376522    0.1219878  -2.25 2.833789e-05    1.084    0.077
       183  -9.5108    113.8109     20.6373   2.3154167086e+01   5.4129152463e+01    0.2079804    0.1260849  86.32 0.0009437278    1.703    0.413
       184  -9.9400     77.6284     19.0169   3.0396954020e+01   6.3753710734e+01    0.3646372    0.1258266 -42.67   0.00118079    3.124    0.680
       185  -9.6256    207.6268     17.8025   1.2997855115e+01   3.1967694909e+01    0.1696766   0.08584075 -40.51 0.0002319356    1.504    0.335
       186  -9.7109    131.3259    247.6930   7.3535300408e+01   7.7400582290e+00    0.1105379   0.07654583  43.68 0.0006611791    1.651    0.394
       187  -9.8550    142.9308     17.6727   1.8066095632e+01   4.6898399165e+01    0.1894444    0.1531793 -82.21 0.0002598807    1.123    0.110
       188  -9.9983     70.2172     18.1943   3.2223818992e+01   6.5715155797e+01    0.2068116    0.1882031  40.99  0.001187893    1.097    0.088
       189 -10.5723     44.3448     18.1599   4.3164078503e+01   7.1737670490e+01    0.3433412    0.1787686  45.22  0.000738594    1.815    0.449
       190  -9.7240    116.3861    247.1945   7.6558919217e+01   9.4612256309e+00    0.1338773    0.1141178 -83.16 0.0009483038    1.724    0.420
       191 -10.2072    214.6555     16.1675   1.2221380449e+01   3.0724038907e+01    0.1998809    0.1283268 -64.32 0.0007808289    1.339    0.253
       192  -9.0742    117.2284     14.9686   2.0299918962e+01   5.3836441678e+01    0.1672698    0.1141776 -29.54 0.0003518497    1.519    0.342
       193  -9.4918    243.3011    244.3875   5.3601234986e+01  -2.8425889625e+00    0.1058352   0.05228435  -8.71 0.0007015982    1.791    0.442
       194  -9.8856    147.7778    243.3882   6.9749249568e+01   6.5620889010e+00    0.1684711   0.08811491  17.07 0.0009512695    1.703    0.413
       195 -10.5579     38.1033    241.9957   9.3380710095e+01   1.8633726506e+01    0.3009148   0.08939757  47.99   0.00133262    2.685    0.628
       196  -9.9032    153.2206     12.8045   1.5426678722e+01   4.4820962823e+01     0.204982    0.1512351 -57.97 0.0004052774    1.179    0.152
       197  -9.5045    117.6921    238.7135   7.5383894219e+01   1.0656053979e+01    0.1169254   0.08026205  -2.45  0.000241517    1.571    0.363
       198  -9.7676     32.3014    232.9867   9.4270926316e+01   2.0895535288e+01    0.1647494    0.1299638  40.71 0.0005751932    1.024    0.024
       199 -11.1360     25.2065    232.7453   9.5905290524e+01   2.1596157894e+01    0.3157031    0.1390176  11.34  0.001407782    2.940    0.660
       200 -11.0198     55.7889    231.1469   8.8669823102e+01   1.8917739457e+01    0.2899872    0.1993132   7.15  0.001554217    1.650    0.394
       201  -9.3332    185.4721     12.4458   1.2926544106e+01   3.7257562806e+01    0.1309881    0.1005487 -57.75 1.338097e-05    1.047    0.045
       202 -11.9905      2.7119    221.1907   1.0079345888e+02   2.5824185965e+01    0.4996532    0.1941194  70.10  0.002346287    2.423    0.587
       203  -9.7686    207.3097    222.3538   5.6019003733e+01   3.0043928789e+00    0.1167906    0.0659776  -7.80  0.000704373    1.724    0.420
       204  -9.3957     61.5430     12.4351   3.1736493705e+01   6.8530585679e+01     0.137855    0.1273738  55.06 2.245195e-05    1.006    0.006
       205  -9.4623    233.2845    219.6569   5.1529952403e+01   7.5383702946e-01   0.08768664   0.07510992 -23.40 0.0005560007    1.640    0.390
       206  -9.5139    210.3603    215.8014   5.4532682093e+01   3.5236080212e+00    0.1535287   0.08107414 -25.25 0.0006748298    1.663    0.399
       207  -9.3524     16.3568    213.2934   9.7244042122e+01   2.6372089349e+01    0.1151155   0.09197538 -24.57 0.0007030776    1.691    0.409
       208  -9.7007      5.6870    207.3117   9.9705157641e+01   2.8550271391e+01    0.1376916   0.06676137  51.49 0.0002603516    1.632    0.387
       209  -9.0004      8.2894    201.7064   9.8865619517e+01   2.9591346817e+01    0.1353594   0.07085686  52.20  0.000393402    1.549    0.354
       210  -9.7451    237.4682    186.7227   4.5696214065e+01   4.3574774726e+00    0.1536873   0.07995382 -23.78 0.0009362184    1.583    0.368
       211  -9.7960      1.5537    170.2246   9.9647879752e+01   3.7611296475e+01    0.1810715     0.114058 -72.72 0.0005631004    1.615    0.381
       212 -10.0436     13.4968    164.5151   9.5760761477e+01   3.8183037120e+01     0.139756    0.1188494  61.40 -9.467089e-06    1.013    0.013
       213  -9.6978    213.1732    155.2070   4.3666989390e+01   1.1701273226e+01    0.1564322    0.1295767 -38.63  0.001023858    1.303    0.233
       214 -10.7333      7.2978    153.8319   9.7157846172e+01   4.1446536768e+01    0.2265522    0.1966086  39.18 0.0006516027    1.149    0.130
       215 -10.5953     23.7227    148.0980   9.1271361545e+01   4.1665825410e+01    0.3748407    0.2373696 -40.46  0.001418169    1.920    0.479
       216 -11.3059      3.8667    145.0692   9.7856861485e+01   4.4020853363e+01    0.3891355    0.2858803  22.34  0.001751331    1.428    0.299
       217  -9.4412    206.5353    145.4606   4.2795298200e+01   1.4141128942e+01    0.1260153    0.1034098 -23.62  0.000143269    1.010    0.010
       218  -9.5165     32.0134    140.9973   8.7690447250e+01   4.2810980239e+01    0.1722312      0.15626  74.87 0.0009500831    1.013    0.013
       219  -9.9588     54.1533    140.0596   7.9798387940e+01   4.0491966302e+01    0.2099053    0.1977161 -28.73 0.0003471238    1.189    0.159
       220  -9.7699     69.0050    136.0177   7.4054703959e+01   3.9484211591e+01    0.2280549    0.1782786 -30.35 0.0003665933    1.523    0.343
       221 -10.0643     70.6603    130.5942   7.2482516827e+01   4.0667110670e+01     0.270674    0.1758909 -50.67 0.0007684397    1.571    0.364
       222  -9.3541      2.3022    130.7152   9.7655303266e+01   4.8036373840e+01    0.1491517   0.08880882  55.48 0.0001948426    1.556    0.357
       223 -10.5744     74.9752    126.6813   7.0230033862e+01   4.1013394224e+01    0.3170753    0.2153081 -60.39 0.0009712754    1.464    0.317
       224 -10.7936    246.8358    127.1558   3.3676282168e+01   1.1109322749e+01    0.1577671    0.1136554 -13.89 0.0007859041    1.343    0.255
       225 -10.7819     44.5423    126.0237   8.1102880637e+01   4.5563554096e+01    0.2328096    0.1454661 -71.91  0.001019917    1.564    0.361
       226 -13.3455     83.1200    119.7769   6.5974408438e+01   4.1427711112e+01    0.4019386     0.393508 -55.10 0.0006395217    1.052    0.049
       227 -11.3054     24.3552    121.4885   8.8332496516e+01   4.8996884488e+01    0.4332103    0.2264052  83.39   0.00161325    2.100    0.524
       228 -10.3170     74.8526    121.9743   6.9282422659e+01   4.2270913751e+01    0.2531469    0.2192984  39.85  0.000319185    1.153    0.133
       229 -10.7657     10.1180    121.1238   9.3984012368e+01   5.0224982769e+01    0.2149588    0.1880225 -54.92 0.0003326054    1.207    0.172
       230 -10.7389     27.0690    116.9846   8.6665214585e+01   5.0018951108e+01    0.2190946     0.204539  88.06 0.0003271619    1.019    0.018
       231  -9.6505     92.4990    117.5543   6.2380250027e+01   4.0287748107e+01    0.1561853    0.1507354  80.77    8.008e-05    1.027    0.026
       232 -10.6538     69.6097    115.4345   6.9713098684e+01   4.4865966226e+01    0.3417302    0.2529152  35.85  0.001584826    1.359    0.264
       233 -10.8579     40.1150    112.6404   8.0630075447e+01   4.9844754094e+01    0.2056312    0.2032773  23.25 0.0008082837    1.096    0.088
       234 -10.8810      6.0055    113.3244   9.5023627211e+01   5.2684252125e+01    0.3858008    0.1738938 -56.96  0.001578877    2.124    0.529
