#   1 NUMBER                 Running object number                                     
#   2 MAG_AUTO               Kron-like elliptical aperture magnitude                    [mag]
#   3 X_IMAGE                Object position along x                                    [pixel]
#   4 Y_IMAGE                Object position along y                                    [pixel]
#   5 X_WORLD                Barycenter position along world x axis                     [deg]
#   6 Y_WORLD                Barycenter position along world y axis                     [deg]
#   7 A_WORLD                Profile RMS along major axis (world units)                 [deg]
#   8 B_WORLD                Profile RMS along minor axis (world units)                 [deg]
#   9 THETA_WORLD            Position angle (CCW/world-x)                               [deg]
#  10 FWHM_WORLD             FWHM assuming a gaussian core                              [deg]
#  11 ELONGATION             A_IMAGE/B_IMAGE                                           
#  12 ELLIPTICITY            1 - B_IMAGE/A_IMAGE                                       
         1 -15.3858      6.1953     67.5956   1.0920736986e+02   6.1400656837e+01     2.033373     0.811249 -60.14  0.008743507    1.858    0.462
         2 -12.3735    232.6745      2.2773   3.2780954588e+01   2.7749809445e+01    0.4188795    0.2535603  58.00  0.002007289    1.830    0.453
         3 -15.5374    218.4246     16.6826   3.7199733827e+01   2.9358802594e+01     2.013181     1.128323 -28.04   0.01065295    1.851    0.460
         4 -15.1721    212.7174     41.1133   4.3799830807e+01   2.7756338154e+01     2.541289    0.7869478  71.26  0.008323245    4.235    0.764
         5 -14.0730    189.0590     26.0616   4.2730632459e+01   3.5093230968e+01     1.649143    0.5671325 -54.34  0.005101339    4.700    0.787
         6 -14.4619    190.1694     15.6322   3.9784266813e+01   3.5950202302e+01      1.43623    0.7013454 -54.08  0.006561594    2.245    0.555
         7 -14.0180    242.5031     34.9023   3.9198651311e+01   2.2052672189e+01    0.9222494     0.638383 -84.68  0.003505632    1.501    0.334
         8 -13.2087      8.2250      2.7642   8.4853618507e+01   7.3333558216e+01    0.5136507    0.4659241  48.81  0.002549206    2.250    0.555
         9 -13.5584      2.6451     10.8039   9.2158000114e+01   7.2599748867e+01    0.7743414    0.3917653 -46.86  0.004611386    1.831    0.454
        10 -15.9940     12.0130     21.9059   9.2075910343e+01   7.0067168205e+01     1.857967     1.015547 -23.17   0.01006089    1.605    0.377
        11 -14.4266     24.5899     13.8716   8.1871201793e+01   7.0104626005e+01    0.8161376    0.3681931  33.55  0.004357737    2.402    0.584
        12 -13.5384    139.6650     22.1218   4.8976336740e+01   4.7400294456e+01    0.8537384    0.3096963  59.60  0.001880265    2.442    0.591
        13 -14.7693    166.8022     29.6198   4.6834785865e+01   4.0035621687e+01     1.104214     0.965674  59.56  0.003996347    1.098    0.090
        14 -14.9134    147.3577     29.7774   5.0127406453e+01   4.4717726216e+01     1.373505    0.8850749  57.07  0.004737142    1.450    0.310
        15 -12.8732    120.5244     26.0161   5.4207829880e+01   5.1462199027e+01    0.6724157    0.4620736  35.50  0.003537059    1.409    0.290
        16 -15.4295     97.8423     12.3062   5.4212899165e+01   5.7899652686e+01     1.715228    0.7344784  51.56  0.005861939    2.016    0.504
        17 -12.2871     71.4542     17.5164   6.4160690586e+01   6.2637295740e+01    0.3727267    0.2476473 -24.23  0.001395649    1.470    0.320
        18 -14.2645     41.8487      5.6539   6.9552701152e+01   6.8892249564e+01     1.042233    0.5945855  -1.69  0.004545967    1.789    0.441
        19 -12.0257    203.5855     11.8837   3.7421692154e+01   3.3210762675e+01    0.4271675    0.2249172 -79.05  0.002009849    2.241    0.554
        20 -11.2632    142.4305     11.9911   4.5112671459e+01   4.7724836710e+01    0.2155383    0.1737477  82.20 0.0006706595    1.292    0.226
        21 -12.0258     59.9919     17.1973   6.8071242040e+01   6.4687304320e+01    0.3495189     0.171985 -27.77   0.00176374    1.924    0.480
        22 -11.6486    153.0669      8.9113   4.2510847434e+01   4.5452109994e+01    0.2039596    0.1827225  53.61  0.001086765    1.058    0.055
        23 -10.8207     58.7849      6.9963   6.3565278414e+01   6.6021448741e+01    0.1564577    0.1444586  62.65 0.0009834942    1.629    0.386
        24 -10.3609    160.6558      6.6790   4.0797265522e+01   4.3826524043e+01    0.1387029   0.08650222  39.76 0.0007049901    1.728    0.421
        25 -13.6067    131.8148     32.6620   5.4143381572e+01   4.8073248755e+01     1.038914    0.4889673 -32.83  0.004221963    2.142    0.533
        26 -12.1892    119.1004      3.0826   4.6024401267e+01   5.3937674219e+01    0.4583406    0.2829716  87.29  0.001978935    2.158    0.537
        27 -12.1959     79.3176      2.1688   5.4702053908e+01   6.2617994245e+01    0.5720249    0.1841491  49.16  0.002467605    2.472    0.595
        28 -12.0576     61.9167      1.9637   5.9961962002e+01   6.5945801801e+01     0.304817    0.1984074  51.30  0.001162308    1.641    0.391
        29 -14.3201    121.8117     37.6274   5.8147684602e+01   4.9761720675e+01     1.002329    0.5325324  32.77  0.003265356    2.186    0.542
        30 -11.6477     46.8460     13.2977   7.1364428848e+01   6.7252420964e+01    0.2840077    0.2031155  37.36  0.001225417    1.519    0.342
        31 -13.4023    197.1588    179.6284   8.0393538823e+01   7.2028558223e+00    0.7137246    0.4601609 -66.78  0.002819943    3.312    0.698
        32 -12.5461     57.4713    246.7712   1.1871422709e+02   1.6160934463e+01    0.4904402    0.1554218  36.79  0.002314733    2.789    0.641
        33 -11.9102     52.2423    250.4237   1.1990823995e+02   1.6121156587e+01    0.1654636    0.1038036  66.02  0.001040862    1.367    0.269
        34 -13.6319     28.3284    246.1164   1.2375176027e+02   1.9544898856e+01    0.4670773    0.2840636  69.36  0.003248424    1.335    0.251
        35 -11.9353      2.8347    249.7830   1.2810354923e+02   2.1385359433e+01    0.2982161    0.1702796  48.51  0.001751061    1.460    0.315
        36 -13.7930      8.9855    245.6526   1.2693724330e+02   2.1552898197e+01    0.7166098    0.3506072  58.01  0.003467268    1.579    0.367
        37 -12.4200     85.1955    180.5440   1.0582330271e+02   2.6219215620e+01    0.2867795    0.2100237  78.10  0.001516497    1.517    0.341
        38 -11.9822     96.2215    171.3736   1.0172134246e+02   2.6695393067e+01    0.2654354    0.1815529  47.27  0.001329986    1.487    0.328
        39 -12.8329    124.5175    167.9956   9.4206967939e+01   2.2789258319e+01    0.4698797     0.287078 -53.21  0.002137221    1.637    0.389
        40 -11.4830    136.8319    211.3468   9.8897981555e+01   1.1641499140e+01    0.2167146    0.1844035 -70.34 0.0008076983    1.362    0.266
        41 -11.9280     77.3994    156.9220   1.0403187744e+02   3.2912845833e+01    0.4096268    0.3048882  26.92   0.00156578    1.549    0.354
        42 -13.3612     73.9347    153.1751   1.0430210379e+02   3.4303215366e+01    0.7127746     0.521232  28.47   0.00304441    1.562    0.360
        43 -10.9412    154.8325    157.6152   8.4851553334e+01   1.9464207964e+01    0.2191479    0.1400445  50.95 0.0009532189    1.767    0.434
        44 -10.9463    112.5032    157.4966   9.5123768823e+01   2.7282474574e+01    0.1460666     0.141223 -64.70 0.0008106601    1.010    0.010
        45 -12.7821    206.6908    155.1984   7.3232297902e+01   9.9153491856e+00    0.4734352    0.3566109 -36.09   0.00246604    1.244    0.196
        46 -11.5489    121.6553    156.6706   9.2656570352e+01   2.5872877983e+01    0.1554844    0.1167719 -13.67 0.0007050543    1.752    0.429
        47 -11.8711     85.9805    152.7847   1.0106901626e+02   3.2672893949e+01    0.4696223    0.2125417 -50.60  0.001902476    2.073    0.518
        48 -11.7869    103.1823    150.1521   9.6052685580e+01   3.0590560277e+01    0.4214804    0.2623743 -34.63  0.001749297    1.918    0.479
        49 -12.8380     61.3233    147.7877   1.0674856928e+02   3.7269624275e+01    0.4431611    0.3052101 -29.15  0.001427247    1.907    0.476
        50 -12.7220     41.7311    206.9255   1.1847018438e+02   2.5841840391e+01    0.3508226    0.1876739  73.46  0.001855096    1.953    0.488
        51 -11.4249     88.8326    139.9388   9.7825887213e+01   3.5360295565e+01    0.2370161    0.1964297 -32.65  0.001244272    1.296    0.229
        52 -10.8048     62.9835    138.6768   1.0474348662e+02   3.9306757232e+01    0.1879886    0.1735918 -72.44 0.0005960976    1.050    0.047
        53 -14.5785    230.2731    129.3007   6.2994679275e+01   1.0068416748e+01     1.223129     1.060977  60.17  0.007014294    1.441    0.306
        54 -12.8476    246.4477    133.3646   6.1306982814e+01   6.4143434496e+00    0.4924783    0.3526813 -36.35   0.00272283    1.210    0.173
        55 -10.4360     11.1833    134.3611   1.1831172897e+02   4.5398885491e+01    0.1507681    0.1085957  44.90 0.0007333901    1.597    0.374
        56 -12.5705     92.8605    103.7982   8.8131744469e+01   4.3343013818e+01    0.5288458    0.3273659  33.58  0.002376693    1.769    0.435
        57 -13.5704    120.5062    102.2593   7.9702860372e+01   3.8530498093e+01    0.7093893    0.3676994  39.50  0.002798709    2.053    0.513
        58 -14.7180    105.9547    121.7710   8.8958449670e+01   3.6869362416e+01     1.691723     1.165665  31.05  0.007831697    1.602    0.376
        59 -15.0342    106.6304    105.9077   8.4634414015e+01   4.0409690844e+01     1.641735     1.182402 -16.74   0.00561149    1.712    0.416
        60 -11.5559     60.0481    125.3606   1.0309916873e+02   4.2961823096e+01    0.2987908    0.1767047   5.45  0.001258609    2.750    0.636
        61 -12.0169    182.2457    122.0717   7.0231357306e+01   2.1211013826e+01    0.5183754    0.3560716 -81.42   0.00199477    2.761    0.638
        62 -12.8042     28.5315    122.3120   1.1185202065e+02   4.6990933824e+01    0.3338163    0.2472048 -69.02  0.001977381    1.117    0.105
        63 -12.6361     77.2196    117.3918   9.6276148322e+01   4.2600316631e+01     0.519612     0.426089 -72.25   0.00275879    1.293    0.227
        64 -11.8736      3.7554    119.7845   1.1863176700e+02   4.9371047856e+01    0.4715198    0.1777045  12.68  0.002098772    3.814    0.738
        65 -14.1217     17.8230    111.1523   1.1331388588e+02   5.0542175365e+01     0.821233    0.5841573 -43.93  0.003634709    1.358    0.264
        66 -14.0648     11.0090    101.9730   1.1399307103e+02   5.3196495562e+01    0.8028219    0.6546919 -55.63   0.00433326    1.095    0.087
        67 -13.3504      2.2415     97.2851   1.1606813134e+02   5.4799280208e+01    0.8038937    0.2357895 -71.74  0.003198237    2.835    0.647
        68 -14.4787     25.1747     94.3586   1.0796818523e+02   5.4019167025e+01     1.188516     1.016405 -50.66  0.006897402    1.076    0.071
        69 -11.9338    121.1394    112.1155   8.2257704057e+01   3.6230077575e+01    0.3375456    0.1999605  56.47  0.001327504    2.219    0.549
        70 -13.2953     85.0966    115.3043   9.3420421912e+01   4.1909790880e+01    0.6874934    0.4050894  29.61  0.002102716    1.941    0.485
        71 -12.3907     88.1402    109.7103   9.1114110688e+01   4.2752097356e+01    0.4502056    0.2929776 -57.80  0.001751494    1.538    0.350
        72 -11.9245     37.0972     93.1080   1.0362721524e+02   5.3283222085e+01    0.3527786    0.2418385   2.61  0.001914607    1.818    0.450
        73 -12.2612     45.3953    135.1295   1.0905624501e+02   4.2224562394e+01     0.421601    0.2998459 -52.71  0.002339955    1.280    0.219
        74 -10.9883     46.0175    110.0149   1.0431365541e+02   4.8335157106e+01    0.2272162    0.1421987 -37.18 0.0009150886    1.651    0.394
        75 -11.9480    177.0169    110.3431   6.8276090036e+01   2.4653199864e+01    0.4503955    0.3075498 -10.82  0.001896198    1.944    0.486
        76 -12.6057    136.1990    103.2000   7.5806686938e+01   3.5071541597e+01    0.8100311    0.3313362  46.83  0.002807105    2.594    0.615
        77 -11.5855     64.6637    102.2756   9.6589772820e+01   4.7977686713e+01    0.2373127    0.1988903   3.37 0.0004995265    1.355    0.262
        78 -12.4196     61.9842     98.4516   9.6512998065e+01   4.9231805544e+01    0.4003083    0.2902921 -89.68  0.001240613    2.014    0.503
        79 -12.3364     52.4894     98.0080   9.9552646239e+01   5.0502871298e+01    0.7964505    0.4219493  -9.18  0.002852215    3.907    0.744
        80 -12.4129     49.5081     94.5327   9.9718825643e+01   5.1662874293e+01    0.5664447     0.415906 -43.87    0.0031381    1.173    0.148
        81 -13.0902    249.1031     96.4986   5.2534818413e+01   1.1911879674e+01    0.8211308    0.2129065 -37.07  0.002825147    3.088    0.676
        82 -11.5632    162.8197     97.0401   6.7697645667e+01   3.0426300999e+01    0.2848987    0.2123906  68.59  0.001292002    1.681    0.405
        83 -12.8066    137.0251     95.7035   7.3436379463e+01   3.6446710694e+01    0.4752876    0.3891805  63.04  0.001427778    1.439    0.305
        84 -12.5336    128.7747     96.1786   7.5714216070e+01   3.8116905320e+01    0.3126982    0.2350284  66.35  0.001414537    1.738    0.425
        85 -12.0612    125.3440     92.6507   7.5584697483e+01   3.9569476684e+01    0.3155836    0.2242422 -62.58  0.001377115    1.817    0.450
        86 -11.4880     42.7123     90.7404   1.0113565141e+02   5.3283066654e+01    0.2575836    0.1919165 -58.41 0.0007142459    1.197    0.164
        87 -11.5476     65.5641    126.3170   1.0166708620e+02   4.2027253083e+01    0.3308141    0.2563479  54.25  0.001766515    1.481    0.325
        88 -12.0275     90.2917     88.4063   8.4541816164e+01   4.7227217046e+01    0.4183071    0.3354516  47.44  0.002099053    1.440    0.305
        89 -13.3135    242.7107     84.1121   5.0511196448e+01   1.5100140586e+01    0.5004305    0.2638006  62.40  0.002346632    2.287    0.563
        90 -13.3744    237.2855     80.1824   5.0296152673e+01   1.6806717978e+01    0.5269851    0.3316551  69.61  0.002644802    1.953    0.488
        91 -12.9365    149.0422     85.3935   6.7445645351e+01   3.5788287715e+01    0.6661183    0.3906093  29.95  0.002607912    2.221    0.550
        92 -13.3165    135.0376     80.1327   6.9231189406e+01   3.9938247017e+01    0.7985086     0.570406  28.75  0.003323272    1.568    0.362
        93 -11.3469     34.2925     86.8920   1.0317532772e+02   5.4997318898e+01    0.2320117    0.1827672 -14.02 0.0009232128    1.398    0.285
        94 -13.2627    188.4687     84.1843   5.8925740267e+01   2.6878337094e+01    0.8046026    0.3775744  40.23  0.002722295    2.645    0.622
        95 -14.5134    160.7627     81.0640   6.3528397862e+01   3.3877650838e+01     1.860107     1.201115  -2.14  0.007246793    2.464    0.594
        96 -14.8745    169.4963     77.0001   6.0522201616e+01   3.2543411738e+01     1.916857     1.414124 -78.56  0.008724287    1.864    0.464
        97 -13.3138     66.0285     49.0092   7.9460234205e+01   5.8993247477e+01    0.6188055    0.4988424 -26.19  0.001111072    1.111    0.100
        98 -13.0132     57.7442     66.7201   8.8873088656e+01   5.6819284101e+01    0.6936024    0.5556251 -24.23  0.004027179    1.108    0.098
        99 -12.9267     60.4360     60.6297   8.5809967510e+01   5.7670237178e+01     0.732962    0.3776869 -18.32  0.002452883    3.129    0.680
       100 -12.3682     51.0738     68.3898   9.1910079399e+01   5.7326166397e+01    0.6180326    0.3499296 -62.76  0.002758624    2.332    0.571
       101 -13.2097     54.9983     82.0155   9.4530067844e+01   5.3888782095e+01    0.5809603    0.4186695 -30.60      0.00221    1.315    0.239
       102 -13.9111     60.9293     75.7804   9.0579646951e+01   5.4489080141e+01    0.6696543    0.4425566 -36.84  0.001463015    1.341    0.255
       103 -13.1302    213.0775     78.5662   5.3326389129e+01   2.2233427987e+01    0.9837651       0.6233  86.68  0.004284561    2.376    0.579
       104 -12.8843    216.3114     73.0621   5.1442619641e+01   2.2386342443e+01    0.7146497    0.4741468 -67.78  0.003394312    1.879    0.468
       105 -12.1048    114.2965     80.2740   7.4813202608e+01   4.4360852493e+01    0.4102177    0.3229118 -46.35 0.0009940846    1.299    0.230
       106 -13.5484     87.5733     65.3184   7.7946008182e+01   5.2406863136e+01     1.131373    0.6445612   9.92   0.00414903    3.176    0.685
       107 -13.1371     91.8802     58.3265   7.4078124830e+01   5.2888852134e+01    0.5579215    0.4629028 -50.44  0.002717471    1.420    0.296
       108 -12.8788     70.3627     75.8188   8.7262335942e+01   5.3139207545e+01    0.5606036    0.4329514 -18.09   0.00200856    1.298    0.230
       109 -12.2152     77.1106     73.8494   8.4311854358e+01   5.2503395297e+01    0.4535589    0.2885079 -34.12  0.001434864    1.464    0.317
       110 -11.9330     23.1241     71.8621   1.0364054092e+02   5.9351508048e+01    0.2640565    0.1998067  -1.77 0.0004708572    1.495    0.331
       111 -14.2468    170.5669    243.1047   9.6850080283e+01   9.2924750192e-01    0.9775516    0.6413518  22.48  0.005758073    1.443    0.307
       112 -14.1467    198.9789     69.7540   5.3207475843e+01   2.6824556451e+01     1.288562    0.7278242  34.32  0.004963264    2.498    0.600
       113 -12.6602    199.5093     62.4188   5.1153917325e+01   2.7827200688e+01    0.4086991    0.2648146 -32.65  0.001521524    1.484    0.326
       114 -11.6104     41.8936     76.4657   9.7744293856e+01   5.6621358520e+01    0.3006445     0.173405 -54.67  0.001513468    1.515    0.340
       115 -11.0818     27.1655     76.8839   1.0336027117e+02   5.7905436962e+01    0.1892017    0.1611103 -63.08 0.0004831166    1.210    0.174
       116 -10.8937     22.9476     75.4951   1.0460693502e+02   5.8553072931e+01    0.1594615    0.1251726   4.73 0.0003090871    1.478    0.323
       117 -12.4563    241.9462     71.5964   4.7682105991e+01   1.7154198376e+01     0.477526    0.2911237 -60.56   0.00236582    1.847    0.459
       118 -13.5161    133.6740     65.8197   6.4993734413e+01   4.2809162691e+01    0.8021073     0.678407  -3.59  0.002631874    1.238    0.192
       119 -12.3516     38.7715     68.1977   9.6565210656e+01   5.8749062104e+01    0.4716313    0.2480728  30.89  0.002350131    2.184    0.542
       120 -11.0761     33.9464     68.2078   9.8447487529e+01   5.9222837292e+01    0.2531374    0.1688038  30.61  0.001016606    1.780    0.438
       121 -11.5684    100.5387     64.3493   7.3534447212e+01   5.0143642166e+01    0.4210726     0.250064 -21.11  0.001798087    1.973    0.493
       122 -10.8357     43.4415     64.9242   9.3749418405e+01   5.8943379615e+01    0.1993837    0.1122512 -48.25 0.0005446092    1.510    0.338
       123 -14.1391    178.1160     57.6447   5.3278168390e+01   3.3594698328e+01     0.933848    0.6981662 -39.52  0.002757616    1.299    0.230
       124 -12.3716     79.7273     61.0389   7.9052976244e+01   5.4582963851e+01    0.4846024    0.4317756 -22.36  0.002114254    1.074    0.069
       125 -12.9444     82.4722     54.6228   7.5788419151e+01   5.5263211693e+01    0.5203193     0.371884   3.76  0.001886792    1.560    0.359
       126 -12.0864     24.5461     60.1658   9.9886264049e+01   6.1771312394e+01    0.2975243    0.2043534 -46.45  0.000691678    1.157    0.136
       127 -10.5067     38.5026     60.0103   9.4145061757e+01   6.0495570991e+01     0.172763     0.113644 -73.58 0.0008103745    2.537    0.606
       128 -14.6231    119.6959     54.6734   6.4746902586e+01   4.7773593992e+01     1.011885    0.6991881  31.52  0.003693181    1.515    0.340
       129 -12.8789    135.6322     50.3366   5.9380038536e+01   4.4812958648e+01    0.5748574    0.3351247  33.93  0.001581425    1.961    0.490
       130 -13.1894    248.1627     51.8621   4.2458568608e+01   1.8690768234e+01    0.6747585    0.3910853 -33.25  0.003583315    1.569    0.363
       131 -11.8822    230.6821     55.2335   4.5154412702e+01   2.1876864389e+01    0.4331796    0.1875748  63.04  0.001895299    2.477    0.596
       132 -13.6796    103.0326     50.5506   6.7842264524e+01   5.1984583985e+01    0.7984185    0.6334493 -67.77 0.0007783846    1.855    0.461
       133 -12.0244     97.9641     50.4754   6.9311043065e+01   5.3025488080e+01    0.3909114    0.2965382  84.81  0.001486129    2.328    0.570
       134 -13.1958      6.2156     43.8013   1.0295284038e+02   6.6420634842e+01    0.7951353    0.3298414  15.91  0.004076335    2.797    0.643
       135 -11.4763     77.9641     54.0138   7.7094196219e+01   5.6157770090e+01    0.3020361    0.2299376  10.46 0.0008835357    1.342    0.255
       136 -13.4239    157.9947     44.1485   5.2788666661e+01   4.0357168546e+01    0.7667876    0.5547628  28.60  0.003221202    1.590    0.371
       137 -13.9506     96.7899    238.8976   1.1065687729e+02   1.2508570147e+01    0.6157706    0.4429762  48.92  0.003023127    1.190    0.160
       138 -12.4067    147.2706    239.1121   1.0080346660e+02   5.0739336455e+00    0.2046228    0.1748497 -88.87 0.0009097746    1.541    0.351
       139 -12.3572     24.8411    217.4311   1.2257332706e+02   2.5431354444e+01    0.6261306     0.426258  57.99  0.004294923    1.260    0.206
       140 -11.4854     14.4304    223.8327   1.2487854049e+02   2.5163139894e+01    0.3719104      0.19922  65.50  0.001506286    1.568    0.362
       141 -13.8237     25.7635    227.4366   1.2306283565e+02   2.3341347567e+01    0.6282203    0.3249726 -58.68  0.003722627    2.204    0.546
       142 -12.8928    109.8510     42.2652   6.2865702085e+01   5.1786744922e+01    0.5563829    0.2399961  46.61  0.001306234    2.202    0.546
       143 -12.4449    113.6770     38.0844   6.0312005060e+01   5.1525409407e+01    0.4042706    0.3001699  40.30  0.001429723    1.273    0.214
       144 -10.4420     55.4889     41.3971   8.0491793666e+01   6.1881243231e+01    0.1328758    0.1085525  -9.76 0.0001324382    1.033    0.032
       145 -13.4927     20.7502    225.2629   1.2383085832e+02   2.4270724021e+01    0.4148197    0.3511646  81.39  0.002597044    1.178    0.151
       146 -12.7562     75.9435     37.3682   7.1254344609e+01   5.9217806548e+01    0.3420482    0.2533592  38.11 0.0009663856    1.381    0.276
       147 -12.1852     69.6519     36.6489   7.3170562908e+01   6.0418218540e+01    0.4178488    0.2138601  33.67 0.0009645436    1.979    0.495
       148 -11.6208     58.1092     35.2545   7.6914619688e+01   6.2489350462e+01     0.363934    0.2073334  24.23  0.001838676    1.856    0.461
       149 -12.3506     46.2678     33.8704   8.1135890945e+01   6.4403320025e+01    0.4709521    0.2856848 -21.41  0.002560791    1.537    0.349
       150 -13.3603    237.4996    230.9206   8.2490207977e+01  -7.0313334373e+00    0.3899603    0.2628265  30.79  0.002478017    1.446    0.309
       151 -12.7946     64.3577    224.6270   1.1555555113e+02   1.9525730991e+01    0.6620602    0.2788892  49.26  0.003286186    2.121    0.528
       152 -12.2019     68.2605    221.3504   1.1446899439e+02   1.9688678844e+01     0.490343    0.2655356 -77.91  0.002624237    1.967    0.492
       153 -13.9546     63.0459    214.4799   1.1484268781e+02   2.1748241685e+01    0.8224366    0.5296143  56.30  0.004885095    1.414    0.293
       154 -11.8808     40.5095    243.5456   1.2149050502e+02   1.8704757053e+01    0.2850291     0.179021 -89.80  0.001924063    1.466    0.318
       155 -13.0815     95.4506    218.6182   1.0862704344e+02   1.6555576510e+01    0.5509384    0.2483676  37.09    0.0025983    2.068    0.516
       156 -11.1913     85.5217    215.8821   1.1036558516e+02   1.8502881009e+01    0.2703556    0.1361185  51.25   0.00132973    1.913    0.477
       157 -11.5128     27.5645     33.2833   8.9204199231e+01   6.6701939760e+01     0.336132    0.2068615 -46.93  0.001941228    1.602    0.376
       158 -11.1101     31.5348     31.2501   8.6521549557e+01   6.6630454572e+01    0.2419605     0.144018  21.30 0.0008694466    1.750    0.429
       159 -11.0013     38.2728     29.9330   8.2903392611e+01   6.6063035806e+01    0.1751593    0.1292792 -21.38 0.0002571445    1.094    0.086
       160 -12.8415    185.7203    213.1670   8.9088952383e+01   3.3178026737e+00    0.3480945    0.1871781 -42.97  0.001704134    2.001    0.500
       161 -12.9069     56.1076     27.4508   7.4296764708e+01   6.3962672028e+01    0.6100075    0.2932216  42.95  0.002170287    2.294    0.564
       162 -12.7384     67.9817     24.6757   6.8595927647e+01   6.2386654211e+01    0.6125204    0.3044876  40.76   0.00300381    1.937    0.484
       163 -10.7864     98.0577     27.4645   6.0339306182e+01   5.6237002965e+01    0.2066482    0.1251901  49.93  0.001030225    1.590    0.371
       164 -11.5544     37.0660     25.5548   8.1497572895e+01   6.6900537143e+01     0.205824    0.1963669 -37.93 0.0009488313    1.595    0.373
       165 -12.1047     46.5202     21.0303   7.5256882317e+01   6.6293752577e+01    0.3347304    0.2320283  -5.29 0.0007981278    1.283    0.220
       166 -11.1087     53.6844     20.0556   7.1855733753e+01   6.5350056294e+01     0.384061    0.1448482  30.10   0.00154332    3.146    0.682
       167 -13.5494      9.0910    211.0742   1.2510415921e+02   2.8220351863e+01    0.9044247    0.6250261  77.29  0.006428565    1.124    0.110
       168 -12.8381     17.0456    195.0942   1.2251390865e+02   3.0876392402e+01    0.9267703    0.2897971 -72.99   0.00421726    2.631    0.620
       169 -10.9114    248.3431     18.3179   3.5089640944e+01   2.2810433181e+01    0.1103362   0.09067053  34.70 0.0007049061    1.717    0.418
       170 -13.7196     29.9662    169.0618   1.1742977150e+02   3.5558193693e+01    0.8030737    0.6456635 -64.90  0.002802132    1.211    0.174
       171 -13.4275     22.2676    181.1118   1.2030616914e+02   3.3500882584e+01    0.7386929    0.3522902 -59.52  0.003043733    1.960    0.490
       172 -14.8736      8.4323    183.3005   1.2341827437e+02   3.4211876264e+01     1.026749    0.8730152  78.89   0.00760136    1.144    0.126
       173 -15.1655     16.2579    175.7924   1.2116112548e+02   3.5244207570e+01     2.262791     1.044825  66.04    0.0110965    2.352    0.575
       174 -10.8980     80.5101    208.5004   1.1056018506e+02   2.0717333159e+01    0.1286577     0.109919  70.33 1.128143e-05    1.055    0.052
       175 -11.1553    151.0087    206.8528   9.5163472426e+01   1.0166250396e+01    0.3018451    0.1720171  23.54  0.001360342    2.086    0.521
       176 -12.6156     57.2260    203.3189   1.1492532032e+02   2.4823996092e+01    0.4749151    0.2525867 -82.85  0.002404263    1.989    0.497
       177 -13.2536     40.5083    195.4670   1.1769032127e+02   2.8457704523e+01    0.4665208    0.2266828  89.24  0.002227904    2.280    0.561
       178 -10.7484    212.4912    200.5002   8.1530812940e+01   1.0590820752e+00    0.1361554    0.1118141  -0.03 -3.031666e-05    1.047    0.045
       179 -13.1311    163.9606    194.0831   9.0156692026e+01   1.0380636121e+01    0.5697267    0.3198414 -54.09  0.002550804    2.151    0.535
       180 -12.5964    200.9746    192.2427   8.2166563612e+01   4.3246012598e+00    0.4367703     0.266939 -27.76  0.001533105    1.639    0.390
       181 -12.0097     49.1321    181.5029   1.1435899497e+02   3.0650668701e+01    0.4105113    0.2227785 -55.57  0.002106463    1.822    0.451
