#   1 NUMBER                 Running object number                                     
#   2 MAG_AUTO               Kron-like elliptical aperture magnitude                    [mag]
#   3 X_IMAGE                Object position along x                                    [pixel]
#   4 Y_IMAGE                Object position along y                                    [pixel]
#   5 X_WORLD                Barycenter position along world x axis                     [deg]
#   6 Y_WORLD                Barycenter position along world y axis                     [deg]
#   7 A_WORLD                Profile RMS along major axis (world units)                 [deg]
#   8 B_WORLD                Profile RMS along minor axis (world units)                 [deg]
#   9 THETA_WORLD            Position angle (CCW/world-x)                               [deg]
#  10 FWHM_WORLD             FWHM assuming a gaussian core                              [deg]
#  11 ELONGATION             A_IMAGE/B_IMAGE                                           
#  12 ELLIPTICITY            1 - B_IMAGE/A_IMAGE                                       
         1 -16.9265      7.5907    139.8016   9.2433201202e+01   4.5145093558e+01     3.939755      1.65173 -70.11   0.01269415    2.098    0.523
         2 -14.5433    189.3047     50.7652   1.9635340512e+01   3.2226224699e+01     1.724761    0.5383409 -49.72  0.006609012    3.175    0.685
         3 -15.6584    178.6090     19.7545   1.3000130366e+01   3.8143215033e+01     3.574269     1.341804 -67.17   0.01385893    3.610    0.723
         4 -13.5707    225.1308     44.6690   1.4943279308e+01   2.6133486808e+01      1.15654    0.2795256 -49.43  0.004585386    3.541    0.718
         5 -14.2041    247.9156     49.6709   1.4282163889e+01   2.1692331320e+01     1.341164    0.2782031 -41.24  0.005958965    2.922    0.658
         6 -13.7304      3.0018     25.9693   7.1835190984e+01   7.4203156148e+01      0.94813    0.2555021 -55.77  0.003625054    3.335    0.700
         7 -14.5687    130.5832     22.4027   1.9085865387e+01   4.8874132476e+01     1.450325    0.6452621 -51.46  0.006280886    2.442    0.590
         8 -14.9020    118.4549     17.6341   1.9303512996e+01   5.2298541673e+01     1.028403    0.7459557 -63.84  0.005816865    1.425    0.298
         9 -12.9152    249.6302     20.3708   8.6239456007e+00   2.4680367541e+01    0.5987073    0.1397343 -40.90  0.003021937    2.527    0.604
        10 -14.3710    230.9502     29.9930   1.1516239225e+01   2.6799469619e+01     1.371677    0.3494675 -51.03  0.006007606    3.148    0.682
        11 -14.3337    100.5413     13.5757   2.0869486848e+01   5.7058453385e+01    0.7935313    0.4098978  53.25  0.003846568    1.756    0.431
        12 -13.6927     52.1313      9.5592   3.2026707758e+01   6.8788264129e+01    0.6356065    0.4376085  76.43   0.00338168    1.860    0.462
        13 -15.0393     79.1622      4.7779   2.1511943166e+01   6.2999496779e+01     1.727163    0.7042514  79.49   0.00649298    3.237    0.691
        14 -12.9529     67.4418     11.2477   2.7709097092e+01   6.5186667433e+01     0.474769     0.316655 -20.91  0.002609793    1.698    0.411
        15 -13.8842     60.1124      7.7779   2.8207539013e+01   6.7191603798e+01    0.5036333    0.4104859 -76.74  0.002761733    1.544    0.352
        16 -12.8937     58.8292      2.0693   2.5511045365e+01   6.7980944729e+01    0.4819889    0.2308509  62.59  0.001944778    1.825    0.452
        17 -14.1954    220.6829      4.8541   6.9513601934e+00   3.1235341745e+01     1.457645    0.4801831 -82.29  0.006524482    3.711    0.731
        18 -13.3652     38.6596      8.9789   3.7563305994e+01   7.1658681972e+01    0.3576365    0.3131501  37.53   0.00197899    1.093    0.085
        19 -13.3648     26.3950      2.7991   4.0097546579e+01   7.4703094961e+01    0.4371048    0.3706265   7.62  0.002922385    1.119    0.106
        20 -13.1360     28.7213      9.3099   4.3182818120e+01   7.3506007166e+01    0.3766857    0.2986301  33.32  0.001978469    1.112    0.100
        21 -12.3455     23.2045      7.4095   4.5360241007e+01   7.4715508669e+01    0.2565483    0.2171229  57.25  0.001292279    1.561    0.360
        22 -13.8833    243.9299      4.3280   5.8746665879e+00   2.7216630026e+01    0.7919577    0.3889732 -84.28  0.005216533    2.006    0.501
        23 -12.8660      2.3187      4.2621   5.9932063529e+01   7.8187693020e+01    0.4961106    0.2835948 -28.90  0.002218375    1.713    0.416
        24 -13.6897     10.7533      2.3248   5.0869549059e+01   7.7366599370e+01    0.5351166    0.4912107  34.23   0.00308973    1.406    0.289
        25 -13.2049    183.1501      2.8157   8.4870630625e+00   3.8819153117e+01    0.8777223    0.2805888 -87.43  0.003466279    3.797    0.737
        26 -14.2484    217.0553     18.8296   1.0054598238e+01   3.0515417673e+01     1.264338    0.5112749 -80.60  0.006096735    3.005    0.667
        27 -13.5576    128.0151      2.3709   1.2862765458e+01   5.1346109474e+01    0.4253381    0.2247978  78.65  0.002193866    1.675    0.403
        28 -13.7511    122.4904      2.0000   1.3359575991e+01   5.2702834002e+01    0.6905679    0.1728137  75.34  0.002401757    3.641    0.725
        29 -16.3160     11.6239    113.4616   8.8046503539e+01   5.2076245087e+01     1.988113     1.615612 -50.01   0.01094121    1.167    0.143
        30 -14.6500      5.3728    246.3863   9.8929572784e+01   1.9829642359e+01    0.8259822    0.4735817  52.82  0.005104545    1.434    0.303
        31 -14.8587    108.7648    145.9137   5.9800099253e+01   3.0751388228e+01     1.466525     1.097277  52.60  0.006075373    1.517    0.341
        32 -14.5353    110.1497    136.6282   5.7387131380e+01   3.2687790874e+01     2.340392     0.801098  40.23  0.007693297    2.914    0.657
        33 -13.6222    211.1250    146.2144   3.7836719343e+01   1.3588698490e+01    0.8199543    0.3312798 -49.32  0.003387229    2.939    0.660
        34 -12.2930     76.9782    151.0217   7.0326979478e+01   3.4590514612e+01    0.3878085    0.2074116 -50.41  0.001590379    1.845    0.458
        35 -15.3739    141.3925    147.7947   5.1747709533e+01   2.4651208608e+01     1.331697     1.012585 -57.83  0.006742999    1.480    0.324
        36 -12.4825    227.8143    141.4115   3.4427785495e+01   1.1976909697e+01    0.3949211    0.1680143 -34.87  0.001949248    1.931    0.482
        37 -13.7593     42.5666    134.2024   7.9089057400e+01   4.3582489847e+01    0.8504986    0.6698791  58.29  0.003392384    1.360    0.264
        38 -12.1253     34.0315    136.8337   8.2590875114e+01   4.3780997098e+01    0.3402141    0.3273683 -85.18  0.001684243    1.014    0.013
        39 -13.6460    188.9204    134.2969   3.9061142200e+01   1.9070626549e+01    0.6594532    0.4736834 -40.05  0.003565019    1.224    0.183
        40 -15.4118    190.7543    112.3140   3.3938606149e+01   2.2555659649e+01     1.869235    0.9072602 -31.64  0.007880671    2.095    0.523
        41 -14.7184    207.5391    126.0109   3.4286617936e+01   1.7436030482e+01     1.138899    0.5494109 -26.72  0.005044523    2.432    0.589
        42 -13.3037     41.9168    116.9850   7.6296798969e+01   4.8317121682e+01     0.778583    0.4572486 -61.59  0.003094846    1.615    0.381
        43 -13.5465     35.2445    117.5024   7.9042762433e+01   4.8924578021e+01    0.4290845    0.3719298 -75.03   0.00172704    1.146    0.127
        44 -13.0400     36.8168    113.3923   7.7654372497e+01   4.9865987476e+01    0.3920307    0.2752034   9.50  0.001631901    1.576    0.366
        45 -11.8498     99.1310    117.8925   5.6189739383e+01   3.9110616327e+01     0.244314     0.220684  84.74  0.001247852    1.264    0.209
        46 -14.7540    242.9399    110.3007   2.6507343006e+01   1.4455055249e+01     1.307703    0.7290869 -39.52  0.007951685    1.362    0.266
        47 -14.4957     58.8414    104.5489   6.6861408888e+01   4.9316749934e+01     1.525255    0.7469659 -54.58  0.005529156    1.958    0.489
        48 -12.8887     73.9854    110.8660   6.2761138289e+01   4.5304432858e+01    0.6672977    0.5802732  63.63  0.003272646    1.287    0.223
        49 -12.6346     68.4901    109.5213   6.4422188593e+01   4.6547228116e+01    0.3981291    0.3354047   0.81  0.001436136    1.307    0.235
        50 -13.0848    166.3163     95.7868   3.4185927339e+01   3.0069383190e+01    0.8680893    0.5107787  65.10  0.003967566    2.157    0.536
        51 -13.0651    249.0246     92.0526   2.2358501608e+01   1.6108406929e+01    0.5892754    0.2190747 -40.25   0.00305117    1.960    0.490
        52 -12.3779    201.1860     83.6973   2.5947728985e+01   2.5235743532e+01    0.3532895    0.2844529 -70.60  0.002217527    1.310    0.237
        53 -11.7392     21.1427     87.7286   7.9439308122e+01   5.8253324015e+01    0.2541111    0.1957371 -80.38  0.001173405    1.397    0.284
        54 -12.7272      2.0381     82.9228   8.8017670260e+01   6.0821619589e+01    0.4375377    0.2396113 -80.27  0.002008031    1.849    0.459
        55 -12.8685    177.8175     77.5134   2.7719629364e+01   3.0746382321e+01    0.3289052    0.2634583 -61.62  0.001927907    1.213    0.175
        56 -13.8593      3.8662     73.1575   8.5338643520e+01   6.3249049956e+01    0.5728472    0.4120017 -69.79  0.001683892    1.326    0.246
        57 -12.7424     14.9022     67.7320   7.7999777030e+01   6.3857974736e+01    0.3495958    0.1528066 -48.32  0.001472955    2.000    0.500
        58 -15.0557    159.9046    209.4585   5.9068399925e+01   9.7886042173e+00     1.091698    0.8876778  12.25  0.006893759    1.115    0.104
        59 -13.8991     20.3787    198.7958   9.2994688929e+01   2.8950289901e+01    0.5620006    0.3456047  74.98  0.001674291    1.661    0.398
        60 -13.0871     12.1598    190.0840   9.4689863431e+01   3.1732206252e+01    0.5198675    0.3806274  66.25  0.002064331    1.272    0.214
        61 -12.0534     21.7212     45.2446   6.6658279907e+01   6.8359902557e+01     0.375333    0.1930271 -46.51  0.001752245    1.824    0.452
        62 -14.9551    130.6389    175.0930   5.9806245572e+01   2.0615014300e+01     1.177878    0.7283122  15.36  0.004955192    1.876    0.467
        63 -12.9871    165.2987     32.1228   1.7540185822e+01   3.9699294683e+01    0.6577595    0.2759917 -61.04   0.00264823    2.982    0.665
        64 -15.5606    127.7535    159.1141   5.7452264476e+01   2.4535356669e+01     1.360103     1.034992 -61.86  0.006320993    1.532    0.347
        65 -15.0253    102.7167    174.4561   6.6933280203e+01   2.5022131260e+01     2.283063    0.9868101 -38.74  0.007773761    2.841    0.648
        66 -11.4758     55.1330    190.9038   8.2655886996e+01   2.7393527788e+01    0.2283642    0.1776436  53.95  0.001234507    1.277    0.217
        67 -13.0512     42.1024     27.5143   4.6477390897e+01   6.8518738838e+01    0.3877167    0.3215582  53.14  0.002274147    1.374    0.272
        68 -12.2754     42.2248    187.7068   8.5995026821e+01   2.9581553560e+01    0.3420784    0.3312292  43.48  0.001330351    1.051    0.049
        69 -13.0268    137.8985    185.2092   5.9884239822e+01   1.7416289349e+01    0.3095694    0.2537031  41.58  0.001734551    1.361    0.265
        70 -15.0016    163.6148    141.2318   4.5384806011e+01   2.2101936062e+01     1.427957     1.316558  53.19  0.008461291    1.275    0.216
        71 -14.3073    198.7547    176.3972   4.5696594369e+01   1.0342743303e+01     1.296273    0.5636392 -45.17  0.006005013    2.263    0.558
        72 -15.9002    185.0218    161.6098   4.5381060976e+01   1.4839203161e+01     1.695383      1.09211 -26.83  0.009058961    1.471    0.320
        73 -15.4590    161.1266    156.8166   4.9201323734e+01   1.9484399780e+01     1.305435    0.6916695  46.14  0.005794951    2.228    0.551
        74 -13.8228    153.3092    178.0401   5.5056953037e+01   1.6551748667e+01    0.5392395    0.4429895  43.94  0.003069201    1.435    0.303
        75 -11.6033     54.2460    180.0229   8.1653523899e+01   3.0175623959e+01    0.2947964    0.1714566 -10.96   0.00117696    2.618    0.618
        76 -12.5029     46.5969    174.3036   8.3262781798e+01   3.2486373237e+01    0.5811386    0.3639132   9.03  0.002668059    1.854    0.461
        77 -11.4573    235.6612    175.6722   3.9616672587e+01   5.8386942438e+00    0.1211788   0.07316424 -12.41 0.0007051719    1.732    0.423
        78 -13.7496    116.4503    160.7530   6.0710810742e+01   2.6028618995e+01    0.7774754    0.4961254 -34.20  0.003516392    1.689    0.408
        79 -11.9454     25.2280    172.2405   8.9560211675e+01   3.5144216699e+01    0.4319673    0.2542913  75.71  0.001997032    1.853    0.460
        80 -14.0011    166.4967    171.2285   5.0928701734e+01   1.5872293164e+01    0.5043519    0.3226624  36.65  0.002616009    1.656    0.396
        81 -14.7302    158.4323    168.5772   5.2130675319e+01   1.7617335791e+01    0.7096021    0.5446236  14.42  0.003331505    1.330    0.248
        82 -14.1597    139.6361    134.3821   4.9189640307e+01   2.7795692276e+01     1.558041    0.4996276  41.54  0.005149344    3.245    0.692
        83 -12.5326    215.7420    163.9957   4.0529406789e+01   1.0085871810e+01    0.6553906    0.2225164 -31.35  0.002553025    3.193    0.687
        84 -12.4695    242.8921    163.8837   3.6505093638e+01   6.7027153593e+00    0.2586956    0.1217974 -33.95   0.00145638    1.636    0.389
        85 -14.7902     20.6140    149.0387   8.8810704013e+01   4.1686977060e+01     1.179569    0.7815248  71.36  0.005200417    1.595    0.373
        86 -14.1387    245.6075    248.1130   4.9676445914e+01  -4.6901889794e+00    0.6422808    0.2675564  15.10  0.003869582    2.404    0.584
