#   1 NUMBER                 Running object number                                     
#   2 MAG_AUTO               Kron-like elliptical aperture magnitude                    [mag]
#   3 X_IMAGE                Object position along x                                    [pixel]
#   4 Y_IMAGE                Object position along y                                    [pixel]
#   5 X_WORLD                Barycenter position along world x axis                     [deg]
#   6 Y_WORLD                Barycenter position along world y axis                     [deg]
#   7 A_WORLD                Profile RMS along major axis (world units)                 [deg]
#   8 B_WORLD                Profile RMS along minor axis (world units)                 [deg]
#   9 THETA_WORLD            Position angle (CCW/world-x)                               [deg]
#  10 FWHM_WORLD             FWHM assuming a gaussian core                              [deg]
#  11 ELONGATION             A_IMAGE/B_IMAGE                                           
#  12 ELLIPTICITY            1 - B_IMAGE/A_IMAGE                                       
         1 -12.5714    203.5224     39.8856   4.2086443234e+01   2.9659135315e+01     1.058049    0.9052137  53.69   0.00464316    1.333    0.250
         2 -12.4094    215.7672     28.1144   3.7925371750e+01   2.8354419529e+01    0.9068879    0.7183302  39.28  0.005418728    1.722    0.419
         3 -11.2796    241.5389      4.0580   3.0675908422e+01   2.5558131575e+01    0.7287847    0.4071181  83.00  0.004374473    1.631    0.387
         4  -8.4400     16.6784      6.6710   8.0923721866e+01   7.2603195753e+01    0.1207768    0.0695241  -8.21 0.0003702894    1.692    0.409
         5 -10.6683    140.5255    222.4589   9.6241977596e+01   7.8223870705e+00    0.4657932    0.2537933  31.51  0.002192897    1.764    0.433
         6 -13.3407     81.7352    220.3008   1.0887338296e+02   1.7478414884e+01     3.858632    0.8786433  43.19  0.006536683    3.502    0.714
         7 -12.6579     19.6761    220.3750   1.2188622708e+02   2.5139317227e+01    0.8294532    0.7447405 -79.61  0.003727582    1.344    0.256
         8 -13.8956      9.5038    207.3750   1.2311895828e+02   2.8925580247e+01     1.613898     1.162567 -76.07  0.009319142    1.316    0.240
         9 -15.7257     14.1810    243.1438   1.2419869034e+02   2.1090910151e+01     11.29433       5.0713 -83.98   0.02650902    2.028    0.507
        10 -12.1015     56.8866    238.7635   1.1583742800e+02   1.7051714748e+01    0.4597343    0.3403597 -86.82 0.0005206499    1.313    0.238
        11  -7.9622     99.4321    180.7914   9.9341635727e+01   2.3660728241e+01    0.1920179     0.133487 -48.45 0.0005318524    1.531    0.347
        12  -9.6129     39.6106    176.2497   1.1378755534e+02   3.3074188391e+01    0.4449641    0.1725501 -49.43  0.001519481    3.118    0.679
        13 -10.3231     65.3675    174.4730   1.0706963109e+02   3.0333120790e+01    0.4281165    0.2865051 -34.34  0.002039503    2.073    0.518
        14 -10.3115     69.9925    169.7313   1.0519371124e+02   3.0863658278e+01    0.3638825    0.2619528 -41.77 0.0009028987    1.631    0.387
        15  -8.7315    114.1904    173.5950   9.4372679736e+01   2.2841121633e+01     0.215218    0.1434184  25.98 0.0009558383    1.728    0.421
        16  -8.8538    164.7449    217.0065   9.0161925650e+01   4.8066620209e+00    0.1856581    0.1743811  -5.96 0.0006389566    1.107    0.097
        17 -12.3978     49.1941    190.3886   1.1299621474e+02   2.8571831104e+01    0.9405114    0.8487523  78.44  0.003686815    1.095    0.087
        18 -11.0969     79.4482    160.6281   1.0123308323e+02   3.1752998685e+01    0.7399675    0.4395835  66.05 0.0005300597    2.191    0.543
        19 -11.8529     67.1460    156.1525   1.0386849500e+02   3.4658187704e+01    0.6575859    0.4801062 -10.16  0.001612324    2.039    0.510
        20 -12.4328     68.4607    144.3277   1.0149464668e+02   3.7471656311e+01     1.590344    0.8703645  76.09  0.004782022    3.283    0.695
        21  -7.6808    107.5157    203.5594   1.0088139506e+02   1.7138626030e+01    0.1416228    0.1245963  59.53 0.0001039844    1.061    0.057
        22  -8.7946     25.8089    148.6027   1.1423388304e+02   4.1297600865e+01    0.1685605    0.1137682  46.19 0.0004584568    1.570    0.363
        23  -9.1486    134.1251    145.2423   8.3454319932e+01   2.5759650101e+01    0.5254628    0.2021025 -54.67  0.001655066    2.982    0.665
        24  -8.3064    198.3007    139.8938   6.7554788341e+01   1.3568487696e+01    0.2387242      0.17112 -53.64 0.0009576567    1.504    0.335
        25 -10.6516     87.9420    139.2371   9.4851893191e+01   3.5791476398e+01    0.3063993    0.2705445 -44.31 0.0004308897    1.148    0.129
        26  -9.2914    100.8046    139.4556   9.1201787047e+01   3.3533284035e+01    0.5029382    0.3152643 -19.65   0.00184583    2.800    0.643
        27  -9.0873     79.0274    139.0696   9.7422409480e+01   3.7251267369e+01     0.223107      0.20661 -85.41 0.0004378915    1.061    0.057
        28  -8.6733     59.6875    197.0745   1.1126155897e+02   2.5684627646e+01    0.1817902    0.1521021 -84.25 0.0003213971    1.116    0.104
        29  -8.5685    106.0056    131.1774   8.7861813910e+01   3.4619248182e+01    0.3469326    0.3150502  39.91  0.001797664    1.135    0.119
        30  -8.3097    109.9996    130.5069   8.6567522058e+01   3.4029309076e+01    0.2219437    0.2041018  28.28 0.0006068403    1.142    0.125
        31  -9.3328     97.6372    126.2091   8.9137379302e+01   3.7363743151e+01    0.3310086    0.2604488 -13.85  0.001525038    1.605    0.377
        32  -9.2036     32.6556    155.8366   1.1324483105e+02   3.8839974485e+01    0.4510074     0.115715 -71.50   0.00147748    3.618    0.724
        33  -7.9862    107.1381    118.8964   8.4564189587e+01   3.7366940955e+01    0.2028156    0.1803819 -10.81 0.0003266072    1.248    0.199
        34  -7.6242     84.2922    118.2953   9.1323895748e+01   4.1603581751e+01    0.1507189    0.1149707 -23.37 0.0002057915    1.557    0.358
        35 -10.9762     17.5373    109.9144   1.1145572671e+02   5.1587447146e+01    0.4192835    0.2467862 -83.07  0.002138318    1.733    0.423
        36  -8.0447    205.6861    110.0449   5.9112456110e+01   1.7746253401e+01    0.2116502    0.1804921 -43.16 0.0006079227    1.081    0.075
        37 -10.6071     86.1834    154.1316   9.8244661027e+01   3.2335847782e+01    0.6026172    0.4428203 -19.09  0.001460153    1.923    0.480
        38  -8.3359     40.6585    103.2806   1.0238488971e+02   5.1189100162e+01    0.1336122    0.1022726  68.95 0.0002444955    1.628    0.386
        39  -9.4900    246.9886     97.1906   4.9839672782e+01   1.1563834063e+01      0.29167    0.1784493 -12.43  0.001236532    2.927    0.658
        40  -8.1600     32.7850     96.6908   1.0378824293e+02   5.3553643587e+01    0.2040901    0.1020529 -73.58 0.0005336791    2.293    0.564
        41  -9.3723     12.6743     92.5618   1.1024574689e+02   5.6096450726e+01    0.2400578   0.09980038 -67.20  0.001087753    2.003    0.501
        42  -8.4329     73.5472     83.8769   8.5757288495e+01   5.1402599728e+01    0.2432951     0.182261  76.43 0.0007129313    2.103    0.524
        43  -7.6127    150.7103     82.7282   6.2930221247e+01   3.5606390415e+01    0.1484525    0.1207048  16.11 0.0006920406    1.511    0.338
        44  -8.5761     50.4024     63.3239   8.8084901041e+01   5.9095543926e+01    0.2138171     0.158739  48.51 0.0007639187    1.760    0.432
        45 -10.7464     12.8801     60.2085   1.0319094651e+02   6.3386546499e+01    0.3242907    0.2836007  -1.69  0.001223657    1.266    0.210
        46 -11.6686    193.9632     46.5686   4.5007310485e+01   3.1003845611e+01    0.5263896    0.4115329 -57.34  0.001419625    1.212    0.175
        47  -8.5880    184.4946    217.0204   8.6030448390e+01   1.5396283668e+00     0.192963    0.1065788 -19.85 0.0008104652    2.639    0.621
        48  -9.0510     95.5775    241.1329   1.0821556814e+02   1.1278400566e+01     0.214153    0.1486484 -49.12 0.0008311376    1.789    0.441
        49  -8.2653    137.9885     44.0125   5.3872140950e+01   4.5051914879e+01    0.2257699    0.1687878 -77.26 0.0005985987    1.676    0.403
        50  -8.3856    137.9058     36.2004   5.1361682387e+01   4.6114886140e+01     0.208151    0.1796778 -88.48 0.0005148923    1.240    0.193
        51  -7.6172    198.2800     23.3611   3.8620106298e+01   3.2954733511e+01    0.1232997   0.09868658  34.52 0.0003670867    1.671    0.402
        52  -8.6187    217.3084     11.3154   3.3979085126e+01   2.9956531887e+01    0.1133905   0.09130616  46.69 0.0003395268    1.630    0.387
        53 -13.8863     40.1021    199.6340   1.1600251042e+02   2.7494891558e+01     3.915955     1.629632  71.81   0.01307249    3.378    0.704
