#   1 NUMBER                 Running object number                                     
#   2 MAG_AUTO               Kron-like elliptical aperture magnitude                    [mag]
#   3 X_IMAGE                Object position along x                                    [pixel]
#   4 Y_IMAGE                Object position along y                                    [pixel]
#   5 X_WORLD                Barycenter position along world x axis                     [deg]
#   6 Y_WORLD                Barycenter position along world y axis                     [deg]
#   7 A_WORLD                Profile RMS along major axis (world units)                 [deg]
#   8 B_WORLD                Profile RMS along minor axis (world units)                 [deg]
#   9 THETA_WORLD            Position angle (CCW/world-x)                               [deg]
#  10 FWHM_WORLD             FWHM assuming a gaussian core                              [deg]
#  11 ELONGATION             A_IMAGE/B_IMAGE                                           
#  12 ELLIPTICITY            1 - B_IMAGE/A_IMAGE                                       
         1 -13.7079     30.5007     59.7539   1.0581021872e+02   6.0763384366e+01      1.89757    0.8475709  34.24   0.00565671    2.722    0.633
         2 -12.3181     42.9329     20.5723   8.6362223787e+01   6.6787241730e+01    0.5250546    0.2985952  31.41  0.001609434    1.902    0.474
         3 -12.5533    215.9999     14.6888   4.4083805547e+01   2.8836733130e+01    0.6911422    0.5473838  11.38  0.002922485    1.608    0.378
         4 -13.3059    187.6931      7.1050   4.5053094300e+01   3.6774056387e+01      1.11491    0.5297529 -76.94   0.00408309    3.185    0.686
         5 -11.1096     65.4094     10.0597   7.2333944164e+01   6.4875314032e+01    0.3616282     0.209252 -20.95   0.00141894    1.576    0.365
         6 -12.2289     43.8393      8.9450   8.0298232236e+01   6.8341427461e+01     0.326075    0.2772664 -19.26  0.002178747    1.293    0.227
         7 -12.0265     58.1469      8.4146   7.4205394757e+01   6.6275362008e+01    0.4795948    0.3455856  26.07  0.002414761    1.293    0.227
         8 -11.1010     54.7801      2.8673   7.2629442667e+01   6.7455541514e+01    0.2634901    0.2309806  76.64  0.001620077    2.078    0.519
         9 -10.9978     48.2862      1.4682   7.4470203246e+01   6.8620684686e+01    0.4189411    0.1614209  44.65  0.001186593    2.794    0.642
        10 -10.0105    109.4832      8.5173   5.8659808504e+01   5.6182243078e+01    0.1348998    0.1216655  25.79 0.0002500293    1.052    0.049
        11 -11.8539    166.3058      1.8107   4.6072785460e+01   4.2757520310e+01    0.6305696    0.1581126  65.41  0.002116876    3.190    0.686
        12  -9.6058      5.4917      2.4986   9.5988806756e+01   7.3337699525e+01    0.1118887   0.07966182 -26.34 0.0003214067    1.028    0.027
        13 -10.2643    149.1539    222.2967   1.0601218347e+02   8.6949885848e+00    0.3097331   0.09178896 -54.15  0.001121565    4.782    0.791
        14 -11.1164    226.2763    221.3984   9.1760098755e+01  -4.0911355901e+00     0.175318    0.1511832 -47.24  0.001044334    1.738    0.425
        15 -10.7907    232.0365    223.5148   9.1121185257e+01  -5.2558908094e+00    0.1884097   0.09945188  37.82   0.00104031    1.614    0.381
        16 -11.4556    239.8758    215.2077   8.8335619222e+01  -5.5004769806e+00    0.3427289    0.1514445 -41.07  0.001617261    3.013    0.668
        17 -11.6347    223.5383    213.5756   9.0892646006e+01  -2.6698999180e+00    0.3451307    0.1795523  28.59  0.001769181    1.795    0.443
        18 -10.6623    116.0039    209.3166   1.1064380199e+02   1.6379805713e+01    0.2994067    0.1309936 -64.11  0.001335732    2.865    0.651
        19 -10.3011     49.7736    202.9896   1.2272466050e+02   2.6936288484e+01    0.1783484   0.09608059  60.70   0.00095667    1.631    0.387
        20 -10.9131     41.6991    201.0261   1.2406715096e+02   2.8260563377e+01    0.2418551    0.1617503 -70.02 0.0008505112    1.472    0.320
        21 -10.5610      3.6538    200.2021   1.3081122955e+02   3.2232574738e+01    0.2580718   0.08168772  50.15  0.001425758    2.492    0.599
        22 -12.5503    160.6758    192.0697   9.9086576936e+01   1.1745512892e+01    0.7114131    0.5016875  68.44   0.00326703    1.873    0.466
        23 -10.0600    215.4353    193.9436   8.8782311014e+01   1.3916498877e+00    0.1686179    0.1139727 -58.03 0.0008069822    2.571    0.611
        24  -9.9954     34.3334    187.6627   1.2437927209e+02   3.1760706538e+01    0.1254703   0.06682479  69.65 0.0007051964    1.743    0.426
        25 -10.3105    183.3808    182.8054   9.2820786486e+01   9.0799665407e+00    0.3810574    0.1327227 -39.54  0.001399988    3.148    0.682
        26 -10.4647    224.0106    183.4176   8.5162854922e+01   1.3835570572e+00    0.1938006    0.1483632 -23.05  0.001115775    1.291    0.226
        27  -9.7663    191.6830    178.3375   9.0299126634e+01   8.2391177462e+00    0.1333598    0.1127756  86.17  0.000704849    1.701    0.412
        28 -10.9694     38.3330    174.9550   1.2245722000e+02   3.3993685958e+01    0.1705701    0.1298167 -86.81 0.0009129965    1.077    0.072
        29 -11.1973     44.3184    171.6525   1.2088014147e+02   3.4045318443e+01    0.4434467    0.1525457  54.49  0.001861421    3.186    0.686
        30 -11.7843     55.3857    167.7694   1.1806925369e+02   3.3598643088e+01    0.4728059    0.2408832  89.62   0.00196771    2.313    0.568
        31 -10.3140     79.5102    164.0118   1.1217605286e+02   3.1232109879e+01    0.1941507    0.1052139 -89.54 0.0008106076    2.623    0.619
        32 -11.1984     22.4124    159.7962   1.2439481539e+02   3.8857031646e+01    0.3026485    0.2023617  75.89  0.001884393    1.307    0.235
        33 -10.9669    121.3131    168.8602   1.0346386026e+02   2.3432286797e+01    0.2754403      0.12637 -61.30  0.001085559    2.594    0.614
        34 -11.5066    106.2344    157.8602   1.0499677865e+02   2.8413695800e+01    0.5740321    0.3787359  84.08  0.002653911    2.044    0.511
        35 -11.0279    167.7887    157.3374   9.0923280964e+01   1.6798120475e+01    0.4068139    0.2918636  86.36  0.001760961    2.322    0.569
        36 -11.4023    118.8310    157.0691   1.0190829674e+02   2.6388329497e+01    0.3750487    0.2944269  56.73  0.001427629    1.266    0.210
        37 -10.7133    218.5824    156.4227   8.0486662297e+01   6.5806042480e+00    0.3622738    0.1643328 -41.85  0.001462056    2.346    0.574
        38  -9.7586     68.3364    154.6731   1.1341917220e+02   3.4874604252e+01    0.1394648   0.08967577  74.20 0.0007051699    1.723    0.420
        39 -10.7750     23.6422    153.7478   1.2355837756e+02   4.0073593742e+01    0.1870351    0.1503433  71.84 0.0007370557    1.176    0.149
        40 -10.3998    189.7962    150.3710   8.4760029314e+01   1.3526190752e+01     0.355108    0.1984486 -52.98  0.001425688    2.335    0.572
        41 -10.9610    107.9535    146.0975   1.0241797599e+02   3.0734980471e+01    0.4930663    0.2363243  64.88   0.00146841    4.684    0.786
        42  -9.9144     81.3276    154.6467   1.1034244751e+02   3.3064941399e+01    0.1443679   0.09494064  76.80 0.0007046907    1.770    0.435
        43 -10.3537     55.5109    145.9983   1.1524494884e+02   3.8480370771e+01    0.1862379   0.09846541  87.65 0.0008095134    2.468    0.595
        44 -10.2676    148.2199    144.8185   9.2566273435e+01   2.3331759770e+01    0.2483061    0.1653813  88.48 0.0009420159    2.772    0.639
        45 -10.1925     87.9971    144.4942   1.0702803452e+02   3.4376162132e+01    0.1997947    0.1049755  60.44 0.0008101119    2.503    0.600
        46 -10.5104     83.0067    132.2160   1.0603628474e+02   3.7975427139e+01    0.2114498    0.1474586 -83.54 0.0009161651    1.627    0.385
        47 -11.8934     99.5729    128.7639   1.0101876100e+02   3.6123081273e+01    0.7480004    0.4345649  74.24   0.00270205    3.304    0.697
        48  -9.6816    117.7359    125.9877   9.5703895105e+01   3.3484328556e+01    0.2679352    0.1590227  75.16 0.0008938836    3.516    0.716
        49 -11.0302     44.5778    124.1697   1.1477674739e+02   4.4785124348e+01    0.6529843    0.3304524  76.10  0.002628646    3.299    0.697
        50 -11.0465     26.1282    119.2816   1.1896051638e+02   4.7680068829e+01    0.3183447    0.1468154 -84.66  0.001443863    2.414    0.586
        51 -10.7823     14.9665    121.0941   1.2210873788e+02   4.8151261896e+01    0.3073939    0.2080587  20.50   0.00195951    1.994    0.498
        52 -11.9921    193.3710    118.2814   7.6269244509e+01   1.8661534659e+01    0.6304686    0.4972297 -68.56  0.002058849    1.658    0.397
        53 -10.0123     70.8343    119.9891   1.0691836786e+02   4.2587289072e+01    0.2353654    0.1506205 -88.99  0.001083351    2.064    0.515
        54 -10.2032    108.1420    112.3792   9.4966295653e+01   3.8351152460e+01    0.5367005    0.1672622 -57.28  0.001368288    5.034    0.801
        55 -10.5479     78.6051    112.5270   1.0319417367e+02   4.3229528527e+01    0.4195757    0.2156914 -76.38   0.00146045    3.447    0.710
        56 -12.6068    159.9792    110.5895   8.1436998493e+01   2.7855170103e+01    0.9104904    0.5191712 -60.28  0.003268758    2.604    0.616
        57 -10.1060    122.6402    113.3100   9.1349416284e+01   3.5354326792e+01    0.1570125    0.1210551  86.72 0.0007041588    1.740    0.425
        58 -10.3057     91.8668    111.4619   9.9222037185e+01   4.1404994286e+01    0.4240003    0.1862379 -61.50  0.001525865    2.696    0.629
        59 -10.8615     18.0054    113.0000   1.2028191116e+02   4.9776479027e+01    0.2883364    0.1857593  15.07  0.001741566    2.165    0.538
        60 -11.1766     14.3325    111.6580   1.2109757607e+02   5.0352087724e+01    0.6715131     0.205531 -78.08  0.002493411    3.582    0.721
        61 -11.1043    174.4199    110.9410   7.8301779187e+01   2.4442992514e+01    0.3806663    0.2926448 -45.98  0.001141434    1.324    0.245
        62 -12.9641    142.0533    103.9450   8.3903045415e+01   3.3266784620e+01    0.7863377    0.6317293 -64.84  0.003741239    1.441    0.306
        63 -11.8954     44.7436    101.5528   1.1076452837e+02   5.0055568773e+01    0.6199426    0.3490586  87.54  0.002677687    2.819    0.645
        64 -12.0403    127.6263    100.6624   8.6663467586e+01   3.7079496046e+01    0.5869449    0.3205482 -55.57  0.002255493    2.152    0.535
        65 -11.9568    114.8375    102.3299   9.0538898816e+01   3.9318567723e+01    0.5169358    0.2422792  47.61  0.001967298    2.320    0.569
        66 -11.3421    108.0258     99.1140   9.1542930949e+01   4.1337190417e+01    0.5821421    0.3918217 -81.97  0.002332337    2.534    0.605
        67 -10.5267     82.3580    100.6731   9.9336400432e+01   4.5404332700e+01    0.2627475    0.2238794  59.37  0.000949952    1.338    0.252
        68  -9.8826     94.6767     97.3453   9.4871097200e+01   4.4143596776e+01    0.1491639    0.1152573 -88.30 0.0007050148    1.737    0.424
        69 -12.9920    170.3158     90.7769   7.3567535777e+01   2.9269192511e+01    0.4691964    0.4029391  69.46  0.001055625    1.304    0.233
        70 -10.5655      4.8218     91.6640   1.2105586450e+02   5.5496202690e+01    0.2675436    0.1143469  87.24  0.001100085    3.504    0.715
        71 -11.8025     42.5649     87.7724   1.0856442592e+02   5.3455837129e+01    0.4563363    0.2766136 -21.13  0.001580607    2.351    0.575
        72 -10.9104     45.5105     82.2596   1.0632849242e+02   5.4400956395e+01    0.6463962      0.36328  74.36  0.002310473    4.704    0.787
        73 -11.0635     87.4561     87.4439   9.4297725874e+01   4.7560916230e+01    0.4195735     0.259582  55.48   0.00187028    2.141    0.533
        74 -10.5544    104.8429     83.9200   8.8083865052e+01   4.5221268528e+01    0.3213959    0.2494003  84.25  0.001165191    1.886    0.470
        75 -10.8319     24.0748     80.0770   1.1296023000e+02   5.6839062375e+01    0.3837053    0.1841524 -84.33  0.001532564    3.509    0.715
        76 -10.7812      2.5274     77.2875   1.1954702408e+02   5.8826659251e+01    0.2405443    0.1406009 -46.56 0.0006547755    1.502    0.334
        77 -10.8155     82.7631     73.8458   9.1725346233e+01   5.1252256142e+01    0.3952235    0.2639039 -84.10  0.001545803    3.229    0.690
        78 -11.3479    223.2472     70.8332   5.8301063646e+01   1.9656096756e+01    0.3085723    0.2720192 -48.37 0.0006785028    1.099    0.090
        79 -10.3873     51.9822     71.0134   1.0119224709e+02   5.6167544941e+01    0.2105869    0.1762497 -45.61 0.0008108612    1.026    0.025
        80 -10.5522    196.9500     67.9627   6.1715012245e+01   2.6575988314e+01    0.4440877    0.2281757  58.38  0.001159983    1.998    0.499
        81 -11.2308     28.1072     52.3541   1.0460585039e+02   6.2512095120e+01    0.3392605     0.214052 -24.97  0.001233585    1.645    0.392
        82 -11.8565     19.1839     59.3949   1.0998201056e+02   6.1730163634e+01    0.3240715    0.2610224 -28.01   0.00144003    1.261    0.207
        83 -11.5205    221.2256    248.7249   9.6968475854e+01  -6.4426960940e+00    0.3732876     0.171536  38.24  0.002106696    1.705    0.414
        84 -11.7582    232.1770     60.3900   5.4279877749e+01   1.9082832267e+01     0.410676    0.2594674  61.78  0.001966768    1.683    0.406
        85 -11.6102     39.6455     52.6791   1.0019883506e+02   6.1362094145e+01    0.5152012    0.1950231 -44.19  0.001964479    2.120    0.528
        86  -9.7828    119.3422     56.6660   7.4958539582e+01   4.7484097415e+01    0.1511743    0.1199771 -71.56 0.0003907399    1.757    0.431
        87 -12.2855    238.6120     64.6927   5.4545914569e+01   1.6962583195e+01     0.461264    0.2721223 -88.49  0.001898609    2.630    0.620
        88 -12.3247    149.2582     52.2741   6.6090350737e+01   4.1141611376e+01    0.3842363    0.3205906  43.31 0.0004537274    1.179    0.152
        89 -10.5761    162.2042     53.5293   6.3774078470e+01   3.7689588484e+01    0.2944975    0.1550643  63.32  0.000992134    2.083    0.520
        90 -10.8109    157.0882     44.9446   6.1966996824e+01   4.0262852413e+01    0.2938498    0.2062383  51.87 0.0004471325    1.381    0.276
        91 -11.1120     10.0807     44.0000   1.0948765115e+02   6.5523641293e+01    0.2516647     0.179468  18.96  0.001225902    1.750    0.429
        92 -11.3080      6.3214     43.6739   1.1096486415e+02   6.5806033161e+01    0.3565061    0.2329509 -81.74  0.001700189    2.032    0.508
        93 -11.8565     71.4337     42.3168   8.4488115305e+01   5.9148450058e+01    0.6634263    0.3711019  53.98  0.002917285    2.819    0.645
        94 -12.4117     40.7698     38.3724   9.4749887558e+01   6.4012580709e+01    0.5576699    0.3635876   6.64  0.002022124    1.773    0.436
        95 -10.2542     82.9762     38.4990   7.8978923785e+01   5.7822952224e+01    0.1997591    0.1325692  39.79 0.0007113864    1.570    0.363
        96 -12.2240    120.3503     34.3694   6.6428488238e+01   5.0705697774e+01    0.2958965    0.2813551  58.35 0.0008390718    1.184    0.155
        97 -10.6257     49.4502     34.7536   8.9787113655e+01   6.3624839180e+01    0.3745856    0.1640442  25.90   0.00166908    2.813    0.644
        98 -10.9694    106.0515     29.9539   6.8449375132e+01   5.4495313388e+01    0.4114426    0.2929744  63.29  0.001468865    1.725    0.420
        99 -10.5063    102.2046     30.3922   6.9706608901e+01   5.5257197455e+01    0.4298326    0.2388191 -39.98  0.001953164    1.951    0.488
       100 -12.6321    204.4755     21.6518   4.7261177471e+01   3.0964612608e+01    0.5817857    0.3476295 -85.62  0.002619342    1.976    0.494
       101 -10.2958     19.6615    249.6855   1.3068559939e+02   2.1889973687e+01   0.07959991   0.07179777 -79.63  0.000704733    1.698    0.411
       102 -11.1573    239.7676     20.6073   4.3292230628e+01   2.2451206128e+01    0.2871073     0.220559  73.13 0.0006344832    1.318    0.241
       103  -9.7342    187.7811    248.2896   1.0261477857e+02  -1.2584769966e+00      0.24304    0.1096076  28.24  0.001156605    2.519    0.603
       104 -10.1164     89.3914     18.1266   6.8222183756e+01   5.9464493729e+01    0.2484326    0.1901332  72.17  0.001326691    1.933    0.483
       105 -10.3214     46.6818     16.6509   8.2916078592e+01   6.6884717890e+01    0.2462921    0.1462378 -12.84 0.0009536325    1.703    0.413
       106 -10.4659    180.0103     12.9648   4.7773217497e+01   3.8187163011e+01    0.1676293    0.1564932  74.61 0.0003232424    1.005    0.005
       107 -11.2842     33.8340    247.5033   1.2844846769e+02   2.0734668658e+01    0.1920415    0.1266496  73.63 0.0005895675    1.117    0.105
       108 -12.0652     21.6083    238.4600   1.2985665024e+02   2.3558135556e+01    0.4444596    0.1767673  70.77  0.002610179    2.246    0.555
       109 -10.1825      8.4680    240.4933   1.3193843057e+02   2.4530040204e+01   0.09924231   0.06637464  71.83 5.423542e-05    1.011    0.011
       110  -9.5026      4.0155     11.4787   1.0097618655e+02   7.1981796176e+01    0.1505197   0.07095116 -17.69 0.0008076518    2.374    0.579
       111  -9.4909      2.6653    240.3126   1.3278722894e+02   2.5113069258e+01    0.1059587   0.04574538  65.12 0.0007045353    1.684    0.406
       112 -10.2383     72.0000    229.9353   1.2099673267e+02   1.9111932156e+01    0.1644603   0.05885632 -67.73 0.0008033795    2.949    0.661
       113 -10.9115     12.8198    227.5828   1.3068860058e+02   2.6330194763e+01    0.1912455    0.1103347  75.01 0.0004555254    1.278    0.217
       114 -10.3301    104.4588    225.4320   1.1474095085e+02   1.5311571078e+01    0.2155285     0.114084 -63.54  0.001197406    2.137    0.532
       115 -10.6723     96.0036    225.2050   1.1626583107e+02   1.6603288541e+01    0.2094608     0.105575  61.43  0.001089443    2.031    0.508
