#   1 NUMBER                 Running object number                                     
#   2 MAG_AUTO               Kron-like elliptical aperture magnitude                    [mag]
#   3 X_IMAGE                Object position along x                                    [pixel]
#   4 Y_IMAGE                Object position along y                                    [pixel]
#   5 X_WORLD                Barycenter position along world x axis                     [deg]
#   6 Y_WORLD                Barycenter position along world y axis                     [deg]
#   7 A_WORLD                Profile RMS along major axis (world units)                 [deg]
#   8 B_WORLD                Profile RMS along minor axis (world units)                 [deg]
#   9 THETA_WORLD            Position angle (CCW/world-x)                               [deg]
#  10 FWHM_WORLD             FWHM assuming a gaussian core                              [deg]
#  11 ELONGATION             A_IMAGE/B_IMAGE                                           
#  12 ELLIPTICITY            1 - B_IMAGE/A_IMAGE                                       
         1 -13.1072     90.6562     18.8680   5.3863358316e+01   5.8872810436e+01    0.2878178     0.251801  42.26 0.0006697025    1.075    0.070
         2 -11.0907    195.7156     18.6660   3.5453730456e+01   3.4478489469e+01     0.244564    0.1408312  76.72 0.0008336207    1.585    0.369
         3 -10.9954    223.1321     16.7441   3.2462330671e+01   2.8666897672e+01    0.3345508    0.2616745  46.69  0.001095363    1.734    0.423
         4 -13.2168    216.5186     13.6282   3.2354204854e+01   3.0424364805e+01    0.4189419    0.3294986  79.92  0.001201121    1.203    0.169
         5 -11.7170    130.4051     14.9508   4.3432498268e+01   5.0279910526e+01    0.3246647    0.1842523  52.22 0.0006299717    1.539    0.350
         6 -12.6161     46.5653     11.5419   6.6152326266e+01   6.7905522413e+01    0.2398309    0.1876615  18.94 0.0002463135    1.062    0.058
         7 -13.2876     64.5871     10.7052   5.8652828307e+01   6.4899436677e+01    0.3838604    0.2447046  37.54 0.0007671973    1.324    0.245
         8 -11.5429     36.7653     11.1497   7.0443234779e+01   6.9419713926e+01     0.212011    0.1571155  17.55 0.0002539912    1.127    0.113
         9 -12.8267    193.7847      8.9494   3.3352365401e+01   3.5947529386e+01    0.4182551    0.2015666  62.56 0.0008361458    1.901    0.474
        10 -11.2168    114.9704      7.3184   4.3785345313e+01   5.4573419786e+01     0.217172    0.1925183  58.78 0.0003225006    1.051    0.049
        11 -13.2819     55.5445      5.3275   5.9478852258e+01   6.7068196288e+01     0.739793    0.3283153  51.04  0.003030987    2.252    0.556
        12 -10.1613    127.8298      5.9965   4.0984813890e+01   5.1696646029e+01    0.1958392    0.1453575  45.89 0.0004655213    1.273    0.214
        13 -10.1618    139.0044      4.5129   3.8735252249e+01   4.9188521910e+01    0.1885554    0.1087827  68.82 0.0001705154    1.478    0.323
        14 -10.5959    109.0168    232.9444   1.0145636591e+02   1.0717925550e+01    0.2023231     0.173486  42.29 0.0006396359    1.023    0.023
        15 -11.6333    229.5397    248.6217   7.9090069503e+01  -9.2622593826e+00    0.3407114    0.1888227  27.26   0.00125707    1.601    0.375
        16 -10.9089     61.2184    248.5678   1.1317429359e+02   1.4227114247e+01    0.2570667    0.2252851  -3.78 0.0009493853    1.644    0.392
        17 -11.6866     72.6927    229.9718   1.0909364200e+02   1.6491670705e+01    0.4281706    0.2993758  64.05   0.00213212    1.359    0.264
        18 -11.2859    126.6483    230.4498   9.7239222356e+01   8.5262123979e+00    0.3656123    0.2960904 -12.02  0.001385956    1.505    0.335
        19 -10.4142    152.0518    229.5571   9.1546510719e+01   4.7347997974e+00     0.234931    0.1929313 -76.03  0.001133393    1.671    0.402
        20 -11.3788     35.8707    223.1918   1.1639900255e+02   2.2454804695e+01    0.3255492    0.2002537  74.90 0.0009631406    1.510    0.338
        21 -11.1338    149.6680    223.1563   9.1084798568e+01   6.3016209819e+00    0.3398904    0.2906355 -74.64  0.001906489    1.507    0.337
        22 -10.3164     55.8054    223.3121   1.1213493487e+02   2.0088001530e+01    0.2120381    0.1482211  80.61 0.0006344119    1.385    0.278
        23 -10.6818    174.1283    221.5470   8.5535295113e+01   2.7144424712e+00    0.3426537     0.193897 -50.03  0.001661713    2.066    0.516
        24 -10.0169    107.3626    221.6967   1.0038673858e+02   1.3250431626e+01    0.1443366   0.09398869  60.78 0.0006092971    1.730    0.422
        25 -10.4328     97.8344    221.1810   1.0249138665e+02   1.4792336960e+01    0.2140195    0.1670375  58.87 0.0008297741    1.238    0.192
        26 -11.6477     23.0990    218.3998   1.1873327226e+02   2.4847637483e+01     0.328455    0.2637563  71.69  0.001427227    1.014    0.014
        27 -11.2197    227.4321    217.8094   7.4288973500e+01  -4.5712888080e+00    0.3350774    0.1660079  35.37  0.001708742    2.036    0.509
        28 -11.8993    238.9772    215.7060   7.1829142799e+01  -5.8017485159e+00    0.3883393    0.1591503 -42.09  0.001806243    2.504    0.601
        29 -11.4289    234.6804    215.3030   7.2524558357e+01  -5.1710812777e+00    0.2354869    0.2108708  41.26  0.001576985    1.612    0.380
        30 -10.5517    180.0589    217.0250   8.3519382317e+01   2.5853341833e+00    0.1988816    0.1712751  73.71  0.001134858    1.722    0.419
        31 -10.0810     24.9941    224.2879   1.1873491050e+02   2.3384901543e+01    0.1642145    0.1329562  63.73 0.0003580685    1.072    0.067
        32 -10.4635    177.0048    211.0074   8.3124151742e+01   4.1627236328e+00    0.2038569    0.1723105  70.88  0.001128187    1.708    0.415
        33 -10.0432    192.8011    210.2178   7.9676394272e+01   1.7809690144e+00    0.2025851    0.1524675  77.94 0.0009469067    2.766    0.638
        34 -10.5708     87.5976    205.2152   1.0283754536e+02   1.9807631945e+01    0.1794468    0.1259701 -53.78  0.000600626    1.523    0.344
        35 -11.0523     93.8742    203.5623   1.0110689705e+02   1.9247632205e+01    0.2634363    0.2232254 -71.28 0.0008308003    1.220    0.180
        36 -11.3640      3.4628    197.7003   1.2156933204e+02   3.1259312176e+01    0.3123468    0.2413144  89.89  0.001468915    1.082    0.076
        37 -11.2905    162.1834    193.4714   8.3222818883e+01   1.0057618464e+01     0.463893    0.3432996  33.61  0.002390116    1.294    0.227
        38 -10.3537     66.0268    194.5177   1.0672684834e+02   2.5317435037e+01    0.2039278   0.09039252  53.03 0.0008092041    2.453    0.592
        39 -10.2800    173.6962    191.8353   8.0346430803e+01   8.3799936889e+00    0.2721492    0.1847449  59.94  0.001232442    2.140    0.533
        40  -9.8554    132.5580    195.0012   9.0418861495e+01   1.4885306229e+01    0.2139881    0.1434048 -52.95 0.0009913638    1.577    0.366
        41 -10.1910     33.6737    185.9415   1.1372400395e+02   3.1208961262e+01    0.1902629    0.1452623 -86.05 0.0006357653    1.153    0.133
        42 -11.2407     42.9704    183.7968   1.1121431894e+02   3.0724192246e+01    0.2579445    0.2294369  -5.44  0.001008878    1.459    0.315
        43 -10.2022     93.0256    179.7388   9.7785007931e+01   2.4974433330e+01    0.1867598    0.1230543  36.58 0.0004413689    1.495    0.331
        44 -10.2645    191.6474    177.7020   7.3720016819e+01   8.0029391798e+00    0.3048864    0.1724074 -48.02  0.001358053    1.860    0.462
        45 -10.2947    129.3182    175.9164   8.7774981327e+01   1.9741897296e+01     0.409234    0.1816894 -51.33  0.001539236    2.283    0.562
        46 -10.8841     58.8892    176.4188   1.0625799443e+02   3.0640983952e+01    0.2749442     0.191093  79.90 0.0009342991    1.536    0.349
        47 -11.6342     53.3675    173.9951   1.0739612465e+02   3.1926470150e+01    0.4113737    0.2389471  73.55  0.001840499    2.088    0.521
        48 -11.3471     11.6379    172.7046   1.1792579702e+02   3.6442199676e+01    0.4382586    0.1735554 -69.36  0.001554283    2.071    0.517
        49 -10.0413    217.9856    175.1985   6.8001173610e+01   3.9658671145e+00    0.2139479    0.1382367 -20.53  0.001055976    1.635    0.389
        50 -10.0237    159.3398    175.6703   8.0443218381e+01   1.4290720381e+01    0.1501614    0.1203368  78.53 0.0007051707    1.739    0.425
        51 -11.5488     38.6362    174.7973   1.1133077231e+02   3.3403600242e+01    0.2252821    0.1876116  35.14 0.0006443692    1.317    0.241
        52 -12.1249     45.1616    170.7931   1.0916338331e+02   3.3682945966e+01    0.4538658    0.3102958  89.88  0.002381156    1.448    0.309
        53 -10.1648    121.3186    169.6539   8.8622803083e+01   2.2639044510e+01    0.1579043    0.1188009  75.75 0.0007048946    1.727    0.421
        54  -9.9218    138.7797    165.1744   8.3281030066e+01   2.0471280595e+01    0.2599332    0.1709256  79.05 0.0009521968    2.845    0.648
        55 -11.8240     96.1278    163.7577   9.4232069955e+01   2.8398655374e+01    0.6462219    0.3886431  56.89 0.0005494158    1.988    0.497
        56 -12.7949     20.6680    157.7226   1.1421636710e+02   3.9369233206e+01     0.663689    0.5567374 -61.83  0.002358575    1.177    0.150
        57 -12.8205    118.7037    157.9001   8.6986053443e+01   2.5918277105e+01    0.5961321    0.4301534  36.29  0.001219823    1.394    0.283
        58 -11.6485    124.9430    154.3549   8.4591236517e+01   2.5610907553e+01    0.4639021    0.2954615 -46.05  0.001180808    1.569    0.363
        59 -11.2217    167.3543    157.0979   7.4698902285e+01   1.6750470114e+01    0.5194428    0.3929055 -74.22  0.002377376    1.840    0.456
        60  -9.8230    170.1642    154.8694   7.3571541264e+01   1.6675185495e+01     0.245784    0.2038611  -7.78 0.0007770215    1.332    0.249
        61 -10.7088    218.8425    156.0960   6.3912435632e+01   7.2905038505e+00    0.3220471     0.211205 -40.82  0.001110173    1.389    0.280
        62 -10.5198     79.6086    163.8694   9.8798907560e+01   3.0943309985e+01    0.4149304    0.2179684  83.90  0.001266962    4.240    0.764
        63  -9.7738    146.0246    155.0000   7.9324861188e+01   2.1402064995e+01    0.2615784   0.08771272  40.24 0.0001848425    2.997    0.666
        64  -9.9393     67.9980    154.4947   1.0051460916e+02   3.4971197313e+01    0.2156261     0.104721  53.29 0.0008104567    2.546    0.607
        65 -11.0519    243.3427    151.1752   5.8710311230e+01   4.0384641285e+00      0.18606    0.1598467 -12.06   0.00115795    1.141    0.124
        66 -10.4771    189.8517    150.0380   6.8236625183e+01   1.3821704163e+01     0.246429    0.1743563 -68.81  0.001087988    2.053    0.513
        67 -11.2047    108.3525    146.6745   8.7482334678e+01   3.0526906475e+01    0.7620722    0.3539275  58.65  0.002175013    4.261    0.765
        68 -10.4564     55.7454    145.8838   1.0267618476e+02   3.8761856902e+01    0.3895167     0.206982  69.02  0.001444203    3.006    0.667
        69 -10.4607    250.0693    144.7656   5.6363591318e+01   4.0463257758e+00    0.2003179    0.1841044 -79.72 0.0008436172    1.411    0.291
        70 -10.2973    148.7768    145.2099   7.6462172968e+01   2.3071295434e+01    0.2580916    0.1749881  85.26 0.0009483621    2.746    0.636
        71 -10.6207     89.3830    144.9445   9.2555525056e+01   3.4204126325e+01    0.2881982    0.2306544  23.58 0.0008479462    1.371    0.270
        72  -9.9145    125.3261    144.6268   8.2376239715e+01   2.7854902295e+01    0.1649023    0.1247338  83.34 0.0007029542    1.823    0.451
        73 -10.1454     99.4286    143.6657   8.9380928919e+01   3.2843054699e+01    0.2800294    0.2277203  89.67   0.00135253    1.444    0.307
        74 -10.0837    182.0014    142.0072   6.8080911184e+01   1.7010214108e+01    0.2372028    0.1896927 -82.05  0.001129365    1.706    0.414
        75 -11.2263     21.8260    139.9167   1.1186572468e+02   4.3736484027e+01    0.3221644    0.2627887  13.05 0.0008275356    1.489    0.328
        76 -11.0021     69.0077    136.2175   9.6948457552e+01   3.9496931022e+01    0.3341212    0.3002502  35.23  0.001220812    1.184    0.156
        77 -10.8952     82.4971    131.0595   9.1742660984e+01   3.8797448747e+01    0.2410837    0.1442675 -57.41  0.001037346    1.606    0.377
        78 -11.5856     98.1424    126.8726   8.6038416618e+01   3.7215025297e+01      0.53263    0.3731655 -83.05  0.001635515    2.024    0.506
        79 -10.1134    131.9934    131.9805   7.7662284039e+01   2.9507415706e+01    0.2807802    0.1724021 -71.10  0.001008054    2.598    0.615
        80 -10.6599     59.4093    124.0274   9.7587607995e+01   4.3876593808e+01    0.3490034    0.2541876  56.60  0.001731967    1.607    0.378
        81 -11.4689     43.2058    122.4258   1.0257134442e+02   4.6177581637e+01    0.7777947     0.369399 -83.32  0.002717962    3.396    0.706
        82 -10.8407    189.4780    124.0144   6.2347596048e+01   1.9109150304e+01     0.278041    0.2278533  46.18 0.0007175886    1.296    0.228
        83 -10.6906     29.0020    123.7103   1.0740380191e+02   4.7220634127e+01    0.2882938    0.1541755  81.30   0.00117591    2.734    0.634
        84 -10.6786      2.7532    117.1181   1.1488807884e+02   5.0691716332e+01    0.3452029    0.1337877 -89.86   0.00128432    3.429    0.708
        85 -11.6706    154.8362    115.9103   6.7892211816e+01   2.8240373869e+01    0.4866738    0.3533082  65.59 0.0009161281    1.672    0.402
        86 -11.1276    133.0590    105.9649   7.0735671799e+01   3.5123739809e+01    0.7188462    0.2560018 -45.18  0.001568441    2.789    0.641
        87 -11.3062    162.5654    113.1284   6.5389548340e+01   2.7122006345e+01    0.4787823    0.3002977  52.39  0.001469001    1.681    0.405
        88 -12.1256    159.9540    106.8144   6.4355743869e+01   2.8996249434e+01     1.432512    0.5902526  37.62  0.004588458    3.207    0.688
        89 -10.6374    128.8886     92.2882   6.8040129032e+01   3.8900253356e+01    0.3369142    0.2651694 -42.41  0.001128049    1.272    0.214
        90 -12.5871    145.5816    104.2743   6.7084101644e+01   3.2730731017e+01    0.8766056    0.6125889  62.37  0.002716423    1.669    0.401
        91 -10.9133    108.8781    116.2330   8.0234062265e+01   3.7778471509e+01    0.3708407    0.3099562 -46.94 0.0008100777    1.170    0.146
        92 -12.0995    108.2020    109.8199   7.8769658984e+01   3.9396610936e+01    0.3764145    0.3026178 -34.93 0.0006408229    1.259    0.206
        93 -11.1997     79.1651    113.1160   8.8714260135e+01   4.3760104567e+01    0.4872849    0.2720802 -75.38  0.001702728    3.098    0.677
        94 -10.5362     73.1913    114.7984   9.1073477343e+01   4.4266950802e+01    0.4314183    0.2381734   9.10  0.001542132    3.127    0.680
        95  -9.9912    185.9526    113.7616   6.0585867453e+01   2.1873489249e+01    0.2288762    0.2029997  10.06  0.001206732    1.293    0.227
        96 -11.1853     92.4278    112.7793   8.4374122772e+01   4.1627820673e+01    0.4865318    0.2612086 -63.01  0.001834523    2.327    0.570
        97 -11.3636     24.6131    112.8216   1.0710589792e+02   5.0306798102e+01    0.2885889    0.2061415 -50.05 0.0007459861    1.236    0.191
        98 -11.4198     14.7136    110.3931   1.1006870747e+02   5.1627587638e+01    0.5954826    0.3903313  82.87  0.003171972    1.763    0.433
        99 -11.0144     57.5107    105.5807   9.4254601215e+01   4.8695153921e+01    0.3753392    0.2659303  19.58  0.001120723    1.569    0.363
       100 -11.5176     64.2340    103.0246   9.1297150243e+01   4.8413563680e+01    0.3830178    0.3128321 -72.52 0.0009199427    1.366    0.268
       101 -11.1823     63.7132     96.7390   8.9901193848e+01   4.9973885030e+01    0.5166098    0.3029692 -89.91  0.001560676    5.072    0.803
       102 -11.2929     44.7711    101.9333   9.7949325907e+01   5.1090715274e+01    0.5616432    0.3169038  75.01  0.001964781    4.022    0.751
       103 -12.7225    111.5042    101.5881   7.5561969310e+01   4.0596956341e+01    0.8168301    0.5784461  68.17  0.003512674    1.964    0.491
       104 -10.6621     66.6429    110.8507   9.2339568676e+01   4.6183398768e+01    0.3063011    0.1854481 -85.18  0.001149841    2.890    0.654
       105 -11.7618     22.0887     95.0711   1.0483437588e+02   5.4827552041e+01     0.522754    0.3202677 -42.09  0.001660637    1.469    0.319
       106 -10.2752     95.0136     97.5190   7.9493655150e+01   4.4691551728e+01    0.3003572    0.1951131 -87.13  0.001032761    3.445    0.710
       107 -10.9914    159.9980     96.1467   6.1528050161e+01   3.1109922208e+01    0.3285135    0.2583305  30.54 0.0007938685    1.451    0.311
       108 -10.3356     77.0808     97.1507   8.5333996085e+01   4.7872122539e+01    0.2184645    0.1876796 -17.07 0.0002580205    1.189    0.159
       109 -12.6510    127.1307     98.6076   7.0301782667e+01   3.7973245322e+01     1.280235     0.941073 -19.81   0.00234957    1.662    0.398
       110 -11.2451     34.8478     89.5611   9.8849290282e+01   5.5050959543e+01    0.4701152    0.2924952 -79.87  0.002218908    2.133    0.531
       111 -12.0499     45.2567     82.5127   9.3068956309e+01   5.5587240942e+01    0.5628744    0.3611465  57.55 0.0006292289    2.424    0.587
       112 -11.6065     40.8531     91.0315   9.6904231295e+01   5.4107504327e+01    0.3182523    0.2325583  12.14  0.000511156    1.513    0.339
       113 -10.8123     44.0206     87.0128   9.4711918494e+01   5.4700680827e+01    0.3270419    0.1785916 -40.19 0.0009891653    1.712    0.416
       114 -11.5604     87.2210     87.5385   7.9176307674e+01   4.8299790617e+01    0.4331585    0.2596861  60.72  0.001676043    2.706    0.630
       115 -10.3690     79.7934     87.8696   8.1799924531e+01   4.9513437386e+01    0.2261297    0.1888107 -18.03 0.0004529679    1.219    0.180
       116 -10.0099     74.0438     87.7524   8.3776785967e+01   5.0478424865e+01    0.1982817    0.1777193  13.88 0.0003900445    1.126    0.112
       117 -11.2462    104.5562     82.7612   7.2179728830e+01   4.5991753129e+01     0.730947    0.3516663 -54.71  0.002628943    2.734    0.634
       118 -11.2162     24.0318     79.1051   1.0069131531e+02   5.8403344767e+01    0.4694575    0.2638694 -77.60  0.001809672    2.385    0.581
       119 -12.3822    140.2130    109.2822   6.9766082713e+01   3.2856213292e+01    0.7030351    0.4950837  11.88   0.00271273    2.084    0.520
       120  -9.8235     96.6834     79.4561   7.3625234264e+01   4.8220564595e+01    0.1987135    0.1394047  27.72 0.0009273344    1.517    0.341
       121 -11.1703     62.4177     74.7211   8.4180974825e+01   5.5061803112e+01    0.3433394     0.228182 -50.26  0.001722438    1.496    0.332
       122  -9.3666    203.3278     76.3014   4.8374661563e+01   2.4796277729e+01    0.1336115     0.110662  18.73 0.0003786871    1.643    0.391
       123 -11.4178     82.1756     72.5887   7.6290569868e+01   5.2295329686e+01    0.4971319    0.3591647 -87.34  0.002056837    2.687    0.628
       124 -10.7363    140.8394     83.1963   6.2373613773e+01   3.7994470598e+01    0.4010905    0.1924828 -49.46  0.001495898    2.326    0.570
       125 -10.4866     37.2963     84.1448   9.6607315453e+01   5.6066871032e+01    0.2567839    0.1651957  52.47   0.00125243    2.175    0.540
       126 -11.3642     51.9229     70.0583   8.6855652755e+01   5.7483672564e+01    0.3339748    0.2956731  85.69 0.0008775971    1.575    0.365
       127 -12.3145     45.6355     60.4647   8.6406102964e+01   6.0232515892e+01     1.074903    0.4806756 -29.94  0.003683606    2.776    0.640
       128 -13.4689      9.5221     49.3098   9.9419976515e+01   6.5809426081e+01    0.8921551    0.3802251  -1.98  0.004055817    2.998    0.666
       129 -10.9640     40.8325     51.6449   8.5510970244e+01   6.2522867129e+01    0.2934044    0.1773424 -39.04 0.0007111822    1.479    0.324
       130 -12.8361     36.2978     56.9931   8.9321498239e+01   6.2000349157e+01    0.6201894    0.5646482   1.37  0.002691951    1.180    0.152
       131 -13.4940     28.2687     60.7930   9.4065993792e+01   6.2028272120e+01    0.9947996    0.7434591  87.84  0.001143501    2.242    0.554
       132 -12.5649     15.4836     54.0068   9.7926758347e+01   6.4461253249e+01    0.7122546    0.3012734 -16.09  0.002419822    3.433    0.709
       133 -11.9326      8.5428     66.1308   1.0419352453e+02   6.2334796066e+01    0.4152947    0.2330719  11.05  0.001463594    1.997    0.499
       134 -11.3918      2.2986     64.2627   1.0650108284e+02   6.3059875911e+01    0.2939284    0.2247516 -18.30  0.001067795    1.303    0.233
       135  -9.9665    100.5513     65.2366   6.7834611913e+01   5.0155656653e+01    0.1976883     0.136656 -23.28 0.0007649367    1.613    0.380
       136 -11.0684    145.0090     63.9544   5.5759047727e+01   4.0410562308e+01    0.2131536    0.2016712  77.29  0.001199313    1.050    0.048
       137 -10.9833    130.3362     58.3424   5.7421911388e+01   4.4758549545e+01    0.2561349    0.2315731  62.47 0.0004477075    1.100    0.091
       138 -10.2436     72.5127     58.5671   7.5044875062e+01   5.6641798568e+01    0.2494389    0.1297373 -52.30  0.001039957    2.455    0.593
       139  -9.4803    186.6588     54.3048   4.5438578202e+01   3.2010507967e+01    0.1462488   0.09841508 -72.33 0.0004441275    1.681    0.405
       140 -10.6177    112.6802     49.5284   5.9029382371e+01   5.0144787148e+01    0.2926452    0.2214025 -88.49  0.000991607    1.921    0.479
       141 -11.2357     95.0976     49.8896   6.4241094048e+01   5.3857431241e+01    0.4789552    0.2274668  50.98 0.0006138178    2.143    0.533
       142 -11.4856    145.6225     45.0319   4.9951282470e+01   4.3116342536e+01     0.467507     0.319399 -76.46  0.002213602    1.934    0.483
       143 -11.1461     73.5863     32.2654   6.4691408948e+01   6.0653016085e+01    0.5036175    0.3504086  -9.38  0.002771936    1.544    0.352
       144 -11.9453     75.5877     43.1201   6.8249955356e+01   5.8702131983e+01    0.3465171    0.2623076  41.37 0.0007754674    1.315    0.240
       145 -11.8793     74.3332     39.3995   6.7261598379e+01   5.9496280448e+01      0.34846    0.2618079  39.91  0.001248036    1.291    0.225
       146 -14.5457     40.2993     38.5410   8.0895951108e+01   6.4934038394e+01    0.5812921    0.4191171 -17.28  0.001672192    1.246    0.197
       147 -10.7865      5.3820     42.4096   9.9447284629e+01   6.7423796465e+01    0.2815555    0.1102638 -64.04  0.001246418    2.936    0.659
       148 -10.6006     81.5049     38.2740   6.4327099441e+01   5.8311383271e+01    0.2601878    0.2140232  74.46   0.00144644    1.751    0.429
       149 -10.8501    144.6543     36.5231   4.7558821747e+01   4.4473678351e+01    0.2660838     0.236713  83.56 0.0005460537    1.109    0.098
       150  -9.4778    126.5334     35.4385   5.0912052010e+01   4.8915452414e+01    0.1371538     0.124633  55.79 0.0001750715    1.018    0.018
       151 -10.1179    188.8569     33.8530   3.9950890517e+01   3.4268861437e+01    0.1905655    0.1651659  58.48 0.0004709176    1.246    0.197
       152  -9.1317    217.2681     32.3126   3.6367453820e+01   2.8069535724e+01    0.1092949   0.09780839  33.32 0.0002622839    1.546    0.353
       153 -11.9347      2.0049     29.4723   9.7068314385e+01   7.0054942959e+01    0.4079294    0.1536337 -51.63  0.002022698    2.126    0.530
       154 -10.4724    195.9110     30.6929   3.8313271143e+01   3.3032085610e+01    0.2182686    0.1540509  62.90  0.001249582    1.391    0.281
       155  -9.5865      7.7070     31.2890   9.4577386359e+01   6.9369795984e+01   0.09498434   0.09213047  45.13  0.000224949    1.547    0.353
       156  -9.6409    249.8544     27.1588   3.2434301771e+01   2.2024196766e+01    0.1384383    0.1238898 -89.88 0.0003133119    1.282    0.220
       157 -11.0921    176.0724     26.1200   3.9628751148e+01   3.8200163522e+01    0.2596861    0.1986044  89.57 0.0005167334    1.222    0.182
       158 -10.2656    112.9998     25.8113   5.0711411179e+01   5.3196197092e+01    0.2352995    0.1611592  58.63 0.0005221955    1.337    0.252
       159 -10.1227    123.8024     23.2107   4.7432376011e+01   5.0987370306e+01    0.1855743    0.1361402  41.90 0.0003844463    1.305    0.234
       160 -11.5540    204.7102     21.6297   3.5222824405e+01   3.2116293146e+01    0.3288166    0.2047021  78.62  0.001074671    1.475    0.322
       161 -11.5223    210.1276     19.3762   3.4185443362e+01   3.1173384845e+01    0.3737034    0.1767377  66.66  0.001688006    1.958    0.489
       162 -10.4637     26.3642     22.0887   8.0836403486e+01   6.9232402174e+01    0.1915866    0.1351306   2.38 0.0003744369    1.234    0.190
       163 -11.6010     23.8109    247.8409   1.2039862815e+02   1.8695303380e+01    0.2961366    0.2126657 -20.19  0.001747723    2.816    0.645
       164 -10.6882     32.1137     20.4734   7.7169593485e+01   6.8791102933e+01     0.300912    0.1696739  13.94   0.00116924    1.820    0.450
       165 -10.8715     14.5159    249.5052   1.2220278426e+02   1.9328071330e+01    0.1747371    0.1064052  19.43  0.001036762    2.397    0.583
       166  -9.7590    194.4711    248.4966   8.5693673320e+01  -4.6730575630e+00    0.1238248     0.100329  12.36 -3.938367e-05    1.028    0.027
       167 -12.6166     37.5374    244.4664   1.1756618489e+02   1.7861933532e+01    0.5855989    0.3513139 -73.20  0.002885786    1.689    0.408
       168 -10.1856    150.5221     17.4772   4.0864284418e+01   4.5238113559e+01    0.1313367    0.1145516  71.73 5.295918e-05    1.012    0.012
       169  -9.4298      1.3182     17.3215   9.2886503656e+01   7.2208315135e+01    0.1222119   0.06264661 -24.78 0.0004621843    1.666    0.400
       170 -11.4105    209.8891    237.5733   8.0967790624e+01  -5.1634108270e+00    0.3256474    0.2851777  81.95  0.002015626    2.194    0.544
       171 -10.5244     37.9124     18.4845   7.3411542540e+01   6.8310206448e+01    0.2098496    0.2044094  53.92 0.0009212648    1.677    0.404
       172 -11.1791     17.9848    241.7418   1.2115883540e+02   2.0501190741e+01    0.2092557     0.163829  72.17 0.0006923693    1.055    0.052
       173 -11.6746     25.9151    238.7256   1.1946623751e+02   2.0285615183e+01    0.2972935    0.2243132  52.89   0.00153864    1.153    0.133
       174 -13.1146     18.6345    236.1078   1.2072312478e+02   2.1570621309e+01    0.5783502    0.2503614  47.91  0.001600899    1.850    0.459
       175  -9.3082     96.6993    236.6965   1.0459365304e+02   1.1779515165e+01    0.1194654   0.09974965  -7.72 0.0003947377    1.590    0.371
       176 -10.2442      2.9314    235.2949   1.2365675373e+02   2.3247507277e+01    0.1550633     0.116497  60.86  0.000495023    1.108    0.098
       177 -10.9516     62.4824    233.4696   1.1162103734e+02   1.7097685060e+01    0.3435706    0.1742525  34.19  0.001471894    1.846    0.458
       178  -9.6745    166.4847    233.4792   8.9065116459e+01   1.8056368985e+00    0.1315552    0.1133343  20.56 0.0001400424    1.027    0.026
