#   1 NUMBER                 Running object number                                     
#   2 MAG_AUTO               Kron-like elliptical aperture magnitude                    [mag]
#   3 X_IMAGE                Object position along x                                    [pixel]
#   4 Y_IMAGE                Object position along y                                    [pixel]
#   5 X_WORLD                Barycenter position along world x axis                     [deg]
#   6 Y_WORLD                Barycenter position along world y axis                     [deg]
#   7 A_WORLD                Profile RMS along major axis (world units)                 [deg]
#   8 B_WORLD                Profile RMS along minor axis (world units)                 [deg]
#   9 THETA_WORLD            Position angle (CCW/world-x)                               [deg]
#  10 FWHM_WORLD             FWHM assuming a gaussian core                              [deg]
#  11 ELONGATION             A_IMAGE/B_IMAGE                                           
#  12 ELLIPTICITY            1 - B_IMAGE/A_IMAGE                                       
         1 -13.2563    163.1844     44.0281   7.3356414947e+01   3.8519311648e+01     1.390458     1.169004 -11.55  0.004209975    1.357    0.263
         2 -12.7498    152.0337     58.9778   8.0441614605e+01   3.9177727768e+01     1.316238     1.111773 -11.39  0.005882499    1.347    0.258
         3 -13.3090    177.7217     10.8511   6.0706061616e+01   3.8639279038e+01     1.451072     1.211177 -88.66  0.006018468    1.098    0.089
         4  -9.5012    150.9328    242.5681   1.1976109370e+02   6.1351489806e+00    0.2321642    0.1848828  30.93  0.001668621    1.159    0.137
         5  -9.6171    175.9944    250.0176   1.1581280630e+02   1.8970963387e+00    0.1744711    0.1401409   3.92  0.001327693    1.244    0.196
         6  -9.8462    139.1199    242.5125   1.2212381472e+02   7.7345065572e+00    0.5661258    0.1660919  30.95  0.002354632    2.784    0.641
         7 -10.0594    133.2043    249.8852   1.2409574684e+02   7.4937382175e+00    0.1952565    0.1536653  38.41 0.0003756339    1.196    0.164
         8 -10.5615    133.8100    245.7275   1.2354253933e+02   7.9933143810e+00    0.2076205    0.1734073  17.22 0.0003883151    1.203    0.169
         9 -18.9483     68.7149    228.8727   1.3575989853e+02   1.9153828503e+01     5.263012     3.708955  38.78   0.02166407    1.107    0.097
        10  -9.0890    151.7656    182.7911   1.1117550624e+02   1.5379555064e+01    0.1824535    0.1560386  53.33  0.001057626    1.362    0.266
        11 -11.2710    204.3708    176.9941   9.9132245901e+01   7.5982238170e+00    0.4309197    0.3573094 -49.05  0.002476584    1.730    0.422
        12 -10.9981    203.4574    168.7045   9.7733222459e+01   8.9724754969e+00    0.5801748    0.4282932 -23.18  0.002840319    1.297    0.229
        13  -9.3105    198.6876    178.7265   1.0053952444e+02   8.2492662865e+00    0.2326219     0.219716  71.52  0.000894624    1.654    0.395
        14 -10.5956    180.2151    193.8518   1.0689023579e+02   8.9066176693e+00    0.2661866    0.2595499 -12.66  0.001493704    1.391    0.281
        15 -11.3432    137.4378    171.4474   1.1261503952e+02   1.9964539662e+01    0.5637802    0.5015833  75.43  0.001870242    1.385    0.278
        16 -11.5239    194.9125    169.2348   9.9487981577e+01   1.0312930069e+01    0.4235231    0.3279868 -23.03 0.0009314798    1.265    0.210
        17 -10.5099    192.0885    164.9118   9.9207407132e+01   1.1475306918e+01    0.3935452    0.2694169  19.99  0.001343518    1.410    0.291
        18 -11.1539    175.9325    230.7952   1.1334138470e+02   4.3035113272e+00    0.3115137    0.2039292 -15.51  0.001943219    1.738    0.425
        19 -10.3009    142.3066    167.3712   1.1070729703e+02   1.9898874718e+01    0.3548441    0.2637314 -72.75  0.001199124    1.961    0.490
        20  -8.7667    122.7781    166.8672   1.1550237577e+02   2.3450365558e+01     0.270503    0.1601446  54.46 0.0003775259    1.945    0.486
        21  -9.2521    118.0753    163.5622   1.1616335568e+02   2.4964798998e+01    0.2838224    0.2184304  76.39 0.0007035049    1.662    0.398
        22 -12.4243    164.5589    189.4348   1.0944626071e+02   1.2115652869e+01    0.9789419    0.6672269  64.02  0.004642137    2.625    0.619
        23 -10.3704    125.6880    172.7726   1.1575013495e+02   2.1735316419e+01    0.3384265    0.2831483 -61.28  0.001024975    1.406    0.289
        24  -9.0478    189.2965    159.3151   9.8654771225e+01   1.2869687193e+01     0.347657    0.1911321  24.01  0.001547544    2.044    0.511
        25  -9.4870     22.6209    156.8849   1.4233866380e+02   3.9380678496e+01    0.2336195    0.1604224  40.51 0.0004370617    1.324    0.244
        26 -10.2294    170.4032    183.9498   1.0725104019e+02   1.2058079964e+01    0.4492308    0.2417214  38.64  0.001754393    1.663    0.399
        27 -11.1299    133.8240    146.3981   1.0880780096e+02   2.5750127860e+01     1.236767    0.3590021 -55.87  0.003061558    6.031    0.834
        28 -10.9799    172.4990    189.3889   1.0774051348e+02   1.0832479290e+01    0.3607666    0.3181157  12.47  0.001446828    1.105    0.095
        29  -8.7505    175.9917    150.4816   9.9616124909e+01   1.6818572444e+01    0.2076139    0.1324972  37.92 4.178755e-05    1.480    0.324
        30  -9.7105    143.8172    146.4203   1.0625751822e+02   2.3809992817e+01    0.3868368    0.2194654 -63.28  0.001466393    2.788    0.641
        31 -10.1943    175.9545    186.9881   1.0660273759e+02   1.0654752241e+01    0.3241522    0.2702442 -66.05  0.001257324    1.889    0.471
        32 -10.3181    222.4780    144.7493   8.9470275018e+01   9.3484404573e+00    0.2213066    0.1914275   2.24 0.0003317657    1.066    0.062
        33 -10.3908    108.6467    141.0576   1.1466019752e+02   3.1674193668e+01     0.284173    0.2494449  38.78 0.0003809209    1.066    0.062
        34 -11.2019    107.3397    136.3062   1.1409925905e+02   3.3024830000e+01    0.3557088    0.3314252 -31.49 0.0003148248    1.173    0.148
        35 -10.5821    106.2330    131.5646   1.1345528289e+02   3.4350796085e+01    0.3736314    0.2732153  27.12  0.001068147    1.434    0.303
        36 -11.2498    117.2152    137.1084   1.1140908924e+02   3.0988111546e+01    0.5679493     0.352693 -46.03  0.002084036    1.727    0.421
        37  -8.2826      2.2975    140.3478   1.4740339590e+02   4.4855364620e+01    0.1244202   0.08412974 -54.34 0.0007034978    1.680    0.405
        38  -9.4378      8.0264    138.6127   1.4561448091e+02   4.4928434046e+01    0.2996835    0.1890938 -28.15  0.001577636    2.213    0.548
        39 -10.6636     45.9811    135.5097   1.3333714358e+02   4.2423307909e+01    0.2738091    0.2654268 -85.97  0.001667059    1.127    0.113
        40 -10.7431    135.7236    129.2832   1.0458835958e+02   2.9046625142e+01    0.7137833    0.1981092 -49.68  0.001996102    4.088    0.755
        41 -10.4951    135.3505    122.5046   1.0308846570e+02   3.0594355467e+01    0.5490587    0.1942088 -44.64  0.001763845    2.953    0.661
        42 -10.0081     44.4488    130.4924   1.3324089189e+02   4.3883856604e+01    0.2548947    0.2293628  78.33 0.0008880535    1.013    0.013
        43  -9.7381    160.2005    128.7987   9.8346029034e+01   2.4029350914e+01    0.3657307    0.2603351 -44.97  0.001497755    1.482    0.325
        44 -10.6849    120.7273    128.3837   1.0851940091e+02   3.2295642397e+01    0.3522956    0.2902221 -42.30 0.0008921014    1.287    0.223
        45  -9.4577    241.1274    126.3081   8.2617674240e+01   8.8319171262e+00    0.2062755    0.1480064 -16.89 0.0002871891    1.223    0.183
        46 -10.3956    109.9715    124.2952   1.1075489463e+02   3.5365359529e+01    0.3192923    0.3003694   0.29 0.0007221445    1.148    0.129
        47 -11.0967     44.2640    124.3927   1.3253505255e+02   4.5490472951e+01    0.5043087    0.2214341  35.67  0.002103908    2.110    0.526
        48 -10.0567    114.4565    118.2342   1.0799771986e+02   3.5902673403e+01    0.2951102    0.2442248  57.55 0.0003322701    1.252    0.201
        49 -12.5858     65.2620    108.2688   1.2231170576e+02   4.7092519104e+01     1.032109    0.9647086  19.32  0.004472234    1.151    0.131
        50  -9.4791    153.6434    194.2659   1.1262295837e+02   1.3079584321e+01    0.2981662    0.1186298 -40.97   0.00124195    2.952    0.661
        51 -10.4585    117.3168    109.9839   1.0508991940e+02   3.7229741086e+01    0.3026609    0.2272002  66.18  0.001029314    1.590    0.371
        52  -9.0838    167.9796    241.9725   1.1634333725e+02   3.9317492099e+00    0.1776814    0.1312105  21.09 0.0004911897    1.033    0.032
        53  -9.7745    153.7225    187.4806   1.1151283922e+02   1.4228238797e+01    0.2234891     0.191632 -35.94 0.0007030364    1.339    0.253
        54  -9.1780    143.7218     81.7717   8.9676987150e+01   3.7179875596e+01    0.2774648    0.2401465  21.89 0.0007152492    1.272    0.214
        55  -8.7520    180.4978     81.0086   8.1496981532e+01   2.8259029712e+01    0.2138415    0.1995851  57.51  0.001152236    1.106    0.096
        56  -9.8289    236.3558     70.7777   7.0611908760e+01   1.7386692805e+01    0.2186043    0.2036577 -26.08 0.0002722509    1.099    0.090
        57 -11.9057    249.4606    234.3390   1.0089239261e+02  -5.2295005232e+00    0.1906434     0.136459   5.25 0.0001994055    1.145    0.127
        58 -11.5322    167.4417     35.6736   6.9930800086e+01   3.8523348362e+01    0.4130689    0.4065123 -31.35 0.0008333253    1.107    0.097
        59 -11.4638    187.6301    239.0215   1.1222282690e+02   1.7106053993e+00    0.3478629    0.1969033 -38.57  0.001421268    2.215    0.549
        60  -8.5031    122.4896     65.8894   9.0155561540e+01   4.5588811544e+01    0.2274609    0.1606816 -37.51 0.0003777351    1.459    0.315
        61 -10.5590    134.0536     42.9170   7.8768225967e+01   4.6571150890e+01    0.2671195    0.2467826 -18.09  0.001381028    1.165    0.142
        62  -9.1234    229.1504     22.3895   5.9492250076e+01   2.4878412278e+01     0.261362    0.1575968 -36.60 0.0008642558    1.410    0.291
