#   1 NUMBER                 Running object number                                     
#   2 MAG_AUTO               Kron-like elliptical aperture magnitude                    [mag]
#   3 X_IMAGE                Object position along x                                    [pixel]
#   4 Y_IMAGE                Object position along y                                    [pixel]
#   5 X_WORLD                Barycenter position along world x axis                     [deg]
#   6 Y_WORLD                Barycenter position along world y axis                     [deg]
#   7 A_WORLD                Profile RMS along major axis (world units)                 [deg]
#   8 B_WORLD                Profile RMS along minor axis (world units)                 [deg]
#   9 THETA_WORLD            Position angle (CCW/world-x)                               [deg]
#  10 FWHM_WORLD             FWHM assuming a gaussian core                              [deg]
#  11 ELONGATION             A_IMAGE/B_IMAGE                                           
#  12 ELLIPTICITY            1 - B_IMAGE/A_IMAGE                                       
         1  -9.8917     98.2541     16.0467   6.1700741791e+01   5.9175496683e+01    0.3158898     0.249126 -68.83   0.00160208    1.564    0.361
         2  -9.7291     40.9306     13.3114   8.2791723488e+01   7.0611250144e+01    0.2813258    0.1871752 -37.65 0.0008150241    1.332    0.249
         3  -8.7212    103.5153      9.4964   5.7068704141e+01   5.8769394938e+01    0.1433479     0.138537  -2.87 0.0008104306    1.017    0.016
         4  -9.0060     92.0324      9.5216   6.0206887319e+01   6.1515986647e+01    0.2106771    0.1413404  60.00 0.0006791587    1.573    0.364
         5  -9.5582     71.3788      6.6127   6.5386527822e+01   6.6429776937e+01    0.2481615    0.1334033  71.25 0.0009567667    3.310    0.698
         6  -9.4101    187.6638      5.3328   4.1615060131e+01   3.6326770190e+01    0.1647233   0.09924474 -55.40 0.0007052118    1.738    0.425
         7  -9.2064    227.9913      2.3387   3.7294183278e+01   2.5962546353e+01    0.2348372   0.05827601  52.34 0.0007051863    4.413    0.773
         8  -9.2234    169.4751      2.5083   4.2584866279e+01   4.1642335150e+01     0.147942    0.1427722 -71.16 4.151169e-05    1.015    0.015
         9  -8.8908     79.9862      2.0000   5.9757910426e+01   6.5203640012e+01    0.2206982   0.07815711  58.52 0.0008035466    2.950    0.661
        10  -9.1480    236.3818    230.0449   8.6125450158e+01   4.7300464008e-01      0.15389    0.1238174 -28.93  0.001222457    1.844    0.458
        11  -9.7270    160.5347    227.4600   9.7410656942e+01   1.1517385210e+01    0.1876827    0.1348245  41.00 0.0007279727    1.008    0.008
        12 -10.4972    164.0309    225.7613   9.6652002314e+01   1.1194958153e+01     0.323522    0.1904358  48.07  0.001594625    1.381    0.276
        13 -11.0282     98.6246    226.2993   1.0769365333e+02   2.0376776049e+01    0.3191203    0.1659349  39.46   0.00154432    1.545    0.353
        14  -9.2372     88.4923    223.4653   1.0921972752e+02   2.2099399616e+01    0.1558589   0.08933691  89.47 0.0009898681    2.216    0.549
        15  -8.6879    171.2629    225.4509   9.5444277192e+01   1.0166666642e+01    0.1406184   0.07723381  46.29 0.0002922197    1.428    0.300
        16 -11.0831    125.7229    221.1967   1.0258806037e+02   1.7321699606e+01    0.2947465    0.2159818  33.66 0.0008605052    1.354    0.261
        17  -9.4085    108.8148    222.6620   1.0563749588e+02   1.9497635678e+01     0.151576    0.1392069  47.17 0.0008651285    1.344    0.256
        18  -8.8624    157.7708    221.6975   9.7222516398e+01   1.2578989355e+01    0.1701438    0.1017661  34.36 0.0007125431    1.401    0.286
        19  -9.3644     19.4942    222.4964   1.2099451441e+02   3.0072671319e+01   0.09681384   0.06385627  59.26 -3.405828e-05    1.026    0.025
        20  -8.5833    148.5208    220.9342   9.8683063183e+01   1.4037766230e+01    0.1251538    0.1097738 -48.69 0.0004323997    1.565    0.361
        21  -8.9431    133.2334    221.7139   1.0135427657e+02   1.6175454318e+01    0.2352802   0.06440771  46.04  0.001079273    2.711    0.631
        22  -9.0193     75.1769    219.8362   1.1127953689e+02   2.4316234514e+01    0.1344482    0.1013478  42.22  0.001056823    1.322    0.243
        23  -9.2688     98.8726    217.1365   1.0689850648e+02   2.1624950729e+01    0.2520127    0.1182042 -84.51  0.001243282    4.071    0.754
        24  -9.2588    191.5005    217.4786   9.1225120495e+01   7.9954246613e+00    0.1102849   0.07925089  33.00 5.820952e-05    1.041    0.040
        25  -8.8773    143.6908    216.8475   9.9054887554e+01   1.5256111005e+01    0.1691651   0.09764703 -40.19  0.001078421    2.502    0.600
        26  -9.7270    131.3425    214.7850   1.0096644582e+02   1.7348708312e+01     0.189277    0.1684317 -67.65 0.0009566677    1.478    0.323
        27  -9.1595     78.8083    211.3730   1.1002425481e+02   2.5126914124e+01    0.2043762   0.07363711  42.38  0.001115942    2.021    0.505
        28  -9.2042    202.5959    209.1903   8.8359440694e+01   7.1562873914e+00     0.171568    0.1046017 -35.11  0.001150024    2.107    0.525
        29  -8.5493    115.7664    210.5590   1.0328757906e+02   2.0196940715e+01    0.1623002   0.07649625  49.43 0.0009423599    1.638    0.389
        30  -8.6653    213.3134    207.3658   8.6428833251e+01   5.7084274519e+00     0.114483   0.06689367  18.73 0.0001565447    1.765    0.433
        31  -9.1457     57.1805    206.1563   1.1360592128e+02   2.8607755619e+01    0.1559385   0.08803667  59.44  0.001068773    1.344    0.256
        32  -8.4753     49.2997    202.6337   1.1484471259e+02   3.0090930490e+01    0.1145333   0.05441467  62.61   0.00070332    1.730    0.422
        33  -9.2459     89.1235    199.5302   1.0714319813e+02   2.5602230528e+01    0.2190316    0.1307613  62.74 0.0009453851    1.502    0.334
        34  -8.8481    149.4607    198.9971   9.5942678680e+01   1.6681312776e+01    0.1422446   0.09665797 -88.33 0.0007052016    2.606    0.616
        35 -10.2557    177.4027    198.2355   9.0966738149e+01   1.2306747265e+01    0.2134751    0.1769905  54.86  0.001240028    1.333    0.250
        36 -10.7547    173.0157    195.7752   9.1375742232e+01   1.3312628286e+01    0.2588577    0.2202329  44.52 0.0008715549    1.156    0.135
        37  -9.6562    174.2773    191.6932   9.0580040917e+01   1.3611074058e+01    0.1780457    0.1403551  46.57 0.0004919948    1.160    0.138
        38  -8.4775    165.3215    198.2959   9.3054277957e+01   1.4241215684e+01    0.1133047   0.07694418  23.04 0.0003125999    1.617    0.382
        39  -9.4677    126.7198    197.1433   9.9854155552e+01   2.0493253330e+01    0.1940789    0.1599595  31.14  0.001380989    1.325    0.245
        40  -8.8145    112.7331    197.9740   1.0255002154e+02   2.2479883824e+01    0.2110037   0.08958752  61.75 0.0008904005    3.559    0.719
        41  -8.9129     66.8159    195.1895   1.1103338392e+02   2.9230878931e+01    0.1994782   0.07636949  62.77 0.0009495534    2.888    0.654
        42  -9.2028    180.6416    193.7930   8.9786514966e+01   1.2312427010e+01    0.1340193    0.1095956 -51.46  0.000772266    1.685    0.406
        43  -8.9133     44.1564    193.7793   1.1528975614e+02   3.2149121776e+01    0.1945356   0.06378131  60.80 0.0007726449    2.840    0.648
        44  -8.4887     78.3799    193.6707   1.0868080693e+02   2.7994734523e+01    0.1244846   0.06238344  61.64 0.0007018259    1.854    0.461
        45  -8.6799    124.3941    192.1861   9.9708661622e+01   2.1585208932e+01     0.137329     0.105424 -86.75 0.0004573441    1.598    0.374
        46  -8.9323    139.4030    190.1601   9.6647651847e+01   1.9513162030e+01    0.1437242    0.1093407 -78.53  0.000898565    1.760    0.432
        47  -9.7370     87.8085    189.7863   1.0649422001e+02   2.7360405414e+01    0.1661462    0.1040461  60.23  0.001067018    1.352    0.260
        48  -8.5758    129.5121    188.9783   9.8353140830e+01   2.1264818570e+01     0.150039   0.09586471  86.85 0.0008090347    2.504    0.601
        49 -10.7456     95.8058    187.5025   1.0469832633e+02   2.6608170143e+01    0.4755132    0.1835373  55.87  0.001900228    2.643    0.622
        50 -10.4512    203.0257    188.2677   8.5218998104e+01   9.2851576635e+00      0.33644    0.1384045  48.59  0.001662702    2.275    0.560
        51  -9.2865    156.5281    188.0510   9.3217295921e+01   1.7015627263e+01    0.2262629    0.1389166  52.69  0.001072405    1.501    0.334
        52  -9.1720    120.7296    186.8182   9.9765346137e+01   2.2975034366e+01      0.23037    0.1398346 -64.68  0.001174758    2.077    0.519
        53  -9.4102     55.3041    187.1169   1.1268148664e+02   3.2013483352e+01    0.2965984    0.1096609  63.32  0.001414784    2.886    0.654
        54  -9.1102     35.0241    188.0351   1.1672733112e+02   3.4131701319e+01      0.18271      0.08366  60.54   0.00094405    1.704    0.413
        55  -9.7208    109.5295    186.0625   1.0185047720e+02   2.4816476976e+01     0.279061     0.153932  72.61  0.001416785    2.588    0.614
        56 -10.6835    211.2013    183.2532   8.3099001877e+01   8.4894881049e+00    0.4275764    0.2166932  24.45  0.002218015    2.224    0.550
        57 -10.5933     13.3561    183.5021   1.2073656379e+02   3.7062544273e+01     0.279985    0.2299346 -12.72  0.002138461    2.340    0.573
        58  -8.8341     74.8113    184.5950   1.0858863735e+02   3.0000209872e+01    0.1738814    0.0760574  49.39 0.0009487291    1.777    0.437
        59  -8.8618     44.7800    182.8564   1.1448699227e+02   3.3982467255e+01    0.1621136   0.09131578  59.95 0.0007849029    1.371    0.271
        60  -9.3255    197.5152    181.9903   8.5140580754e+01   1.0907001258e+01     0.155369    0.1143682 -24.26  0.001025893    1.576    0.366
        61  -8.5113    157.3174    181.2619   9.2104904201e+01   1.7822050980e+01    0.1166297   0.08249211  24.97 0.0002799337    1.545    0.353
        62  -8.8019    147.8029    181.1946   9.3866516132e+01   1.9433951880e+01    0.1934199    0.1172815  71.85 0.0009379095    2.771    0.639
        63  -9.4334     60.5250    177.5028   1.1088548806e+02   3.3083905170e+01    0.2782866   0.09095316  55.86  0.001250386    2.874    0.652
        64 -10.3772    204.6989    176.0296   8.2973230138e+01   1.0378768670e+01    0.2628027    0.2053074   5.95  0.001025821    1.292    0.226
        65  -8.3901    129.6634    177.3348   9.6815773325e+01   2.3030401530e+01    0.1255728   0.08266947  67.33  0.000705193    1.745    0.427
        66  -9.0014     86.3429    177.2922   1.0554070187e+02   2.9693739703e+01    0.1031051   0.09056633  14.64 0.0003232159    1.656    0.396
        67 -10.0877     77.2383    176.2211   1.0731140457e+02   3.1144593525e+01    0.3839474    0.1464947  54.65  0.001830427    2.411    0.585
        68  -9.4919     12.9056    176.7996   1.2056284089e+02   3.8303750158e+01    0.1985772      0.11481  70.47  0.001418734    1.294    0.227
        69  -9.7977    106.6861    175.9912   1.0123372965e+02   2.6910799596e+01    0.2638899    0.1124556  57.99  0.001170359    2.697    0.629
        70  -9.0005    149.7585    175.3695   9.2653430971e+01   1.9957345012e+01    0.1763917   0.09717569  37.72 0.0005730546    1.625    0.385
        71  -9.1803      3.2879    173.8650   1.2237914781e+02   3.9670554288e+01    0.3015392   0.05223853  63.57  0.001132884    5.053    0.802
        72  -8.6925     34.3774    173.6815   1.1602832680e+02   3.6780032308e+01     0.123679   0.05541969  60.52 0.0007027389    1.813    0.448
        73  -8.8523     44.8249    172.0067   1.1373409629e+02   3.5951244483e+01    0.1900997   0.09078958  69.07 0.0007440466    1.962    0.490
        74 -10.1171    208.0385    170.1248   8.1419833385e+01   1.0484035150e+01    0.2506467    0.1426241  36.67  0.001009523    1.475    0.322
        75  -9.2451    122.3237    170.3327   9.7325034628e+01   2.5368801303e+01    0.2567743    0.1166903  56.93  0.001118235    2.450    0.592
        76  -9.4293     55.3239    170.1612   1.1136887990e+02   3.5067196644e+01    0.2355775    0.0983466  56.95  0.001137782    2.092    0.522
        77  -8.6833     15.3791    170.2997   1.1978448867e+02   3.9272256764e+01   0.08948762   0.07846496 -50.53 0.0007024301    1.764    0.433
        78 -10.0373    214.2509    168.2853   8.0085171446e+01   9.6210234361e+00    0.2340569    0.1618597 -14.13  0.001011728    1.565    0.361
        79  -9.3775     99.3656    166.3019   1.0156114688e+02   2.9720580134e+01    0.3224901     0.130993  50.63  0.001507668    2.164    0.538
        80  -8.7265     20.0027    166.5056   1.1863682549e+02   3.9554447344e+01    0.1646926   0.04588105  51.69  0.000810454    2.546    0.607
        81  -8.8945    139.4439    165.2816   9.3141484142e+01   2.3292760092e+01    0.2263416    0.1349516  59.59  0.001181117    1.804    0.446
        82  -9.4908     80.3908    164.3702   1.0540868578e+02   3.2867643778e+01    0.3166712     0.154525  71.53  0.001458553    2.763    0.638
        83  -9.0931     37.8116    164.7953   1.1472090869e+02   3.8083652274e+01    0.1633589   0.09627312  62.25 0.0005300838    1.347    0.257
        84  -9.0435    148.8385    164.1066   9.1098293476e+01   2.1825478689e+01    0.1939743    0.1532449  60.49  0.001204238    1.267    0.211
        85  -9.1202     10.1917    162.1003   1.2051290710e+02   4.1274597700e+01    0.2203698   0.07642432  54.10  0.001153578    2.106    0.525
        86  -9.4834    151.7374    160.9714   9.0021046080e+01   2.1793693372e+01    0.2206339    0.1253677  71.00 0.0008782534    3.537    0.717
        87  -9.4940     93.2786    160.8804   1.0219055847e+02   3.1632706981e+01    0.2848248    0.1465522  61.80  0.001364684    2.087    0.521
        88  -8.8704     23.5164    160.0016   1.1752830631e+02   4.0462833709e+01    0.2438819   0.05988027  56.69  0.001028697    3.459    0.711
        89  -8.7895    205.5306    159.4899   7.9948229618e+01   1.2183969125e+01    0.1253182    0.1031873  26.29  5.15427e-05    1.017    0.017
        90  -8.5519     47.6678    164.3292   1.1254407065e+02   3.7073158022e+01    0.1253976   0.06400325  63.59 0.0007051852    1.719    0.418
        91  -9.2215    106.4679    158.7865   9.9049465464e+01   2.9956334147e+01    0.3547396    0.1513622  58.59  0.001456887    2.916    0.657
        92  -9.8203     50.7219    156.0161   1.1116345038e+02   3.8327693962e+01    0.4009515    0.1412968  57.01  0.001805849    2.755    0.637
        93  -9.9074    213.2505    155.3063   7.7893782953e+01   1.1292465830e+01    0.2539809    0.2116665  50.13  0.001422253    1.341    0.255
        94  -9.7109     82.8777    155.6413   1.0384426524e+02   3.4160063969e+01    0.3429143    0.1490397  59.04  0.001535385    2.534    0.605
        95  -9.1246    134.0863    153.7123   9.2400811916e+01   2.6148577259e+01    0.2892319     0.168962  71.22  0.001277074    2.720    0.632
        96  -9.4527     68.2887    154.1440   1.0697734081e+02   3.6483205499e+01     0.251264    0.1132562  57.93  0.001044976    2.150    0.535
        97  -8.7894     98.9641    151.4617   9.9677634888e+01   3.2511372018e+01     0.187132   0.08598248  58.58  0.000577627    2.457    0.593
        98  -9.5956     29.1515    150.3754   1.1565092514e+02   4.1804854384e+01    0.3578806      0.12978  68.28  0.001625255    2.952    0.661
        99  -9.0740    229.7167    149.0018   7.4070322140e+01   9.0582798120e+00    0.1692013    0.1409966   4.94 0.0005056043    1.092    0.085
       100  -9.8318     39.9826    148.0242   1.1294930425e+02   4.1145789098e+01     0.408104    0.1473018  62.41  0.001795175    2.982    0.665
       101 -10.5084     57.1303    146.3875   1.0874298404e+02   3.9471671337e+01    0.5673332    0.2080544  60.57   0.00230322    3.297    0.697
       102  -9.8050    149.5977    145.7003   8.7804947525e+01   2.4636371202e+01    0.4158379    0.2593865  79.02  0.001755002    3.075    0.675
       103 -10.2190    108.0835    145.8640   9.6792886847e+01   3.2079519253e+01    0.5646679    0.2596825  64.04  0.002089853    3.601    0.722
       104  -9.3263     78.4110    147.2131   1.0381994338e+02   3.6448108447e+01    0.1697187    0.1073084 -86.29 0.0009414722    1.691    0.409
       105  -9.3326     13.5305    146.3380   1.1901145362e+02   4.4068198357e+01    0.2528781    0.1022714  44.50  0.001255107    1.982    0.495
       106  -9.9513     88.6153    144.3579   1.0104978453e+02   3.5498820049e+01    0.3233599    0.1470092  58.93  0.001260296    2.490    0.598
       107  -9.4698    125.9086    143.6705   9.2465173212e+01   2.9379274894e+01    0.3456693    0.2116834  83.04  0.001494618    2.856    0.650
       108  -8.2966    218.3001    143.3179   7.4753499178e+01   1.1790102141e+01     0.131245    0.0858314  17.28 0.0006299365    1.618    0.382
       109  -9.4077      2.8404    142.0025   1.2128365132e+02   4.5808765047e+01    0.2760984   0.08313297  71.88  0.001246742    3.116    0.679
       110  -8.8519     69.5236    141.0072   1.0515296292e+02   3.8945791618e+01    0.1771471   0.09234954  82.19 0.0005580897    2.492    0.599
       111  -9.9687     23.9560    138.7440   1.1606043694e+02   4.4677045944e+01    0.3973405    0.1297619  59.77  0.001784209    2.931    0.659
       112  -9.8776     39.5671    136.4453   1.1202335549e+02   4.3575635240e+01    0.2692606    0.1300725  61.44 0.0007385621    1.920    0.479
       113  -9.0692    113.4726    133.9828   9.3585468821e+01   3.3416167147e+01    0.2853544    0.1466767  69.17  0.001036136    3.550    0.718
       114 -10.6315     84.1019    132.2540   1.0036761872e+02   3.8631106128e+01    0.5071119    0.2661369  63.02  0.001806463    2.179    0.541
       115  -9.6829    133.0451    132.7953   8.8918229043e+01   3.0029191714e+01    0.2934153     0.193746  83.44  0.001341307    2.344    0.573
       116  -9.0625    143.6691    132.3351   8.6511392035e+01   2.8055066154e+01    0.2118122     0.157071  79.40  0.001092028    1.731    0.422
       117  -9.2910     22.7704    131.2243   1.1580113726e+02   4.6358893364e+01    0.3061214    0.1372246 -47.40   0.00139924    3.723    0.731
       118 -10.3581     74.1164    130.3528   1.0258734835e+02   4.0508401170e+01    0.3320052    0.1668135  63.08  0.001521691    2.281    0.562
       119  -9.8872     13.0010    129.5875   1.1816049379e+02   4.7555307926e+01    0.3811533    0.1388835  65.02  0.001823356    2.565    0.610
       120  -8.8891    153.3972    130.2125   8.4025377374e+01   2.6488140431e+01    0.1833214    0.1290384 -57.22 0.0008932687    1.695    0.410
       121 -10.2833    100.2496    129.0536   9.5873521526e+01   3.6682266635e+01    0.5305189    0.2863983  67.24  0.002252701    2.536    0.606
       122 -11.1805     61.5054    125.5919   1.0517148088e+02   4.3256237694e+01    0.8622637    0.2968769  54.74  0.003300054    3.356    0.702
       123 -11.1380     45.3658    124.2862   1.0926938166e+02   4.5522103326e+01    0.7503878    0.2919537  64.62  0.002973128    3.424    0.708
       124  -9.7524    119.1473    126.4194   9.0863709233e+01   3.3845821445e+01    0.5054488    0.2386279  63.10  0.001799908    3.426    0.708
       125 -10.6005     28.9500    122.9753   1.1350435897e+02   4.7539514887e+01    0.6665521    0.2309514  69.54  0.002480174    4.108    0.757
       126  -8.5435    179.3415    124.6761   7.7675921091e+01   2.2048378186e+01    0.1355604    0.1092383 -88.24 0.0007050903    1.729    0.422
       127 -10.0304    142.5082    120.1585   8.4249331204e+01   3.0456195262e+01    0.3701046    0.2667778 -87.79  0.001315421    1.975    0.494
       128  -9.9796     71.9609    120.5296   1.0167553853e+02   4.2907208018e+01    0.4124627    0.1922489  61.22  0.001744753    2.632    0.620
       129 -10.0307    131.8323    119.4783   8.6510110839e+01   3.2731788477e+01    0.4026074    0.2178984  68.25  0.001504373    3.072    0.675
       130  -9.8264      3.1472    117.4671   1.1999163615e+02   5.0880528912e+01    0.4466374     0.138655  71.02  0.001911253    3.285    0.696
       131 -10.1832    110.3215    115.0527   9.0741228843e+01   3.7733728682e+01    0.4972358    0.2800425  74.10  0.001887634    3.137    0.681
       132 -10.7951     79.9589    113.4099   9.8341581412e+01   4.3252382360e+01    0.5738372    0.3106073  72.92  0.002359096    2.720    0.632
       133 -10.6813     93.7250    113.3644   9.4657547230e+01   4.1029390481e+01    0.5129275    0.2837736  59.12  0.001861189    1.986    0.496
       134  -9.3628    123.3715    113.4377   8.7202437119e+01   3.5563298880e+01    0.3673227    0.1645738  55.56  0.001414944    2.500    0.600
       135 -10.8538     67.3379    111.3935   1.0146889356e+02   4.5556214909e+01    0.4247226    0.2142124  60.32  0.001702266    2.257    0.557
       136 -10.5285     14.3409    110.1993   1.1640876771e+02   5.1622313970e+01    0.4308276    0.2140824  77.52  0.002095153    1.818    0.450
       137  -9.3472    134.0109    110.4936   8.4030458852e+01   3.3986486737e+01    0.2045614    0.1193149  68.92 0.0008097991    2.498    0.600
       138 -10.6616     60.2070    110.1024   1.0326878658e+02   4.6814751836e+01     0.239394    0.1719357  61.45  0.001149008    1.312    0.238
       139 -11.1087     23.5925    103.1977   1.1306060553e+02   5.2405599775e+01    0.7347017    0.2685242  64.37  0.002984503    3.400    0.706
       140  -9.7495    140.7323    105.5567   8.1326971077e+01   3.3501065893e+01    0.3713601    0.1991395  66.79   0.00137643    2.841    0.648
       141  -9.7106    110.5427    106.1772   8.8789436243e+01   3.9500597935e+01    0.4031774      0.21818  37.63  0.001760397    2.047    0.511
       142 -11.3060     46.3130    103.0162   1.0623424352e+02   5.0130380146e+01    0.8092234    0.3317376  65.68  0.002953574    3.892    0.743
       143 -10.5618    130.6819    103.5885   8.3200589398e+01   3.5993999637e+01    0.5964306    0.2881689  64.30  0.002027328    3.375    0.704
       144  -9.1476    150.3858    104.1917   7.8839722661e+01   3.1661296984e+01    0.2065614    0.1330781 -52.73 0.0009488013    1.744    0.427
       145  -9.4888      6.8436    103.1504   1.1802308116e+02   5.3738406851e+01    0.2563556    0.1230483  75.87  0.001119878    1.852    0.460
       146 -10.6294    114.4859    102.5088   8.6946586819e+01   3.9487624721e+01    0.4446068    0.2347538  55.03   0.00190526    1.985    0.496
       147 -10.6418    108.8524     99.1306   8.7616334434e+01   4.1274375476e+01    0.5155569    0.3277154  73.29  0.001887872    2.152    0.535
       148  -9.9727     83.1819    101.1159   9.5092271222e+01   4.5419350820e+01    0.4634508    0.2359494  65.38  0.001801897    2.940    0.660
       149 -11.1159     65.1531     97.1504   9.9580429956e+01   4.9041233910e+01    0.6433581    0.3173212  61.08  0.002588249    2.581    0.613
       150 -10.2023     96.3732     97.8319   9.0682093724e+01   4.3871678068e+01    0.5079752     0.221117  49.96  0.002044305    2.347    0.574
       151  -9.5723    140.2848     93.3001   7.8356078066e+01   3.5874148302e+01    0.4978552    0.2260253  65.15  0.001517209    3.978    0.749
       152  -9.3906     20.9446     88.8173   1.1225561541e+02   5.5899305277e+01    0.3926308    0.1714801  71.23  0.001760878    2.716    0.632
       153  -9.8379      6.4601     92.7525   1.1731600260e+02   5.6084444781e+01    0.4181534     0.140298  50.22  0.001979369    2.791    0.642
       154 -10.0821    126.7006     92.4072   8.1378908958e+01   3.9003632926e+01    0.7336779    0.3098342  58.28  0.002511675    3.037    0.671
       155  -9.8218     43.9653     92.5832   1.0534159378e+02   5.2777384219e+01    0.2310445    0.1750999  -4.75  0.001307717    2.087    0.521
       156 -10.6536     35.6108     90.4388   1.0769025901e+02   5.4170283792e+01    0.5474555    0.3084922  81.09  0.002323646    1.904    0.475
       157 -11.0979     88.5073     88.0060   9.0614980641e+01   4.7388117802e+01    0.7188542    0.3216203  58.66  0.002570552    3.234    0.691
       158 -10.6446     50.0642     86.0175   1.0221381103e+02   5.3568044166e+01    0.5977936    0.2745382  61.27  0.002428188    3.024    0.669
       159 -10.4609    106.6559     84.8014   8.4614752369e+01   4.4676402291e+01    0.6620832    0.3569477  67.26  0.002434284    2.969    0.663
       160  -9.1663    142.1921     84.1034   7.5420364788e+01   3.7139010417e+01    0.3027744    0.2012127  81.46  0.001249126    2.238    0.553
       161 -10.0346      9.3395     82.4703   1.1540932758e+02   5.8223471568e+01    0.3586198    0.3352497   4.23  0.002544983    1.438    0.305
       162 -10.4206     25.4408     81.4303   1.0975744692e+02   5.7216844160e+01    0.4882473    0.2318127  65.05  0.002072647    2.480    0.597
       163 -10.3528     75.8157     81.6541   9.2935097958e+01   5.0919260450e+01    0.3654563    0.2105503  68.16  0.001353882    2.479    0.597
       164  -9.6108     36.3612     81.2183   1.0595664970e+02   5.6222702161e+01    0.2975793    0.1372046 -37.59  0.001143487    3.975    0.748
       165  -8.8156    151.7903     81.5976   7.2558336226e+01   3.5347167907e+01    0.2191489    0.1426226  65.90 0.0009532842    1.747    0.427
       166  -8.9618    121.4146     81.7387   7.9828343764e+01   4.2233530525e+01    0.3197822    0.1189506  59.27 0.0009027118    4.294    0.767
       167  -9.8993     61.9239     77.3703   9.6435573013e+01   5.3985140805e+01    0.3154742    0.1808079 -76.85  0.001333308    2.015    0.504
       168  -9.5549    129.8606     76.9165   7.6300521990e+01   4.1295955126e+01    0.4206901     0.260832  70.11  0.001735096    2.125    0.529
       169  -8.7885    141.8012     76.6028   7.3352037715e+01   3.8593271370e+01    0.2185571    0.1423663  66.68 0.0006381169    1.771    0.435
       170 -10.5168     83.6321     73.9793   8.8469011591e+01   5.1300076308e+01    0.5292068    0.3109879  69.73  0.002091071    2.613    0.617
       171  -9.2730      9.9679     74.4911   1.1430038918e+02   6.0011337991e+01    0.1481655     0.115738  33.08 0.0004012285    1.516    0.340
       172  -9.0016    117.0202     73.5323   7.8595211050e+01   4.4803615398e+01    0.2156687    0.1294629  73.82 0.0008096772    2.627    0.619
       173  -9.6694    107.1376     72.8401   8.1102017155e+01   4.7039072628e+01    0.4011157    0.2306639  63.48  0.001645074    2.213    0.548
       174  -9.7525     96.1449     72.3627   8.4157574034e+01   4.9338784822e+01    0.3934313    0.2736693  84.16  0.001789017    2.001    0.500
       175 -10.3207     52.8473     71.1484   9.8114923307e+01   5.6637007526e+01    0.5544497    0.3220177  75.74  0.002422933    2.509    0.601
       176  -8.9807     43.4262     73.5003   1.0200935022e+02   5.7243225312e+01    0.2218046    0.1020336  46.02   0.00088166    2.325    0.570
       177  -9.8998     16.6945     70.2576   1.1126681323e+02   6.0516232836e+01    0.3385342    0.1716173  69.25  0.001168331    2.227    0.551
       178  -9.1470    122.8517     67.5517   7.5216229915e+01   4.4664046797e+01    0.2858154    0.1911633 -76.06  0.001160244    2.228    0.551
       179  -9.2591    140.1255     67.6649   7.1017528915e+01   4.0592404573e+01    0.3104925    0.1440251  62.34   0.00109086    2.597    0.615
       180  -9.9724     39.0723     65.4166   1.0188157040e+02   5.9598580101e+01    0.5709807    0.2132051  49.27  0.002284233    3.307    0.698
       181  -8.6720     28.6230     70.6966   1.0688124074e+02   5.9421141006e+01    0.1263004   0.08434863 -41.33 0.0007027527    1.768    0.434
       182  -9.5417    112.1605     65.0668   7.7285696071e+01   4.7524085364e+01    0.4961416    0.2456539  61.48  0.001831851    2.624    0.619
       183  -9.7214    102.0865     62.2789   7.9262746262e+01   5.0220712161e+01    0.4312694    0.2634326  86.80  0.001495144    3.525    0.716
       184 -10.6281     75.3396     60.7229   8.7322061239e+01   5.5608529687e+01    0.6644901     0.323161  52.28  0.002638696    2.416    0.586
       185  -9.5237     26.2118     60.1618   1.0581066133e+02   6.2084957706e+01    0.4252772    0.1580088  45.55  0.001852283    3.043    0.671
       186  -9.0311     89.7784     60.5643   8.2481480032e+01   5.3030219619e+01    0.2013166     0.135286  60.06 0.0009477019    1.697    0.411
       187  -8.9734    132.2976     58.9921   7.0056462374e+01   4.4017463606e+01    0.3239628    0.1700653  66.87  0.001191515    2.466    0.594
       188 -10.3267      8.4221     58.4450   1.1276545029e+02   6.3811160113e+01     0.387936    0.1753499  55.21  0.001916401    2.527    0.604
       189  -9.3729    120.8659     57.3677   7.2380023930e+01   4.7022695175e+01    0.3680111    0.2320847  76.58  0.001473292    2.307    0.567
       190  -9.9344     55.4402     55.6018   9.3024266132e+01   5.9810739058e+01    0.4608006    0.2759289 -88.90  0.001954996    2.745    0.636
       191 -10.0574     45.2251     56.3541   9.7250079995e+01   6.0970904421e+01    0.4311777    0.2445704  66.42   0.00193611    2.622    0.619
       192  -9.9798     63.8499     55.4302   8.9781928282e+01   5.8617637980e+01     0.409247    0.2767251  66.37  0.001511162    1.907    0.476
       193  -9.2345    108.2821     55.2096   7.5069434150e+01   5.0278119215e+01    0.3570901    0.2006193  68.55  0.001351023    2.623    0.619
       194  -9.2960    100.5336     54.0625   7.6936433331e+01   5.2170956812e+01    0.2719433    0.2161716 -87.56 0.0003183514    1.543    0.352
       195 -10.3063     93.7466     52.2744   7.8393580552e+01   5.3927747388e+01     0.565227    0.3485739  56.26  0.002579596    1.796    0.443
       196 -10.0789     32.6105     52.4848   1.0142639647e+02   6.3251648713e+01    0.5371592    0.2512736  54.96  0.002355631    2.945    0.660
       197  -9.6322     22.6929     53.9097   1.0597207900e+02   6.3833883005e+01    0.4188239    0.1469914  38.01   0.00187978    3.014    0.668
       198  -9.8042     46.1245     46.6356   9.4033055045e+01   6.3041205569e+01    0.4351871    0.3157549 -65.60    0.0024869    1.271    0.213
       199 -10.0444     83.2952     47.8631   8.0221892723e+01   5.6862916508e+01    0.4393063    0.2371395  61.19  0.001765759    2.599    0.615
       200  -9.1627     75.2334     48.4786   8.3266539491e+01   5.8217808956e+01     0.395724    0.1402746  42.36  0.001441153    3.079    0.675
       201  -9.2883    124.4603     47.3343   6.7896987501e+01   4.7946899121e+01    0.2657736    0.1416214  56.42  0.001068899    1.910    0.476
       202  -9.4684     22.5103     46.5008   1.0437761053e+02   6.5552610353e+01    0.2976002    0.1570658  20.36  0.001555738    2.424    0.587
       203  -9.6773     17.4665     45.5187   1.0644983472e+02   6.6178471421e+01    0.2653597    0.1852538  57.98  0.001303363    1.630    0.386
       204  -8.3607    134.6551     44.3258   6.4347645981e+01   4.5911605853e+01    0.1627873    0.1171416 -68.94 0.0007050479    1.743    0.426
       205  -9.8641     70.9912     42.6723   8.2674744477e+01   6.0151465344e+01    0.5655755    0.3123193  62.70  0.002283925    2.881    0.653
       206  -9.7575     58.9329     43.2921   8.7599349981e+01   6.1984709647e+01    0.3777018     0.249393 -86.24  0.001719891    2.417    0.586
       207 -10.0633      6.0641     42.6097   1.1117544267e+02   6.7591030379e+01     0.466282    0.2382357  72.98  0.002367965    2.380    0.580
       208  -9.7424    107.6704     42.5140   7.0554867934e+01   5.2751669950e+01     0.412072    0.2511081  67.72  0.001734326    2.074    0.518
       209  -9.3944     37.6890     41.6282   9.6128390804e+01   6.5162294563e+01    0.3150984    0.1900591  58.26  0.001427433    2.219    0.549
       210  -9.5480     96.9591     39.3776   7.2484283011e+01   5.5698721638e+01    0.3405395    0.2323754  85.47   0.00145759    2.298    0.565
       211  -9.4465     83.1224     38.9227   7.6823230854e+01   5.8644766172e+01    0.4022994     0.268622  80.08  0.001534576    2.493    0.599
       212  -9.6189     27.2341     36.6661   9.9474698199e+01   6.7354776000e+01    0.2669927    0.1893758  76.19  0.001532695    1.763    0.433
       213  -9.4469    112.9168     35.6964   6.6391910560e+01   5.2685727124e+01    0.3985246    0.2558026 -85.81  0.001549188    2.628    0.619
       214  -9.0134    105.6960     36.1152   6.8558053504e+01   5.4314033868e+01    0.2165399    0.1871604 -34.67  0.001145691    1.124    0.110
       215 -10.0049     62.6366     33.7682   8.2391109764e+01   6.3357248900e+01    0.4755019      0.25695  56.72  0.002064512    2.579    0.612
       216  -9.0000    120.5860     34.2482   6.3827870152e+01   5.1046061368e+01     0.281119    0.1892616  72.55  0.001244413    1.745    0.427
       217  -9.8613     50.9544     33.6271   8.7300946848e+01   6.5186510005e+01    0.3627973    0.2218853  60.97  0.001707075    2.441    0.590
       218  -9.6285    222.3447     32.1469   4.6380315716e+01   2.4494289731e+01    0.3134114    0.1483864 -37.78 0.0007898015    1.917    0.478
       219  -9.5867     13.2843     31.4187   1.0501572346e+02   6.9679338742e+01    0.3003034    0.1827177  87.87  0.001170176    1.911    0.477
       220  -9.2586    102.9744     30.2124   6.6850098326e+01   5.5923364651e+01     0.367626    0.2046992  67.50  0.001476742    2.322    0.569
       221  -9.0519     43.5506     30.7143   8.9514213894e+01   6.6805458685e+01    0.3307801    0.1005839  41.37  0.001236213    3.756    0.734
       222  -9.5733     82.9690     28.7073   7.2500440805e+01   6.0544567788e+01    0.4049293     0.262772  82.79  0.001650425    2.851    0.649
       223  -9.6206      4.6593     28.6399   1.0893700643e+02   7.0835868776e+01    0.3138763    0.1476102  58.87  0.001491244    3.051    0.672
       224  -9.5936     93.4295     27.7132   6.8610712682e+01   5.8491573811e+01    0.4172852    0.2647391  75.10  0.001776934    2.330    0.571
       225  -8.2423    110.9851     28.0000   6.3684052084e+01   5.4372431263e+01    0.2413898   0.08478172  57.70 0.0007567081    2.909    0.656
       226  -9.7781     74.6796     32.6254   7.7209597885e+01   6.1455483730e+01    0.4747526    0.2310095  55.46  0.001937693    2.601    0.616
       227  -8.8748     43.9357     25.5106   8.7153922898e+01   6.7824273709e+01    0.1693758    0.1301941  32.60 0.0003593796    1.493    0.330
       228  -8.8954    110.2427     24.4036   6.2309952200e+01   5.5094120284e+01    0.1958788    0.1453692  71.66  0.000608315    1.521    0.342
       229  -8.9915     58.6482     22.8980   7.9204630363e+01   6.6111787412e+01    0.3144659    0.1153475 -43.94  0.001031693    2.453    0.592
       230 -10.1771     65.1942     21.7963   7.5919345755e+01   6.5179939504e+01    0.3987146    0.3034614  78.96  0.002075289    1.931    0.482
       231 -10.0348     50.6375     22.3155   8.2519880152e+01   6.7494798573e+01    0.4521029    0.2023021  45.24  0.002000295    2.609    0.617
       232  -8.5698     34.3242     22.6664   9.0751492197e+01   6.9619123662e+01    0.1233337   0.09600417  89.49 0.0003183344    1.709    0.415
       233  -8.4683     20.9919     22.4967   9.7935034268e+01   7.1031738105e+01     0.165133   0.09092308  53.71 0.0008106288    2.651    0.623
       234  -9.9053     75.7398     20.5468   7.1219567616e+01   6.3397917088e+01    0.4585986    0.2629583  61.33  0.002039543    2.266    0.559
       235  -9.2692     12.8386     21.0988   1.0212225973e+02   7.1992661643e+01    0.1826725    0.1668328 -33.30 0.0007201044    1.205    0.170
       236  -9.1759     40.1419     19.5094   8.6308338195e+01   6.9529679353e+01    0.2637444    0.1635664 -65.37  0.001324605    2.000    0.500
       237  -9.7168     89.5230     18.2209   6.5374272804e+01   6.0859679718e+01    0.4091149    0.1989304  61.43  0.001641602    2.442    0.591
       238 -10.7889    166.2873    248.7309   9.8726442979e+01   8.4804091082e+00    0.2206243    0.1347687  45.55  0.001692343    1.237    0.191
       239  -9.5406     31.5241     17.0223   8.9725587754e+01   7.1094327347e+01    0.2934092    0.1913415  60.24  0.001537032    2.379    0.580
       240  -8.8659     18.2988     14.7312   9.6412250263e+01   7.2914682940e+01    0.2337832    0.1177259  57.67 0.0009659388    4.077    0.755
       241  -9.8199    245.5689    247.5538   8.7082876938e+01  -1.9686609237e+00    0.3035336    0.1062909  40.09  0.001906478    2.017    0.504
       242  -9.1880     77.0113     10.5045   6.5539560086e+01   6.4706393699e+01     0.184141    0.1256295  89.78 0.0008102356    2.519    0.603
       243  -9.3402     57.9936     10.1489   7.2821114864e+01   6.8451677940e+01    0.3070597   0.09385645  47.69  0.001109014    3.597    0.722
       244  -8.4426     48.3318     10.6742   7.7599204538e+01   6.9984162395e+01    0.1257557    0.1011158 -72.24 0.0004183304    1.709    0.415
       245  -8.5642     29.3461     10.2898   8.7625622171e+01   7.2674544952e+01    0.1259775   0.08550035 -22.80  0.000702562    1.658    0.397
       246  -8.5015    107.5362    248.5067   1.0791468970e+02   1.6362639672e+01   0.09963232    0.0684991  46.21 0.0001006412    1.074    0.069
       247 -11.0794    174.0209    244.8633   9.7147177890e+01   7.7934056772e+00    0.2624731    0.2093096 -74.99  0.001999157    2.216    0.549
       248  -9.3402     84.6838     11.4343   6.3460330992e+01   6.2921553988e+01    0.2591126    0.1428681  62.82  0.001129347    2.133    0.531
       249 -10.6575    168.3785    243.4702   9.7871788621e+01   8.7121040471e+00     0.247122    0.1711811  68.56  0.001782408    2.233    0.552
       250 -10.0641    237.2509    240.3873   8.7335575487e+01  -4.0828195114e-01    0.2848845    0.1446526  38.80  0.001619547    1.445    0.308
       251  -9.5073    106.9319    235.9094   1.0705612300e+02   1.8003953693e+01    0.1619101   0.08913344  59.14  0.001052349    1.642    0.391
       252  -9.4734    170.0946    232.6904   9.6450912450e+01   9.5692839589e+00    0.1593863   0.09726971  38.96 0.0007268277    1.162    0.140
