#   1 NUMBER                 Running object number                                     
#   2 MAG_AUTO               Kron-like elliptical aperture magnitude                    [mag]
#   3 X_IMAGE                Object position along x                                    [pixel]
#   4 Y_IMAGE                Object position along y                                    [pixel]
#   5 X_WORLD                Barycenter position along world x axis                     [deg]
#   6 Y_WORLD                Barycenter position along world y axis                     [deg]
#   7 A_WORLD                Profile RMS along major axis (world units)                 [deg]
#   8 B_WORLD                Profile RMS along minor axis (world units)                 [deg]
#   9 THETA_WORLD            Position angle (CCW/world-x)                               [deg]
#  10 FWHM_WORLD             FWHM assuming a gaussian core                              [deg]
#  11 ELONGATION             A_IMAGE/B_IMAGE                                           
#  12 ELLIPTICITY            1 - B_IMAGE/A_IMAGE                                       
         1 -14.2924    165.7640     49.5646   7.4769511081e+01   3.7471097993e+01      1.55891     1.126598  22.84  0.006125196    1.916    0.478
         2 -14.4448    179.6706     34.2244   6.8381487178e+01   3.6165048993e+01     0.958115    0.9288507 -25.01  0.004170896    1.240    0.193
         3 -13.5079    183.9251     27.8780   6.6154680618e+01   3.5923237770e+01    0.5354164    0.4659845  85.66  0.001262327    1.017    0.017
         4 -12.4783    189.7370     14.5641   6.2141152188e+01   3.6054535287e+01    0.2505209    0.2148452 -88.91 0.0008470122    1.048    0.046
         5 -13.7789    200.0048      3.6759   5.8493246654e+01   3.4791355311e+01    0.8502247    0.4153086  70.37  0.003895173    1.706    0.414
         6 -13.4061    116.2830    211.3877   1.2382374755e+02   1.4161220776e+01    0.7609176    0.5129543 -86.78   0.00276162    1.832    0.454
         7 -18.6447     53.4509    243.2740   1.4025923306e+02   1.7148665144e+01     6.985405     6.098848  77.52   0.05048743    1.238    0.192
         8 -12.7095    193.5894    192.9271   1.0374181806e+02   3.4593427834e+00    0.8407289    0.5012314 -53.95  0.003342621    1.983    0.496
         9 -10.7036    209.8431    199.1701   1.0166973666e+02  -7.1878308983e-01    0.1985266      0.18962 -68.94 0.0005755569    1.276    0.217
        10 -11.3560    159.3060    206.0831   1.1352024004e+02   7.3878548330e+00    0.3011582    0.2258462  57.07  0.001537905    1.397    0.284
        11 -10.9110    154.8755    197.0915   1.1287277424e+02   1.0090339709e+01    0.2332287     0.194446  70.99  0.001218102    1.329    0.248
        12  -9.7829    180.2071    192.3902   1.0645337058e+02   6.1401632198e+00    0.2011288    0.1326722  51.60 0.0003793987    1.606    0.377
        13 -12.3484     98.9972    188.3813   1.2419036246e+02   2.2325359566e+01    0.5453562    0.2374776 -50.87  0.002157615    2.392    0.582
        14 -10.7854    167.8741    189.9284   1.0864837989e+02   9.0574772028e+00    0.2803914    0.2484471 -11.68  0.001109665    1.258    0.205
        15 -19.1356     35.1565    105.3980   1.2653636092e+02   5.0872304747e+01     16.77038    0.8303218 -60.73   0.02608195   17.127    0.942
        16 -12.1736    206.9144    180.0173   9.8419634053e+01   3.4003748261e+00    0.7603053    0.4070362  28.77  0.002989715    2.364    0.577
        17 -12.5468     98.2006    180.7574   1.2314087167e+02   2.4257680975e+01    0.4741663     0.274832  41.85  0.002157611    1.718    0.418
        18 -12.0240    196.0517    171.3667   9.8823641090e+01   7.2414008772e+00    0.7222903    0.3978168 -51.25  0.002394769    1.971    0.493
        19 -10.7215    193.8079    164.9624   9.7919720594e+01   9.0000842189e+00    0.2939719    0.2815454 -89.88 0.0009734401    1.137    0.120
        20 -11.6690     78.7057    174.4865   1.2683982828e+02   2.8895909931e+01    0.3078296    0.1924666  67.22  0.000782766    1.849    0.459
        21 -10.7631     73.3790    174.9124   1.2819777954e+02   2.9588013353e+01    0.2494934    0.1607622 -60.66 0.0008487948    1.445    0.308
        22 -11.9937    137.6215    171.0884   1.1186623984e+02   1.9234815598e+01    0.3211176     0.286946 -87.71 0.0008228131    1.160    0.138
        23 -13.6708     11.1415    206.2164   1.4517315921e+02   2.9847694308e+01    0.4977317    0.2689909  35.15  0.002955444    2.126    0.530
        24 -10.2615    223.8155    164.0863   9.1802631445e+01   3.2005596051e+00    0.2146244    0.1879608 -61.56  0.000668311    1.292    0.226
        25 -12.0357     97.4560    161.4422   1.1992324804e+02   2.9033089494e+01    0.3018816    0.2744689 -59.83 0.0003034712    1.102    0.093
        26 -13.5757    102.3614    153.9615   1.1721984979e+02   2.9995151988e+01      1.02211    0.7233295  -7.79  0.004283899    2.443    0.591
        27  -9.9107    115.1627    162.1726   1.1558704362e+02   2.5681431830e+01    0.2075968    0.1717267  89.99 0.0003392147    1.294    0.227
        28 -10.6490      7.2341    161.2299   1.4211338887e+02   4.0294971074e+01    0.1698373    0.1508076 -53.33 0.0008809431    1.354    0.262
        29 -13.1434    112.7466    196.3162   1.2227609653e+02   1.8117986065e+01    0.6539236    0.4691532   3.22  0.002882804    2.491    0.599
        30 -10.5117    120.0339    156.2784   1.1316642780e+02   2.6166342621e+01      0.27734    0.2034733 -73.54  0.001021326    1.531    0.347
        31 -10.8814     10.2777    152.9474   1.4054399895e+02   4.1965596941e+01    0.1972322    0.1863949 -22.91  0.001445186    1.411    0.291
        32 -11.9580      2.1788    112.9501   1.3766727328e+02   5.1682155344e+01    0.3388179    0.2394146 -12.66  0.002154745    1.832    0.454
        33 -12.3716      8.1677    145.2957   1.4019858937e+02   4.3900391953e+01    0.6250212     0.368834  -2.79  0.003343654    2.878    0.653
        34 -13.7733      4.7730    131.8278   1.3945792785e+02   4.7242353562e+01     1.945305     0.666829 -72.70  0.008638008    2.407    0.585
        35 -12.5481    133.9462    145.1726   1.0725123155e+02   2.6017333247e+01     1.264774    0.3338787 -54.73  0.003021321    5.224    0.809
        36 -10.7521    174.8582    149.0991   9.8470552044e+01   1.6368352977e+01    0.2405036     0.215262 -85.37  0.000570277    1.227    0.185
        37 -12.3472    145.0771    145.8063   1.0464528732e+02   2.3540373303e+01    0.4335977    0.3512725 -84.37  0.001151909    1.453    0.312
        38 -12.6224    111.3264    139.6066   1.1183896046e+02   3.1814527833e+01    0.6480711    0.3922861 -30.79  0.002544081    2.307    0.567
        39 -12.3950    100.5188    139.6564   1.1474064655e+02   3.3782955444e+01    0.3001159     0.288317 -15.25 0.0005763851    1.157    0.135
        40 -11.7052    106.1005    130.8815   1.1126728934e+02   3.4866057741e+01    0.3843123    0.3236373 -66.05  0.001196876    1.192    0.161
        41 -11.3868    105.7273    126.1311   1.1025923421e+02   3.6053440794e+01    0.3341367    0.2458972 -34.30 0.0008806703    1.494    0.331
        42 -12.2265    117.8382    129.8010   1.0785069852e+02   3.2872536359e+01    0.3994227    0.3741086  -8.97  0.001131931    1.183    0.155
        43 -12.6374    135.3957    122.1923   1.0140871784e+02   3.0990512770e+01     0.793843    0.3058402 -48.52  0.002643231    2.598    0.615
        44 -11.8385    125.7008    127.6020   1.0524734426e+02   3.1798136325e+01    0.4386385    0.2847066  76.60  0.001650742    2.539    0.606
        45 -10.8423    112.1368    119.0377   1.0677350789e+02   3.6476963656e+01    0.2471157    0.2212647  43.76 0.0002884776    1.152    0.132
        46 -11.2557    168.3331    113.1881   9.1265454711e+01   2.5523381157e+01    0.4214348    0.3001165 -76.74  0.001142445    1.885    0.469
        47 -10.8321    205.1571    110.4020   8.3148118855e+01   1.7564922984e+01    0.3759423    0.2493007  34.09  0.001428304    1.959    0.489
        48 -12.7376     61.1397    108.7354   1.1920362600e+02   4.7187505052e+01     0.342838    0.2970605 -36.37  0.002031065    1.112    0.101
        49 -13.4524    106.5741    202.6942   1.2466974357e+02   1.7754488445e+01    0.9529001    0.4424043  35.34  0.003671533    2.335    0.572
        50 -10.0757     80.8344    106.1535   1.1257101412e+02   4.4935690754e+01    0.2017871    0.1619654 -25.92 0.0005222381    1.326    0.246
        51 -11.4921    160.6636    127.3160   9.6536124195e+01   2.4271829668e+01    0.3452176    0.2607016 -83.58  0.001060252    1.728    0.421
        52 -10.7530    163.9134    204.8566   1.1230304721e+02   6.7638107887e+00    0.2291539    0.2079201 -49.87 0.0004080486    1.177    0.150
        53 -11.2167    152.9675    103.2111   9.2176761700e+01   3.1143251692e+01    0.4016819    0.2833369  84.41  0.001673309    2.025    0.506
        54 -13.2218    106.8349    210.2761   1.2573112815e+02   1.6030648866e+01     0.615198     0.548785  48.79  0.003654625    1.149    0.130
        55 -10.4399     83.0166     76.3298   1.0366777607e+02   5.0813333071e+01     0.188173    0.1708731  16.46  0.000395311    1.099    0.090
        56  -9.5643    169.3066    237.2831   1.1662776715e+02  -2.9555601743e-01    0.1289391   0.09804744  10.57 0.0002186409    1.562    0.360
        57 -14.0030    104.9977    193.0847   1.2354162956e+02   2.0209699211e+01     1.462807    0.8928705 -27.10  0.005484376    3.370    0.703
        58 -11.7598    183.4759    222.4848   1.1130135844e+02  -1.8059954384e-01    0.2941554    0.1237079  40.07  0.001213009    2.174    0.540
        59 -10.2132     13.6603     59.9303   1.2349159249e+02   6.2105149842e+01    0.1630649    0.1184045 -45.99 0.0004225981    1.128    0.113
        60  -9.9483    111.2000     21.1869   7.7381212506e+01   5.3550040223e+01     0.171992    0.1434378  74.21 0.0007698436    1.384    0.278
        61 -12.6046    121.8945    199.2596   1.2067051715e+02   1.5819365437e+01    0.4519415    0.3375714 -16.12  0.002116518    2.136    0.532
