#   1 NUMBER                 Running object number                                     
#   2 MAG_AUTO               Kron-like elliptical aperture magnitude                    [mag]
#   3 X_IMAGE                Object position along x                                    [pixel]
#   4 Y_IMAGE                Object position along y                                    [pixel]
#   5 X_WORLD                Barycenter position along world x axis                     [deg]
#   6 Y_WORLD                Barycenter position along world y axis                     [deg]
#   7 A_WORLD                Profile RMS along major axis (world units)                 [deg]
#   8 B_WORLD                Profile RMS along minor axis (world units)                 [deg]
#   9 THETA_WORLD            Position angle (CCW/world-x)                               [deg]
#  10 FWHM_WORLD             FWHM assuming a gaussian core                              [deg]
#  11 ELONGATION             A_IMAGE/B_IMAGE                                           
#  12 ELLIPTICITY            1 - B_IMAGE/A_IMAGE                                       
         1 -12.0399    202.5305     38.4781   4.2838816084e+01   3.0101586489e+01     1.377792    0.9901272  23.67  0.007063919    1.941    0.485
         2 -11.3818    219.2014     22.3158   3.6979468721e+01   2.8259607974e+01    0.7566677    0.5987794 -49.74  0.003260026    1.059    0.056
         3  -7.9407     67.1301      4.5029   5.4959429698e+01   6.7717722913e+01    0.1882121    0.1677838  -4.55  0.000349945    1.102    0.092
         4  -9.6746    241.2329      2.1824   3.0692116225e+01   2.5690479182e+01    0.5222718    0.2217737  85.54  0.002604871    2.575    0.612
         5 -10.5235     84.8721    231.8980   1.0699125192e+02   1.6796053564e+01    0.4334517    0.3271322  51.29  0.001943565    1.136    0.120
         6 -14.9659     35.5083    236.7176   1.1720510002e+02   2.1499092287e+01     1.200081    0.7644372  52.69  0.008472395    1.175    0.149
         7 -14.3080     41.0106    247.5668   1.1665194594e+02   1.9093384977e+01     1.267045    0.3218546  33.45  0.002806364    2.755    0.637
         8 -14.1238      2.2707    204.1965   1.2272183939e+02   3.0675295928e+01     1.261405    0.2369503 -74.35   0.00495219    4.646    0.785
         9 -14.2944     30.7088    248.4974   1.1862569383e+02   1.9969823468e+01    0.5894594    0.2914619  47.89  0.003912434    1.422    0.297
        10 -15.3467     15.5584    215.7659   1.2033152522e+02   2.7264925534e+01     1.544754    0.3833872  57.26  0.006658827    3.263    0.694
        11 -14.6233     24.5469    239.0816   1.1942475713e+02   2.2163378197e+01    0.5726697     0.229182  40.96  0.002475537    1.732    0.423
        12 -14.6965     20.5594    248.5086   1.2050513811e+02   2.0938169964e+01    0.3795139    0.3354482   8.04  0.003166911    1.646    0.393
        13 -17.5061      8.4751    237.1782   1.2241299132e+02   2.3967654021e+01     2.248098     1.687215 -83.48   0.01783608    1.502    0.334
        14  -7.6609     74.7950    236.9911   1.0942881045e+02   1.7146291529e+01    0.1620867    0.1237115 -26.10  0.001074945    2.002    0.501
        15  -7.3656     66.4715    226.0544   1.1031343322e+02   2.0021627497e+01    0.1425033     0.109204 -84.48 0.0003974484    1.452    0.311
        16  -7.6934    206.6791    225.2849   8.2846023860e+01   1.8552706524e+00   0.09641417   0.08183703  37.55 0.0002795917    1.594    0.373
        17  -9.0589    112.1056    224.0907   1.0065870510e+02   1.4623118627e+01    0.3270489     0.175043  32.08 0.0005457933    1.575    0.365
        18  -8.3237    177.5582    221.7966   8.7506211596e+01   6.0798007879e+00    0.1410522    0.1125962 -50.10 0.0008338066    1.739    0.425
        19  -8.5866    245.5384    236.0483   7.8197682765e+01  -3.8146934121e+00    0.1386835   0.08214731 -21.40 0.0003750714    1.527    0.345
        20  -7.5259     66.8119    222.1862   1.0995129284e+02   2.0681295825e+01    0.1388748    0.1290589  35.47 0.0004601031    1.242    0.195
        21  -7.6284     77.6577    221.2882   1.0758894572e+02   1.9538610839e+01    0.1261087   0.07095385  54.60 0.0005544796    1.646    0.393
        22  -9.7115    225.9157    217.7246   7.8521352894e+01   3.7275596998e-01    0.2054986    0.1628245   4.06 0.0004445742    1.124    0.110
        23  -8.9628    193.9652    218.2632   8.4022051308e+01   4.3643171600e+00    0.1788067    0.1463889  -6.15 0.0003505866    1.158    0.137
        24  -8.1056    195.3684    213.9960   8.3132277824e+01   4.7358884119e+00    0.1557073    0.1273105   1.06 0.0004587806    1.088    0.081
        25  -7.6960    153.3027    214.3213   9.1101303953e+01   1.0508468783e+01    0.1204851   0.08497105   1.84 0.0007028146    1.631    0.387
        26  -8.1583     98.8633    214.1658   1.0238231111e+02   1.8104300341e+01    0.1753776    0.1538174  31.24 0.0002687617    1.124    0.110
        27  -8.1554    101.3829    210.8488   1.0148021177e+02   1.8364450192e+01    0.1893683    0.1615164  30.16 0.0004939669    1.126    0.112
        28  -8.3694     75.1805    212.0470   1.0731550005e+02   2.1553428817e+01    0.3050285     0.212027  86.82  0.001080273    1.615    0.381
        29  -8.5708    189.0192    210.1742   8.3692414735e+01   6.1107978735e+00    0.1826142    0.1497358  -8.59 0.0003331095    1.159    0.137
        30  -8.7546     58.8856    211.2914   1.1082236581e+02   2.3657247616e+01     0.261801     0.140972  25.30  0.001399112    1.958    0.489
        31  -7.3128     95.3305    212.2377   1.0294155600e+02   1.8923718927e+01     0.113201   0.08869141  10.31 0.0001523675    1.533    0.348
        32  -7.9547    128.0538    206.2449   9.5190971089e+01   1.5441506325e+01    0.2150251    0.1253195  54.87  0.001088332    2.073    0.518
        33  -8.7636    120.5975    204.4963   9.6559594022e+01   1.6822107641e+01    0.3879078    0.2007896  19.72  0.000536364    2.579    0.612
        34  -8.6381    115.4001    201.8365   9.7350093001e+01   1.8048938173e+01    0.2653458    0.2016002 -69.25  0.001046713    1.594    0.373
        35  -7.2608     91.6732    205.2857   1.0300775169e+02   2.0706335083e+01    0.1294641   0.08078938  56.58 0.0001963133    1.607    0.378
        36  -8.3924     63.0657    202.9756   1.0922160225e+02   2.4800495555e+01    0.2147982    0.1503412  48.40 0.0008812625    1.184    0.155
        37  -8.5976    193.9191    199.0973   8.1047918779e+01   6.9657118827e+00    0.3021637    0.2158862  26.96  0.001928831    1.239    0.193
        38  -8.0670     78.7988    198.1458   1.0517352204e+02   2.3801158977e+01    0.1838099     0.145588  56.13 0.0003472498    1.120    0.107
        39  -7.3941     63.6400    197.7115   1.0863192515e+02   2.5795725750e+01    0.1151045   0.09569647 -13.29 0.0007024973    1.688    0.407
        40  -7.7612     89.9664    196.5187   1.0242759446e+02   2.2637179383e+01    0.1946079    0.1104109  35.75 0.0005132011    1.538    0.350
        41  -8.5971    152.0410    195.0780   8.8553440512e+01   1.3787078721e+01    0.1865141    0.1612474  21.39 0.0003105409    1.011    0.011
        42  -8.9899     74.8612    190.0893   1.0525775206e+02   2.5959591754e+01    0.2568292    0.1882131 -74.08  0.001526371    1.459    0.314
        43  -8.2150     63.9724    190.9898   1.0793735216e+02   2.7148647793e+01     0.183947    0.1591655  58.32  0.001203933    1.029    0.028
        44  -9.2887     90.8696    189.5259   1.0140174927e+02   2.3916469100e+01    0.2129928    0.1950805  66.95 0.0002604354    1.084    0.078
        45  -8.5460    185.1012    189.0029   8.1002099863e+01   9.7324601697e+00    0.1812318    0.1528293   8.30            0    1.010    0.010
        46  -8.0791     80.4718    186.8258   1.0355969617e+02   2.5899125584e+01    0.3206843    0.1839819  25.51   0.00112471    1.880    0.468
        47  -8.0377     78.2303    182.7738   1.0363940577e+02   2.7057268279e+01    0.2193603    0.1696945 -76.39  0.001245974    1.364    0.267
        48  -7.8689    188.3973    185.2318   7.9732623777e+01   9.8057137128e+00    0.1552481    0.1158038 -44.81 0.0004617004    1.594    0.372
        49  -7.1538    119.1748    183.3825   9.3965184399e+01   2.0975499866e+01    0.1913475    0.1082651  44.95  0.000715886    1.656    0.396
        50  -9.8810     17.9253    187.0920   1.1857138563e+02   3.2892735264e+01    0.4638424    0.3333673  62.27  0.002416689    1.111    0.100
        51  -8.5267    148.6679    181.1894   8.7042148930e+01   1.6724104890e+01    0.4218483    0.2387323  67.68  0.001320336    5.801    0.828
        52  -8.4035     60.1801    176.9220   1.0748436000e+02   3.0659896090e+01    0.4716514    0.1145879 -60.17  0.001688165    3.786    0.736
        53 -10.0096     64.5107    179.4287   1.0665798655e+02   2.9567474696e+01    0.4453577    0.3321601 -20.73  0.002434143    2.010    0.503
        54  -9.6116     69.8715    173.6890   1.0467650077e+02   3.0151239854e+01    0.2718013    0.2403567 -29.83 0.0007221145    1.428    0.300
        55  -8.8613     39.3231    180.1810   1.1298698904e+02   3.2318438939e+01    0.3449572    0.1904842  65.35  0.001369754    1.721    0.419
        56  -7.7534     54.7722    180.0189   1.0914163751e+02   3.0624193483e+01    0.1752892     0.145889  79.86            0    1.120    0.107
        57  -7.8140    109.2244    178.7917   9.5620365596e+01   2.3421459926e+01    0.1726997    0.1512594   4.10 0.0003716744    1.304    0.233
        58  -7.8613    112.8038    177.8176   9.4626280983e+01   2.3068248945e+01    0.1776505    0.1439852  58.38 0.0002584606    1.265    0.209
        59  -7.2742     76.5040    176.5432   1.0333607399e+02   2.8637447551e+01     0.130598    0.1187577  55.34 0.0008086016    1.049    0.046
        60  -8.9487     28.9263    173.8231   1.1511739902e+02   3.4800675972e+01    0.4538506    0.1579215 -54.39  0.001826841    3.521    0.716
        61  -8.4693    100.3564    234.9826   1.0413547380e+02   1.4358296755e+01    0.2120509    0.1107697 -62.87  0.001060986    2.398    0.583
        62  -8.2791    117.9119    173.4929   9.2749495695e+01   2.3143052576e+01    0.2278155    0.1895275 -86.80 0.0005037496    1.425    0.298
        63  -9.6927    132.5039    234.0924   9.7671245820e+01   1.0343342025e+01    0.4373612    0.1586015  24.17   0.00164499    4.015    0.751
        64  -9.4723    175.6081    172.4041   7.9912420290e+01   1.3865211091e+01    0.2849359    0.2408527  33.77 0.0007576728    1.184    0.155
        65  -7.5818    124.1924    173.1566   9.1214499778e+01   2.2202732936e+01    0.1851761    0.1471306  55.39 0.0004422122    1.316    0.240
        66 -10.5472     18.2665    170.9548   1.1762219817e+02   3.6437020870e+01    0.5848793    0.2355858  70.95  0.002607071    2.512    0.602
        67  -8.2988     19.1478    163.2096   1.1692656352e+02   3.8145119259e+01    0.1735478    0.1506765  84.35 0.0003743701    1.116    0.104
        68 -10.3129     14.2216    163.0735   1.1820472434e+02   3.8595251446e+01    0.5377844    0.1983602  55.84  0.002406628    2.412    0.585
        69  -8.0386     37.4554    170.0866   1.1266004157e+02   3.4795529386e+01    0.3086557    0.1147508 -74.67  0.001136688    2.589    0.614
        70  -8.1822     75.1550    170.1501   1.0289892649e+02   3.0238245812e+01    0.1820523    0.1797511 -23.62 0.0003752298    1.199    0.166
        71  -9.1200     24.9661    169.4718   1.1582772005e+02   3.6170277684e+01    0.2549659     0.215571   9.51  0.001651074    1.525    0.344
        72  -9.1274     24.6383    165.8521   1.1566692388e+02   3.7036507410e+01    0.2695849    0.1651665 -83.94 0.0003975652    1.498    0.332
        73  -7.6257     99.3273    166.7106   9.6249454628e+01   2.7488821366e+01    0.1423488   0.09852803  63.18 0.0004555794    1.616    0.381
        74  -7.7082     32.6078    166.2166   1.1361125611e+02   3.6185345746e+01    0.1672629     0.107789 -69.31 0.0004353117    1.533    0.348
        75  -8.2606     88.9574    165.2747   9.8683628329e+01   2.9371138510e+01    0.1888488    0.1609561  44.51 0.0002641203    1.096    0.088
        76  -8.0741     85.3050    165.0446   9.9596367801e+01   2.9958135869e+01    0.1873203    0.1677453  87.95 0.0003716155    1.113    0.102
        77  -8.5447     79.1242    164.1860   1.0109198512e+02   3.1037249920e+01    0.2246873    0.2057415  59.96 0.0003845594    1.024    0.023
        78  -8.3728     42.8955    164.2207   1.1072115904e+02   3.5576393544e+01    0.3569449    0.1902794 -38.07  0.001538254    3.055    0.673
        79  -7.8869    106.8513    164.0310   9.3938459866e+01   2.6889718361e+01    0.2040767    0.1703911  68.69            0    1.272    0.214
        80  -8.3236     57.9234    163.2342   1.0660373076e+02   3.4061056188e+01    0.2824751     0.197197 -55.25 0.0008850344    1.565    0.361
        81  -7.9477     52.9253    163.0489   1.0792281493e+02   3.4708518244e+01    0.2625953    0.1512649  52.94  0.001316931    1.621    0.383
        82  -8.8870     96.8272    163.1673   9.6344502767e+01   2.8651280571e+01    0.4231828     0.182756  36.13  0.001035286    2.159    0.537
        83  -8.2533     28.6843    162.4265   1.1435367953e+02   3.7455745286e+01    0.2204715    0.1327346  84.18 0.0005344393    1.548    0.354
        84  -9.5580     66.6449    159.4200   1.0379664648e+02   3.3842881029e+01    0.3867404    0.2816897 -41.18  0.001875983    1.698    0.411
        85  -7.6912    171.9575    159.0597   7.8113406331e+01   1.6764697090e+01    0.1585789      0.14286 -16.32 0.0003972902    1.073    0.068
        86  -9.9597     86.2390    157.2673   9.8216357339e+01   3.1588705500e+01    0.5347571    0.3783902 -19.62  0.002055239    2.154    0.536
        87  -8.8276     33.4103    155.8481   1.1253424880e+02   3.8555872801e+01    0.3831894    0.2875056  79.43  0.002276663    1.184    0.155
        88  -8.6518     22.9318    157.1705   1.1550820773e+02   3.9233646086e+01    0.2767492    0.0977279  49.74  0.001174491    2.501    0.600
        89  -7.2919     98.7129    153.2930   9.4264551416e+01   3.0566283133e+01    0.1418215     0.104598  68.91  0.000179678    1.543    0.352
        90  -7.8796     68.7062    152.6584   1.0233612353e+02   3.5167649452e+01    0.2831116    0.1496937  56.82  0.001232444    2.062    0.515
        91 -11.0623     68.6385    144.6144   1.0120677491e+02   3.7115596973e+01    0.7932193    0.4666414  65.21  0.003014753    1.995    0.499
        92  -8.2805     80.2761    151.8987   9.9019731673e+01   3.3718329188e+01    0.1863602    0.1725429 -80.42 0.0003234593    1.084    0.077
        93  -9.5185    111.4730    149.7511   9.0303655595e+01   2.9250791513e+01    0.3360047    0.2585977  88.88 0.0002565846    1.610    0.379
        94  -8.7982     62.1724    136.4600   1.0189365346e+02   3.9997007568e+01    0.2618547    0.2152211 -81.12 0.0003956833    1.157    0.136
        95  -7.4169    126.8639    158.1931   8.8004690424e+01   2.4804584062e+01    0.1803669    0.1585882  -5.62 0.0002467773    1.267    0.211
        96  -9.0719     16.1420    151.2113   1.1695510115e+02   4.1244174226e+01    0.1924791    0.1221345  61.65  0.001082191    1.386    0.279
        97  -9.5959      7.7564    147.5962   1.1906239087e+02   4.2764799190e+01    0.2740673    0.1721848  63.93  0.001520605    1.376    0.273
        98 -10.3869      8.5723    142.2210   1.1851355513e+02   4.4008570840e+01    0.4541751    0.2898883  52.04   0.00262684    1.418    0.295
        99  -7.4582    235.3045    146.6364   6.4381155354e+01   8.2099839661e+00       0.1178   0.09186938 -51.33 0.0007037348    1.736    0.424
       100  -8.5842     59.9324    146.0597   1.0392763375e+02   3.7918683449e+01    0.2061128    0.1817197  75.32 0.0003429257    1.031    0.030
       101  -9.6734     15.4878    145.0127   1.1671416675e+02   4.2800073471e+01    0.3355924    0.1944011 -74.41  0.001072493    1.552    0.356
       102  -8.1511    133.8526    144.8264   8.3736773963e+01   2.6348946084e+01    0.2016739    0.1734933  79.89 0.0009604152    1.386    0.278
       103  -8.7668     51.8218    156.9171   1.0755461991e+02   3.6290285384e+01    0.3718026    0.2346566   6.00  0.001721182    2.423    0.587
       104  -8.5718    240.4072    144.2110   6.3136342048e+01   7.7647367387e+00    0.1783255   0.09805559 -38.13 0.0009579998    1.703    0.413
       105  -9.5264     99.5860    142.8189   9.2184980487e+01   3.2822967963e+01    0.5069601    0.3945858  -5.87  0.001878944    1.762    0.432
       106  -7.7487    126.8867    147.4220   8.5960852394e+01   2.7062576095e+01     0.206274    0.1357518  38.83 0.0004082257    1.474    0.321
       107  -8.9375     87.1007    142.9010   9.5662039824e+01   3.4816818099e+01    0.2314508    0.1864327  66.52 0.0008089214    1.273    0.214
       108  -7.9589     82.2453    142.1911   9.6916808209e+01   3.5733276943e+01    0.1960107    0.1561063  72.82 0.0003599089    1.307    0.235
       109  -7.7196    227.5993    139.1697   6.4026176072e+01   1.0484854190e+01    0.1806232    0.1051482 -22.01 0.0004203033    1.637    0.389
       110  -9.2022     12.7801    137.0840   1.1694053646e+02   4.4961449196e+01    0.3849694    0.2322771 -62.68  0.001219623    1.619    0.382
       111  -8.6122    109.8912    137.6671   8.8401522818e+01   3.2238172997e+01    0.2451876    0.2062125 -64.71 0.0003702877    1.228    0.186
       112  -8.1077     83.0292    138.0098   9.5974203995e+01   3.6619948004e+01     0.228405    0.1606626  69.79 0.0003085583    1.628    0.386
       113  -7.9000     24.9645    137.9673   1.1336384245e+02   4.3740032608e+01    0.2410552     0.126495  62.38  0.001144201    1.885    0.470
       114  -7.2778    154.7811    136.9889   7.7193632912e+01   2.4006891431e+01    0.1793243    0.1153793 -42.33 0.0008353964    1.548    0.354
       115  -7.3614     52.8177    137.1891   1.0483013894e+02   4.1003330570e+01    0.1777239     0.157327 -44.30 0.0003242474    1.299    0.230
       116  -7.4220    190.4998    134.9970   6.9435564622e+01   1.7603263373e+01    0.1719301    0.1160094 -59.61 0.0004330495    2.127    0.530
       117  -8.3122    105.2876    133.9655   8.8906419796e+01   3.3898306020e+01     0.239554    0.2011584  42.11 0.0004591659    1.176    0.150
       118  -8.4081     29.0798    134.0836   1.1173416513e+02   4.4339323122e+01    0.1957212    0.1728606  78.06 0.0005171148    1.040    0.038
       119  -8.2862    110.4563    132.0312   8.7091973007e+01   3.3422751656e+01    0.2806489    0.2106856  17.93 0.0008760801    1.633    0.388
       120  -7.8346     72.4212    132.1720   9.8099943321e+01   3.9639392119e+01    0.2043301    0.1336858 -80.21 0.0005165953    1.674    0.403
       121  -9.1233      9.6593    132.1150   1.1752645357e+02   4.6424461282e+01    0.2147519    0.1919741  16.96  0.001120349    1.370    0.270
       122  -7.2587     67.3266    130.3252   9.9341849863e+01   4.0826380097e+01    0.1449692    0.1090666 -31.08 0.0007049427    1.695    0.410
       123  -8.2138     15.4808    129.0501   1.1549256862e+02   4.6765220095e+01    0.2072336     0.112061 -78.34   0.00103525    1.605    0.377
       124  -7.6318    124.6850    127.3025   8.2277893093e+01   3.1830801728e+01     0.149717    0.1179157  80.76 0.0001993796    1.617    0.382
       125  -7.7490     88.9553    124.2565   9.1613652741e+01   3.9005129442e+01    0.2016437    0.1821728  56.10  0.001092191    1.096    0.088
       126  -7.7148     17.0000    123.9641   1.1456457231e+02   4.7937115604e+01    0.2202988   0.06600194 -77.15 0.0007986624    2.916    0.657
       127  -8.9777    120.3614    231.6641   9.9800548834e+01   1.2310299565e+01    0.1829569    0.1188953  54.92  0.001115114    1.690    0.408
       128  -8.1144     64.2573    120.8858   9.8666080888e+01   4.3633484622e+01    0.2183655    0.1827483  78.65 0.0005289688    1.192    0.161
       129  -8.3104      6.3882    118.7938   1.1758837655e+02   4.9994019056e+01    0.1911832    0.0967183 -68.44 0.0009424263    1.712    0.416
       130  -9.2338    248.2201    115.5186   5.6089155607e+01   1.0457686875e+01    0.2101514    0.1766831 -32.62  0.001405767    1.152    0.132
       131  -7.7191    104.4445    120.5173   8.6260972703e+01   3.7184367811e+01     0.150245    0.1425992  87.55 0.0001313829    1.051    0.049
       132  -8.5473    109.1245    111.3725   8.2758246989e+01   3.8430929217e+01    0.2798522    0.2285144 -77.56 0.0001081776    1.382    0.276
       133  -7.6361     50.0802    110.4977   1.0156993664e+02   4.8151501769e+01    0.2012139    0.1414914  31.08 0.0004743144    1.528    0.345
       134  -7.1704     43.5921    110.7098   1.0387773647e+02   4.8857666423e+01    0.1463529    0.1012247 -32.55 0.0001809704    1.817    0.450
       135  -9.8384    248.5678    107.1034   5.4230842911e+01   1.1544167898e+01    0.3879055    0.1973005 -18.60  0.001840156    2.175    0.540
       136  -7.3838      7.9894    106.7513   1.1603961905e+02   5.2970030910e+01    0.1490883     0.113115  20.93 0.0007189727    1.544    0.352
       137  -8.2674     68.7222    103.5894   9.3687767438e+01   4.7372550586e+01    0.3382021    0.2066267  79.00  0.001326238    2.501    0.600
       138  -7.2804    138.4437    108.5922   7.4244014296e+01   3.3075108753e+01    0.1489064    0.1452542 -10.08 -7.849319e-06    1.041    0.039
       139  -8.3824    159.6707    229.3364   9.1868343776e+01   7.4309512707e+00    0.1104627   0.08274956  53.71 0.0007052015    1.730    0.422
       140  -7.5249    196.4875    107.4852   6.1950706434e+01   2.1084722118e+01    0.1412633    0.1273606 -38.28 6.196409e-05    1.087    0.080
       141  -8.4195     99.1312     96.5364   8.1890101949e+01   4.3813013455e+01    0.2317667    0.2070052 -74.20 0.0004407519    1.155    0.134
       142  -8.1254     42.9730     92.9396   1.0086941959e+02   5.3539341232e+01    0.2086237    0.1901678 -76.25            0    1.015    0.015
       143  -7.2450     93.4532     89.4559   8.1712008595e+01   4.6559821298e+01    0.1519445    0.1463121 -61.86 0.0002834408    1.001    0.001
       144  -7.2618     75.4918     88.4313   8.7547355343e+01   5.0057389646e+01    0.1487282    0.1420276 -69.18 0.0001240668    1.014    0.014
       145  -7.3943     62.4052     82.1914   9.0717236108e+01   5.3687590527e+01    0.2018236    0.1365599 -69.21 0.0005461175    1.557    0.358
       146  -7.3141     38.9638     82.7788   1.0034004137e+02   5.6606079080e+01    0.1634826    0.1182164  24.58 0.0003262172    1.553    0.356
       147  -8.1468     80.5236     78.1602   8.2760800924e+01   5.1622167925e+01     0.316869    0.2135316  15.38  0.001336899    2.140    0.533
       148  -7.1484    105.7024     72.2565   7.2504866078e+01   4.7855548250e+01    0.1478411    0.1208333 -88.96 0.0001811036    1.500    0.333
       149  -7.0655     74.5157     71.4698   8.2854542388e+01   5.4257275347e+01    0.1491261    0.1414531 -68.78 1.866636e-05    1.066    0.062
       150  -7.8551     23.3869     69.7777   1.0438480400e+02   6.1430438269e+01    0.1972408    0.1049177 -57.59 0.0002108418    1.587    0.370
       151  -7.6180     45.4683     58.4342   9.0831954409e+01   6.1851497449e+01    0.1407321    0.1282795 -44.35 5.049531e-05    1.014    0.014
       152 -10.8800    195.1656     43.4849   4.5082138224e+01   3.1164988514e+01    0.5296113    0.3431952 -25.44  0.001934752    1.534    0.348
       153  -8.3635    207.0722    241.6031   8.5073412622e+01  -7.5600195903e-02    0.1498432    0.1218693  -1.97 0.0005410787    1.227    0.185
       154 -10.2677    212.7717     28.2318   3.9060381431e+01   2.9014515008e+01    0.4446162    0.3334613  33.15  0.001522568    1.772    0.436
       155  -9.8789    111.6223    239.0765   1.0228835067e+02   1.2285554011e+01    0.4179542    0.1352822  27.43  0.001661076    3.526    0.716
       156  -8.6730    122.9728     48.9055   5.9442664868e+01   4.8224777622e+01    0.2162445    0.2106131 -56.12  0.000318904    1.011    0.011
       157  -7.6861     30.9665     42.0214   9.2501683430e+01   6.7423120023e+01      0.16011    0.1433739 -38.41 0.0003363197    1.019    0.018
       158  -7.3359     97.5200     41.4139   6.3449144541e+01   5.5591675540e+01    0.1442296    0.1435189  35.55 0.0001314638    1.023    0.023
       159  -7.2467     60.4832     40.3753   7.6831732277e+01   6.3461855205e+01    0.1375232    0.1316871 -10.56 0.0001176455    1.039    0.037
       160  -8.0881    158.9783     34.5848   4.7282841160e+01   4.1226939793e+01    0.2100123    0.1839865 -40.25 0.0001677215    1.107    0.096
       161  -7.2620    127.1822     29.0630   5.0906532177e+01   5.0131278739e+01    0.1823724    0.1120066 -26.99 0.0002900248    1.674    0.403
       162  -7.8538    232.4870     20.9814   3.5670012856e+01   2.5567006631e+01     0.181292     0.108414 -28.95 0.0004434425    1.492    0.330
       163  -7.6567    244.5213     15.5471   3.3614037979e+01   2.3697795807e+01    0.1208275   0.09820788 -46.46 0.0003881314    1.044    0.042
       164  -9.3371     86.0010    238.2315   1.0728809269e+02   1.5603038402e+01    0.2719346    0.1584989  48.77  0.001291111    1.438    0.305
