#   1 NUMBER                 Running object number                                     
#   2 MAG_AUTO               Kron-like elliptical aperture magnitude                    [mag]
#   3 X_IMAGE                Object position along x                                    [pixel]
#   4 Y_IMAGE                Object position along y                                    [pixel]
#   5 X_WORLD                Barycenter position along world x axis                     [deg]
#   6 Y_WORLD                Barycenter position along world y axis                     [deg]
#   7 A_WORLD                Profile RMS along major axis (world units)                 [deg]
#   8 B_WORLD                Profile RMS along minor axis (world units)                 [deg]
#   9 THETA_WORLD            Position angle (CCW/world-x)                               [deg]
#  10 FWHM_WORLD             FWHM assuming a gaussian core                              [deg]
#  11 ELONGATION             A_IMAGE/B_IMAGE                                           
#  12 ELLIPTICITY            1 - B_IMAGE/A_IMAGE                                       
         1 -13.6585    227.6309      3.4435   3.7270312643e+01   2.8081722054e+01     1.791033    0.7893267  56.79  0.005237872    2.415    0.586
         2 -13.8022    184.5229     46.2631   5.3776973890e+01   3.3414144666e+01     1.177705     1.017458  19.07 0.0009928579    1.361    0.265
         3 -14.0550    194.8553     37.9029   4.9796317392e+01   3.1967440611e+01     1.466533     1.119602 -28.20  0.003504857    1.378    0.275
         4 -14.6446    204.0604     27.7764   4.5785124031e+01   3.0975832183e+01     1.659128     1.335366  25.59  0.001523637    1.592    0.372
         5 -12.2122     32.9213     15.4760   8.5677633529e+01   6.9216891501e+01    0.3129416    0.1837189 -46.08  0.001783891    1.901    0.474
         6 -12.1152     41.0691      7.3957   7.7822501991e+01   6.9342800011e+01    0.2278287    0.2034889  -0.82  0.001532636    1.311    0.237
         7 -12.1954     59.6746      3.9090   6.8226921224e+01   6.6918325655e+01     0.392446    0.3026347  54.45  0.002455866    1.715    0.417
         8 -11.2793     41.2751      2.5462   7.5171414318e+01   6.9921835654e+01    0.2092284     0.108128  41.65  0.001149423    2.115    0.527
         9 -10.9804     99.3626    180.8198   1.0667030917e+02   2.3990744901e+01    0.2601481    0.2341676  42.52 0.0006763772    1.196    0.164
        10 -11.7683    140.0164    249.9122   1.0736340355e+02   4.5770908832e+00    0.3895682    0.2234574  44.78  0.002306793    1.387    0.279
        11 -11.6941    138.8447    244.8411   1.0698505212e+02   5.5370240362e+00    0.2945281    0.1970183 -63.35  0.001816794    1.914    0.477
        12 -16.0851     72.8377    150.1474   1.0840803683e+02   3.5089621668e+01     14.81459     6.853323  75.90  0.009497909    7.791    0.872
        13 -11.2129     42.7113    179.6010   1.1922966442e+02   3.2006857516e+01    0.2290323    0.1957302  84.90 0.0006821479    1.104    0.094
        14 -10.1025    204.7917    176.9224   8.3032730726e+01   5.4602701450e+00    0.3081456    0.1858044 -45.44   0.00146546    1.831    0.454
        15 -10.4987    152.9099    198.6952   9.7709055618e+01   1.1111677747e+01     0.454083    0.1872783 -58.71  0.001645124    3.650    0.726
        16 -12.3305     73.4370    175.3748   1.1186485453e+02   2.9098210790e+01     0.435522    0.2762312 -45.11  0.001684265    1.992    0.498
        17 -12.1911     77.3003    170.5769   1.1032429987e+02   2.9650872728e+01    0.3714131    0.2725509 -49.21 0.0008639457    1.550    0.355
        18 -11.3435    140.6136    174.0372   9.6112530404e+01   1.8257306384e+01    0.6669459     0.397036 -84.26  0.002134247    3.738    0.732
        19 -11.2039     55.0975    166.6121   1.1503122729e+02   3.3514095262e+01    0.4546626    0.2078345 -50.88  0.002036124    2.482    0.597
        20 -11.6539     47.5856    173.1393   1.1749590267e+02   3.2907381864e+01    0.3414885    0.2484353 -65.26  0.001171405    1.341    0.254
        21 -10.9765     53.2915    172.7206   1.1615826393e+02   3.2326743743e+01     0.282222    0.2249459  73.46 0.0006463323    1.104    0.095
        22 -14.1471     47.4050    220.3508   1.2174994605e+02   2.2907210125e+01    0.6507321    0.5511785  69.11  0.001512819    1.187    0.157
        23 -10.8505    230.1054    166.2565   7.6057672827e+01   2.5909654070e+00    0.2550323    0.1784793 -57.44  0.001245629    2.122    0.529
        24  -9.7786    159.8354    197.0811   9.5988112748e+01   1.0168958708e+01    0.1947594    0.1771102  66.12 0.0003265311    1.197    0.164
        25 -10.1840    160.8904    164.3905   8.9674715035e+01   1.6342422177e+01    0.2628997    0.2044142 -59.37  0.001316754    1.443    0.307
        26 -12.1449     91.7220    154.5175   1.0433855805e+02   3.1230395567e+01    0.6167014    0.4349426 -29.72  0.002938965    2.029    0.507
        27 -14.2179     60.1855    190.1106   1.1652263211e+02   2.7582054668e+01     1.069442    0.8937304 -81.13  0.006163925    1.162    0.139
        28 -10.4597     81.7154    195.0849   1.1246697802e+02   2.3575818413e+01    0.2655013    0.2390229 -88.11 0.0008419976    1.142    0.124
        29 -11.3699    133.7519    144.9268   9.1949218760e+01   2.5939818420e+01     1.149326    0.3129534 -55.46  0.002834756    5.345    0.813
        30 -11.1110    174.2542    149.0000   8.3420866480e+01   1.6753247772e+01    0.3558101     0.323622 -12.07  0.001020918    1.130    0.115
        31 -10.6326    144.3497    146.4754   8.9715853559e+01   2.3474379771e+01    0.3518828    0.2336862 -86.25  0.001350854    2.613    0.617
        32  -9.0532    109.4136    147.4918   9.8573190242e+01   2.9916575910e+01     0.147355    0.1362075 -85.92 0.0001018235    1.038    0.037
        33 -10.2359     86.8543    145.6967   1.0404612271e+02   3.4094500353e+01    0.2566603    0.2054603  85.77 0.0003892479    1.283    0.221
        34 -11.1402    104.7020    139.3741   9.8170761841e+01   3.2661515033e+01    0.6386036    0.3463195 -40.21  0.002583654    2.192    0.544
        35 -12.2507     92.3129    139.7328   1.0151019370e+02   3.4662648894e+01    0.2795726    0.2492829 -50.52 0.0004340079    1.158    0.136
        36 -11.1763    108.1178    203.5177   1.0790327523e+02   1.7801988185e+01    0.2437262    0.1933749  72.57 0.0006386754    1.223    0.182
        37 -10.7530    105.9978    130.8201   9.6027155962e+01   3.4465129530e+01    0.3584575    0.3061469 -73.81  0.001209398    1.178    0.151
        38 -10.7375    113.0258    130.3133   9.4037629405e+01   3.3302540524e+01    0.3215032    0.2665105  21.08 0.0009198075    1.422    0.297
        39 -11.3572    135.5530    127.5819   8.7554139517e+01   2.9497261707e+01    0.5933803    0.1992304 -50.67  0.001826416    3.110    0.678
        40 -11.1284    100.2575    126.5768   9.6658952432e+01   3.6488332069e+01    0.3690259    0.2530856 -34.39  0.001451716    1.729    0.422
        41 -10.0272    160.4965    127.5010   8.1478032563e+01   2.4180099409e+01    0.3507518    0.2586738 -67.86  0.001551955    1.704    0.413
        42 -11.4387    119.6410    123.4788   9.0698825227e+01   3.3639403976e+01    0.5368831    0.3786246  -9.73  0.002211809    2.281    0.562
        43 -10.1074    108.9525    119.1162   9.2552870188e+01   3.6695713121e+01    0.2165821    0.2087841 -70.51 0.0003129866    1.021    0.020
        44 -10.8869    135.0000    112.1634   8.3825899023e+01   3.3070845612e+01    0.6177886   0.08773416 -45.41   0.00124563    6.860    0.854
        45  -9.7605    167.5007    112.2240   7.5977173654e+01   2.5805828987e+01    0.3256703    0.2411158 -83.21  0.001378019    1.952    0.488
        46 -11.8939    118.2333    109.2225   8.7521765379e+01   3.7201154907e+01    0.6898231    0.5127899 -72.40   0.00314149    1.647    0.393
        47 -12.0648     18.0241    110.9571   1.1753996029e+02   5.0420243295e+01    0.3016601     0.223271  89.93  0.001459605    1.267    0.210
        48  -9.6861    135.0000    102.9873   8.1359022416e+01   3.5086583243e+01    0.3146576    0.1880057 -38.29  0.001287588    1.694    0.410
        49 -10.2275    205.4132    110.0956   6.7619586787e+01   1.7521182113e+01    0.3157536    0.2273216  42.98 0.0008442323    1.474    0.321
        50 -10.4263     95.2995    189.1020   1.0874896991e+02   2.2825827474e+01    0.3349935    0.2431025   2.88  0.001320042    2.484    0.597
        51 -10.7800     53.2819     91.0370   1.0277759326e+02   5.1874940080e+01    0.3027016    0.1707627 -52.87  0.001482443    1.494    0.331
        52 -11.2415     41.7681     92.0114   1.0682930349e+02   5.2892366998e+01    0.2677954     0.218466  11.63  0.001170072    1.485    0.326
        53 -11.0207     39.6627     88.2422   1.0672444267e+02   5.3983024593e+01    0.2576167    0.2212803  12.80  0.001625694    1.389    0.280
        54  -9.3680    156.7987     81.1840   6.9702201811e+01   3.4512695716e+01    0.2147404    0.1858931  11.00 0.0005952602    1.310    0.237
        55  -9.4543    184.1838     76.8733   6.2711417259e+01   2.8590486915e+01    0.2106244    0.1850467   9.18 0.0006949402    1.307    0.235
        56 -14.9009     85.4439    229.1188   1.1535074399e+02   1.6255854002e+01     1.559795     1.156155  86.42    0.0087354    1.316    0.240
        57 -18.6670     18.7093    219.2126   1.2685944416e+02   2.6288708419e+01      11.1885     4.698389 -85.07   0.06315318    2.098    0.523
        58  -9.6276    153.8408    185.0189   9.5166755748e+01   1.3559542945e+01    0.2281539    0.1655209 -86.62  0.001077468    2.054    0.513
        59  -9.5224    130.9150    214.1327   1.0460416176e+02   1.2033204470e+01    0.1868946    0.1543964  65.88 0.0003262854    1.203    0.168
        60  -9.4295    103.6238    213.2542   1.1006008229e+02   1.6582521459e+01    0.1935168    0.1646503  -4.85 0.0008465615    1.760    0.432
        61 -11.1596    152.8439     55.8909   6.2724978037e+01   3.9941822771e+01    0.4140738    0.2927584 -77.54  0.001798471    1.981    0.495
        62 -11.2744    147.0639    183.5560   9.6385371685e+01   1.5104680777e+01    0.3479988    0.2375246  54.31  0.001075525    1.506    0.336
        63 -10.8993    155.3181     49.9840   6.0295497311e+01   4.0254863050e+01    0.3533363    0.2718563 -86.04 0.0007816023    1.600    0.375
        64 -15.1066     52.0928    203.3712   1.1946807630e+02   2.5767321499e+01     1.970147    0.8532386  62.64  0.006435184    2.412    0.585
        65 -10.4851    106.8299    210.3787   1.0905121473e+02   1.6644375593e+01     0.227707    0.1518448  36.20 0.0004979158    1.503    0.334
        66  -9.9683    189.6836     14.9843   4.4008604763e+01   3.6053395875e+01    0.1880937    0.1729329 -51.29 0.0006341391    1.120    0.107
        67 -11.7767    181.2396    208.3280   9.3531652076e+01   4.4112427843e+00    0.4617305    0.2140711  25.02  0.001733782    3.229    0.690
        68 -10.8636    113.2411    207.6608   1.0737501463e+02   1.6158031617e+01    0.2508817    0.2008405  75.96 0.0006639682    1.254    0.203
