#   1 NUMBER                 Running object number                                     
#   2 MAG_AUTO               Kron-like elliptical aperture magnitude                    [mag]
#   3 X_IMAGE                Object position along x                                    [pixel]
#   4 Y_IMAGE                Object position along y                                    [pixel]
#   5 X_WORLD                Barycenter position along world x axis                     [deg]
#   6 Y_WORLD                Barycenter position along world y axis                     [deg]
#   7 A_WORLD                Profile RMS along major axis (world units)                 [deg]
#   8 B_WORLD                Profile RMS along minor axis (world units)                 [deg]
#   9 THETA_WORLD            Position angle (CCW/world-x)                               [deg]
#  10 FWHM_WORLD             FWHM assuming a gaussian core                              [deg]
#  11 ELONGATION             A_IMAGE/B_IMAGE                                           
#  12 ELLIPTICITY            1 - B_IMAGE/A_IMAGE                                       
         1 -11.6244     86.9477     22.9889   3.1317609263e+01   6.0023709773e+01    0.6700418    0.3472626 -53.89  0.002522955    3.157    0.683
         2 -12.5997     96.5731     22.1490   2.7998412631e+01   5.7841592972e+01    0.4499872    0.3577344  51.79 0.0005098886    1.146    0.127
         3 -11.7758     20.6688     17.0013   6.1354707067e+01   7.2770850959e+01    0.3852473     0.260849  15.12  0.001665509    1.447    0.309
         4 -11.0856      6.8266     15.5202   7.0912671677e+01   7.4244475176e+01    0.2436749    0.1694386 -65.55 0.0006797218    1.602    0.376
         5 -13.7821    162.5207     10.4633   1.1183575852e+01   4.2118191940e+01     1.200367    0.9059549   6.86  0.006490523    1.711    0.415
         6 -12.3735    182.6562     14.5213   1.0156095759e+01   3.6656507304e+01    0.7154647    0.3938527 -39.19  0.002580458    1.720    0.419
         7 -13.0616    178.1229      7.1352   8.5203028148e+00   3.8497072515e+01    0.6983325    0.5866171  39.32   0.00421005    1.399    0.285
         8 -12.9003    174.2805      3.4045   7.8174649898e+00   3.9796017063e+01    0.5768915    0.4004386  79.96   0.00320886    1.311    0.237
         9 -11.3565     49.4898     13.8289   4.2025176707e+01   6.9135554335e+01    0.3361738    0.2622535  25.65 0.0009863632    1.163    0.140
        10 -11.2079     45.1754     12.1710   4.3363543207e+01   7.0145540506e+01    0.2697595    0.2248386 -25.58  0.001131086    1.229    0.186
        11 -12.3151    114.2858      2.0980   1.5319173351e+01   5.5461390659e+01    0.6156507    0.2988117  64.59  0.001431322    1.759    0.431
        12 -11.4367    115.0031      8.9290   1.7960400157e+01   5.4656231607e+01    0.2999713    0.2412974  64.52  0.000494493    1.113    0.101
        13 -12.0075    119.2728      9.2418   1.7254403805e+01   5.3516645130e+01    0.3108145    0.2812791 -66.13 0.0002369699    1.189    0.159
        14 -12.5369    123.8777      6.5268   1.5361969667e+01   5.2568417142e+01     0.468022    0.3422797  69.41 0.0009197512    1.225    0.184
        15 -12.4956     69.7259      8.4580   3.0164937787e+01   6.5748524721e+01    0.8210145    0.3112212 -34.64  0.003309569    2.798    0.643
        16 -13.0479     87.5213      5.5841   2.2954971732e+01   6.1912451447e+01      0.83333    0.4933439  35.84  0.002810159    1.698    0.411
        17 -12.9218    104.5330      8.9898   2.0222454965e+01   5.7340269817e+01    0.7555645    0.4572569 -42.52  0.003621329    1.876    0.467
        18 -12.7989     97.3700      6.8138   2.0956941189e+01   5.9361328394e+01    0.7042348    0.4734447 -26.20  0.003279499    1.633    0.387
        19 -11.5974     79.5178     12.0371   2.8564894338e+01   6.3119825379e+01    0.3216876     0.239876  62.99 0.0007066022    1.387    0.279
        20 -12.9116     76.2634      8.5410   2.7889960654e+01   6.4266595621e+01    0.6757062    0.4060914  34.74  0.001681769    1.644    0.392
        21 -11.0948     35.0498     13.3870   4.9914590689e+01   7.1586624076e+01    0.3533583    0.2269999  17.27  0.001557131    1.601    0.376
        22 -10.9094     32.3835     10.2736   4.9809776508e+01   7.2484952743e+01    0.3091551    0.1625383 -41.67  0.001551309    1.937    0.484
        23 -11.8796    127.6862     14.1222   1.7564913973e+01   5.0833815457e+01     0.414054    0.1976502  60.13 0.0009539037    1.811    0.448
        24 -10.6429     27.5755     11.4981   5.3678384118e+01   7.2947487968e+01    0.2257999    0.1885677  -9.94 0.0006896616    1.027    0.026
        25 -12.6563     56.5992      8.4234   3.5541935218e+01   6.8522461719e+01     0.583242    0.3940767  24.40   0.00215722    1.476    0.323
        26 -10.5264    213.1615      8.7340   6.0029481348e+00   3.0071924639e+01    0.1940473    0.1727613  60.01 0.0005333744    1.298    0.230
        27 -12.4509    132.3694      3.6970   1.2931010919e+01   5.0592455466e+01    0.5010163    0.2682309  67.87  0.001511393    1.628    0.386
        28  -9.8634     22.7451      4.9773   5.3228113929e+01   7.4658755496e+01    0.1686095    0.1410484 -11.16 0.0002014447    1.050    0.048
        29 -10.6649      3.4198      8.3362   7.0517507050e+01   7.5892813112e+01    0.2065452    0.1850908 -21.83 0.0005920077    1.151    0.131
        30  -9.8215     16.4631      4.5161   5.7728403583e+01   7.5478163627e+01    0.1237099     0.101752 -11.55 0.0001081414    1.010    0.010
        31 -11.1802     79.2912      1.4210   2.3248391800e+01   6.4287879754e+01    0.3288097   0.09677442  54.58 0.0009498278    2.633    0.620
        32 -10.7440     37.6117      1.6835   4.1251322159e+01   7.2926654083e+01    0.3228824    0.1582869  42.79  0.001345069    1.941    0.485
        33 -11.6584     12.0099     85.7275   8.4676874687e+01   5.7716166528e+01    0.2379916    0.1741688 -71.98 0.0006753516    1.223    0.182
        34 -12.7176      7.1869     85.5305   8.6668335388e+01   5.8026746207e+01    0.4470787    0.3317508 -34.58  0.002652735    1.402    0.287
        35 -10.8995    239.2274     83.4523   2.0910233889e+01   1.5808126734e+01    0.2859565   0.05284543 -40.38 0.0008929527    4.415    0.773
        36 -11.0529     54.8131     78.8905   6.5022449466e+01   5.5240033533e+01    0.2901905    0.2274134 -83.28 0.0004523081    1.543    0.352
        37 -11.8051      5.6954     80.0015   8.6613631745e+01   5.9464308299e+01    0.2623967    0.2127011 -48.90 0.0007351051    1.162    0.140
        38 -12.6087      2.9531     75.6913   8.7271111984e+01   6.0644141400e+01    0.5916962    0.3403939 -75.56  0.002843291    1.537    0.349
        39  -9.5205     78.0116     78.0045   5.5554154677e+01   5.1747182391e+01    0.1670496    0.1597381  19.29            0    1.025    0.024
        40 -10.3071    175.4241     71.2098   2.7187275856e+01   3.1084526754e+01    0.2095809    0.1283097 -44.82 0.0007940652    1.648    0.393
        41  -9.4920    191.6800     70.2738   2.4225120753e+01   2.7462329675e+01    0.1396652     0.104718 -69.19 0.0001702067    1.571    0.363
        42 -11.8052      7.7146     68.6051   8.4084053900e+01   6.2159476102e+01    0.3136106    0.2362926  65.66  0.001071989    1.503    0.335
        43 -11.6916      3.9216     63.9260   8.5178164348e+01   6.3466011326e+01    0.3661833    0.2566362  -0.46  0.001384188    1.587    0.370
        44 -12.2956      3.5072     59.4790   8.4675763307e+01   6.4552390725e+01    0.3962852    0.3131985 -46.74  0.001375748    1.128    0.114
        45  -9.5147     83.0711     68.0415   5.0522941227e+01   5.2962986887e+01    0.1703108    0.1607739  20.10 -0.001320134    1.023    0.023
        46 -10.4458    191.5035     66.2221   2.3187837808e+01   2.8093737763e+01    0.3506085    0.2181648  37.96  0.001006963    1.935    0.483
        47  -9.4410    151.5032     66.4487   3.0459052509e+01   3.7605301133e+01    0.1480794    0.1439196  58.88 0.0002603909    1.005    0.005
        48 -10.4015    204.0588     65.2973   2.1130180262e+01   2.5404423852e+01    0.1883044    0.1738549 -77.14   0.00114143    1.111    0.100
        49 -10.0710     43.5497     62.6964   6.5487026995e+01   6.0509712359e+01    0.2229294    0.2055466 -28.22 0.0005589576    1.012    0.012
        50 -12.0644     14.1252     61.7812   7.9729801535e+01   6.3455514649e+01    0.3431247    0.2859669  55.22  0.002104631    1.385    0.278
        51 -10.7917    231.1974     60.8682   1.6735401919e+01   2.0291316447e+01    0.2576751    0.1799834  57.63    0.0012252    1.589    0.371
        52  -9.8674     57.4282     59.7025   5.8158858462e+01   5.9247571873e+01    0.2334096    0.1647411   6.74 0.0005239202    1.697    0.411
        53 -12.5619     23.3468     55.9778   7.3662973961e+01   6.4166660165e+01    0.7463267    0.3769433 -56.61  0.003183061    1.726    0.421
        54 -10.2500     98.9330     61.4115   4.2726482602e+01   5.0993625312e+01    0.3034124    0.2137052 -61.01  0.001355572    1.826    0.452
        55 -10.6412    149.2101     50.6479   2.6038823332e+01   4.0639370159e+01    0.4477671    0.2012081 -29.41  0.001701567    2.415    0.586
        56  -9.8915     69.1460     51.1485   5.0009274447e+01   5.9048446820e+01    0.2292687    0.1933059  -0.43  0.001044959    1.239    0.193
        57 -11.7292     94.0383     48.5959   3.9662727181e+01   5.4423984023e+01    0.2515635    0.2130395 -31.47  0.000199582    1.229    0.186
        58 -10.0915     34.8446     47.8426   6.5164160816e+01   6.4891031690e+01    0.2432035    0.1924876 -25.79  0.001082474    1.209    0.173
        59 -10.4868     32.8111     43.9987   6.4946184303e+01   6.5960128219e+01    0.2288833     0.186175  17.91 0.0007007376    1.247    0.198
        60 -11.1909      6.0451     46.5249   8.0847509504e+01   6.7500211854e+01    0.4679662    0.1489183 -39.39  0.001860557    2.942    0.660
        61 -10.6158     51.5961     46.0476   5.5973116058e+01   6.3037290893e+01    0.3732508    0.1934358  35.81  0.001666241    1.922    0.480
        62 -11.0156    119.0010     42.7144   3.0128782679e+01   4.9441511251e+01    0.3506464    0.2190053 -32.35 0.0004793536    1.697    0.411
        63 -10.4382     37.8314     43.6371   6.2092910452e+01   6.5447441320e+01    0.3479228    0.2111505  46.78  0.001664173    2.072    0.517
        64 -10.1943     35.0432     60.7936   6.9035245769e+01   6.1931796901e+01    0.2367621    0.1739335  -8.97 0.0006712804    1.498    0.332
        65  -9.2949    174.2955     41.3378   1.8887116679e+01   3.5632710496e+01    0.1417678    0.1068992  27.55 0.0007029948    1.652    0.395
        66  -9.4050    134.0000     40.9373   2.5974738852e+01   4.5910495129e+01    0.2289862   0.08546226 -30.63 0.0007877946    2.842    0.648
        67 -10.7864      1.3802     39.6449   8.2076080098e+01   6.9284058458e+01    0.2215436    0.1046305 -69.00 0.0002816342    1.884    0.469
        68 -11.8935     38.1675     36.9676   5.9343496105e+01   6.6793056916e+01    0.5358725    0.3341397   8.40  0.002194284    1.884    0.469
        69  -9.3071    207.7891     37.9697   1.3748664056e+01   2.8111120278e+01     0.158629   0.09930933 -30.81            0    1.538    0.350
        70  -9.4901     96.0561     38.0075   3.4831365121e+01   5.5717745907e+01    0.1752914    0.1554036  42.81 0.0003971439    1.053    0.051
        71 -10.5631     20.4925     35.6778   6.9190610987e+01   6.8985837515e+01    0.2804074     0.227032  66.12  0.001157845    1.698    0.411
        72 -10.6432     17.5723     31.4483   6.9525578580e+01   7.0140573044e+01    0.2194264    0.1858597 -34.31   0.00051863    1.030    0.029
        73 -10.1473    119.2786     34.9996   2.7204317188e+01   5.0487652430e+01    0.1982705    0.1908663  -7.60 0.0004656437    1.109    0.098
        74 -10.4678     48.4344     33.2200   5.2255760633e+01   6.6048371303e+01     0.367549    0.2004732 -26.49  0.001595755    2.248    0.555
        75  -9.8915     51.7700     33.3549   5.0623572531e+01   6.5485787978e+01    0.2734538    0.1615767  28.92 0.0005516746    1.714    0.416
        76  -9.8381    174.0342     34.3222   1.6879498406e+01   3.6580791846e+01    0.1954005     0.169615  85.08 0.0004842512    1.105    0.095
        77  -9.8586     13.3232     34.3211   7.3209375326e+01   6.9841742984e+01    0.1389971   0.07826663 -32.82 0.0007045974    1.677    0.404
        78 -10.5056    139.4543     33.0137   2.2127799346e+01   4.5576376904e+01    0.2997049     0.177438  49.82  0.000897915    1.623    0.384
        79  -9.7520    154.0062     31.7580   1.9120277722e+01   4.1975319708e+01    0.2048566    0.1713206  70.22  0.000365739    1.126    0.112
        80 -10.1372     82.9517     31.5813   3.6524267004e+01   5.9695529361e+01    0.3080462    0.1746352  49.47 0.0008582671    1.660    0.398
        81 -11.1494      4.8059     31.6526   7.7908224525e+01   7.0933997541e+01    0.3797801    0.1526292  34.47  0.001706198    2.933    0.659
        82  -9.6174     64.6115     29.7546   4.2954763798e+01   6.3808466025e+01    0.1806806    0.1310977 -44.03 0.0005239233    1.528    0.346
        83 -10.0333     60.4106     25.8522   4.2980279612e+01   6.5252498523e+01    0.2699274    0.1317116 -32.55  0.001037022    2.177    0.541
        84  -9.6737    104.0022     28.2488   2.8491960388e+01   5.5226707953e+01    0.2043648    0.1730302  53.60 0.0003016709    1.095    0.087
        85  -9.0896     42.2678     28.3586   5.3335975905e+01   6.7897341654e+01    0.1393972   0.09484366 -14.77  0.000452769    1.639    0.390
        86 -10.2247    160.8831     27.0728   1.6568295537e+01   4.0770468253e+01    0.2129277    0.1949646  85.37 0.0005710979    1.015    0.015
        87 -10.9307    143.5156     27.4968   1.9496271542e+01   4.5207771800e+01    0.3079139    0.1348129  65.63  0.001204923    2.146    0.534
        88 -12.0125    244.6661    198.3775   4.2804710295e+01  -1.0513486253e-01    0.2414007    0.1177055 -23.81  0.001383571    1.868    0.465
        89 -10.2137     46.8493     26.7787   5.0111568360e+01   6.7476185651e+01    0.1959836    0.1641226   0.30 0.0003765386    1.116    0.104
        90 -10.8161    120.5215     25.7965   2.3432161873e+01   5.1375577416e+01    0.2814092    0.1603291  47.98  0.001249886    1.653    0.395
        91 -11.1484    110.7183     25.0902   2.5456581113e+01   5.3961564161e+01    0.3385881    0.2292177  53.56  0.001489289    1.335    0.251
        92 -13.1646    246.5103    182.0588   3.9700571680e+01   1.6086410931e+00    0.4740745    0.4550304 -24.75   0.00360105    1.674    0.403
        93  -9.9924     55.8903     24.9841   4.4672742591e+01   6.6233850187e+01    0.2462096    0.1806566 -37.83  0.001174697    1.422    0.297
        94 -10.0351    129.0062     24.0162   2.0980326491e+01   4.9396547116e+01    0.1726401    0.1622007  64.49  0.000431826    1.023    0.022
        95 -11.1581      2.9311     23.5480   7.6756838638e+01   7.2790549757e+01    0.2253167    0.1678651 -46.22 0.0005921081    1.118    0.106
        96 -11.0383    136.8023     23.0272   1.9146042502e+01   4.7480826620e+01    0.3733512    0.1460034  50.14  0.001399195    2.421    0.587
        97 -10.6062     38.3754     22.8512   5.2903364422e+01   6.9471834770e+01    0.2345462    0.1747261  17.82 0.0003983751    1.289    0.224
        98 -10.5196     72.8170     22.1981   3.5973562503e+01   6.3296826417e+01    0.1965305    0.1873411  47.92 0.0004537446    1.162    0.139
        99 -10.3125     66.2428     20.6934   3.7884531420e+01   6.4892828831e+01    0.2046161    0.1659521  57.55  0.001129395    1.395    0.283
       100  -9.1800    159.4584     20.4665   1.4701010332e+01   4.1879255964e+01    0.1391845    0.1276156  86.13 0.0001587415    1.002    0.002
       101 -11.1448    109.2643     19.4917   2.3536369214e+01   5.5007135432e+01     0.257016    0.2012217 -21.35 0.0008842911    1.405    0.288
       102 -10.7554    147.1786     18.0944   1.5718874586e+01   4.5317210994e+01     0.241794      0.19003 -40.30 0.0007678999    1.328    0.247
       103  -9.8487     48.4775     19.3492   4.5527752662e+01   6.8462714151e+01    0.1652056    0.1272321 -41.79 0.0009264375    1.444    0.308
       104  -9.6695    224.3035    173.6390   4.1773339583e+01   5.7868264250e+00    0.1083114   0.09838174 -54.26 0.0007037948    1.727    0.421
       105 -11.2527     66.1497     16.2740   3.5678064044e+01   6.5534295622e+01    0.2521466    0.2135475  25.76 0.0002586926    1.062    0.059
       106 -11.1273     13.2818     17.3785   6.6846714427e+01   7.3391825105e+01    0.3573858    0.1435962  14.45  0.001572965    2.761    0.638
       107 -12.0240     85.0885     15.7481   2.8556351778e+01   6.1381420509e+01    0.4130313    0.2005488  52.23  0.001798861    1.813    0.449
       108 -13.2762    249.2003    161.4166   3.5538763096e+01   3.8142777129e+00    0.9949692    0.1654303 -33.88  0.003199304    5.284    0.811
       109 -12.4654    236.6286    147.4341   3.4754277032e+01   7.4984135039e+00    0.4635723    0.2078266 -45.61    0.0020477    2.945    0.660
       110 -13.9376    248.4163    144.7537   3.2474780782e+01   6.0728369848e+00     0.874002    0.4745333 -36.08  0.004914671    1.689    0.408
       111  -9.8526     25.6160    146.1744   8.6464855434e+01   4.1770876622e+01     0.197736    0.1488285  19.61 0.0005590263    1.456    0.313
       112  -8.8399     28.6565    138.3026   8.4797900958e+01   4.3403958834e+01    0.1427889   0.08495611  57.78 0.0003084719    1.681    0.405
       113 -10.0854      3.4821    138.4745   9.2496783117e+01   4.5256642842e+01    0.1227111    0.1064263  80.39 8.137687e-05    1.014    0.014
       114 -12.5711    235.7722    131.9070   3.1756159372e+01   9.7711498387e+00    0.4796516    0.1495766 -40.77  0.001860841    3.212    0.689
       115 -11.0443    151.3791     14.1676   1.3800303194e+01   4.4630588296e+01    0.2007914    0.1178902 -39.78 0.0009512309    1.734    0.423
       116 -12.5866    114.4389     14.0474   2.0145924953e+01   5.4286008649e+01    0.8800272    0.1407983  60.61  0.002448251    4.280    0.766
       117  -9.9156     11.3108    133.6738   8.9793598040e+01   4.5901327607e+01    0.1367055   0.07976549  59.74 0.0003698789    1.660    0.398
       118 -13.4590    248.7488    129.4630   2.9401508738e+01   8.0341543117e+00    0.6475418    0.4562749  19.51  0.004021196    1.548    0.354
       119 -12.8581    249.4164    115.3592   2.6442292765e+01   9.7962551426e+00    0.6843401    0.1589881 -34.60  0.002519046    3.483    0.713
       120  -9.7274     17.6708    132.2929   8.7684856760e+01   4.5779547644e+01    0.1371559   0.08277833  57.68 0.0005530631    1.627    0.385
       121 -11.1349     14.1829    116.9903   8.7429540547e+01   4.9795925756e+01    0.2536544    0.1546961 -56.44   0.00134539    1.575    0.365
       122 -12.7663      2.4951    106.5479   9.0593761513e+01   5.3059883978e+01    0.8458912    0.2583503 -78.64  0.003311921    2.867    0.651
       123 -11.8233     13.9222    107.2916   8.6534384123e+01   5.2224310642e+01    0.3095622    0.1847416  73.74 0.0007388817    1.785    0.440
       124 -13.2255      4.9484     97.2079   8.8844353316e+01   5.5245907995e+01     0.845124    0.4569508  55.77  0.001328822    2.004    0.501
       125 -11.5977      1.9047     89.2032   8.9237423761e+01   5.7365580494e+01    0.3465391    0.2023974 -70.84  0.001497414    1.465    0.317
       126 -12.6686    245.7138    120.0903   2.7908625404e+01   9.7653580122e+00    0.4044114    0.3068385  88.12  0.002321797    2.358    0.576
       127 -11.6460    246.4093    101.7759   2.3991525013e+01   1.2098679087e+01    0.2618004    0.1054877 -25.53  0.001117177    2.580    0.612
       128 -12.2490      5.7990    119.0340   9.0448803633e+01   4.9815604378e+01    0.4133527    0.3419003  51.72  0.002652713    1.205    0.170
       129 -10.4692    223.9994    104.5239   2.7623494660e+01   1.5719410915e+01    0.1884664    0.1293879  51.10   0.00104184    1.621    0.383
       130 -10.4819    231.6292    102.7719   2.6150891818e+01   1.4563935991e+01    0.1853966    0.1025543 -39.99 0.0005700469    1.656    0.396
       131 -10.2035     78.5349    101.8744   6.1782629641e+01   4.6124879211e+01    0.4005924    0.1464762 -55.16  0.001370198    2.769    0.639
       132 -10.5751    210.4978     99.9964   2.8631219287e+01   1.8989474091e+01    0.1965602     0.101237 -52.04 0.0008103111    2.522    0.603
       133 -12.1679    236.8278     95.6964   2.3902087457e+01   1.4599619035e+01    0.3367289    0.1703092 -33.67  0.001693654    1.703    0.413
       134 -10.1880     63.9204     95.8665   6.5645869218e+01   4.9860132219e+01    0.2282919    0.1974195 -15.59  0.001218721    1.267    0.211
       135 -12.5563     16.2506     94.3691   8.4104541143e+01   5.5299271664e+01    0.5883325     0.276231  24.17  0.002749028    2.214    0.548
       136 -10.9842     40.9414     95.2283   7.4401902009e+01   5.2943447914e+01    0.3992679    0.1725193  17.38  0.001530307    2.825    0.646
       137 -11.0563    131.9204     92.5959   4.2806929360e+01   3.7485238803e+01     0.302927    0.2552599  41.19 0.0006900266    1.152    0.132
