#   1 NUMBER                 Running object number                                     
#   2 MAG_AUTO               Kron-like elliptical aperture magnitude                    [mag]
#   3 X_IMAGE                Object position along x                                    [pixel]
#   4 Y_IMAGE                Object position along y                                    [pixel]
#   5 X_WORLD                Barycenter position along world x axis                     [deg]
#   6 Y_WORLD                Barycenter position along world y axis                     [deg]
#   7 A_WORLD                Profile RMS along major axis (world units)                 [deg]
#   8 B_WORLD                Profile RMS along minor axis (world units)                 [deg]
#   9 THETA_WORLD            Position angle (CCW/world-x)                               [deg]
#  10 FWHM_WORLD             FWHM assuming a gaussian core                              [deg]
#  11 ELONGATION             A_IMAGE/B_IMAGE                                           
#  12 ELLIPTICITY            1 - B_IMAGE/A_IMAGE                                       
         1 -13.8146    166.7856     54.4713   4.8123744186e+01   3.6378229649e+01     17.96701     9.298491 -77.86   0.05966968    4.127    0.758
         2 -13.4882    226.2601     64.9451   4.2730843567e+01   2.2046419673e+01     2.557029     1.413486 -74.76   0.01209173    2.559    0.609
         3 -12.2106    191.8816     50.4436   4.3435116922e+01   3.1218084372e+01     1.412195     1.093889  86.60   0.00828627    1.291    0.226
         4 -11.7161    231.5696     35.2420   3.5848467130e+01   2.4894135118e+01    0.7159075    0.2627279 -37.23  0.003041353    2.264    0.558
         5 -12.3377    221.6552     38.5817   3.7424223395e+01   2.6448061760e+01     5.013979    0.9977615 -48.34   0.01642679    4.633    0.784
         6 -12.9268    184.0179     90.9356   5.4767125568e+01   2.6683148229e+01     5.764649    0.9069194 -41.03   0.01476341    5.332    0.812
         7 -13.8417    223.0861     82.3650   4.6933922907e+01   2.0115429793e+01      8.28619     1.949029 -49.68   0.02055203    7.281    0.863
         8 -13.3442    239.2340     58.2968   3.9982458904e+01   2.0500919856e+01     1.161299    0.9648873 -48.73  0.007738731    1.075    0.069
         9  -9.3126    129.2747     14.3111   4.2156045049e+01   5.0296308511e+01    0.2890541    0.1928852 -35.14 0.0009804451    1.626    0.385
        10 -10.4504    134.0575     17.6808   4.2480346309e+01   4.8803176358e+01    0.4776652    0.2582111 -30.25  0.002353292    1.999    0.500
        11 -13.1750    243.3979     37.9652   3.5463058770e+01   2.2323647938e+01     2.441828     0.872745  57.69   0.01166032    3.256    0.693
        12  -8.5580    159.6435     15.2312   3.8149184962e+01   4.2885095911e+01    0.3052514     0.144221 -31.54  0.001346278    2.188    0.543
        13  -9.3216    215.3421     10.6603   3.1849945289e+01   3.0903997082e+01    0.2846015    0.1586463 -71.34  0.001365933    1.670    0.401
        14  -8.4289    210.6155      8.4679   3.1705796370e+01   3.2107595955e+01    0.1590178    0.1013274  84.83 0.0001134424    1.438    0.305
        15  -9.8603    120.1934      9.4175   4.2016990895e+01   5.2947534575e+01    0.3039998    0.2805946 -55.09  0.001005602    1.195    0.163
        16  -8.2484    234.2988      4.3167   2.9344812864e+01   2.7776829255e+01     0.151568    0.1346113 -55.26 0.0006433162    1.259    0.206
        17  -9.5919    189.0730      5.4171   3.2643264063e+01   3.7054596443e+01    0.2441383    0.1729176 -42.61 0.0006714003    1.375    0.273
        18  -9.8999    209.5162      2.2771   3.0423382665e+01   3.2945086405e+01    0.3072841    0.1960928  73.59 0.0008477428    1.505    0.336
        19  -8.7316    205.7316      5.7535   3.1451136468e+01   3.3404821715e+01    0.1737418    0.1193622 -58.64 0.0004400054    1.235    0.190
        20  -9.7217    171.9528      2.2511   3.3326670419e+01   4.1223860941e+01     0.222283    0.1779176 -45.88  0.001454626    1.276    0.217
        21  -8.8572    233.8939      7.8031   3.0061222062e+01   2.7501785174e+01    0.2113673    0.1207974 -47.76 0.0003579046    1.408    0.290
        22  -8.5912    246.7421      1.9925   2.8241963518e+01   2.5678390372e+01    0.1656601    0.1099952 -60.19 0.0007902707    1.135    0.119
        23  -9.0116    249.5449      1.5142   2.8015865915e+01   2.5216676468e+01    0.1851519    0.1201248 -76.26 0.0006856706    1.301    0.231
        24  -8.2844    135.5183      2.4633   3.7389327644e+01   4.9836940552e+01    0.1279775    0.1094027  78.38  0.000120069    1.006    0.006
        25  -8.1894    242.2232    183.2314   6.4670328892e+01   1.1250517649e+00    0.1498368     0.127003 -31.71 0.0003827783    1.310    0.237
        26  -7.2144    167.4856    182.4859   7.8621969240e+01   1.2367339566e+01    0.1394675    0.1276937   0.33 3.799884e-05    1.045    0.043
        27  -8.8030     36.1380    181.0030   1.1208646401e+02   3.2041197965e+01    0.1910653    0.1784226  84.48 0.0004262619    1.063    0.060
        28  -7.7403     54.7258    180.3557   1.0698843020e+02   3.0135870021e+01    0.1456103   0.09603629  66.68 0.0005910452    1.646    0.393
        29  -9.2498    238.4055    175.8096   6.3910771748e+01   2.7512273792e+00    0.2675329    0.2257206 -81.76  0.001342682    2.248    0.555
        30  -8.2818    201.6381    174.9102   7.0164896146e+01   8.2611603325e+00    0.1858982    0.1535875 -27.90 0.0004246255    1.118    0.105
        31 -11.6919      9.9770    162.9751   1.1765286059e+02   3.8810679528e+01      1.26274    0.6629503 -77.87   0.00632397    1.692    0.409
        32 -12.4798     38.8863    157.4328   1.0875091517e+02   3.7653712033e+01     1.014692    0.9274648 -69.89  0.002865745    1.071    0.066
        33  -9.6995    230.5302    168.0043   6.3710284534e+01   5.0697691533e+00    0.3144457     0.107425 -40.57  0.001305732    2.576    0.612
        34  -7.4750    217.3130    171.2437   6.6583577728e+01   6.4847992828e+00    0.1262267   0.08932164  -2.02            0    1.509    0.337
        35  -7.9681    156.0357    170.7658   7.8929598685e+01   1.6630507162e+01     0.224974    0.1649809  64.50  0.001046441    1.999    0.500
        36  -7.9400    250.3206    249.6508   7.4448558022e+01  -8.6683823312e+00   0.08909416   0.07995772  -5.35 0.0007048639    1.740    0.425
        37  -9.9854     66.3951    144.1932   9.8329782482e+01   3.7757436440e+01    0.5294421    0.3320628 -77.46  0.001751452    1.845    0.458
        38  -8.6813    222.8577    145.0788   6.0419246846e+01   9.9906178786e+00    0.1870174    0.1647969 -45.40 0.0004297626    1.235    0.190
        39  -8.7527    215.7947    144.4059   6.1453385092e+01   1.1261657882e+01    0.2240918    0.1635242 -43.44 0.0008031419    1.308    0.236
        40 -12.6821     25.5391    163.8140   1.1334396868e+02   3.7325156740e+01    0.8761145    0.7750979 -46.63  0.001874236    1.247    0.198
        41  -9.7066    192.4287    144.0200   6.5588477357e+01   1.5381347120e+01    0.2529484    0.2115247  40.34 0.0005922994    1.303    0.233
        42  -8.0346    122.9394    143.7090   8.1544652803e+01   2.8548153072e+01     0.199063    0.1842307  30.15 0.0002684483    1.073    0.068
        43 -10.8862    207.9067     73.7473   4.6949260409e+01   2.4428542899e+01    0.4824455    0.3279286  47.63  0.001314472    1.718    0.418
        44  -8.7249    159.0940    142.7216   7.2306012134e+01   2.1868156349e+01    0.2113815     0.193323  21.02  0.001125647    1.097    0.088
        45  -8.9038    229.2518    141.4361   5.8656773321e+01   9.5678862721e+00    0.1583843     0.127402  60.08 0.0009208105    1.681    0.405
        46 -12.2505    182.9080     72.9484   5.0415694987e+01   2.9895929165e+01    0.6410424    0.4734171 -27.31  0.003384975    1.468    0.319
        47 -11.0356    179.8065    135.8033   6.6269733404e+01   1.9275647812e+01    0.6061738    0.4111428  64.97  0.002758046    2.135    0.532
        48  -9.7805    206.6964    133.7606   6.0755774560e+01   1.4676938145e+01    0.2544512     0.219827  65.26 0.0009783187    1.455    0.313
        49  -8.7786    159.6125    133.5931   7.0103348884e+01   2.3650341780e+01    0.3644806    0.2274761 -60.31 0.0008946067    2.098    0.523
        50  -8.9078    160.3858    127.4184   6.8476834064e+01   2.4758571518e+01    0.3863565    0.1357657 -38.67  0.001253819    2.972    0.664
        51  -9.1759    169.8367    133.3607   6.7794734172e+01   2.1682628427e+01    0.2155852    0.1859041  66.57 0.0006055797    1.393    0.282
        52  -8.8907    120.2393    248.8315   9.9270220440e+01   7.0761181384e+00    0.2062792    0.1137137  58.16 0.0009515386    2.810    0.644
        53  -8.2977    141.2268    131.8615   7.4076385322e+01   2.7675196612e+01    0.3221123    0.2134477  30.81  0.001423117    1.639    0.390
        54  -8.7560    223.0454    129.0147   5.7051613444e+01   1.2640568877e+01    0.1970368    0.1689539 -35.84 0.0003211458    1.047    0.045
        55 -10.1207    201.6529    126.2471   5.9987709304e+01   1.6923842959e+01    0.3157617    0.2369074  26.56 0.0004671288    1.554    0.357
        56  -8.4644    165.7005    127.5469   6.7332391140e+01   2.3662601014e+01     0.427771    0.2363663 -68.19  0.001262422    4.687    0.787
        57  -9.1886    206.1471    122.9667   5.8485440352e+01   1.6669858032e+01     0.328858    0.1655943 -46.09  0.001110016    1.896    0.473
        58  -8.1257    165.8699    111.8120   6.3481751170e+01   2.6731055211e+01    0.2396785    0.1832078 -74.85  0.001133195    1.725    0.420
        59  -8.4110    171.6159    118.7476   6.3976202343e+01   2.4195460595e+01    0.3073238     0.214958 -56.45  0.000824525    1.601    0.375
        60  -9.2966    169.1914    115.1758   6.3613424914e+01   2.5385885779e+01    0.3464434    0.2277498 -29.16  0.001280917    1.635    0.388
        61 -10.3186    227.8696    116.8255   5.3750624822e+01   1.3815109693e+01    0.2901009    0.2392509 -62.28  0.001784163    1.365    0.268
        62  -9.1113    200.9812    115.9865   5.7796582643e+01   1.8864657040e+01    0.2149821    0.1660893 -72.24 0.0008133142    1.668    0.400
        63  -9.0455    135.0000    112.0045   7.0735549074e+01   3.3230469925e+01    0.4302739   0.08661857 -44.47  0.001048566    4.909    0.796
        64  -8.3324     71.8335    112.3372   9.0034434119e+01   4.5055532576e+01    0.2028607    0.1868313  -0.73 0.0004372566    1.123    0.109
        65 -10.1524    205.6097    110.1990   5.5710615802e+01   1.8980426818e+01    0.3484549    0.2963146  43.63  0.001427667    1.314    0.239
        66  -9.6875    122.8299    104.1737   7.1885996861e+01   3.7466384647e+01    0.6170232    0.3516778 -67.41  0.002079156    3.203    0.688
        67  -8.3699    157.8462    106.5378   6.3880548048e+01   2.9465228225e+01    0.2408863    0.1933807 -62.17 0.0006589062    1.386    0.278
        68  -8.2540    144.2204    105.5436   6.6754618565e+01   3.2604187818e+01    0.2190409     0.142883  33.42 0.0009442101    1.738    0.425
        69  -9.2892    134.7869    240.9026   9.5168019689e+01   6.4908241816e+00    0.3157875    0.1628495  55.23  0.001313218    3.366    0.703
        70  -9.3372    151.4057    101.0710   6.3895943481e+01   3.1931142993e+01    0.3255154    0.2702906 -33.52  0.001052102    1.208    0.172
        71  -8.2817    159.2716     99.8641   6.1844534790e+01   3.0442672482e+01    0.2533481    0.2043069 -40.55 0.0006470834    1.203    0.169
        72 -10.2391    164.1739     95.2912   5.9625668487e+01   3.0223277766e+01    0.6164775    0.3572474  43.08   0.00269806    1.858    0.462
        73  -9.2039    192.9037    235.0382   8.2365477466e+01  -2.9688836012e-01    0.2397754     0.221711  72.07  0.001617845    1.898    0.473
        74  -8.5553    137.1171     97.1552   6.6228798398e+01   3.5843252685e+01    0.2676305    0.2189215 -59.38 0.0006934812    1.326    0.246
        75  -8.4898     91.9501    235.4583   1.0398831227e+02   1.3238804151e+01    0.2583822    0.1305837  65.53  0.001033797    3.464    0.711
        76 -10.2978     89.7352     94.2025   7.9146419383e+01   4.6297225216e+01    0.2533943    0.2436266   8.71 0.0002412517    1.024    0.023
        77 -10.6960    201.3974     76.5419   4.8506566029e+01   2.5349258807e+01    0.3781592    0.2702401  54.74   0.00208326    1.523    0.343
        78  -9.0172    173.4984     90.1476   5.6468123431e+01   2.9100051880e+01    0.5282902    0.2214659 -55.87  0.001634206    3.945    0.747
        79  -9.5510    146.1220     91.3977   6.2490609570e+01   3.4967055445e+01    0.2918904    0.2719021 -87.71  0.000579125    1.141    0.123
        80  -9.1929    180.6768    229.0981   8.3854461139e+01   2.2075621539e+00    0.2208643    0.1714486  18.28 0.0002750539    1.117    0.105
        81 -10.9556    162.6784     85.7859   5.7414791764e+01   3.2273798918e+01    0.3860034    0.2828943 -23.03 0.0008349376    1.572    0.364
        82  -9.4984    208.2411     84.9920   4.9518325625e+01   2.2622288732e+01    0.3309334    0.1987706 -51.42 0.0004682052    1.608    0.378
        83  -7.2307    134.7053     86.6653   6.3874635317e+01   3.8434565275e+01    0.1525201    0.1199895   4.78  0.000400635    1.643    0.391
        84  -7.4846    116.6651     84.3282   6.7930844650e+01   4.2894754843e+01    0.1553697    0.1223168 -87.04 0.0007051887    1.723    0.420
        85 -10.3089    190.5035     81.7741   5.1416589652e+01   2.6824562119e+01    0.3429065    0.2585787 -37.97 0.0004704213    1.256    0.204
        86  -7.6421    152.2867     82.6808   5.8709997612e+01   3.5181190680e+01    0.1489586    0.1136738 -72.65 0.0002485985    1.594    0.372
        87  -8.0896    133.3191     82.6772   6.3060418365e+01   3.9503537727e+01     0.153502    0.1192844 -80.47 0.0007044513    1.671    0.402
        88  -8.5984    127.8177     80.4725   6.3789680890e+01   4.1162022638e+01    0.2633894    0.2088012 -41.18 0.0005538887    1.274    0.215
        89  -8.0379    139.7106     79.0213   6.0465329108e+01   3.8719382035e+01    0.2089713    0.1890858 -38.18 0.0005039738    1.116    0.104
        90  -9.0124    122.6921     75.5292   6.3619299868e+01   4.3241006155e+01    0.2648065    0.1832847 -60.70  0.001183851    1.789    0.441
        91  -9.2126    138.0124     72.9132   5.9060813445e+01   4.0196061690e+01    0.2217744     0.211348  60.00  0.000338773    1.034    0.032
        92 -10.2057    151.3112     70.6456   5.5516490293e+01   3.7486812866e+01    0.4702531     0.230968 -34.18  0.001706482    2.127    0.530
        93 -10.2851    130.8877     70.0550   5.9875000640e+01   4.2345712403e+01    0.3091584    0.2489838  -2.43  0.001093982    1.542    0.352
        94 -10.5587    178.4415    140.9396   6.7699398065e+01   1.8541086684e+01    0.4494761    0.3323739 -15.92  0.002238351    1.523    0.343
        95  -9.9969    179.4304    146.5993   6.8740193356e+01   1.7260343895e+01    0.3161822    0.2391254 -38.06 0.0005162549    1.245    0.197
        96  -9.8056    195.6077     63.4511   4.6151874987e+01   2.8558976143e+01    0.3359887    0.1903539 -49.99 0.0006754282    1.680    0.405
        97 -11.5141    144.0486     60.1300   5.3924283832e+01   4.0895631081e+01    0.5013202    0.4376102  45.70  0.001397925    1.168    0.144
        98  -8.7473    238.3082    228.5376   7.3121423722e+01  -4.8000448512e+00    0.1850787   0.09766447  32.26 0.0007482807    1.985    0.496
        99 -10.3870    213.0439    229.1863   7.7652214699e+01  -1.9534744481e+00    0.2047317    0.1671435  -2.66            0    1.124    0.110
       100 -10.1865    130.0923     61.1979   5.7313761306e+01   4.4022177497e+01    0.3949408     0.274209 -78.22  0.001164318    2.071    0.517
       101  -7.6981     72.6019     58.4449   7.3763823764e+01   5.6910929743e+01    0.1421045    0.1296559   0.42 5.677353e-05    1.028    0.027
       102  -8.0808    182.2209    163.4770   7.1728286678e+01   1.3527105488e+01     0.181997    0.1338676  50.54 0.0009262367    1.645    0.392
       103  -9.9111    184.6422    143.3673   6.6974138608e+01   1.6921030520e+01    0.3459181    0.1963528  40.74  0.001048208    1.866    0.464
       104  -7.9430     24.2653     43.6492   9.0565425642e+01   6.6838371999e+01    0.1148991     0.103377  80.39 0.0003153144    1.618    0.382
       105  -7.3488    217.2655    157.6536   6.3908963917e+01   8.7695475411e+00    0.1241782   0.09873956 -56.95 0.0003791531    1.609    0.379
       106  -9.6721    171.7743     38.9506   4.3130553287e+01   3.7317516589e+01    0.4452649    0.1635304 -37.85  0.001164574    2.528    0.604
       107 -10.3996    121.8176     38.1363   5.1640494914e+01   4.9389825984e+01    0.3608693    0.3143547 -23.78 0.0004752325    1.257    0.205
       108 -11.4236    133.2923     37.4729   4.9031856560e+01   4.6715805708e+01    0.7265834    0.3241618 -45.28  0.002512209    2.467    0.595
       109  -8.6240    134.3073    146.8871   7.9250148327e+01   2.5698957555e+01    0.3086492     0.139194 -54.60  0.001093404    2.542    0.607
       110  -8.9580    160.9615     36.1522   4.3903769820e+01   4.0220589645e+01    0.3082566    0.1578971 -33.10  0.001369292    2.003    0.501
       111  -8.1113    190.4996     35.2799   3.9830373673e+01   3.3489760930e+01    0.2877111    0.1282069 -27.76   0.00126562    2.528    0.604
       112  -7.5866    184.0000     30.9485   3.9483661160e+01   3.5478310724e+01    0.1911736   0.07021492 -30.99  0.000367976    2.763    0.638
       113  -9.5451     70.3160    145.5775   9.7349103160e+01   3.6858091851e+01    0.4075632    0.3115648  45.56  0.001514637    1.334    0.251
       114  -8.7309    110.0356     28.0301   5.0739693878e+01   5.3460000904e+01    0.2008306    0.1898931  66.02 0.0004807415    1.066    0.062
       115  -9.8740    190.8280    153.6358   6.7950309208e+01   1.3881714233e+01    0.3436879    0.2753837  57.40  0.001144941    1.600    0.375
       116  -9.4406    178.5665     24.2005   3.8365882107e+01   3.7499034096e+01    0.3935809    0.3102829 -53.90  0.002428352    1.198    0.165
       117  -9.3063    182.0883    224.4701   8.2841063880e+01   2.7536719941e+00     0.240653     0.170034 -29.37 0.0005039205    1.395    0.283
       118  -9.2875    183.0215    219.9672   8.1927727115e+01   3.3530001695e+00    0.1911316    0.1569618   0.53 0.0003189832    1.024    0.023
       119  -8.4392    224.8128    218.7900   7.3835975353e+01  -1.9016936968e+00    0.2419615    0.1748628  54.16  0.001212566    2.833    0.647
       120  -7.6735    210.1539    217.4043   7.6249349256e+01   1.3184796858e-01    0.1522064    0.1059277  33.73 0.0003221239    1.565    0.361
       121 -10.0994    149.8590    213.7671   8.7964628300e+01   9.1951014272e+00    0.2424384    0.2072955 -35.28 0.0004776187    1.255    0.203
       122  -7.4900    210.7150    209.2982   7.4766416438e+01   1.2927628107e+00    0.1024243    0.1010549 -21.67 0.0002439902    1.549    0.354
       123  -8.3864    101.8485    208.9909   9.8479163628e+01   1.7239143270e+01    0.1920188    0.1699298  -3.59 0.0002957103    1.230    0.187
       124  -9.0597    185.3325    207.1873   7.9319867544e+01   5.1475922437e+00    0.3033089     0.210148  49.04  0.001131294    1.971    0.493
       125  -8.2589    243.7568    207.1884   6.8663210478e+01  -2.5228804689e+00    0.1544154    0.1314758 -74.82 0.0009435597    2.722    0.633
       126  -7.8471    238.4565    203.5023   6.8895834558e+01  -1.3705274557e+00    0.1203111   0.09243565 -12.34  0.000204359    1.014    0.014
       127  -9.5008    194.7258    198.7530   7.5962182652e+01   5.2118031805e+00    0.2863218    0.1764151 -61.07  0.001249872    3.195    0.687
       128  -8.7054    172.6504    199.4029   8.0594369657e+01   8.3896663417e+00    0.2194128    0.1825347  22.60 0.0003025169    1.140    0.123
       129  -9.3467     33.9837    196.3387   1.1401992315e+02   2.8603884843e+01    0.2116696    0.1953192 -56.74 0.0003652946    1.241    0.194
       130  -7.7034    157.7004    196.2958   8.3307064654e+01   1.1286413299e+01    0.1277546    0.1095103  63.70 0.0002241723    1.572    0.364
       131  -7.5839    172.4207    187.4410   7.8480335250e+01   1.0627171846e+01    0.1365273    0.1227812  -1.83 7.580203e-05    1.036    0.035
