#   1 NUMBER                 Running object number                                     
#   2 MAG_AUTO               Kron-like elliptical aperture magnitude                    [mag]
#   3 X_IMAGE                Object position along x                                    [pixel]
#   4 Y_IMAGE                Object position along y                                    [pixel]
#   5 X_WORLD                Barycenter position along world x axis                     [deg]
#   6 Y_WORLD                Barycenter position along world y axis                     [deg]
#   7 A_WORLD                Profile RMS along major axis (world units)                 [deg]
#   8 B_WORLD                Profile RMS along minor axis (world units)                 [deg]
#   9 THETA_WORLD            Position angle (CCW/world-x)                               [deg]
#  10 FWHM_WORLD             FWHM assuming a gaussian core                              [deg]
#  11 ELONGATION             A_IMAGE/B_IMAGE                                           
#  12 ELLIPTICITY            1 - B_IMAGE/A_IMAGE                                       
         1 -11.3336      9.0268     26.2128   1.1694156108e+02   6.8319363300e+01    0.4547458    0.1744483 -32.57  0.002419339    2.241    0.554
         2 -11.5673     60.7633     23.8928   9.5219795523e+01   6.2778731142e+01    0.4481499    0.2188148 -42.61  0.002216018    2.621    0.619
         3 -10.8040     20.3609     15.7980   1.0781645805e+02   6.8864083480e+01    0.3589187    0.2190857 -13.34  0.001960944    1.414    0.293
         4 -12.4527     25.8970     13.6114   1.0446828825e+02   6.8586239751e+01    0.2953175    0.2263611 -37.03 0.0003155583    1.617    0.381
         5 -12.1543     26.4652      3.8160   9.9826941576e+01   6.9687094201e+01    0.4066528    0.2243038  10.71  0.001448526    1.780    0.438
         6 -11.2810     31.5743      2.6152   9.7104304056e+01   6.9211676766e+01    0.2339531    0.1701388  27.93 0.0009305117    1.410    0.291
         7 -12.3039    132.7566     15.6323   7.3117851684e+01   4.9493769710e+01    0.5673826    0.4592068 -82.24  0.001967362    1.476    0.323
         8 -10.9020    216.6751     16.7505   6.1652285550e+01   2.9335859673e+01    0.6415954    0.1601498  54.02  0.002146563    4.392    0.772
         9  -9.3227     50.3903     18.7781   9.6853255800e+01   6.4921399057e+01    0.1471846   0.09397229 -15.41 0.0002104469    1.425    0.298
        10 -10.7595     75.8583     16.7283   8.7386037499e+01   6.1110392923e+01    0.3396713    0.1726581  23.46  0.001609279    2.272    0.560
        11 -11.7482     78.7739     11.5389   8.4440051939e+01   6.1110531790e+01    0.4900205     0.299273   9.46  0.002068697    1.768    0.435
        12 -11.7155     81.2551      6.1002   8.1560731070e+01   6.1150373860e+01    0.2239892     0.179473  18.11 0.0003097838    1.079    0.073
        13  -9.8336     70.8051     14.5764   8.8088975872e+01   6.2210422974e+01    0.1766659     0.133121 -19.62 0.0004791665    1.339    0.253
        14 -10.8399     99.1586     12.7106   7.9408785127e+01   5.7074433538e+01    0.2665035    0.1967433 -33.06 0.0008100431    1.565    0.361
        15 -10.0701    175.3534     12.0183   6.5292388407e+01   3.9717617413e+01     0.172132     0.160699  82.77 0.0004729806    1.105    0.095
        16 -11.0724     61.5607     11.2742   8.9730931008e+01   6.4076890864e+01    0.3185357    0.2482273  73.01   0.00142678    2.471    0.595
        17 -11.1866     23.5424     20.9424   1.0855723988e+02   6.7851463973e+01    0.3386497    0.1658272 -32.62  0.002021288    1.695    0.410
        18  -9.7844      3.3160     10.3017   1.1334583499e+02   7.1059109592e+01    0.1734415    0.1168619 -55.64   0.00113813    2.499    0.600
        19  -9.6027    107.7794     10.1699   7.6451006590e+01   5.5516258966e+01    0.1727864    0.1226528  36.15 0.0006181317    1.248    0.199
        20  -9.4185    122.2248      8.9325   7.2972170731e+01   5.2486446484e+01    0.1490354    0.1042484 -21.29 0.0006277754    1.614    0.380
        21  -9.6899     37.1113      8.4869   9.7526189168e+01   6.7885679608e+01      0.14767    0.0933033  26.94 0.0003436006    1.440    0.306
        22 -10.0359      8.7156      8.0846   1.0982344327e+02   7.0930073437e+01    0.2587761    0.1256868  12.85  0.001409068    2.136    0.532
        23  -9.5256    182.3015      7.4160   6.3224548818e+01   3.8495532566e+01    0.1857161    0.1088629  82.61 0.0009491478    1.616    0.381
        24 -11.4685     75.5171      4.5115   8.2545046643e+01   6.2336311892e+01    0.3501005    0.2047791  -3.05   0.00142954    1.832    0.454
        25 -10.0403     15.5049      6.3315   1.0587311219e+02   7.0543248461e+01    0.1860475    0.1692521 -44.75  0.001467305    2.014    0.503
        26 -10.5395     18.7348      3.9556   1.0331050184e+02   7.0507810703e+01    0.2064418     0.115817  -8.09 0.0003631408    1.653    0.395
        27  -9.6858    155.8063      6.2948   6.6436210583e+01   4.4945531336e+01    0.1967855    0.1401521  85.90 0.0003360351    1.413    0.292
        28  -9.9599    115.2200      4.5109   7.2880128486e+01   5.4395273869e+01    0.2148996     0.175211  -4.24  0.001391667    1.353    0.261
        29  -9.3153     97.5239      3.9964   7.6575232015e+01   5.8159353415e+01    0.1586567   0.08599354  20.98 0.0005041138    2.112    0.527
        30  -9.6467     92.2424      4.0305   7.7867827946e+01   5.9214474846e+01    0.1641411      0.13457  24.34 0.0003668426    1.075    0.070
        31 -10.7413    128.8819      2.7642   6.9706971270e+01   5.1501022406e+01    0.2742378    0.1725002 -75.45  0.001374644    2.361    0.576
        32  -9.1572    107.2861      3.6935   7.4256485229e+01   5.6161374999e+01    0.1109332   0.09414091 -72.08 0.0003114252    1.567    0.362
        33 -10.2968    130.2009    226.9013   1.2593116580e+02   9.1504115059e+00    0.3355716    0.1621747  55.26   0.00146068    2.156    0.536
        34 -11.1229    246.7385    250.1758   1.0735220093e+02  -1.4012970039e+01    0.4052499    0.1940509  28.73  0.002182907    1.894    0.472
        35 -11.1228    250.4296    245.2806   1.0587846588e+02  -1.3929397787e+01    0.5584853    0.1874741 -37.32  0.002544764    3.143    0.682
        36 -12.3990    231.7867    247.2458   1.0951119950e+02  -1.1459342487e+01     0.497184    0.3477559  13.34  0.003134406    1.310    0.237
        37  -9.9877     72.6311    250.1166   1.3961396700e+02   1.3929022589e+01    0.1720518    0.1625829  38.83  0.001253327    1.556    0.357
        38 -10.3170      1.4076    245.0293   1.5105284834e+02   2.3586825349e+01    0.1490278   0.07658852 -84.96 0.0003622906    1.528    0.346
        39 -11.6500     14.2202    244.7724   1.4904103075e+02   2.2298223525e+01    0.3889435    0.1611333 -79.85    0.0022203    2.045    0.511
        40 -12.2642     18.9636    238.1759   1.4787139992e+02   2.3042598869e+01     0.591414    0.3105726  44.01  0.003771891    1.850    0.459
        41 -12.4603     21.3177    249.0354   1.4816838971e+02   2.0712479712e+01    0.5085284    0.2593917  56.55  0.003306137    1.539    0.350
        42 -11.6335     27.8883    246.1428   1.4692569390e+02   2.0503326123e+01    0.4661338    0.1774992 -78.89  0.002422582    2.405    0.584
        43 -11.1013      6.0582    245.0436   1.5033669875e+02   2.3109992324e+01    0.3134796     0.163322  71.66  0.001006337    1.455    0.313
        44 -11.9839      8.7019    242.0916   1.4976013560e+02   2.3391943282e+01    0.3912973    0.1777271  70.44  0.002362074    1.812    0.448
        45 -10.3131     88.1113    227.1154   1.3436817779e+02   1.6105656106e+01    0.1820166    0.1712224  69.35  0.001221404    1.269    0.212
        46 -10.2958      5.8655    226.8267   1.4932789148e+02   2.6641869289e+01    0.2666843   0.05644092  55.15  0.001076728    4.137    0.758
        47 -10.4330     66.3825    226.2337   1.3847187227e+02   1.9502858489e+01    0.2821019    0.1483499  50.28  0.001059445    1.662    0.398
        48 -10.4768    180.8676    224.1452   1.1526677228e+02   5.2186141460e-01    0.2273308    0.1803327 -32.11 0.0006493332    1.407    0.290
        49 -10.1707     81.3716    224.6334   1.3540574311e+02   1.7644159020e+01    0.2551133    0.1592705  84.23  0.001177633    1.678    0.404
        50 -11.1962    141.2268    221.4848   1.2288159255e+02   8.2284712089e+00    0.3652666    0.2522705  19.83  0.001360695    2.025    0.506
        51 -10.9157    123.3357    221.5296   1.2656384355e+02   1.1405001840e+01    0.2733943    0.2316089  61.80  0.001024296    1.037    0.036
        52  -9.4569     51.4944    222.5489   1.4092906517e+02   2.2283746667e+01    0.1222989   0.09614921  78.53 0.0001283543    1.028    0.027
        53 -10.6114     13.2557    221.9573   1.4777000600e+02   2.6867339029e+01    0.1739987    0.1417127  68.93 0.0004111607    1.260    0.207
        54  -9.9949    174.1237    219.8841   1.1589830395e+02   2.4983694613e+00    0.2053744    0.1782464  58.27 0.0006089992    1.209    0.173
        55  -9.6580     21.9896    220.2472   1.4612463045e+02   2.6288892295e+01    0.1323387   0.08525167  48.71 0.0006146723    1.525    0.344
        56  -9.7897    250.3083    219.0742   1.0122601389e+02  -1.0423669063e+01     0.173437    0.1396232 -12.71 0.0006223326    1.108    0.097
        57 -10.6290    191.5282    217.0013   1.1190150831e+02  -1.8370451026e-01    0.2668609    0.1989119 -30.32  0.001136175    1.464    0.317
        58 -10.8993     10.0077    217.0405   1.4800175558e+02   2.8198434959e+01    0.2761726    0.1559205  67.40 0.0009846536    1.458    0.314
        59 -10.6193    234.6681    216.3466   1.0352388783e+02  -7.5631146698e+00    0.1804938    0.1624533  86.51 0.0009556455    1.751    0.429
        60 -10.0915     31.1024    215.8399   1.4413465193e+02   2.6184406269e+01    0.1926835     0.127356  74.68  0.001240283    1.227    0.185
        61  -9.2500    179.6759    215.7006   1.1405142450e+02   2.2219536892e+00    0.1379293    0.1038611   9.11 0.0006906433    1.630    0.387
        62  -9.4711    137.1888    215.6282   1.2281332314e+02   1.0106882125e+01    0.1984422    0.1222577  34.37 0.0009433936    1.713    0.416
        63  -9.8271    201.4706    215.7132   1.0970556180e+02  -1.7621331802e+00    0.1724929    0.1252219 -22.14 0.0009232898    1.525    0.344
        64 -10.3099    208.9650    212.1524   1.0758851611e+02  -2.5079528840e+00    0.2148007    0.1896429 -19.52 0.0004824763    1.145    0.127
        65  -9.8770    170.4760    213.4645   1.1553891294e+02   4.3437869002e+00    0.1386944    0.1262311  39.14 0.0005519044    1.002    0.002
        66  -9.4531    142.8241    213.3854   1.2127839319e+02   9.5194693993e+00    0.1930425    0.1240364  34.37 0.0005751894    1.616    0.381
        67 -11.1922     20.8245    211.7887   1.4569625514e+02   2.8170583035e+01    0.3236796    0.1620994  72.56  0.001013986    1.844    0.458
        68  -9.4546    212.8743    211.8934   1.0678450815e+02  -3.1587882933e+00    0.1672439      0.16097  67.77 0.0004915994    1.310    0.237
        69 -11.9182      4.2591    207.6175   1.4837730141e+02   3.0699055116e+01    0.4314683    0.2537021  79.78  0.002834509    1.337    0.252
        70 -10.3825    184.4537    208.9688   1.1187674542e+02   2.5441760787e+00    0.2612544    0.1832486  25.57 0.0007438416    1.517    0.341
        71  -9.6083    218.4885    206.9780   1.0477999330e+02  -3.3404997698e+00     0.192242    0.1102323 -15.04 0.0008094197    2.550    0.608
        72  -9.7541    223.5656    201.7547   1.0280925346e+02  -3.3731843311e+00    0.1757324    0.1252202 -48.20 0.0006203949    1.638    0.389
        73  -9.9011    193.3086    202.6922   1.0891245794e+02   2.0131888838e+00    0.1340789    0.1119131  80.20 0.0002177969    1.615    0.381
        74  -9.4711    238.5288    201.4515   9.9978875072e+01  -5.9000956827e+00    0.1337128    0.1130394  -0.04 0.0001360849    1.059    0.056
        75  -9.8470    218.2756    201.3589   1.0373834187e+02  -2.3655615811e+00    0.1401007   0.09964363  -2.47 0.0007006593    1.656    0.396
        76 -10.1130    205.9807    201.2521   1.0610674931e+02  -1.0352396028e-01    0.2045075    0.1457813 -15.11 0.0006842873    1.639    0.390
        77  -9.4258     34.5336    200.6194   1.4214089537e+02   2.9052781820e+01    0.1210885   0.09425857  82.64 8.705201e-05    1.028    0.027
        78 -10.0289    227.0198    196.9867   1.0122429680e+02  -3.1911643844e+00    0.2096229    0.1832266   2.12 0.0006242802    1.046    0.044
        79  -9.3974     56.6468    197.7112   1.3735115819e+02   2.6970182569e+01    0.1161434    0.0984045 -39.95 0.0006521157    1.672    0.402
        80  -9.8190    203.4606    195.8959   1.0556218795e+02   1.3198923916e+00    0.3347475    0.1756068  30.77  0.001406833    2.157    0.536
        81 -10.4307    215.3742    194.7320   1.0299433887e+02  -7.0126633883e-01    0.2373713    0.1658312 -26.64 0.0005706793    1.476    0.323
        82 -10.5741    192.5524    194.6191   1.0751043489e+02   3.6431791059e+00    0.2891136    0.1749579  45.26  0.001345812    1.612    0.380
        83 -11.2533    232.4761    191.2536   9.9067529449e+01  -3.1984840858e+00    0.3143585    0.2002187  26.68  0.001578667    1.678    0.404
        84  -9.6464    246.3302    190.3192   9.6380364195e+01  -5.4337353987e+00    0.1382104      0.09474   0.64 0.0007047943    1.689    0.408
        85  -9.4355    205.5126    190.0784   1.0399749262e+02   1.9834797899e+00    0.2054051    0.1371863 -39.02 0.0005295773    1.514    0.340
        86  -9.6066    250.4596    190.0079   9.5594306702e+01  -6.0721515817e+00    0.1987126     0.117472 -35.41 0.0004686185    1.567    0.362
        87 -10.3177    167.8535    184.1105   1.1063837774e+02   1.0614598270e+01     0.455559    0.2443323  64.32  0.001565859    3.226    0.690
        88  -9.3877     61.6335    184.8273   1.3471733295e+02   2.9231314874e+01    0.1941264    0.1102761 -79.21 0.0009484446    1.725    0.420
        89 -11.7766     16.1755    182.9595   1.4418173629e+02   3.4881973958e+01    0.3965546    0.2036627 -89.49   0.00169643    1.737    0.424
        90  -9.3358      8.6493    184.2965   1.4580542240e+02   3.5282800779e+01    0.1227528   0.06794581  70.63 0.0007034166    1.684    0.406
        91  -9.8946    236.4779    182.4945   9.6556552669e+01  -2.4329642239e+00    0.1366638    0.1227648 -10.51 0.0006760451    1.010    0.010
        92 -11.5273    248.3078    182.6812   9.4491190274e+01  -4.5291352623e+00    0.5132762    0.2471019  23.48  0.001926663    3.470    0.712
        93 -10.3299      2.1444    180.1390   1.4675124993e+02   3.6756310130e+01    0.1910671    0.1369103  72.47 0.0005283037    1.236    0.191
        94 -11.3169    244.5079    178.0631   9.4210241101e+01  -3.1067326215e+00    0.3357982    0.1743483 -22.82   0.00138728    2.370    0.578
        95  -9.5452     36.1062    178.5010   1.3954825112e+02   3.3836274015e+01    0.1583534    0.1182242  46.66 0.0005128052    1.455    0.313
        96 -10.4751    200.2668    176.6061   1.0228033934e+02   5.5389851872e+00    0.2514059    0.1765329 -18.83 0.0008226609    1.722    0.419
        97 -11.4090    224.3720    178.3373   9.7933007572e+01   5.1289332524e-01    0.3041839    0.2717438  21.10  0.000546242    1.106    0.096
        98  -9.3826     70.2094    177.6045   1.3180058808e+02   2.9717515526e+01    0.1585478    0.1323495  30.68 0.0004287064    1.485    0.327
        99  -9.5716     59.6293    171.8095   1.3342340862e+02   3.2536805395e+01    0.1957246    0.1122652 -77.78 0.0009455339    1.701    0.412
       100  -9.6112     74.5048    171.4847   1.2989101201e+02   3.0536417607e+01    0.1390753    0.1214372 -85.31 5.189762e-05    1.013    0.012
       101 -10.9154     12.7011    170.1030   1.4370225074e+02   3.8077734380e+01    0.3246568    0.1178587 -87.37  0.001273455    3.373    0.704
       102  -9.6553    210.0038    166.3043   9.8134934922e+01   5.5476198193e+00      0.20437    0.1872594  24.97 0.0004697868    1.097    0.089
       103 -10.5803     51.5240    164.5135   1.3430362564e+02   3.5294111613e+01    0.3417995    0.1783025 -40.80  0.001482093    2.784    0.641
       104 -10.4091     41.4734    165.5202   1.3679023491e+02   3.6244068208e+01    0.1314849    0.1052559 -87.37 0.0008090677    1.058    0.055
       105  -9.8594      4.5257    168.0112   1.4523399321e+02   3.9238195060e+01    0.1902034   0.08935893 -75.31  0.001043788    1.626    0.385
       106  -8.9397    229.4789    164.5425   9.4058235116e+01   2.0198080683e+00    0.1422322    0.1301328 -15.19  0.000126034    1.023    0.022
       107 -10.7737     36.5285    160.7252   1.3732642956e+02   3.7912099645e+01    0.5474991    0.1287899 -61.59  0.002023551    3.133    0.681
       108 -10.3804    246.5032    162.4792   9.0601920043e+01  -8.0584747926e-01    0.2035303    0.1206797 -45.98  0.000842765    1.692    0.409
       109 -11.0269    247.9209    158.6998   8.9557098736e+01  -4.0989204422e-01    0.3557409     0.235876 -47.56  0.001812472    1.538    0.350
       110  -9.4380    200.0919    162.7773   9.9341547071e+01   8.2730443603e+00    0.1918459    0.1223011  47.39 0.0004924496    1.607    0.378
       111  -9.5727     48.3974    158.7998   1.3424511483e+02   3.7024710860e+01    0.1900594    0.1030753 -58.50 0.0008721747    1.621    0.383
       112 -10.2472    238.8134    158.1130   9.0998724229e+01   1.3895254780e+00     0.202818    0.1599226  -9.70  0.001080552    1.375    0.273
       113  -9.1859      8.2942    158.3236   1.4349529042e+02   4.1108854342e+01    0.1169949   0.07339472 -53.86  0.000632746    1.618    0.382
       114 -11.1172     22.6707    155.4263   1.3990920119e+02   4.0528748978e+01    0.4048944    0.2959211 -66.40  0.002594698    1.175    0.149
       115  -9.5481    216.9769    155.0000   9.4301510598e+01   6.2820348410e+00     0.241304    0.0841175  47.15 0.0008109358    3.002    0.667
       116  -9.9782    197.1812    153.6057   9.7887539292e+01   1.0719217747e+01    0.2186327    0.1412663  35.76 0.0009519728    1.693    0.409
       117  -9.3157    151.6652    153.3286   1.0781087850e+02   2.0640421536e+01    0.1626335    0.1230995  87.01 0.0006091878    1.724    0.420
       118  -9.4221     31.0571    153.0233   1.3762823406e+02   4.0281130471e+01    0.1489637    0.1209012 -78.47 0.0003513366    1.013    0.013
       119 -10.3353     10.8880    152.9326   1.4234641101e+02   4.2122481774e+01      0.38176    0.1430084  44.11  0.001855287    2.876    0.652
       120 -10.3655    178.2071    151.4588   1.0139545729e+02   1.5285992777e+01    0.3343334    0.2739678  79.16  0.001605923    1.466    0.318
       121  -9.3737     46.1544    151.1489   1.3368139580e+02   3.9101768748e+01    0.1785679    0.1359025  77.77 0.0004301039    1.332    0.249
       122  -9.2084    235.6782    154.6805   9.0805042260e+01   2.6064191686e+00    0.1449066    0.1079616  -0.38 0.0007044213    1.670    0.401
       123  -9.1070     93.3054    147.6948   1.2105632763e+02   3.3274365705e+01    0.1488673    0.1099664  81.33 0.0007013929    1.602    0.376
       124 -10.3698    206.8882    145.9921   9.4211101228e+01   1.0149370284e+01    0.2513044    0.2207433  44.24 0.0006569729    1.181    0.153
       125 -11.3702      8.8894    145.5037   1.4198827452e+02   4.3971272251e+01    0.3887746     0.164307  47.26  0.001964651    2.685    0.628
       126  -9.6756     49.4684    141.9689   1.3140999345e+02   4.0899068798e+01    0.2014269    0.1125871 -62.46 0.0003732536    1.510    0.338
       127  -9.5299     38.3800    142.2608   1.3430909823e+02   4.2060473503e+01    0.1251638   0.09026436 -37.05 0.0006977565    1.673    0.402
       128 -11.4728      2.7603    137.7540   1.4257143339e+02   4.6172198109e+01    0.3921914    0.1659841 -70.23  0.000974795    1.758    0.431
       129 -11.9966      9.0832    136.7845   1.4091854498e+02   4.5940969936e+01    0.3233159    0.1843849 -56.08 0.0002419188    1.508    0.337
       130 -10.7058    236.4919    138.8496   8.7166886282e+01   5.3250749076e+00    0.2466361    0.2343446  66.02 0.0004770691    1.175    0.149
       131 -10.4962     57.8436    138.7692   1.2866934462e+02   4.0641871927e+01    0.2562909    0.1927174 -89.84 0.0004548442    1.403    0.287
       132 -10.5838      5.9969    133.7652   1.4131355674e+02   4.6848513669e+01    0.2649021    0.1464997 -60.39  0.001229359    1.431    0.301
       133 -10.8145     40.6866    135.7427   1.3269551113e+02   4.3353939281e+01    0.2591114    0.2123751  49.64  0.001297619    1.382    0.276
       134 -10.4677     21.6205    135.7887   1.3764883245e+02   4.5169216029e+01    0.2481373     0.177586  89.62  0.001294323    1.345    0.257
       135  -9.9535    137.8888    135.3747   1.0697740932e+02   2.7637067877e+01    0.2287825    0.1474025  33.33 0.0009474216    1.798    0.444
       136  -9.7719     80.0005    133.2797   1.2165528683e+02   3.8859120379e+01    0.1676049     0.128767  38.92 0.0004952857    1.427    0.299
       137 -11.8708     37.3216    130.9952   1.3281871599e+02   4.4818677770e+01     0.333539    0.2799514 -16.20  0.001045365    1.528    0.345
       138 -10.8036     34.9418    128.2276   1.3300567363e+02   4.5703064044e+01    0.1969027    0.1837011  62.71 0.0004291893    1.238    0.192
       139 -10.0922    249.5077    129.9518   8.3060965377e+01   4.3428558234e+00    0.2054319    0.1958111  65.85  0.001245625    1.186    0.157
       140 -10.0191     74.0291    129.3828   1.2248315892e+02   4.0677539346e+01    0.2467245    0.1779027 -48.67  0.000799645    1.300    0.230
       141  -9.4906    243.0326    128.4580   8.3759856925e+01   5.8923089628e+00    0.1908701    0.1423241  52.58 0.0004604073    1.494    0.331
       142  -9.6095     59.7089    127.3362   1.2603815057e+02   4.3120379287e+01    0.1374579    0.1004827  84.80 0.0001728135    1.639    0.390
       143 -10.1856      1.5953    126.4628   1.4152413772e+02   4.8787843346e+01    0.2330506     0.118604 -74.94 0.0007798969    1.564    0.360
       144 -10.1648    219.8651    124.5624   8.6794317467e+01   1.1481971702e+01    0.2686576    0.2037507 -24.07 0.0008188433    1.453    0.312
       145 -10.8656     42.1494    124.8096   1.3044508621e+02   4.5765043879e+01    0.2268478      0.19778 -65.64  0.000780457    1.044    0.042
       146 -11.4555     10.7164    122.8575   1.3868347694e+02   4.8984331797e+01    0.3413245     0.245155 -50.95   0.00214026    1.298    0.229
       147 -11.6341     17.2515    116.9841   1.3604341782e+02   4.9831694620e+01    0.4137385    0.2186522 -48.77  0.002277959    1.674    0.403
       148 -10.8866     10.6057    102.6123   1.3560880716e+02   5.3513135747e+01     0.309372    0.1951534  61.83  0.001785131    2.173    0.540
       149 -10.5722     19.7960    112.9828   1.3468468373e+02   5.0539354116e+01    0.2523541    0.1405261 -63.46 0.0007720783    1.409    0.290
       150 -12.5415     16.7695    108.3658   1.3477963152e+02   5.1806278285e+01    0.4115801     0.320127   8.27            0    1.654    0.395
       151  -9.3183     20.5317    121.4867   1.3584329440e+02   4.8549591514e+01    0.1257431   0.09804147 -62.52 -5.599124e-05    1.047    0.045
       152  -9.6768    221.6220    120.1759   8.5454234405e+01   1.1924677088e+01    0.2135657    0.1356216 -29.66 0.0007870876    1.698    0.411
       153 -10.0580    179.2468    116.3680   9.2684618660e+01   2.2394343362e+01     0.233433     0.193943  36.81   0.00103573    1.303    0.233
       154  -9.6399     86.4495    116.5090   1.1613020300e+02   4.1776995926e+01    0.1451303    0.1332251 -57.24 0.0008083106    1.025    0.024
       155 -11.7431     35.9571    111.0138   1.2966052505e+02   4.9574150925e+01    0.5488272     0.245406 -57.69  0.001622454    1.779    0.438
       156  -9.6270    117.6774    118.6812   1.0805290615e+02   3.5605221158e+01    0.1551105    0.1222984  -9.07 0.0003913318    1.670    0.401
       157  -9.3178    167.2524    109.0259   9.3381980112e+01   2.6719423502e+01    0.2056517    0.1337349 -41.25 0.0005838661    1.526    0.345
       158 -10.0929    242.1809    108.3908   7.9380089502e+01   9.6489659886e+00    0.1905803    0.1358909  73.17 0.0006744287    1.678    0.404
       159  -9.5126    133.3716    107.7810   1.0111015129e+02   3.4723838602e+01    0.2237405    0.1436877 -34.49 0.0008463293    1.679    0.404
       160 -10.8630     62.1276    107.2421   1.2106586959e+02   4.7463983405e+01    0.2317938    0.2010158 -43.64  0.000273851    1.061    0.058
       161 -11.9766     23.2429    106.2435   1.3251534680e+02   5.1778840456e+01    0.4426351    0.2846999  70.59  0.002403769    2.194    0.544
       162 -10.9906      3.6598    100.8290   1.3735466073e+02   5.4336826849e+01    0.2709178    0.2269038 -84.30   0.00119282    1.249    0.199
       163 -10.3206      6.4056    106.2170   1.3741187972e+02   5.2990767192e+01    0.2450849     0.126596 -52.19 0.0007828295    1.539    0.350
       164 -10.8053      3.0591    105.1385   1.3820140410e+02   5.3431330216e+01    0.2312351    0.1640326 -72.57  0.001032532    1.178    0.151
       165  -9.8918    223.3396    103.9789   8.1332130479e+01   1.4539795415e+01    0.2124378    0.1742037 -46.28 0.0005086516    1.131    0.116
       166  -9.6322     92.7837    102.6703   1.1082670443e+02   4.3825664062e+01    0.3763875    0.2355331 -82.35  0.001350115    3.418    0.707
       167 -11.2149     70.1932    102.5263   1.1750431896e+02   4.7421235859e+01    0.3377722    0.2575195  11.92 0.0002831547    1.589    0.371
       168 -10.5168    247.9968    102.4735   7.7193376568e+01   9.4682723210e+00    0.1995152    0.1390991  59.86 0.0006295298    1.591    0.371
       169 -10.6155     35.8118    101.3149   1.2776390311e+02   5.1769150618e+01    0.2438754     0.191884  26.66  0.001228707    1.517    0.341
       170  -9.9233    120.1971    101.2234   1.0276307493e+02   3.8915018762e+01    0.2504013    0.1664164  -1.08 0.0009388315    2.714    0.632
       171 -10.1259     27.8316    100.9187   1.3012728948e+02   5.2581064337e+01    0.1801751    0.1346434 -46.16 0.0002494598    1.167    0.143
       172 -11.0520     20.6195     97.7693   1.3172279118e+02   5.3860360682e+01    0.3359245    0.1841597 -72.90  0.001186699    1.858    0.462
       173 -10.9965     20.6747     94.6788   1.3110290261e+02   5.4529758154e+01    0.4912802   0.04993745 -56.55  0.001589151    4.236    0.764
       174 -10.8473     63.6118     98.4681   1.1851033730e+02   4.9223997267e+01    0.4627357    0.2208368  26.34  0.001981783    2.625    0.619
       175 -10.2598     50.5151     99.2017   1.2274995692e+02   5.0689066442e+01    0.1885318    0.1829941  -4.01 0.0003657019    1.170    0.145
       176 -10.3415     38.7898     96.0403   1.2570057098e+02   5.2641904115e+01    0.1657218    0.1349406  61.75 0.0004196289    1.574    0.364
       177 -10.4875      4.3116     86.3476   1.3465896087e+02   5.7401488247e+01    0.2828174    0.1300779 -43.03  0.001560922    1.857    0.461
       178 -11.5485     10.8085     91.5633   1.3358529555e+02   5.5898466804e+01     0.564243    0.2316289 -39.69  0.002585263    2.388    0.581
       179  -9.4947      7.2419     88.6389   1.3415809447e+02   5.6745248755e+01     0.140474    0.1176084  23.23  0.001013428    1.520    0.342
       180 -10.3072      1.5883     94.0185   1.3685618706e+02   5.5924781383e+01    0.2866822   0.07272455 -56.91  0.001281128    2.453    0.592
       181  -9.5072    227.4336     93.4983   7.8197053865e+01   1.5489822292e+01    0.1461136    0.1309588 -59.47 9.812212e-05    1.015    0.014
       182  -9.4679    109.3142     93.6745   1.0362564576e+02   4.2685682315e+01    0.1481852    0.1191361 -85.30 0.0001823255    1.666    0.400
       183  -9.2343    171.0135     91.4847   8.7883973907e+01   2.9266875733e+01    0.2203108    0.1276197  32.30 0.0008093733    2.455    0.593
       184 -10.6783     96.5580     90.2883   1.0631179179e+02   4.5789419555e+01    0.3741144    0.2283333   0.70  0.001329962    3.441    0.709
       185  -9.7007     37.7703     90.7262   1.2481777934e+02   5.3895316651e+01    0.2076291    0.1213887 -42.82 0.0007941907    1.487    0.328
       186 -10.0628     26.4888     90.9009   1.2848468272e+02   5.4881327481e+01    0.2336412    0.1530454 -12.52  0.001339633    1.923    0.480
       187  -9.8006     73.0069     88.7006   1.1301835680e+02   4.9997676179e+01    0.1781618    0.1672435  -5.60 0.0002640011    1.098    0.089
       188  -9.2135    103.5419     88.5284   1.0377934685e+02   4.4852415547e+01    0.1447412    0.1380566 -27.21 0.0002307442    1.018    0.018
       189 -11.0991     48.0220     85.7860   1.2027391133e+02   5.3866357727e+01     0.586575     0.361005 -80.85  0.002457976    3.037    0.671
       190  -9.9397     45.4282     87.4530   1.2154420101e+02   5.3801913975e+01    0.2114843    0.1666569 -41.48 4.234491e-05    1.079    0.074
       191 -12.2564     19.7105     81.1495   1.2856797429e+02   5.7480376960e+01    0.7118121    0.4649288   8.42  0.002824705    1.877    0.467
       192  -9.9450     75.3733     80.0368   1.0980183509e+02   5.1409615006e+01    0.2675436    0.1529056 -37.22  0.001267279    1.668    0.400
       193 -10.2819     71.7185     82.9969   1.1182369053e+02   5.1364135661e+01    0.2736128    0.1363745 -51.22 0.0006129015    1.944    0.486
       194 -11.9075     71.9820     78.6588   1.1048020188e+02   5.2195951677e+01    0.5532849    0.3205532 -19.37  0.001820862    2.494    0.599
       195  -8.8734    196.6909     82.7134   8.0611801549e+01   2.4613710505e+01    0.1446975    0.1187606  22.37 0.0003097201    1.573    0.364
       196 -11.2011     85.2487     80.7838   1.0693333569e+02   4.9676354618e+01    0.2928093    0.2183876 -32.92 0.0008771868    1.276    0.216
       197 -10.7957    117.9347     83.4882   9.8283695609e+01   4.2973335455e+01    0.2884496    0.2439569  16.30 0.0006249082    1.288    0.224
       198 -10.7836      2.4280     71.8173   1.3239858245e+02   6.0498392105e+01    0.4853848    0.2279792  22.42  0.002806713    2.600    0.615
       199 -11.6961      3.3159     78.1514   1.3340257900e+02   5.9162304225e+01    0.3331712    0.2606363  79.42  0.001302904    1.695    0.410
       200 -12.1855      7.3662     76.8925   1.3178921787e+02   5.9188177301e+01     0.447987    0.2189381 -51.55  0.001045667    1.498    0.333
       201 -11.2348    150.8506     78.2879   8.8574188846e+01   3.6545871803e+01    0.3179306    0.2730177 -64.92 0.0007001473    1.265    0.210
       202  -9.1732    136.7055     77.7096   9.1729002736e+01   3.9945848437e+01    0.1483278    0.1168461  13.31 0.0002297579    1.552    0.356
       203  -8.9928     64.2560     68.2922   1.0988388344e+02   5.5312220027e+01    0.1293804   0.09086815 -18.62 0.0006880494    1.490    0.329
       204 -11.9413     61.4513     73.5694   1.1242777557e+02   5.4688082962e+01     0.582065    0.4296927  -8.61  0.001817115    1.493    0.330
       205 -10.4846     54.4593     72.2114   1.1438738233e+02   5.5857938229e+01    0.2289613    0.1603115 -64.29 0.0004550909    1.825    0.452
       206  -9.9035    121.6093     76.2375   9.5116820829e+01   4.3556627390e+01    0.2043901    0.1387291 -28.06 0.0009423679    1.587    0.370
       207  -9.7245    107.9943     76.2198   9.8823866848e+01   4.6375866775e+01    0.1876445    0.1167595  44.15 0.0003283025    1.628    0.386
       208 -12.1492     48.6447     71.4085   1.1614887114e+02   5.6713588695e+01    0.6806049    0.3195246 -39.20  0.002629887    1.919    0.479
       209 -11.3859     36.4246     68.3071   1.1954688845e+02   5.8630635955e+01    0.3758968    0.2317433 -31.51  0.002152581    1.498    0.333
       210 -10.6358    102.8274     72.9246   9.9272612948e+01   4.7996823048e+01    0.2257772    0.1864344   4.37 0.0008039931    1.303    0.232
       211 -11.1306     27.1740     69.9495   1.2327732239e+02   5.9160052409e+01     0.470225    0.1836825 -61.40  0.002015257    2.870    0.652
       212 -10.3593     16.9647     72.6206   1.2753855520e+02   5.9427301036e+01    0.2123144    0.1470141 -61.56 0.0007624219    1.348    0.258
       213 -10.2894    175.1021     71.6166   8.1624453453e+01   3.1813791286e+01    0.2697087    0.2153958 -31.77 0.0005665668    1.338    0.253
       214 -10.0343    152.2156     72.3984   8.6557555050e+01   3.7254045435e+01    0.2136752    0.1423363  65.32 0.0009497383    1.640    0.390
       215 -10.0830     93.3134     77.5586   1.0350726251e+02   4.8903960985e+01    0.3252227    0.2006981 -11.15  0.001324426    2.586    0.613
       216 -11.1955     77.8098     71.8642   1.0655194100e+02   5.2612260902e+01    0.3908803     0.223545  46.96  0.001268989    2.071    0.517
       217 -11.1594     94.9943     67.5827   9.9875640752e+01   5.0439821599e+01    0.5197341    0.3008848 -38.69  0.002456312    1.678    0.404
       218 -10.7910     68.7618     67.7842   1.0822106140e+02   5.4760173961e+01    0.4043745    0.1623394 -41.42 0.0009629837    2.280    0.561
       219 -10.9233     31.2414     66.2757   1.2083196383e+02   5.9518969021e+01    0.2723238    0.1767219 -47.06 0.0008693379    1.271    0.213
       220 -11.0725     21.1722     66.1308   1.2442422956e+02   6.0400681778e+01    0.2523237    0.1929978  17.15  0.001213153    1.522    0.343
       221 -10.6202    156.5488     65.9197   8.3735239260e+01   3.7296683063e+01    0.2809615    0.1933248 -49.21  0.001320728    1.548    0.354
       222  -9.5187    146.8240     65.8700   8.5826943438e+01   3.9636070305e+01    0.1961702    0.1699071 -71.51 0.0002953695    1.296    0.228
       223 -10.0623    119.4610     65.5167   9.2350623163e+01   4.5900966728e+01     0.268751    0.2012687  25.72 0.0006264973    1.454    0.312
       224 -10.4363    121.8662     61.8741   9.0570595558e+01   4.5985105455e+01    0.2732132    0.2024025  -9.48  0.001177651    1.602    0.376
       225 -10.2746    130.0000     64.9802   8.9502780086e+01   4.3674618923e+01    0.2414324   0.08275729 -36.33 0.0008095378    2.992    0.666
       226 -11.3566     83.8824     62.4579   1.0161065226e+02   5.3314267132e+01    0.3959206    0.3586644 -80.66    0.0015821    1.509    0.337
       227 -11.0606     76.7270     65.0744   1.0474661015e+02   5.4033953554e+01    0.2831951       0.1939  54.32  0.001444592    1.975    0.494
       228 -11.0730     40.3789     72.5076   1.1932618153e+02   5.7404981892e+01    0.3016831    0.2220019 -52.73 0.0007806507    1.279    0.218
       229 -10.8089    173.8059     63.0862   7.9511812036e+01   3.3525679661e+01    0.3820819    0.2570277 -57.17  0.001775522    1.651    0.394
       230 -10.1762    106.1918     63.7448   9.5387968581e+01   4.8951652090e+01    0.3221046   0.09673473 -43.79  0.001032227    3.616    0.723
       231 -12.0284      4.2713     65.0503   1.3025119373e+02   6.1741220037e+01    0.4381995    0.3082661  80.00   0.00138452    2.319    0.569
       232 -10.7810     51.8046     62.5407   1.1237412397e+02   5.8019322135e+01    0.2577616    0.1645653 -25.44   0.00096795    1.541    0.351
       233 -11.0798     10.8471     62.5341   1.2725818382e+02   6.1834409183e+01    0.2266616    0.1805295 -47.17 0.0004806242    1.098    0.089
       234  -9.3221    192.4744     62.0261   7.5957707933e+01   2.9082973048e+01    0.2032743    0.1431233 -35.34 0.0003583112    1.486    0.327
       235  -9.9379     93.0352     61.3757   9.8439342988e+01   5.1877535521e+01    0.2126612    0.1705911 -29.85 0.0005431364    1.202    0.168
       236 -11.3958     56.9467     61.6007   1.1027416826e+02   5.7537338466e+01    0.3686977    0.2163172 -18.37  0.001330634    2.089    0.521
       237 -10.3008     46.0930     46.9876   1.0931057970e+02   6.1432301402e+01    0.2042969    0.1475625 -30.66 0.0003251382    1.179    0.152
       238 -11.6838     38.0057     51.9732   1.1402081862e+02   6.1495082039e+01    0.7101612    0.3880155 -33.48  0.003951022    1.601    0.375
       239 -10.6316     44.7704     51.9730   1.1149804770e+02   6.0745148766e+01    0.2269256    0.1799817 -21.97 0.0003551926    1.044    0.042
       240 -11.0574     27.2954     61.3384   1.2087975084e+02   6.0817349352e+01    0.3326963    0.1876232  14.86  0.001896725    2.071    0.517
       241 -11.7214     33.5840     59.9036   1.1814294316e+02   6.0508520798e+01    0.2661184    0.1960684 -15.14 0.0003234742    1.312    0.238
       242  -9.5494    183.8114     61.2143   7.7203640085e+01   3.1346864827e+01    0.1931499    0.1692715  35.14 0.0004550788    1.302    0.232
       243  -9.2443    160.3346     61.3082   8.1617476609e+01   3.7115636572e+01    0.1513745    0.1119971  26.48 0.0007041942    1.673    0.402
       244 -10.1971     86.0304     58.2426   9.9535777150e+01   5.3660874255e+01    0.2689892    0.1907924 -34.34 0.0004279796    1.357    0.263
       245 -11.2422     64.9183     59.8122   1.0694683370e+02   5.6761175490e+01    0.5394453    0.2096222  41.45  0.002266497    2.890    0.654
       246 -10.6807     70.2017     58.6749   1.0478807013e+02   5.6178141238e+01    0.3791402    0.2046245 -42.21  0.001200289    1.764    0.433
       247 -10.2786    115.8083     59.1593   9.1275685827e+01   4.7725522389e+01    0.3010791     0.183775 -46.44  0.001392636    1.833    0.455
       248  -9.5129    112.2044     57.6320   9.1738688629e+01   4.8726704609e+01    0.2828594    0.1642557  41.46 0.0006877145    1.680    0.405
       249 -10.2955    136.9313     57.8485   8.5631940572e+01   4.3236147548e+01    0.2147826    0.1829263  27.34   0.00034002    1.218    0.179
       250 -11.0121    123.1521     56.5927   8.8554462299e+01   4.6543935719e+01    0.2965043     0.241514 -78.61 0.0009960555    1.638    0.390
       251 -11.1225     99.4312     56.0480   9.4775777610e+01   5.1547488588e+01    0.4430555    0.2201343  41.57  0.001966888    1.976    0.494
       252  -9.4880     80.9673     57.0258   1.0071857705e+02   5.4733151099e+01     0.159057    0.1383388 -15.85 0.0003960438    1.049    0.046
       253 -10.4386     43.9527     57.0894   1.1346673182e+02   5.9937096426e+01    0.1881938    0.1531184 -23.13  0.000342065    1.025    0.024
       254 -12.0954    128.0867     51.5761   8.5733179525e+01   4.6203739541e+01    0.5029259    0.3416974 -18.66 0.0005199499    1.695    0.410
       255 -10.7392     12.8774     50.4625   1.2322938709e+02   6.3961836681e+01    0.4440801    0.1577221 -53.58  0.002004741    2.303    0.566
       256 -12.1267      8.8830     45.3198   1.2330405683e+02   6.5153054886e+01    0.6001195    0.3244095 -12.20  0.003576512    2.071    0.517
       257 -10.6838      7.0217     40.9054   1.2272641321e+02   6.6046102806e+01    0.1775209    0.1193486 -40.55 0.0005490344    1.130    0.115
       258 -10.5667     87.1791     52.6230   9.7265608476e+01   5.4371423792e+01    0.2374289    0.1611781  51.14  0.001009254    1.706    0.414
       259  -9.6209    157.7085     52.0533   7.9444436656e+01   3.9157767169e+01    0.1901776    0.1882139  27.44 0.0004036639    1.077    0.072
       260 -10.9532     72.9684     51.3078   1.0135203257e+02   5.6978506356e+01    0.3330577    0.2187113  31.12  0.001832498    1.525    0.344
       261  -9.4210     50.0643     51.9905   1.0956317714e+02   6.0106722074e+01    0.1711067    0.1229622 -15.56 0.0003065692    1.311    0.237
       262 -10.7505     51.3309     48.3879   1.0786704685e+02   6.0552869795e+01     0.208528    0.1884323 -69.20 0.0007330034    1.663    0.399
       263 -10.5019    114.7056     49.3586   8.8341679310e+01   4.9461392484e+01    0.3473287    0.1978685 -25.18  0.001594244    1.941    0.485
       264 -11.1805      4.8435     52.9814   1.2704604985e+02   6.4012780690e+01    0.4074036     0.170735 -30.88  0.002145043    2.339    0.573
       265 -10.8351    100.8352     48.1015   9.1670280530e+01   5.2492831737e+01    0.2409983    0.1883883 -41.46  0.001198555    1.410    0.291
       266  -9.4060    104.3328     46.2994   9.0075695831e+01   5.2056428212e+01    0.2082897    0.1038756  30.06 0.0004122552    2.549    0.608
       267 -10.3223     98.5933     44.5252   9.1064224111e+01   5.3451206135e+01    0.3381957    0.2228451   6.33  0.001303256    1.915    0.478
       268 -10.9601     95.4942     40.1742   9.0412482358e+01   5.4659721402e+01    0.3118416    0.3069898 -55.12  0.001482306    1.274    0.215
       269 -11.0434    142.7162     46.2472   8.0756077796e+01   4.3582873640e+01    0.2772528    0.2597211  69.06 0.0006067334    1.075    0.070
       270  -9.1109     62.6733     47.6300   1.0355543952e+02   5.9131352131e+01    0.1368607   0.08759579  -6.95 0.0007032959    1.815    0.449
       271  -9.8497     69.1713     45.8841   1.0070292946e+02   5.8430087293e+01    0.1780294    0.1702532 -10.48  0.000774071    1.263    0.208
       272  -9.7343     22.9357     46.3358   1.1801066997e+02   6.3916851577e+01    0.1540269    0.1185568 -21.61  0.000457519    1.088    0.081
       273 -10.6445     23.8326     41.7936   1.1616131909e+02   6.4614432325e+01    0.2188426    0.1688583 -31.61 0.0009282848    1.086    0.079
       274  -9.2825    233.4193     45.4305   6.6278830953e+01   2.1780512396e+01    0.1327991     0.114426 -74.60 0.0001573327    1.025    0.024
       275 -10.2613    151.7775     45.2095   7.8585357236e+01   4.1561605042e+01    0.2451194    0.1464038 -71.73 0.0008994828    2.811    0.644
       276 -10.3455    122.4610     44.4723   8.4778004343e+01   4.8470533276e+01    0.3020644    0.2519972   1.28 0.0008360672    1.281    0.219
       277  -9.7623     85.8659     45.1293   9.5042468621e+01   5.5750108777e+01    0.1799135    0.1389413  12.76 0.0003428761    1.271    0.213
       278 -10.2205     52.1987     42.9935   1.0563662670e+02   6.1310494999e+01    0.2653593    0.1200303 -25.66  0.001169074    2.625    0.619
       279 -10.9880    163.0231     42.4804   7.5660772457e+01   3.9195521790e+01    0.2371604    0.2084371 -33.90 0.0006268679    1.234    0.190
       280 -10.1709     63.9613     41.5068   1.0089562804e+02   5.9889177755e+01    0.2485726    0.1528222 -37.70  0.001382481    1.592    0.372
       281 -10.1418     56.6023     41.9962   1.0367527311e+02   6.0872885428e+01    0.2310993    0.1442479 -46.42  0.001276411    1.844    0.458
       282 -10.4018    226.3996     40.3057   6.5929611793e+01   2.4105986182e+01    0.2451034    0.1926454 -75.27 0.0004054421    1.136    0.120
       283 -10.2662     44.2533     39.7305   1.0741710865e+02   6.2819724347e+01    0.2932925    0.1415701 -46.23  0.001492142    2.189    0.543
       284  -9.4605    235.5594     40.5505   6.4958636122e+01   2.1974926879e+01    0.1317125    0.1124833 -75.52 0.0002375709    1.029    0.028
       285  -9.6955    159.3820     39.2138   7.5372022881e+01   4.0514419752e+01    0.1846522    0.1269559 -44.10 0.0002707837    1.556    0.357
       286 -10.0921    135.6824     38.4612   7.9816680738e+01   4.6266644619e+01     0.241374    0.1283006 -29.23  0.001091306    2.040    0.510
       287 -10.4049     88.3580     38.6039   9.1936781354e+01   5.6220747833e+01    0.2948002    0.2082802  72.82  0.001451942    2.497    0.599
       288 -11.4322     70.2725     36.4584   9.6865864272e+01   5.9640295100e+01    0.4347134    0.2466258  -9.48  0.001449179    2.280    0.561
       289 -11.7787     82.0334     36.4186   9.3062080323e+01   5.7659502888e+01    0.3771469    0.2915337  12.60   0.00182767    1.216    0.178
       290 -10.1048     19.7939     37.7443   1.1642917814e+02   6.5634647115e+01    0.1915006      0.12972  -9.59 0.0006952216    1.382    0.277
       291 -11.4337     24.4251     35.4406   1.1371643224e+02   6.5600098221e+01    0.2556987     0.234966  -3.30 0.0009700138    1.369    0.270
       292 -11.0999      2.1557     32.1063   1.2198683594e+02   6.7835603635e+01    0.2546036    0.2215964  44.33  0.002000245    1.844    0.458
       293  -9.8661    102.2104     36.8824   8.7371537805e+01   5.3771197719e+01    0.2242877    0.1695866  52.98  0.001084302    1.369    0.270
       294  -9.5340    142.3348     36.2031   7.7724935257e+01   4.4993156404e+01    0.1838523    0.1218093 -41.09 0.0004196139    1.647    0.393
       295 -10.0986     56.5381     35.9666   1.0145271339e+02   6.1781118679e+01     0.179936    0.1069625 -32.48 0.0007085557    1.548    0.354
       296 -10.7871    128.3731     34.6564   8.0184696345e+01   4.8420876603e+01    0.2559741    0.2046942  30.97  0.000201526    1.239    0.193
       297 -10.3348    111.0705     35.0592   8.4416399128e+01   5.2171236898e+01    0.1936785      0.17969  27.13 0.0004022604    1.053    0.051
       298 -10.4521    106.3486     34.2224   8.5335100380e+01   5.3263547052e+01    0.2477416    0.2159249  70.92  0.001138405    1.394    0.282
       299 -10.2446     77.0732     33.5288   9.3541019077e+01   5.8908238240e+01       0.1865    0.1136777  38.68 0.0005592677    1.554    0.357
       300  -9.8780     13.9923     33.4958   1.1738573328e+02   6.6794294153e+01    0.1279772   0.08955186  45.28 0.0004704889    2.427    0.588
       301 -10.4953      4.8875     18.8089   1.1603053773e+02   6.9736122108e+01    0.2606253    0.1007581 -39.75  0.001496633    1.950    0.487
       302 -10.5467      9.4821     33.0284   1.1914436300e+02   6.7203693299e+01    0.1659578    0.1425476  -0.00 0.0007567614    1.331    0.249
       303 -10.2892    137.0146    247.6761   1.2742548077e+02   4.1833458028e+00    0.1842879    0.1418591  47.68 0.0004383027    1.089    0.082
       304  -9.9276      8.1866     21.2003   1.1544478678e+02   6.9142003185e+01    0.1655898    0.1245178 -24.74  0.000476108    1.093    0.085
       305 -10.5885      1.7604     37.7662   1.2394762625e+02   6.6907626347e+01    0.2364117    0.1089878 -29.81 0.0005063618    1.904    0.475
       306  -9.3031    162.5071     30.5384   7.2319363493e+01   4.0827099585e+01    0.1377803    0.1227414  62.15 7.045931e-07    1.037    0.036
       307 -10.3567     50.2288     28.2215   1.0076450875e+02   6.3735627789e+01    0.3633251    0.1280153 -26.27  0.001409209    3.691    0.729
       308 -10.5115    124.8351     27.9617   7.8762774829e+01   5.0008393700e+01    0.2087926    0.1681675  46.54 0.0002435187    1.106    0.096
       309  -9.9957     32.8741     34.0548   1.0977365661e+02   6.4982204707e+01    0.2913243     0.150527  27.79  0.001678159    2.028    0.507
       310 -10.5876     15.7745     26.9362   1.1425640082e+02   6.7681105555e+01     0.445924    0.1565767 -26.46  0.001809489    3.989    0.749
       311 -10.5433    131.1118     26.8707   7.7064483912e+01   4.8706645769e+01    0.2507041    0.1920164 -79.14 0.0005246917    1.709    0.415
       312 -10.6468     89.3718     26.4935   8.7164632085e+01   5.7559872185e+01    0.2868327    0.2032881  38.16  0.001690813    1.266    0.210
       313 -11.0664     70.6533     25.9470   9.2693977923e+01   6.0952387932e+01    0.4804105    0.2188008  36.27  0.002359604    2.083    0.520
       314 -12.1244    225.7367    246.2695   1.1044168400e+02  -1.0408830559e+01    0.6818969    0.3924687   2.67  0.003364585    2.473    0.596
       315 -11.0192     65.7293     21.4792   9.2546300702e+01   6.2290164912e+01    0.3231612    0.1794634  27.96 0.0007971124    1.738    0.425
       316 -10.8831     24.6373     27.0459   1.1050708149e+02   6.6868770367e+01     0.185477    0.1493514  -3.57 0.0003417691    1.159    0.137
       317  -9.8494    128.0214    249.5332   1.2937149664e+02   5.3739298728e+00    0.1807228    0.1613144 -84.86  0.001217291    1.234    0.190
       318 -10.2005    148.3036    244.3375   1.2480572641e+02   2.8256677788e+00    0.1226479    0.0981361   9.09 0.0004347561    1.670    0.401
       319  -9.6464    115.4392    244.3143   1.3111977658e+02   8.3926184907e+00    0.1582273    0.1155492 -83.55 0.0009372651    1.515    0.340
       320 -10.3968    109.7477    243.1905   1.3206854471e+02   9.5311602925e+00    0.2835967    0.1720827  69.78  0.001158366    1.810    0.447
       321 -10.4762     27.7589     19.6015   1.0620848296e+02   6.7605019534e+01    0.2005405    0.1734154   9.83 0.0007685089    1.379    0.275
       322  -9.4686    119.1447     24.1419   7.8745169105e+01   5.1695554499e+01    0.1645274    0.1529201 -61.38 0.0004712535    1.289    0.224
       323 -10.5593     54.1091     23.3884   9.7388109906e+01   6.3826746727e+01    0.2116646    0.1635071 -11.70 0.0005276697    1.119    0.107
       324 -10.8372     84.3996     22.3256   8.7022251434e+01   5.8964438773e+01    0.2341385    0.1734726  11.69 0.0006619297    1.283    0.221
       325 -10.5858     35.0382     21.4633   1.0395604946e+02   6.6549155423e+01    0.3126287    0.1367087 -31.38  0.001681456    2.034    0.508
       326  -9.9043    100.1808     21.6231   8.2421841717e+01   5.5980257479e+01    0.1897468    0.1437667  39.62 0.0005312511    1.154    0.134
       327 -10.0917    104.2317     18.8668   8.0403168766e+01   5.5435831641e+01    0.2691456    0.1343838  33.99  0.001263343    2.070    0.517
       328  -9.3006    168.6327    250.6961   1.2181099234e+02  -1.6994805534e+00    0.1280724   0.09098034  15.92 0.0007035016    1.744    0.427
       329 -11.5755     34.7753    241.5675   1.4546701521e+02   2.0563325069e+01    0.6238687    0.2140043  46.05  0.003212952    2.392    0.582
       330  -9.4518    129.3120     19.2950   7.4973018329e+01   4.9921434052e+01    0.1364894   0.08786537  34.26 0.0002805908    1.595    0.373
       331  -9.5245     24.4568    232.4767   1.4657226598e+02   2.3547506299e+01    0.1882233    0.1170309  59.84 0.0009563732    1.324    0.244
       332 -10.3542     31.7960    237.3176   1.4566595706e+02   2.1746004086e+01    0.2629518    0.1727186  79.65   0.00109473    1.171    0.146
       333 -10.2456     29.0602    233.0158   1.4582330016e+02   2.2914474805e+01    0.2710915    0.1407492  59.05  0.001160106    1.593    0.372
       334 -11.6673    156.2934    241.3277   1.2282744197e+02   1.9528534869e+00    0.2809112    0.2117833  39.64  0.001671453    1.162    0.139
       335  -9.6081    188.1920     16.8112   6.4883642043e+01   3.6114934777e+01    0.1749366    0.1407849  52.21 0.0003735279    1.309    0.236
       336  -9.8406    108.2828     17.0933   7.8795355114e+01   5.4764970681e+01    0.1655656     0.153192  18.02 0.0003792981    1.107    0.097
       337 -10.0701      9.8334     16.0174   1.1264981279e+02   6.9764641696e+01    0.1733339    0.1210336  -6.52 0.0006725293    1.193    0.162
       338  -9.9549     88.6429    241.1636   1.3582144295e+02   1.3251617313e+01    0.1599241    0.1071483 -57.92 0.0008034002    1.735    0.424
       339  -9.7056    164.7068     14.6026   6.7472208674e+01   4.2031932873e+01    0.1902709    0.1141984  78.70 0.0009472955    1.653    0.395
       340 -11.7288     74.2991    238.2006   1.3818310514e+02   1.5967508373e+01    0.5853524    0.2981003  52.83  0.003168028    1.659    0.397
       341 -10.0778     81.8576     16.4138   8.5470553508e+01   6.0064477203e+01    0.1960463    0.1625056  33.89 0.0005362695    1.126    0.112
       342 -10.2999    115.7449     13.1779   7.5747085700e+01   5.3535455060e+01    0.3143324    0.1400447  67.04  0.001334291    2.601    0.616
       343  -9.2127     90.0694     12.9995   8.1854433088e+01   5.8851854315e+01    0.1448093    0.1196322  28.98 0.0004226101    1.013    0.013
       344  -9.3864     50.3077    240.3192   1.4269766091e+02   1.8859143760e+01   0.09935335   0.08917044 -59.30 0.0003913505    1.637    0.389
       345 -10.4489    174.4921    238.4953   1.1885442618e+02  -7.5426544531e-01    0.2277313    0.1891015  -3.66  0.001385447    1.422    0.297
       346 -10.7845    177.5614    234.9513   1.1769643928e+02  -7.0978005228e-01    0.2771209    0.2034865   9.04  0.001194276    1.707    0.414
       347  -8.9770     51.3060     11.3146   9.3338270884e+01   6.5640299390e+01    0.1199976   0.07294975   9.29 0.0004218158    1.623    0.384
       348 -10.3172     71.9999    243.9478   1.3915664717e+02   1.5186092339e+01    0.1892008    0.1515118  71.53  0.001033046    1.058    0.055
       349  -9.9760    195.7548    238.3891   1.1473156608e+02  -4.4084538274e+00    0.2390802    0.1428753  32.08  0.001160932    1.527    0.345
       350 -10.4132    159.9894    235.9472   1.2130562661e+02   2.2251968483e+00     0.206866    0.1763054  40.07 0.0006238474    1.045    0.043
       351 -11.0633     73.7374    232.9933   1.3776579987e+02   1.7079670920e+01    0.2766923    0.1801068  55.99 0.0009650623    1.299    0.230
       352 -10.7715    115.8651    226.0789   1.2871373183e+02   1.1791108017e+01     0.232882    0.1554752 -73.83 0.0009848111    1.677    0.404
       353 -10.4669    167.0310    233.7958   1.1958513634e+02   1.3469213984e+00     0.208886    0.1973483 -38.36 0.0008246118    1.214    0.176
       354  -9.9083     79.7078    231.4084   1.3646978689e+02   1.6517590684e+01     0.200735    0.1411346  44.07 0.0005850644    1.419    0.296
       355 -10.7610     10.2440    250.1900   1.4996879349e+02   2.1712745189e+01    0.3452422    0.1352535  40.98  0.001868167    2.465    0.594
       356 -11.2243    182.2492    246.2604   1.1855952585e+02  -3.3231345654e+00    0.2736006    0.1906545  17.36  0.001538122    1.639    0.390
       357  -9.2986     58.3571    230.2991   1.4037139755e+02   1.9782031450e+01    0.1039129   0.09609969 -39.23 0.0005594385    1.706    0.414
       358 -11.2303    153.4183    233.6268   1.2225714015e+02   3.7954992514e+00    0.2412063    0.2021009 -15.24 0.0009265775    1.547    0.354
       359 -10.4789    190.4336    226.9295   1.1384810202e+02  -1.6598097299e+00    0.3016917     0.158072 -42.47  0.001185569    2.121    0.529
       360 -10.2083     86.2427    233.3956   1.3543652735e+02   1.5133551753e+01     0.223169    0.1357873  83.86  0.001169981    1.798    0.444
       361  -9.4527    140.1519    227.3577   1.2398412420e+02   7.3032619361e+00     0.202253    0.1075839  50.65 0.0009435953    1.733    0.423
       362  -9.1456     45.5143     20.5280   9.9424287268e+01   6.5370784969e+01    0.1187801    0.0906061  -1.21 0.0008093766    1.048    0.046
