#   1 NUMBER                 Running object number                                     
#   2 MAG_AUTO               Kron-like elliptical aperture magnitude                    [mag]
#   3 X_IMAGE                Object position along x                                    [pixel]
#   4 Y_IMAGE                Object position along y                                    [pixel]
#   5 X_WORLD                Barycenter position along world x axis                     [deg]
#   6 Y_WORLD                Barycenter position along world y axis                     [deg]
#   7 A_WORLD                Profile RMS along major axis (world units)                 [deg]
#   8 B_WORLD                Profile RMS along minor axis (world units)                 [deg]
#   9 THETA_WORLD            Position angle (CCW/world-x)                               [deg]
#  10 FWHM_WORLD             FWHM assuming a gaussian core                              [deg]
#  11 ELONGATION             A_IMAGE/B_IMAGE                                           
#  12 ELLIPTICITY            1 - B_IMAGE/A_IMAGE                                       
         1 -10.9419     23.1136     14.2471   9.7925622038e+01   6.8544586326e+01    0.9120592     0.300394 -28.07  0.001901489    3.354    0.702
         2 -11.4634     18.6955     26.0761   1.0463370710e+02   6.7483891045e+01    0.7094196    0.4376086  10.62  0.003540459    1.494    0.331
         3 -11.6160      2.9205      7.4092   1.0442608561e+02   7.1368205563e+01     0.363961    0.1812191 -20.92  0.001192073    1.772    0.436
         4 -11.3129     28.9868     20.3017   9.7899954222e+01   6.7132135087e+01    0.9580735    0.4101247 -27.78   0.00511835    2.298    0.565
         5 -12.1900      9.9244     48.7536   1.1622666097e+02   6.4676236800e+01      1.09137    0.4779447 -43.71  0.005876661    1.791    0.442
         6  -9.8238     10.9929      5.9420   9.9867147415e+01   7.0796327665e+01    0.3129049    0.1525125 -18.98 0.0003317723    1.963    0.491
         7 -12.2368     36.7159      4.3741   8.8042476141e+01   6.7886286486e+01    0.9266843    0.7549019 -14.67  0.007202701    1.362    0.266
         8 -10.2482     31.4625      5.5999   9.0670890727e+01   6.8474140663e+01    0.2567212    0.1918537   8.00 0.0004407467    1.015    0.015
         9 -10.5103     10.8902     10.3445   1.0183053640e+02   7.0287998508e+01    0.2779293    0.1710334 -15.02  0.000409538    1.332    0.249
        10 -11.5918      9.2954     17.5241   1.0556010315e+02   6.9523931667e+01    0.8246142    0.3104719  33.80  0.004408097    3.021    0.669
        11 -12.0999     15.9415     11.3930   9.9928448027e+01   6.9658450488e+01    0.9662282    0.2981381 -34.63  0.003478012    2.981    0.665
        12 -10.9196      4.3572     26.7002   1.1137965308e+02   6.8637561945e+01    0.4860043    0.2974114 -30.04  0.002114414    1.273    0.214
        13 -10.6471     72.6661     13.7414   7.9645926628e+01   6.1278606574e+01    0.3356904    0.2088614  35.49  0.001440553    1.354    0.261
        14 -10.1326     64.1009      5.0001   7.8850137397e+01   6.3558870292e+01    0.1953862    0.1684245  35.14 0.0007286355    1.199    0.166
        15  -9.5461     50.4519     13.5312   8.6768321335e+01   6.4987155014e+01    0.2564898    0.1654553   1.12  0.001086974    1.538    0.350
        16  -9.7170     59.1770      3.3992   7.9737642529e+01   6.4527670029e+01    0.3207784    0.1918354 -12.01  0.001481949    1.771    0.435
        17  -9.7212     62.9136      1.4214   7.7797625910e+01   6.4054151175e+01    0.2265661    0.1051734  44.74  0.000313018    1.716    0.417
        18 -10.6784     53.6389      5.1748   8.2259015817e+01   6.5282340752e+01    0.4878784    0.2850617   8.96  0.002187091    1.823    0.452
        19  -8.8772     49.7515      4.0032   8.3098077095e+01   6.5999056133e+01    0.1723983    0.1191448  19.89 0.0004060464    1.188    0.158
        20 -10.0793     92.8567     17.1688   7.5397632544e+01   5.7144666553e+01    0.2677851    0.2326859 -53.80  0.001107256    1.505    0.335
        21 -10.9210    231.3084     16.2714   5.4635572686e+01   2.6878956016e+01    0.3506669    0.1559945 -50.14  0.001892756    1.965    0.491
        22  -8.7889     56.3566     16.0241   8.5705738322e+01   6.3812448537e+01    0.2761791    0.1262055 -35.80  0.001458093    2.505    0.601
        23 -10.4483     93.6531     10.1611   7.2796559149e+01   5.7620035987e+01    0.3131393    0.2220783  18.61  0.001978425    1.486    0.327
        24 -10.4574     94.5626      5.0864   7.0851543085e+01   5.7855230442e+01    0.2914441     0.216376  75.04  0.001860061    1.583    0.368
        25  -9.1387     57.7034     10.3851   8.3012512478e+01   6.4152343184e+01    0.1651617    0.1086136  20.37 0.0005772811    1.354    0.261
        26  -9.5015     61.7778      8.9098   8.1108985370e+01   6.3613904381e+01    0.2164019    0.1241219  27.26  0.000594185    1.588    0.370
        27  -8.5321     88.8456      8.1501   7.3260536647e+01   5.8738545535e+01    0.1682099     0.115288  33.16 0.0006401027    1.301    0.231
        28 -11.2420     73.6610      5.3334   7.6201501335e+01   6.1838153716e+01    0.4897167    0.2533608  56.45  0.002730572    1.892    0.472
        29  -7.9370    108.6923      1.6956   6.6766560681e+01   5.5217418380e+01    0.1230799    0.0726794  38.43 0.0005018875    1.606    0.377
        30  -8.6285    225.5073      1.4858   5.2334861835e+01   2.9719527213e+01    0.1151383    0.0873609 -83.66 -0.0001306313    1.035    0.034
        31 -10.3579    148.5080    220.7382   1.1297942509e+02   5.8895265258e+00      0.32905    0.2590261 -28.68 0.0005792533    1.479    0.324
        32 -12.8401    190.0739    230.3340   1.0581080767e+02  -3.0871119582e+00     1.824895     1.350519 -17.33  0.008820112    1.478    0.323
        33 -12.2381    204.5852    232.0526   1.0320126745e+02  -5.7069215660e+00    0.7795092    0.3813314 -33.71 0.0005542337    2.185    0.542
        34 -12.9371    197.2409    196.2512   9.8045827647e+01   2.1168534707e+00     2.472479     1.372433 -28.53   0.01045455    2.183    0.542
        35 -12.8907    208.4916    244.5833   1.0458713693e+02  -8.3648624499e+00    0.9939229    0.7325343  33.21  0.003538713    1.302    0.232
        36 -14.7503    247.8067     47.4043   5.9025728693e+01   1.9482368061e+01     13.29415     2.600152 -36.13   0.03522602    7.961    0.874
        37 -12.3776    202.2601    214.1689   1.0044269221e+02  -2.1642614857e+00     1.063079    0.5776439 -56.48  0.004554157    2.575    0.612
        38 -12.2144    192.0235    214.4640   1.0257566838e+02  -4.9411975023e-01    0.9582773    0.6482491  56.90  0.003170396    1.959    0.490
        39 -12.4352    207.9639    202.0524   9.7016782295e+01  -8.6654797875e-01     1.424849    0.4836836 -34.74  0.004613465    3.774    0.735
        40 -13.6614    240.4128    152.0568   8.1048433846e+01   3.0053514933e+00     2.423993      1.47247 -14.40    0.0100209    2.922    0.658
        41 -14.4529    222.9811    183.8744   9.0556928972e+01   1.0759876395e-02     4.281199     1.611653 -43.40   0.01666222    2.438    0.590
        42 -13.2815    235.0628    172.8274   8.6160995895e+01   3.7945376072e-02     1.873606    0.7794008 -35.96  0.007541917    2.358    0.576
        43 -12.2629    219.5247    202.9970   9.4952258750e+01  -2.9621996618e+00     1.169796    0.7098089 -18.11  0.003480454    2.079    0.519
        44 -12.5725    230.1172    195.9489   9.1612250078e+01  -3.3941966207e+00     1.630273    0.6586692 -28.47   0.00555291    3.752    0.733
        45 -12.0846    235.8766    226.8732   9.6326887360e+01  -9.5126756229e+00    0.4549703    0.3605702 -19.70 0.0007608345    1.103    0.093
        46 -12.0936    238.3757    217.6873   9.4205485870e+01  -8.3843290992e+00    0.5515611    0.3368349 -29.32 0.0008498454    1.505    0.336
        47 -11.9075    230.1505    233.9059   9.8631647899e+01  -9.8168334688e+00    0.4992886    0.2842933 -41.47  0.002699381    1.780    0.438
        48 -13.0952    244.2787    238.8659   9.6929177031e+01  -1.2493777679e+01      1.12489    0.8050169 -40.43  0.007123413    1.534    0.348
        49 -11.7549    233.5790    210.8124   9.3804941591e+01  -6.5325992153e+00    0.4722303    0.2979802 -19.33 0.0006860539    1.697    0.411
        50 -12.4609    248.0456    175.3020   8.4438613729e+01  -2.5279944910e+00    0.9346181    0.5987452  -5.74  0.002921296    2.367    0.577
        51 -13.6266    247.5749    218.7636   9.2763326585e+01  -9.8491161623e+00     2.158996    0.4202263 -40.23  0.006972726    4.616    0.783
        52 -12.9234    245.6047    165.2593   8.2857096851e+01  -3.1810944204e-01     1.366847    0.5390285 -31.84   0.00494624    3.190    0.687
        53 -12.1492    248.0593    156.3356   8.0677762773e+01   9.0770979931e-01    0.5375522    0.4643725  51.51  0.003324962    1.382    0.276
        54 -12.6371    246.9340    185.2802   8.6571131208e+01  -4.1273171436e+00     1.164335    0.6563417  11.53  0.004769236    3.364    0.703
        55 -12.9720    219.8280    221.9290   9.8430152512e+01  -6.3412012012e+00     1.180809    0.7739495  56.00  0.005884168    2.365    0.577
        56 -12.3736    227.7867    218.3678   9.6275913820e+01  -6.9436440923e+00    0.6055694    0.4025875 -41.25   0.00288205    1.487    0.327
        57 -13.9682    241.3098    199.8862   9.0352813947e+01  -5.8203533489e+00     1.592652    0.8173244 -28.76  0.007481752    2.012    0.503
        58 -12.7387    248.6948    202.6017   8.9576379038e+01  -7.3667440215e+00     1.011159    0.4231743 -25.73  0.003743321    3.555    0.719
        59  -9.2388    184.0276    249.9929   1.1030134112e+02  -5.5102052563e+00     0.366564    0.2489615  29.43 0.0009715364    1.326    0.246
        60 -12.3190    191.5747    244.6359   1.0792484919e+02  -5.7972231933e+00    0.3725259    0.2912965 -16.93 0.0005074834    1.321    0.243
        61  -9.4662    186.5208    245.5182   1.0908137870e+02  -5.1530184704e+00    0.2065933    0.1944509 -18.63  0.000627532    1.166    0.143
        62  -9.4427    120.1301    248.8307   1.2325542633e+02   5.0653021567e+00    0.2909616    0.1864188 -47.94  0.000674041    1.822    0.451
        63 -10.9426    124.2411    247.0258   1.2216116427e+02   4.7460869230e+00    0.3538833    0.3268169  52.22 0.0004494843    1.058    0.055
        64 -10.2827    118.0806    238.5450   1.2230359383e+02   7.4460384045e+00    0.3975058    0.2908933 -27.50  0.001183631    1.969    0.492
        65  -9.4745    108.3022    249.1022   1.2573251353e+02   6.9131726839e+00      0.28019    0.1953488  43.64 0.0005112636    1.266    0.210
        66 -10.6314    113.4038    244.5372   1.2409315524e+02   7.0014777473e+00    0.4379852    0.2699998 -44.76  0.002226859    1.998    0.500
        67  -9.0775    101.5087    250.5932   1.2730526198e+02   7.6904991394e+00    0.2461095    0.1121673  39.47 0.0005644568    1.957    0.489
        68  -9.9083     87.5134    249.8085   1.3005228091e+02   1.0002616155e+01    0.2543567    0.2174998  32.53 0.0005029545    1.361    0.265
        69 -10.6639     93.0771    244.6821   1.2833316477e+02   1.0195425436e+01    0.4520057    0.3014544  19.07 0.0005917201    2.243    0.554
        70 -10.6625    104.4765    241.7570   1.2560497830e+02   9.0018909065e+00    0.3610736    0.3065573 -33.99  0.000711088    1.540    0.351
        71  -9.3314    101.4222    238.8241   1.2587525343e+02   1.0095900955e+01    0.2415827     0.172734  22.58 0.0004662109    1.787    0.441
        72  -9.3363     72.5675    250.5004   1.3310465238e+02   1.2069540504e+01    0.2248939    0.1328633  39.21 0.0006809136    1.625    0.385
        73 -10.1594     61.2321    248.9323   1.3517086883e+02   1.3989672335e+01    0.2532635    0.2332644 -45.66 0.0008881222    1.532    0.347
        74 -10.2232     46.8967    250.4048   1.3804524801e+02   1.5605959668e+01    0.2513434    0.1484952  37.11 0.0006720791    1.778    0.438
        75  -9.8324     16.1648    249.1328   1.4355148205e+02   1.9564977559e+01    0.2329856    0.2155769 -38.94  0.000792796    1.768    0.434
        76  -9.8389      8.3173    248.5330   1.4488175073e+02   2.0537975194e+01    0.2151082    0.1870945 -67.52 0.0007532516    1.555    0.357
        77  -8.2775      1.4880    250.5181   1.4616122248e+02   2.0849486425e+01    0.1125095   0.08180248  78.10 -4.529507e-05    1.038    0.037
        78  -8.8618    150.8710    215.7872   1.1162013319e+02   6.4967896785e+00    0.2288632    0.1923086 -33.52 0.0005232635    1.295    0.228
        79  -9.3067    138.8023    227.3404   1.1617559387e+02   6.2293204150e+00    0.2666865    0.2269062   1.82 0.0004083807    1.413    0.292
        80  -9.8668    133.7943    230.5559   1.1776353776e+02   6.4329292223e+00    0.2982115    0.2714414 -18.55 0.0006221182    1.281    0.220
        81  -8.9107    130.0305    228.9876   1.1834451671e+02   7.4007970557e+00    0.2067951    0.1930099  40.32 0.0004533154    1.069    0.065
        82 -10.1280    123.4135    231.0137   1.2008753737e+02   8.1059943831e+00    0.3444921    0.2739159  11.51 0.0006519206    1.616    0.381
        83 -10.0735    100.1628    230.7034   1.2509153636e+02   1.2018466702e+01    0.2720013    0.2507014 -33.22 0.0005780287    1.364    0.267
        84 -10.7655     54.6660    231.0682   1.3474547049e+02   1.8692673416e+01    0.3074933    0.2436789  27.31 0.0006813907    1.635    0.388
        85  -8.9385      9.8161    231.6096   1.4352813989e+02   2.3906375392e+01    0.1998362    0.1451169  24.62  0.001237154    1.989    0.497
        86  -9.1379     44.6324    229.4917   1.3663038803e+02   2.0352547913e+01    0.2333528     0.187559 -52.82 0.0006699855    1.581    0.367
        87  -9.1758    114.8976    221.7237   1.2059221552e+02   1.1532049572e+01    0.2355759     0.206916 -18.72 0.0006470449    1.449    0.310
        88 -10.3946    113.1505    228.1840   1.2191814505e+02   1.0428877398e+01    0.2750263    0.2581758  62.48 0.0003563023    1.059    0.056
        89  -9.1328    107.0565    228.1556   1.2324740139e+02   1.1445408592e+01    0.2156908    0.1955329 -69.03 0.0003997817    1.173    0.147
        90  -9.4489    109.7713    224.0720   1.2207404582e+02   1.1881596602e+01    0.3006142    0.2358186  51.42 0.0005710336    1.172    0.147
        91  -9.5842     92.7119    227.9329   1.2634333995e+02   1.3809190615e+01    0.2407088    0.2201171 -37.89 0.0004547313    1.379    0.275
        92  -9.5175     78.7576    228.4679   1.2941680457e+02   1.5840645529e+01    0.2306953     0.218907 -49.40 0.0005304528    1.333    0.250
        93  -8.5554     29.5092    229.0851   1.3959831969e+02   2.2286425813e+01    0.1752555    0.1550486 -75.61 0.0008373386    1.326    0.246
        94  -9.7721     67.8168    227.1337   1.3159041738e+02   1.7740535947e+01     0.247234    0.2127416  44.92 0.0004067211    1.261    0.207
        95  -9.3118     19.7522    227.3493   1.4135002378e+02   2.3769483496e+01    0.2112744    0.1749266 -79.05 0.0008156805    1.259    0.206
        96  -9.3563      1.7506    227.2942   1.4472281347e+02   2.5640323592e+01    0.1994588     0.150832 -85.33    0.0014094    1.166    0.143
        97  -9.4817    120.4473    224.8980   1.1983360416e+02   9.9014525757e+00    0.2496102     0.228597  -3.70 0.0006464063    1.324    0.245
        98  -9.5202      8.3673    225.2277   1.4335710042e+02   2.5430613287e+01    0.3198315    0.1604508  41.03   0.00122537    1.966    0.491
        99  -9.6761    129.4190    223.9019   1.1769896374e+02   8.5720998884e+00    0.2559307    0.2398451  28.30 0.0005370334    1.127    0.112
       100  -9.2752    104.3342    223.8704   1.2324841205e+02   1.2826901696e+01     0.249231    0.2247099 -54.90 0.0005464195    1.241    0.194
       101  -8.2402     89.4872    225.0091   1.2666728631e+02   1.4961877024e+01    0.1913424    0.1289149 -63.44 0.0005258452    1.509    0.337
       102  -8.5532     92.2275    221.7578   1.2563713070e+02   1.5255155240e+01    0.2005246     0.167572 -25.57 0.0005834708    1.664    0.399
       103  -9.1059    135.5222    223.1427   1.1623157891e+02   7.6711621984e+00    0.2459008    0.2108151  -1.22 0.0005901722    1.421    0.296
       104 -10.1790     49.6221    222.4394   1.3491639248e+02   2.1285086621e+01    0.2524501     0.225105 -77.07  0.000574198    1.235    0.190
       105  -9.1668     47.2822    217.9281   1.3494604225e+02   2.2613347971e+01    0.2460087    0.1509917  65.07 0.0008810805    1.548    0.354
       106  -9.6977     97.6901    222.1616   1.2448233399e+02   1.4289314218e+01     0.257271    0.2263992 -40.86 0.0004190224    1.384    0.277
       107  -8.9205     82.5359    222.8536   1.2791136293e+02   1.6520102628e+01    0.2212335    0.2063607 -24.42  0.000718868    1.422    0.297
       108  -9.1735     74.1167    222.3153   1.2967936327e+02   1.7906633691e+01    0.2194952    0.2012995 -75.59 0.0003533373    1.197    0.164
       109  -9.4995     39.9357    221.1317   1.3679713229e+02   2.2807809198e+01    0.2774146     0.230577 -31.19 0.0009832894    1.840    0.457
       110  -8.8729     28.5344    222.0059   1.3919208047e+02   2.3966729321e+01    0.1827278    0.1753143  31.97 0.0005304565    1.466    0.318
       111  -9.1842     15.5385    221.3140   1.4169957719e+02   2.5549565304e+01    0.2304687    0.1528369 -53.34 0.0008653248    1.872    0.466
       112  -9.4092    140.6570    220.2918   1.1463638568e+02   7.3688130450e+00    0.2458641    0.2276658  12.34 0.0003969098    1.165    0.141
       113  -8.6346    124.6784    221.0810   1.1831386219e+02   9.9955831495e+00    0.1882006    0.1803129 -74.78 0.0006370379    1.099    0.090
       114  -8.4772     68.1170    221.1576   1.3084195494e+02   1.9042422026e+01    0.1839332    0.1739393 -60.91 0.0004944407    1.300    0.231
       115  -9.4844     58.6312    220.6117   1.3281917306e+02   2.0496475730e+01     0.425434    0.1946543  43.46  0.001986475    2.018    0.505
       116 -10.2223     56.0028    216.6122   1.3294220565e+02   2.1769055734e+01    0.2813526    0.1671407 -72.62 0.0006164138    1.567    0.362
       117  -8.5599    104.0038    218.7318   1.2259133068e+02   1.4021734465e+01    0.2003165    0.1924548  -7.32 0.0005848428    1.271    0.213
       118  -9.4299    109.0732    219.3661   1.2154612222e+02   1.3034556814e+01    0.2684671    0.2256656 -34.70 0.0003996458    1.467    0.318
       119  -8.8349    106.9852    215.5226   1.2144870389e+02   1.4245435569e+01    0.2068804    0.1984637 -22.14 0.0004071873    1.250    0.200
       120  -8.1940     87.8549    220.1266   1.2638851948e+02   1.6311991821e+01    0.1701454    0.1629953 -39.88 0.0002868168    1.297    0.229
       121  -9.9063    159.0352    217.7942   1.1017490027e+02   4.6267420317e+00     0.289924    0.2348823   5.32 0.0003928514    1.436    0.304
       122  -8.5522    154.1268    218.6642   1.1139689830e+02   5.3208329463e+00    0.1958982    0.1717756  29.28 0.0005046018    1.109    0.099
       123  -8.9464    128.8002    218.9421   1.1705775057e+02   9.7402665306e+00    0.2035488    0.1901268  -7.27 0.0004454914    1.237    0.192
       124  -8.8482    136.1002    218.1429   1.1529763313e+02   8.6284658196e+00    0.2094872    0.1883382   7.61 0.0004342539    1.263    0.208
       125  -9.1628    119.7706    217.1673   1.1880729524e+02   1.1697977785e+01    0.2433055    0.2205725 -49.83 0.0006811245    1.205    0.170
       126  -8.2348     95.4865    217.9718   1.2439487831e+02   1.5586310230e+01    0.1978387     0.133324 -64.25 0.0004412876    1.501    0.334
       127 -10.6195    171.0212    213.9592   1.0690183146e+02   3.2700377037e+00    0.3619027    0.2878111 -44.37 0.0004547236    1.299    0.230
       128  -9.7134    165.5967    214.1251   1.0810274257e+02   4.2031775949e+00    0.3047696    0.2359666   4.77 0.0004276259    1.558    0.358
       129  -8.5807    167.5579    207.9955   1.0656733891e+02   5.1035042523e+00    0.3302778    0.2100981 -34.73  0.001528769    1.748    0.428
       130  -8.9319    171.3809    206.1839   1.0540203262e+02   4.7820640126e+00    0.2322046    0.2173245  15.56 0.0005270196    1.041    0.040
       131  -8.9732    173.1339    202.1979   1.0427493133e+02   5.2833942514e+00    0.2330324    0.2022875 -37.28 0.0004400625    1.158    0.137
       132  -7.7593    115.2842    217.2800   1.1983649675e+02   1.2444641926e+01    0.1306806     0.112616 -10.82 0.0001838974    1.515    0.340
       133  -8.2661     77.0088    217.3019   1.2842710276e+02   1.8618404315e+01    0.1854264    0.1602779  56.11 0.0004078557    1.126    0.112
       134  -8.5558     21.7942    216.9206   1.4011066981e+02   2.5861693778e+01    0.1819038    0.1460584 -66.61 0.0009115351    1.358    0.264
       135  -9.6432      7.9254    216.2671   1.4279762697e+02   2.7444183077e+01     0.254292    0.1994136 -46.19  0.001262186    1.787    0.441
       136  -8.7691    124.0611    215.5301   1.1758115859e+02   1.1312880956e+01    0.2072926    0.1918033 -70.48 0.0004464921    1.117    0.105
       137  -8.4203     90.6579    215.8096   1.2518088278e+02   1.6851918048e+01    0.2023149    0.1625045 -49.17 0.0005607832    1.422    0.297
       138  -9.4272     82.8884    215.4905   1.2688318612e+02   1.8141181727e+01    0.2397501    0.2041598 -54.68 0.0006182482    1.319    0.242
       139  -9.5995     30.9800    214.5416   1.3802785675e+02   2.5373117897e+01     0.290086    0.1900029 -52.58 0.0008652168    1.813    0.449
       140  -9.6665    143.4478    214.4515   1.1304167454e+02   8.1084672221e+00    0.2913563    0.2403464   8.14 0.0005267427    1.448    0.309
       141  -9.2050    101.5286    214.6811   1.2256262367e+02   1.5345796470e+01    0.2706595     0.208531 -27.70 0.0008135071    1.818    0.450
       142  -8.1797    138.1621    213.8366   1.1412275193e+02   9.1867055009e+00    0.1887576    0.1681696  -0.38 0.0003799994    1.302    0.232
       143  -9.4528    132.0154    213.6944   1.1548507413e+02   1.0313361714e+01     0.261859    0.2305536  11.82 0.0004147929    1.308    0.235
       144  -8.5228    111.0365    213.4631   1.2021670542e+02   1.4024684347e+01    0.2080086    0.1859114 -68.84 0.0004490496    1.143    0.125
       145  -9.0876     63.1530    213.0982   1.3097743523e+02   2.1600552010e+01    0.2326117    0.2165886 -16.80 0.0007309144    1.481    0.325
       146  -9.0830     51.1121    213.1871   1.3362296741e+02   2.3210108572e+01    0.2684542    0.1693742 -46.67 0.0008904961    2.034    0.508
       147  -8.6156    117.4660    212.7469   1.1863850712e+02   1.3080266506e+01    0.2070706    0.1905523   9.19 0.0006090003    1.281    0.220
       148  -9.3670     96.7373    212.4835   1.2333404023e+02   1.6635896841e+01    0.2585079    0.2242293 -41.88  0.000577795    1.371    0.271
       149  -8.7155     40.9390    212.8510   1.3577287577e+02   2.4577155810e+01    0.1849622    0.1613311 -60.21 0.0006114089    1.358    0.263
       150  -8.3020     74.2391    212.5614   1.2844206021e+02   2.0127231484e+01    0.1656723    0.1329858  28.92 0.0003623659    1.489    0.328
       151  -9.2390     17.4976    211.2691   1.4050413817e+02   2.7598484756e+01    0.2372596    0.1721568 -45.62 0.0009650165    1.875    0.467
       152  -9.5385    149.5193    205.1070   1.1004382802e+02   9.0155157915e+00    0.4489563    0.2486287 -46.89  0.001949977    1.864    0.464
       153  -8.7888    149.2475    210.4094   1.1104710509e+02   7.9246655570e+00    0.2313338    0.2110499 -55.11 0.0002898739    1.145    0.127
       154  -9.0032    146.1783    207.8162   1.1128021530e+02   9.0405509438e+00    0.2612946    0.2264013 -29.62 0.0004189716    1.272    0.214
       155  -8.9602    125.0474    211.0191   1.1662949293e+02   1.2139201938e+01    0.2126092    0.2060018  12.22  0.000435766    1.146    0.127
       156  -9.5652    106.7222    210.2805   1.2071771983e+02   1.5481840425e+01    0.2378265    0.2151746 -21.94 0.0004436237    1.374    0.272
       157  -9.1717     25.2197    210.5379   1.3885588701e+02   2.6938980027e+01    0.2188521    0.1687673 -56.91 0.0008671919    1.498    0.333
       158 -10.2429    176.9477    208.5435   1.0464202237e+02   3.2989603166e+00    0.2826113    0.2482095 -13.49 0.0003744295    1.174    0.148
       159 -10.2178    161.2652    208.7259   1.0807897930e+02   6.0953057982e+00    0.2827853    0.2411253 -24.42 0.0003933197    1.269    0.212
       160  -8.1988    140.0606    209.6960   1.1299048950e+02   9.7435615509e+00    0.2007563    0.1809232  43.61 0.0004872642    1.064    0.060
       161  -7.7747     56.3217    210.3021   1.3215879642e+02   2.3191766192e+01    0.1243917    0.1021608 -39.18 0.0003798312    1.630    0.387
       162  -8.6268     93.6133    208.9816   1.2354292818e+02   1.7954627145e+01    0.1977249    0.1704672 -71.93 0.0005330737    1.145    0.127
       163  -8.6882     78.2910    208.8790   1.2704304709e+02   2.0381510004e+01    0.1880828    0.1654293 -75.01 0.0004751209    1.128    0.114
       164  -8.5732    134.7285    208.0383   1.1391849104e+02   1.1071437142e+01    0.2264564    0.1882284  41.21 0.0003838495    1.162    0.139
       165  -8.5354    131.3801    208.2450   1.1471935508e+02   1.1628658187e+01    0.2146076    0.1436395 -54.06 0.0004329778    1.545    0.353
       166  -9.4352    114.4717    206.9088   1.1839770535e+02   1.4925114552e+01     0.283619    0.2278427  10.21 0.0006452458    1.641    0.390
       167  -8.7163     72.8662    207.8187   1.2813926605e+02   2.1442095145e+01    0.1912258    0.1833233 -61.09 0.0005133623    1.244    0.196
       168 -10.0776    124.5585    205.9382   1.1590097876e+02   1.3368424012e+01    0.3371016    0.2137329  37.40  0.000468917    1.564    0.361
       169  -9.3928    120.1784    206.1654   1.1695316114e+02   1.4094488877e+01    0.2448521    0.2317648 -36.13  0.000446138    1.184    0.155
       170  -8.0593     66.1233    206.8289   1.2954468925e+02   2.2652968177e+01    0.1740689    0.1549683 -54.24 0.0004052368    1.309    0.236
       171  -9.8403     46.5219    206.4937   1.3389080118e+02   2.5365791733e+01    0.2325699    0.2173593 -53.45 0.0005375307    1.351    0.260
       172  -8.5559     31.8623    206.8271   1.3710799718e+02   2.7052281508e+01    0.1840159    0.1564764 -66.22 0.0007285284    1.292    0.226
       173  -9.5994    183.4210    205.7496   1.0274485120e+02   2.7001758873e+00    0.2709161    0.2214895  -4.91 0.0005659341    1.345    0.256
       174 -10.0361    186.7711    201.2353   1.0118104463e+02   3.0012348195e+00    0.2492433    0.2292274  -2.68 0.0002542499    1.060    0.056
       175  -9.1898    156.5407    205.1967   1.0848469865e+02   7.7044400265e+00    0.2473374     0.220584   9.62 0.0004133903    1.203    0.169
       176  -8.8317    104.0084    205.4792   1.2060573386e+02   1.7050841872e+01    0.2481993    0.1926249 -44.20  0.000387349    1.463    0.317
       177  -9.5695     86.4454    205.0843   1.2463876093e+02   2.0015760159e+01    0.2672631     0.238616  89.79 0.0008787346    1.039    0.037
       178  -9.2215    109.6074    203.1922   1.1893381895e+02   1.6627646211e+01    0.3678999    0.2326983 -33.84  0.001467784    2.244    0.554
       179  -9.2524    140.5188    195.5333   1.1036093245e+02   1.2808885212e+01    0.2833916    0.2495417 -38.80  0.000483328    1.202    0.168
       180  -9.8155    139.9019    203.2630   1.1190205672e+02   1.1188667515e+01    0.3245433    0.3071975 -59.81 0.0003317834    1.085    0.079
       181  -9.2780    138.9594    199.1422   1.1138131255e+02   1.2284254327e+01    0.2523109    0.1930246  64.68 0.0004630532    1.470    0.320
       182  -8.0913     76.5546    204.4758   1.2684659605e+02   2.1684585318e+01    0.1378288    0.1261408 -88.23 0.0001853431    1.082    0.075
       183  -9.6438      6.4015    203.9629   1.4216064297e+02   3.0359928302e+01    0.2014294    0.1827246   8.49 0.0005553667    1.639    0.390
       184  -9.4502    179.1265    202.3854   1.0302040140e+02   4.1511156497e+00    0.2465816    0.2192165 -24.45 0.0003429901    1.126    0.112
       185  -7.9514     92.4980    203.4289   1.2298428061e+02   1.9439427606e+01    0.1402507    0.1323319  80.95 0.0002951687    1.074    0.069
       186  -9.4504     55.7991    202.2283   1.3131975546e+02   2.5172059248e+01    0.2328746     0.200481 -65.20 0.0003211684    1.224    0.183
       187  -8.8276     20.9768    202.3019   1.3899564547e+02   2.9298591530e+01     0.207987    0.1465071 -57.62 0.0006386282    1.525    0.344
       188 -10.3127    164.6790    199.8669   1.0568621519e+02   7.3339351510e+00    0.3689725    0.3341926  83.74  0.001038981    1.265    0.209
       189  -9.0428    144.4471    200.6742   1.1039546148e+02   1.0924662717e+01    0.2522857    0.2392222   4.27 0.0005054814    1.130    0.115
       190 -10.2337    132.0672    199.7837   1.1309665007e+02   1.3408807629e+01    0.3628238    0.2861212  -0.80  0.001755347    1.729    0.421
       191 -10.0749     98.1170    200.3615   1.2119272110e+02   1.9243440680e+01    0.3009415    0.2377226 -80.10 0.0008976046    1.276    0.216
       192  -9.5314     69.3149    200.3843   1.2797298243e+02   2.3732149368e+01    0.2454254    0.2246102 -67.24 0.0004261341    1.183    0.155
       193  -8.2417    155.0406    200.4658   1.0795058896e+02   9.0001585102e+00     0.209451     0.141891  37.13 0.0004129423    1.460    0.315
       194  -8.7178     41.2932    199.7915   1.3431049871e+02   2.7600915912e+01    0.2096145    0.1646006 -26.60 0.0006602708    1.921    0.479
       195  -8.8923     80.5484    199.0595   1.2515363948e+02   2.2372545757e+01    0.2224783      0.20091  11.47 0.0004769635    1.416    0.294
       196  -8.4271     74.7749    199.0026   1.2650614097e+02   2.3261656355e+01    0.1925697    0.1654411 -77.25 0.0003442159    1.092    0.084
       197  -8.9044     49.1216    198.5593   1.3240003987e+02   2.6922899032e+01    0.2311026    0.1643259 -56.51 0.0007965664    1.459    0.315
       198  -7.7896     21.3198    198.3124   1.3855014219e+02   3.0195084467e+01     0.120713   0.08759472 -50.01 0.0007037267    1.649    0.394
       199  -8.3093      7.1385    197.8440   1.4151406187e+02   3.1693897144e+01    0.1547111    0.1253823 -66.47 0.0003794497    1.308    0.235
       200  -8.7920    124.6581    196.7807   1.1430561525e+02   1.5451368499e+01    0.2388081    0.1981082  28.07 0.0006036207    1.314    0.239
       201  -7.7144     27.5240    197.4718   1.3711832436e+02   2.9733736628e+01    0.1284265    0.1058578 -83.81 0.0003652324    1.074    0.069
       202  -9.4518    176.2960    195.5585   1.0231686861e+02   6.0794008860e+00    0.2521425    0.2281857 -16.31 0.0004215181    1.125    0.111
       203  -9.1886    169.7350    195.8930   1.0381225454e+02   7.2340690954e+00    0.3107865    0.2038096  41.45 0.0006077501    1.515    0.340
       204  -8.8203     88.9309    195.9337   1.2269442216e+02   2.1807242529e+01    0.2130761     0.188735 -41.07 0.0005230843    1.322    0.243
       205  -8.5609     60.9134    196.0536   1.2936131781e+02   2.5964314963e+01    0.1985323    0.1582557 -39.82 0.0004562978    1.586    0.369
       206  -8.7802    149.1128    196.6642   1.0858852483e+02   1.0943652186e+01    0.2049915     0.183998  34.38 0.0004240238    1.112    0.101
       207  -9.9903    184.0752    194.4361   1.0043098436e+02   4.8703977038e+00    0.3393357    0.2710679  27.68  0.001333457    1.285    0.222
       208  -9.6061    185.6873    188.9583   9.9005053564e+01   5.7005233165e+00    0.2630367    0.2545731 -45.15 0.0008003343    1.077    0.071
       209  -8.6780     16.8904    195.0832   1.3920294402e+02   3.1402655862e+01    0.1807235    0.1309321 -51.25 0.0004295698    1.611    0.379
       210  -9.4796    132.9425    193.3954   1.1174198031e+02   1.4711322203e+01    0.2544671    0.2272111 -33.64 0.0003533531    1.228    0.186
       211  -9.5964    112.2844    193.0436   1.1660628965e+02   1.8551047571e+01    0.4191724    0.2887079 -69.81  0.001043566    1.558    0.358
       212  -7.8560     81.9776    193.9698   1.2406453152e+02   2.3382377435e+01    0.1695531    0.1523624  88.00 0.0003637144    1.007    0.007
       213  -7.9055     54.4731    194.5667   1.3067590504e+02   2.7192342590e+01    0.1350816    0.1192364 -83.35 0.0002191128    1.076    0.071
       214  -8.9168     36.0003    193.4216   1.3479678963e+02   2.9750321917e+01    0.2351229    0.1531734 -58.88 0.0004650412    1.498    0.332
       215  -8.7646    151.8317    192.2140   1.0712445438e+02   1.1419993690e+01    0.2964226     0.227653 -81.31  0.001403103    1.662    0.398
       216  -7.9090    157.4919    192.5009   1.0588971786e+02   1.0279982608e+01    0.1471892    0.1442439   5.61 3.752131e-05    1.030    0.029
       217  -8.0091    124.8650    192.3830   1.1347425407e+02   1.6439026278e+01    0.2006096    0.1423562  27.65 0.0003779096    1.610    0.379
       218  -8.3761     26.7736    192.1785   1.3674374553e+02   3.1072122111e+01     0.169108    0.1355621 -57.55 0.0005707716    1.360    0.265
       219  -9.4828    161.9856    190.2476   1.0443771317e+02   9.9179281242e+00    0.2562504    0.2090373 -37.86 0.0002636307    1.255    0.203
       220  -8.9202    146.1037    191.0671   1.0822648889e+02   1.2766685768e+01    0.2213117    0.2169891  86.90  0.000493433    1.020    0.019
       221  -7.9188    128.6437    191.2696   1.1237165748e+02   1.6002798738e+01    0.1552862    0.1132986  69.65 0.0003281185    1.638    0.390
       222  -8.8280    105.1443    191.6159   1.1808723405e+02   2.0141914213e+01    0.1948806    0.1421508  26.15 0.0003927117    1.622    0.383
       223  -9.0039     63.9428    190.1813   1.2785217339e+02   2.6975129021e+01    0.2263601    0.1858854 -57.75 0.0004140363    1.256    0.204
       224  -8.4641    103.9665    198.3290   1.1948098690e+02   1.8740085407e+01    0.1986985    0.1777889  49.63 0.0004119806    1.114    0.103
       225  -8.2358     14.4792    191.0144   1.3934703107e+02   3.2594847266e+01    0.1736576    0.0767966 -53.82 0.0005708528    2.357    0.576
       226  -9.3226    172.7450    189.1673   1.0183492835e+02   8.0987269619e+00    0.2521507    0.2214665 -31.90 0.0004627555    1.146    0.127
       227  -8.6953    140.1078    190.0252   1.0942836064e+02   1.4141712976e+01      0.22655    0.2009072 -14.15  0.000478431    1.305    0.234
       228  -8.0126     96.6425    190.6927   1.1999919423e+02   2.1811510836e+01     0.145776     0.116934 -19.28 0.0007041376    1.727    0.421
       229  -8.1648     30.5475    190.4675   1.3571123495e+02   3.1073043720e+01    0.1303257    0.1082581 -79.60 9.882593e-05    1.083    0.077
       230  -9.1493    179.0491    187.9668   1.0022475671e+02   7.1567990270e+00    0.2205045    0.2033588 -11.08 0.0003466681    1.100    0.091
       231  -9.2145    134.3533    187.4440   1.1030071522e+02   1.5826737297e+01    0.3251042    0.2656401 -61.26  0.001641767    1.244    0.196
       232  -8.3039    134.4662    183.4362   1.0950875440e+02   1.6741863588e+01    0.1958144     0.192462  44.18 8.911821e-05    1.052    0.050
       233  -8.4395     89.9516    188.3536   1.2125338167e+02   2.3484929345e+01    0.1904566    0.1801785  56.06 0.0003943527    1.118    0.106
       234  -8.0954      1.4080    187.8331   1.4188642396e+02   3.4517903861e+01     0.169684   0.08709591 -66.04 0.0005751622    1.620    0.383
       235  -9.0451    157.1130    186.5236   1.0480960943e+02   1.1677190324e+01    0.2713047    0.2227506 -15.29 0.0005589343    1.449    0.310
       236  -8.6517     20.7073    186.3943   1.3751150038e+02   3.3080739869e+01    0.2005848     0.126169 -56.15 0.0005130753    1.591    0.371
       237  -8.7530    150.8562    185.7696   1.0609975364e+02   1.3055114981e+01    0.2168736    0.2022894  -5.75 0.0004484211    1.163    0.140
       238  -8.9728    128.3916    185.8932   1.1143568083e+02   1.7311337422e+01    0.2457133    0.2086646  -3.53 0.0004389808    1.482    0.325
       239  -8.4847     34.2623    184.8250   1.3422046095e+02   3.2024708771e+01    0.2191963    0.1632161 -27.75 0.0009343086    1.968    0.492
       240  -8.0946     26.5396    184.9413   1.3602745219e+02   3.2832520426e+01    0.1798792   0.08245629 -51.40 0.0008053887    2.332    0.571
       241  -8.3812    189.9201    183.8137   9.7078431011e+01   5.9719224679e+00    0.2151522    0.1860494  -8.31 0.0005198907    1.234    0.189
       242  -8.8082    173.3573    183.8573   1.0063654090e+02   9.1222928055e+00    0.2240746    0.2013355  51.81 0.0003549543    1.165    0.142
       243  -8.9632    166.7218    184.0474   1.0214471889e+02   1.0364643714e+01    0.2443221    0.2027044  -0.10 0.0004343581    1.432    0.302
       244  -8.2160    109.3694    183.8701   1.1570446814e+02   2.1273079163e+01    0.2119202    0.1332314 -47.12 0.0005947129    1.658    0.397
       245  -7.9287    103.9477    184.2302   1.1710801159e+02   2.2138248176e+01    0.1804668    0.1217689  42.12 0.0002141331    1.484    0.326
       246  -7.9042     86.7221    184.6630   1.2145141127e+02   2.4912642257e+01    0.1437673    0.1115546 -34.11 0.0004592491    1.613    0.380
       247  -8.1471    140.1775    183.5330   1.0816557328e+02   1.5626451476e+01    0.1997805    0.1474449  24.69 0.0004228339    1.581    0.367
       248  -8.3521     95.2510    182.8021   1.1902022520e+02   2.3972926511e+01    0.2040817    0.1672253 -37.46 0.0006935112    1.421    0.296
       249  -8.1721     67.1744    182.8699   1.2601635201e+02   2.8320904494e+01    0.1831871    0.1640279 -38.77 0.0004450115    1.332    0.249
       250  -8.2831    154.9356    181.9603   1.0440063345e+02   1.3124299333e+01    0.2254979    0.1807605 -13.66 0.0003432697    1.550    0.355
       251  -9.0732    197.4861    181.0033   9.4944581943e+01   5.1323240237e+00    0.2390683    0.1969194  11.67 0.0004516827    1.355    0.262
       252  -9.3342    183.7912    180.8452   9.7765637001e+01   7.7570545218e+00    0.2407784    0.2203528 -10.56 0.0004538039    1.122    0.109
       253  -9.2557    172.3255    180.2467   1.0012858728e+02   1.0104953779e+01    0.5049159    0.2297875  30.60  0.001713365    3.023    0.669
       254  -8.9523    176.7853    178.9979   9.8894803532e+01   9.5061532484e+00    0.2386195    0.2135804  27.71 0.0004205445    1.153    0.133
       255  -8.4188     77.3284    180.7684   1.2316584392e+02   2.7345155639e+01    0.2037901    0.1209991 -55.60 0.0003668736    1.607    0.378
       256  -8.5469     54.8725    180.7067   1.2873973831e+02   3.0539443284e+01    0.2471814    0.1645416 -55.11  0.001103222    1.467    0.319
       257  -8.2330     46.5446    181.5098   1.3088263935e+02   3.1396429437e+01     0.136659    0.1176294 -75.45 0.0001714337    1.074    0.069
       258  -8.3575    160.1731    179.7641   1.0275583810e+02   1.2592419979e+01    0.2001085    0.1741704 -12.65 0.0003618358    1.301    0.231
       259  -7.8301     89.5514    180.4504   1.2004628891e+02   2.5495878853e+01    0.1459281    0.1372027 -73.75 0.0002022012    1.069    0.065
       260  -8.1812    165.1803    179.1685   1.0149979241e+02   1.1741149855e+01    0.1945045     0.174191  77.27 0.0003082212    1.250    0.200
       261  -8.5312    145.7050    178.9571   1.0595152795e+02   1.5614932352e+01    0.2090742    0.1958458 -53.86 0.0004409316    1.063    0.059
       262  -7.9727     82.5804    179.4392   1.2163118400e+02   2.6863216382e+01    0.1447275    0.1334448 -75.83 8.278513e-05    1.052    0.050
       263  -7.7631     42.2931    179.3023   1.3162803540e+02   3.2452399551e+01    0.1305181   0.09605703 -44.78 0.0003085005    1.572    0.364
       264  -9.4433    134.2325    177.2949   1.0836422546e+02   1.8232864469e+01    0.3342676    0.2666824  87.77  0.001028921    1.491    0.329
       265  -8.0314     26.4101    177.8406   1.3526455381e+02   3.4564431105e+01    0.1845585   0.09849145 -60.53 0.0005705169    1.639    0.390
       266  -9.7139    190.5699    176.9005   9.5524351361e+01   7.2861977763e+00    0.3016585    0.2296907  42.18 0.0003757213    1.367    0.269
       267  -8.8164    169.7530    176.4570   9.9917532070e+01   1.1439415974e+01    0.2795964    0.1884184 -29.74 0.0007369638    1.731    0.422
       268  -8.0704    181.3931    161.8072   9.4260988507e+01   1.2312894810e+01    0.2122516    0.1391518 -36.21 0.0004534103    1.575    0.365
       269  -8.9413    183.8471    158.8408   9.3093182614e+01   1.2455705035e+01    0.3776651    0.1932073 -54.15  0.001448124    2.139    0.532
       270 -10.4531    175.6068    172.4979   9.7798893225e+01   1.1148090130e+01    0.5273352    0.4904305  10.53  0.002457235    1.135    0.119
       271  -9.8923    178.8013    166.7249   9.5878536392e+01   1.1767951494e+01    0.3740628    0.3137444  -6.44  0.001395156    1.407    0.289
       272  -9.5274    100.9486    176.0762   1.1640182307e+02   2.4659993807e+01    0.3200533    0.2217886  63.06            0    1.629    0.386
       273  -7.8293     64.7224    177.6887   1.2585123405e+02   2.9955672657e+01    0.1375967    0.1045979 -40.00 0.0003238407    1.561    0.359
       274  -8.3165      6.4865    177.4582   1.3984223983e+02   3.6522025335e+01    0.1250362   0.09830987 -75.73 0.0008073195    1.094    0.086
       275  -8.7808    150.0624    175.5154   1.0422732894e+02   1.5551887717e+01    0.2218881    0.2079901 -52.32 0.0004067166    1.057    0.054
       276  -9.4394    197.7803    174.8724   9.3621240620e+01   6.3322153646e+00    0.2491217    0.2192358  -1.24 0.0004660776    1.221    0.181
       277  -9.5163    182.5470    174.0099   9.6615251010e+01   9.4524157144e+00    0.3378589    0.2597868 -10.33  0.001075425    1.637    0.389
       278  -8.9809    187.5266    171.0271   9.4932998256e+01   9.1124408001e+00    0.2654639    0.2487774  39.76 0.0003716883    1.113    0.101
       279  -9.1859    183.8354    169.7706   9.5447572984e+01   1.0106928897e+01    0.2639948    0.2128647 -44.93 0.0004979111    1.194    0.163
       280  -8.4892    139.9205    175.0941   1.0655074771e+02   1.7646313245e+01    0.2253636    0.1862537 -10.32 0.0003821792    1.525    0.344
       281  -7.5428    112.3462    175.3157   1.1338455820e+02   2.2821728301e+01    0.1542099    0.1218881 -15.99 0.0007047922    1.720    0.419
       282  -7.7353     93.5720    175.4750   1.1816731578e+02   2.6065304338e+01    0.1480742    0.1389446 -63.37 0.0001431167    1.086    0.079
       283  -8.2121     37.9540    174.9698   1.3213028757e+02   3.4021543197e+01    0.2064256    0.1440471 -44.02 0.0006451732    1.659    0.397
       284  -9.5495    161.3838    173.8340   1.0125831766e+02   1.3684622757e+01    0.2633204    0.2308728  19.33 0.0004122786    1.250    0.200
       285  -7.8838    155.6384    174.7123   1.0276171042e+02   1.4629863212e+01    0.1561679    0.1225744  -1.26  0.000491825    1.690    0.408
       286  -8.9275    128.9832    172.8555   1.0876119699e+02   2.0300519953e+01     0.222288    0.2182284 -70.77 0.0004113981    1.037    0.036
       287  -7.6203     51.3096    173.3034   1.2858119209e+02   3.2836202321e+01    0.1357885    0.1006697 -39.97 0.0003275348    1.607    0.378
       288  -8.7822     23.9841    172.3319   1.3520787919e+02   3.6148682683e+01    0.2308967    0.1486544 -51.11 0.0008417724    1.601    0.375
       289  -8.1306      2.5188    173.4644   1.4036331481e+02   3.7793659109e+01    0.1246028   0.09687266 -81.27  8.97395e-05    1.020    0.020
       290  -9.5869    192.9888    171.4348   9.3882512325e+01   7.9629154034e+00    0.2768272    0.2074961 -40.99 0.0003378092    1.272    0.214
       291  -8.1723     89.7147    171.9280   1.1852450918e+02   2.7587803243e+01    0.2071512    0.1755703 -61.63  0.000507938    1.126    0.112
       292  -8.1201      8.3632    172.2677   1.3890266566e+02   3.7596472450e+01    0.1200062   0.08351522 -46.18 0.0006992686    1.649    0.394
       293  -8.2771    107.4697    171.4657   1.1388534363e+02   2.4647212287e+01     0.150802    0.1452895 -62.19 0.0008079275    1.070    0.065
       294  -7.9614     76.4683    171.4850   1.2186612300e+02   2.9793170723e+01     0.145873    0.1336569 -69.27 0.0008088233    1.064    0.060
       295  -7.9041     62.3897    170.7968   1.2538426902e+02   3.2001746204e+01    0.2044762    0.1157175 -53.69  0.000571807    1.672    0.402
       296  -7.9230     44.4728    170.9971   1.2997862467e+02   3.4247937374e+01    0.1930272   0.09128954 -47.20 0.0006997388    2.342    0.573
       297  -9.7260    204.9939    167.2462   9.0586312214e+01   6.5229040313e+00    0.2734969    0.2273118 -13.79 0.0003266751    1.327    0.247
       298  -8.3641    143.1828    169.7986   1.0467991454e+02   1.8244735723e+01    0.2092745    0.1816481 -21.55 0.0004788431    1.314    0.239
       299  -8.2036    119.2639    170.0145   1.1061415148e+02   2.2835289809e+01    0.2106122    0.1948017 -59.66   0.00036819    1.064    0.060
       300  -8.6619    197.2550    168.5489   9.2403297439e+01   7.7387830629e+00    0.2481761    0.1888563 -34.56  0.000370628    1.287    0.223
       301  -9.7860    199.4839    162.8197   9.0738518550e+01   8.4934068517e+00    0.4069502    0.2624721 -48.38 0.0008278646    1.489    0.328
       302  -8.3304    158.1877    169.1291   1.0100397890e+02   1.5390450662e+01    0.2283928    0.2050045 -10.11 0.0005979692    1.250    0.200
       303  -8.3817     94.6571    168.8915   1.1669504486e+02   2.7520543080e+01    0.2815097     0.179822 -68.01  0.001245318    1.624    0.384
       304  -8.4421    134.8477    167.9274   1.0631407920e+02   2.0336311717e+01    0.2320509    0.2041821 -22.54 0.0004260799    1.294    0.227
       305  -7.9470     37.3114    168.3689   1.3142375876e+02   3.5722953063e+01    0.1405786   0.09068792 -43.68 0.0007036291    1.768    0.434
       306  -8.1161     24.3648    168.2824   1.3463445810e+02   3.7098192921e+01    0.1285248   0.08968554 -42.02 0.0007016602    1.685    0.406
       307  -8.8412    169.8382    166.6817   9.7837804649e+01   1.3585259338e+01    0.2439272    0.2010291 -34.01 0.0003983559    1.246    0.198
       308  -8.3642    150.2072    166.8761   1.0239132176e+02   1.7518094163e+01    0.2069295    0.1804628 -19.31 0.0003694991    1.302    0.232
       309  -8.1463     84.9905    167.5280   1.1896326174e+02   2.9455014008e+01     0.199714    0.1487292  34.19 0.0003944534    1.465    0.317
       310  -8.5429    127.8380    165.9898   1.0764750461e+02   2.2170886068e+01    0.2288696    0.2013818 -24.87 0.0003837836    1.292    0.226
       311  -7.8592     90.5204    166.4897   1.1732783103e+02   2.8813007858e+01    0.1495702     0.140273 -60.82 0.0003206264    1.078    0.072
       312  -7.7993     58.7105    165.6771   1.2553236711e+02   3.3782642620e+01    0.1412808    0.1022294 -39.40 0.0003590341    1.607    0.378
       313  -8.6293    201.0567    170.1500   9.1975756512e+01   6.6791081201e+00    0.2662289    0.1949603 -39.78 0.0008740742    1.287    0.223
       314  -9.6155    191.9574    163.0419   9.2311375426e+01   9.9288394646e+00    0.3101135    0.2048963 -36.25  0.000529465    1.521    0.342
       315  -9.1384    184.8227    163.6019   9.3919754611e+01   1.1233949911e+01    0.2597123    0.2034672 -40.42 0.0004813412    1.233    0.189
       316  -9.1277    120.1806    163.2631   1.0901449972e+02   2.4305009587e+01    0.2513498    0.2368198 -51.64 0.0004863657    1.071    0.066
       317  -8.2601    159.4789    163.4525   9.9491607714e+01   1.6420209417e+01    0.1535186    0.1498746 -30.88 0.0001317185    1.044    0.042
       318  -8.0073    111.2908    163.3187   1.1130519671e+02   2.5958560867e+01     0.152762    0.1213447 -22.26 0.0002632413    1.601    0.375
       319  -8.0484    164.6019    166.4698   9.8969692345e+01   1.4694099133e+01    0.1526665    0.1458922 -39.14 8.214207e-05    1.038    0.037
       320 -10.4158    213.0620    160.3140   8.7573518458e+01   6.3921966106e+00    0.4184627    0.2873553 -57.23 0.0004245175    1.581    0.367
       321  -8.6303    211.5490    154.0715   8.6530407610e+01   7.9355677968e+00    0.2898837    0.1935367 -28.62 0.0004301979    1.655    0.396
       322  -9.1558    211.8498    150.2026   8.5644081168e+01   8.6562355657e+00    0.3216427    0.2282572 -26.36 0.0003657043    1.586    0.369
       323  -9.9102    214.8967    146.9667   8.4387170276e+01   8.7108572223e+00    0.2795008    0.2242162 -37.47 0.0003583611    1.174    0.148
       324  -8.3368    172.5200    162.4832   9.6336847318e+01   1.3970688681e+01    0.1528391    0.1474196 -33.94 5.173087e-05    1.034    0.032
       325  -8.9881    163.4399    160.2235   9.7881205681e+01   1.6339160393e+01    0.2502204    0.2241344 -20.46  0.000295338    1.216    0.178
       326  -8.2311      9.3217    161.3167   1.3751578224e+02   4.0137618343e+01    0.1276045   0.08018492 -48.32 0.0007042178    1.663    0.399
       327  -8.2099    153.0350    160.0347   1.0025066960e+02   1.8523898812e+01    0.2302887    0.1885797  -7.56 0.0003602017    1.549    0.354
       328  -8.8777      5.8244    162.2991   1.3847134518e+02   4.0183313967e+01     0.217247    0.1377984 -81.86 0.0006138434    1.310    0.237
       329 -10.1562     24.6695    155.9012   1.3298920180e+02   4.0096582652e+01    0.2908861    0.2326476   1.74  0.001261542    1.685    0.407
       330  -8.3960    191.7623    157.9842   9.1258148356e+01   1.1036645968e+01    0.2109275    0.1919831 -39.39 0.0006203605    1.048    0.046
       331  -9.5056    176.6801    157.0097   9.4227773039e+01   1.4322439682e+01    0.2696649    0.2392133 -18.57 0.0003897446    1.231    0.187
       332  -8.7081    167.9638    157.7737   9.6320323449e+01   1.5955075862e+01     0.228586    0.2081491  -8.39 0.0005473075    1.220    0.180
       333  -8.6892    158.9101    158.1061   9.8456142740e+01   1.7754806775e+01    0.2378892     0.190668  -8.44 0.0004832433    1.614    0.380
       334  -9.1182    136.1849    157.8601   1.0384702326e+02   2.2465609678e+01     0.287035    0.2192297 -79.26 0.0003830057    1.583    0.368
       335  -7.9397     55.2938    158.3710   1.2526160721e+02   3.6061551765e+01    0.1475243   0.09839783 -39.55 0.0007026551    1.728    0.421
       336  -9.7512    197.2366    154.7882   8.9455012830e+01   1.0608793500e+01    0.2765017    0.2299478 -32.74 0.0004118671    1.197    0.165
       337  -9.5783    164.9184    154.1205   9.6196269564e+01   1.7407543712e+01    0.4421063    0.3532002 -15.85  0.001843758    1.553    0.356
       338  -8.4468    128.0763    155.7641   1.0542147441e+02   2.4585716382e+01    0.2070533    0.2040245  54.95 0.0003080898    1.054    0.051
       339  -8.3822     99.1636    156.2102   1.1305033041e+02   2.9901032825e+01    0.2198544    0.1993257 -24.73 0.0005060481    1.251    0.200
       340  -8.1511     60.8715    156.4049   1.2343133370e+02   3.5819077092e+01    0.1772281    0.1401734   7.26 0.0004423685    1.663    0.399
       341  -9.7788     18.2200    155.4390   1.3459225133e+02   4.0800903446e+01    0.2808236    0.1698861  84.00  0.001451461    1.780    0.438
       342  -9.5341    216.0447    154.4514   8.5776806253e+01   6.9969750080e+00    0.2621272    0.1923481 -42.36 0.0003202967    1.238    0.192
       343  -9.0380    187.6403    153.5963   9.1147002757e+01   1.2806636493e+01     0.340838    0.1742159 -40.01 0.0008734981    1.941    0.485
       344  -8.8666    113.4724    155.1054   1.0903955094e+02   2.7568598171e+01    0.2303335    0.1478523 -51.05 0.0006223657    1.506    0.336
       345 -10.1435    205.4144    159.3622   8.8832351232e+01   8.0502890895e+00    0.3490851    0.2908877   5.11 0.0004809464    1.435    0.303
       346  -9.2060    206.0605    152.6041   8.7254855418e+01   9.3048616962e+00    0.2601603    0.1983393 -34.78 0.0004392195    1.284    0.221
       347  -8.2347    192.5229    152.9439   9.0000796414e+01   1.1948087623e+01    0.2247159    0.1418616 -44.04 0.0004574896    1.495    0.331
       348 -10.4961    144.2269    149.9666   1.0012282794e+02   2.2680818289e+01    0.6567624    0.3484682 -62.47  0.001680714    2.465    0.594
       349  -9.0744    157.0801    150.9770   9.7291197578e+01   1.9761794570e+01    0.2374265    0.1915387  -9.60 0.0004515602    1.597    0.374
       350  -8.4434    151.8752    151.1576   9.8555031876e+01   2.0811121580e+01    0.2278342    0.2081695  88.02 0.0003275363    1.158    0.137
       351  -9.8455    138.8874    141.1747   9.9417649928e+01   2.5841976862e+01    0.3391347    0.2979077  41.80 0.0004306811    1.177    0.150
       352  -9.9302    129.3948    114.6605   9.5327456946e+01   3.3854375703e+01    0.3217948    0.2486588  30.94  0.001045518    1.438    0.305
       353  -9.6335    129.5315    106.7978   9.3245208627e+01   3.5514402489e+01    0.3013663    0.2269173  58.56 0.0003730757    1.428    0.300
       354  -9.8907    136.6115    130.2005   9.7374765275e+01   2.8849976719e+01    0.3989702    0.2552507 -44.39  0.001072383    1.544    0.352
       355 -11.4455    134.6970    122.8093   9.6038102729e+01   3.0925688693e+01     1.220558    0.4241976 -51.09  0.003769432    3.088    0.676
       356 -10.8376    133.1865    147.1552   1.0221969583e+02   2.5614083103e+01    0.6840045    0.3977153 -60.16  0.002086554    1.921    0.480
       357 -10.5336    132.0056    140.1378   1.0090463773e+02   2.7510509267e+01    0.5120497    0.3438205 -62.41  0.001626122    1.645    0.392
       358  -9.6657    134.0000    113.9838   9.3980010790e+01   3.3018320895e+01    0.3542616    0.2090939 -47.03 0.0008842136    1.674    0.402
       359 -10.9910    133.8364    107.7315   9.2398842724e+01   3.4390010294e+01    0.6735231    0.2996792 -45.49  0.002067355    2.230    0.552
       360  -7.7855    117.6215    151.6835   1.0722154267e+02   2.7613878396e+01    0.1618399    0.1246813 -10.62  0.000702657    1.810    0.447
       361  -8.3987    107.9663    151.3275   1.0968843872e+02   2.9521413655e+01    0.2055159    0.1940913  32.96 0.0003627952    1.135    0.119
       362  -9.2250     60.6892    146.6693   1.2175968524e+02   3.8278235288e+01    0.2331638    0.1550651 -33.93 0.0009511082    1.817    0.450
       363  -8.5656    202.5054    149.9810   8.7369895611e+01   1.0549577010e+01    0.2240363    0.1380151 -41.29  0.000632551    1.525    0.344
       364  -7.9503    176.4560    150.4206   9.2810911711e+01   1.5812805314e+01    0.1516956    0.1469409 -46.62 0.0001019941    1.021    0.021
       365  -9.2274     55.4458    144.7326   1.2288186207e+02   3.9446894394e+01    0.4332123    0.1505317 -49.64  0.001421898    2.664    0.625
       366  -9.2099     53.7126    149.3493   1.2417908094e+02   3.8518212571e+01    0.2551739    0.1834226 -73.82  0.001138206    1.324    0.245
       367  -9.5241     50.7856    147.4137   1.2465837118e+02   3.9363907166e+01    0.2929666     0.145774  26.24  0.001028244    2.436    0.590
       368  -8.9997    196.9785    148.2786   8.8079021999e+01   1.2019662448e+01    0.2649468    0.2012295 -36.79 0.0002912494    1.292    0.226
       369  -9.1809    182.0130    148.1528   9.1113251880e+01   1.5141861051e+01    0.2486779    0.2081848 -41.85 0.0002925035    1.154    0.133
       370  -8.6632    121.9978    148.4881   1.0538056484e+02   2.7536367842e+01    0.2227335    0.2094681 -54.02 0.0003978026    1.043    0.042
       371  -9.5734     68.0938    148.8233   1.2009034214e+02   3.6714671173e+01    0.2871708    0.1654866 -38.73 0.0006939707    2.050    0.512
       372  -9.3660      7.5366    149.6822   1.3662533397e+02   4.3067619650e+01    0.3003505   0.08572986  31.74   0.00124802    3.618    0.724
       373  -8.0798    172.4730    148.4884   9.3244082442e+01   1.7074889816e+01     0.154607    0.1481436 -57.94 1.615783e-06    1.009    0.009
       374  -8.9881    161.9884    147.4409   9.5355948782e+01   1.9527331528e+01    0.2727018    0.2113143 -31.98 0.0003430458    1.404    0.288
       375  -9.6987    190.0579    146.1864   8.9003877609e+01   1.3883996618e+01    0.5134923    0.2995247  59.61  0.001270926    2.137    0.532
       376  -8.4397    150.0124    147.0248   9.8059751804e+01   2.2153512231e+01    0.2324606    0.1913594  -9.45 0.0003142119    1.539    0.350
       377  -7.7456     98.2837    146.3707   1.1124004888e+02   3.2490088375e+01    0.1582704    0.1164131 -27.13 0.0006250392    1.702    0.412
       378  -8.6132     38.9714    146.0120   1.2770549935e+02   4.1075824526e+01    0.1683435    0.1422128 -68.12 0.0006973466    1.013    0.013
       379  -7.9478      2.6472    146.6956   1.3752792026e+02   4.4137736447e+01     0.127807   0.07624231 -46.07 0.0007040831    1.708    0.415
       380  -8.9342    176.1690    144.3928   9.1509425898e+01   1.7190228264e+01    0.2509516    0.2022103 -35.61 0.0004729763    1.269    0.212
       381  -8.1925     29.3086    145.3275   1.3025983309e+02   4.2239186200e+01     0.137589   0.08730975 -42.68 0.0004039525    1.658    0.397
       382  -9.3843    208.4249    143.3658   8.4798686430e+01   1.0714038714e+01    0.2680735    0.2326742 -17.68 0.0004423751    1.290    0.225
       383  -9.0416    200.1252    143.1880   8.6336388482e+01   1.2432818152e+01    0.2419907    0.1974141 -45.06 0.0003890726    1.141    0.124
       384  -8.9238     59.6034    150.2104   1.2269964736e+02   3.7539814806e+01    0.3304367     0.138121 -67.37 0.0009782875    2.516    0.603
       385  -8.6891    218.7818    142.9846   8.2833316522e+01   8.7453509521e+00    0.2110255    0.1789154 -24.84 0.0004361572    1.258    0.205
       386  -8.7444    171.8451    142.9435   9.2117928495e+01   1.8428575869e+01    0.2280219    0.2077122 -15.84 0.0004388146    1.220    0.180
       387  -8.0819    119.8701    143.3467   1.0478005038e+02   2.9190489601e+01    0.2061957    0.1475765  28.73 0.0004028693    1.616    0.381
       388  -7.5339    114.3232    143.3194   1.0623973370e+02   3.0274804878e+01    0.1579411     0.123904 -14.99 0.0005807874    1.673    0.402
       389 -10.1579     74.0559    142.2948   1.1714736058e+02   3.7465698025e+01    0.4404657    0.2722853 -20.82  0.001735824    2.732    0.634
       390 -11.5233     68.9177    136.3062   1.1740580788e+02   3.9699054246e+01    0.5988603    0.4145764 -71.37  0.002700148    1.518    0.341
       391  -8.2447    194.4885    141.9487   8.7164659132e+01   1.3853976792e+01    0.2245732     0.141601 -42.17 0.0004765331    1.504    0.335
       392  -9.2960    155.4441    140.8697   9.5353226238e+01   2.2404916960e+01    0.3091722    0.2582829 -18.46 0.0006036021    1.423    0.297
       393  -8.4295    147.7369    141.2646   9.7274496614e+01   2.3957983326e+01    0.2089999    0.1846938  -5.78 0.0005644225    1.338    0.253
       394  -8.5141    203.5222    139.9693   8.4972251146e+01   1.2397867310e+01    0.2147556    0.1376637 -43.36 0.0003360311    1.448    0.309
       395  -8.3788    181.4164    139.6971   8.9319935399e+01   1.7087792237e+01    0.2105717    0.1427305 -35.61 0.0006529285    1.544    0.352
       396  -9.0206    213.9683    140.7158   8.3204433195e+01   1.0140808011e+01    0.2330501    0.1860569 -31.70 0.0004565968    1.277    0.217
       397  -9.3833    224.3990    138.5319   8.0903843758e+01   8.5302422310e+00    0.2516012    0.2165432 -34.82 0.0005792591    1.140    0.123
       398  -8.4947    186.8419    138.9018   8.8015176671e+01   1.6102115405e+01    0.2232325    0.1978623 -26.20  0.000348483    1.212    0.175
       399  -9.0027    166.4011    138.5661   9.2309380969e+01   2.0561849599e+01     0.253986     0.247036 -41.11 0.0002409791    1.054    0.051
       400  -9.7042     62.3848    139.1790   1.1986573210e+02   3.9907057318e+01    0.2102737    0.1287284 -70.57 0.0007963544    1.710    0.415
       401  -8.5830    152.0167    137.7078   9.5417758439e+01   2.3854813974e+01    0.2093513    0.2045201  67.46 0.0004977291    1.044    0.042
       402  -7.9506    123.6538    138.7068   1.0272187003e+02   2.9545037858e+01    0.1576916    0.1258849  -6.05 0.0005932966    1.666    0.400
       403  -7.9904    115.7362    138.6893   1.0480740973e+02   3.1114198878e+01    0.1522379    0.1214871 -20.79 0.0001858441    1.535    0.349
       404  -7.9041    109.4555    138.5202   1.0645797506e+02   3.2359567038e+01    0.1553968    0.1464444 -34.73 0.0001756466    1.099    0.090
       405  -8.9677    146.9361    136.8863   9.6438009554e+01   2.5129268592e+01    0.2306966    0.2234849 -44.92 0.0003602006    1.047    0.045
       406  -9.7694    208.1343    135.8591   8.3202451959e+01   1.2288095261e+01    0.2910723    0.2405846  38.41 0.0004322269    1.371    0.271
       407  -8.2685    183.4998    136.4534   8.8141300379e+01   1.7334293622e+01    0.1522109    0.1452951 -53.00 7.009706e-05    1.023    0.022
       408  -8.7569    142.9900    135.9894   9.7184601850e+01   2.6174651723e+01    0.2386129    0.1925168 -12.25 0.0004476389    1.593    0.372
       409  -9.4100    198.3518    134.4123   8.4716016584e+01   1.4607287469e+01    0.3394326     0.281036 -85.66  0.001498929    1.387    0.279
       410  -9.6946    192.9484    134.7255   8.5838096669e+01   1.5682201472e+01    0.2766064     0.208916 -44.68  0.000276094    1.248    0.199
       411  -8.7478    172.1187    135.1847   9.0258840819e+01   2.0063524798e+01    0.2254274    0.2099345  -7.03 0.0003972995    1.210    0.174
       412  -8.2171     48.4549    135.4517   1.2319133355e+02   4.2597251562e+01    0.1394206    0.1219379 -60.15 6.528239e-05    1.010    0.010
       413  -8.9651    187.9408    133.4515   8.6544576552e+01   1.7015416327e+01    0.3327363    0.2010452 -35.61 0.0008810952    1.759    0.431
       414  -9.1049    163.3911    133.5636   9.1807847221e+01   2.2316748701e+01    0.2703504    0.2476241 -44.21 0.0007287184    1.082    0.075
       415 -10.1725    160.7408    129.8138   9.1512596068e+01   2.3718958420e+01     0.413057    0.2598573 -38.22  0.001750231    1.658    0.397
       416  -8.5993    155.9544    134.0970   9.3637404004e+01   2.3816129991e+01    0.2375215    0.2253072 -43.20 0.0005061225    1.062    0.059
       417  -8.3918     21.8468    134.2537   1.3065844034e+02   4.5612772568e+01    0.1832824    0.1297025 -46.10 0.0008090769    1.351    0.260
       418  -9.7863    179.4263    130.0802   8.7506846364e+01   1.9567103560e+01    0.2869388    0.2617275 -23.99 0.0004248763    1.201    0.167
       419  -8.8437    114.2415    131.1230   1.0343232176e+02   3.3200851448e+01    0.2307676     0.204276 -29.91 0.0006979973    1.199    0.166
       420  -7.4699     80.3182    131.3063   1.1302886381e+02   3.9192574152e+01    0.1502176    0.1122275 -23.78 0.0007029682    1.632    0.387
       421  -7.9500     32.4895    131.5163   1.2714742800e+02   4.5286963977e+01    0.1372632    0.1110863 -51.96 7.088319e-05    1.115    0.103
       422  -9.6778    125.8789    129.3871   9.9922698303e+01   3.1274033724e+01    0.5051956     0.257112 -46.72  0.001787441    1.918    0.479
       423  -8.5342    124.4655    124.4745   9.9087520863e+01   3.2691414502e+01    0.2563654    0.1940125 -53.37  0.000687509    1.310    0.236
       424 -10.5953     65.3093    128.9789   1.1694087710e+02   4.1997513414e+01    0.5120944     0.277339 -26.88  0.001898543    3.072    0.675
       425  -9.8428    154.9518    128.2358   9.2462375991e+01   2.5334174742e+01     0.279876    0.2242558 -45.72 0.0006855392    1.222    0.182
       426  -9.5463    151.9349    124.3765   9.2225799289e+01   2.6843597193e+01    0.3061502    0.2274059 -46.26 0.0005834114    1.318    0.241
       427  -8.0626    149.3139    129.3020   9.4048691163e+01   2.6327316605e+01    0.1553252    0.1267544  -2.01  0.000584852    1.614    0.380
       428  -8.7986    142.6389    129.1842   9.5633424667e+01   2.7795449004e+01    0.2238273    0.1434572 -37.37 0.0004920657    1.670    0.401
       429  -9.0069    121.4718    126.9853   1.0049556353e+02   3.2726544037e+01    0.3288998    0.2499295  24.47 0.0005008194    1.559    0.358
       430  -8.8660    192.5773    127.1915   8.4186158989e+01   1.7316636031e+01    0.2622175    0.2123675 -17.28 0.0005652193    1.535    0.349
       431  -8.7424    186.3679    127.3188   8.5441769807e+01   1.8634118687e+01    0.2444555    0.2177343 -26.02 0.0005502721    1.233    0.189
       432  -8.1876     73.3094    128.3333   1.1442918332e+02   4.0993026657e+01    0.1514152     0.107748 -27.62  0.000704246    1.673    0.402
       433  -8.1989    150.0066    133.4749   9.4889148874e+01   2.5242525614e+01    0.2256548     0.155885  45.43  0.000430127    1.484    0.326
       434  -8.8946    171.9510    127.0710   8.8377946868e+01   2.1845781214e+01    0.2301937    0.2252223 -25.94 0.0004472584    1.096    0.088
       435  -8.6945    165.5112    126.9341   8.9750400351e+01   2.3295444093e+01     0.230555    0.1499741 -43.08 0.0005103853    1.508    0.337
       436  -7.6943     80.6725    126.6373   1.1187781315e+02   4.0259484967e+01    0.1574441    0.1103871 -24.47 0.0007040051    1.796    0.443
       437  -8.2112     36.4766    126.4765   1.2507584294e+02   4.6097553504e+01    0.1372547    0.1138252 -51.62 0.0008086611    1.074    0.069
       438  -8.8831    199.9762    124.9685   8.2269178991e+01   1.6182972565e+01    0.2185905    0.2053652 -41.05            0    1.099    0.090
       439  -9.2758    179.8592    122.0937   8.5532109726e+01   2.1146363205e+01    0.3380572    0.2443272 -23.49  0.001114173    1.764    0.433
       440  -8.9542    146.4903    123.9043   9.3403398304e+01   2.8139117910e+01    0.2339109    0.1519211 -45.28 0.0006495544    1.512    0.339
       441  -8.6170    107.8927    123.9012   1.0342347985e+02   3.6115938070e+01    0.2271731    0.1996879 -16.13 0.0002824808    1.272    0.214
       442  -8.4792    169.9967    123.0351   8.7830935402e+01   2.3135556854e+01    0.2297188    0.1901652  -4.66 0.0004239731    1.584    0.369
       443  -9.3094    187.8961    121.1013   8.3685685547e+01   1.9579847247e+01    0.2391975    0.2284154 -62.08 0.0003259242    1.035    0.034
       444  -8.2393    128.0433    121.9973   9.7537378011e+01   3.2511138738e+01    0.2313513    0.1882414  -9.44 0.0003673891    1.557    0.358
       445  -8.8400      1.9949    121.9619   1.3452323137e+02   4.9988029735e+01    0.2043277    0.1091679 -45.58 0.0006444917    1.704    0.413
       446  -9.2532    212.5214    120.5714   7.9032548064e+01   1.4409488562e+01    0.2360859    0.2169354 -52.90 0.0002710266    1.050    0.047
       447  -8.9330    117.0214    121.0061   1.0020554594e+02   3.4992769177e+01     0.245685    0.1898619 -12.06 0.0009372905    1.701    0.412
       448  -8.2185     22.6627    121.6616   1.2837056885e+02   4.8539575506e+01    0.1399857   0.08079193 -39.29 0.0007051195    1.756    0.430
       449  -8.9487    202.5369    119.3767   8.0526537746e+01   1.6750838213e+01    0.3160973    0.2212074  57.87 0.0008784612    1.532    0.347
       450  -8.2715    152.3059    120.3018   9.1132584229e+01   2.7648281835e+01    0.1529474    0.1258599   0.30 0.0002404635    1.597    0.374
       451  -7.7428     89.2888    120.3967   1.0787978872e+02   4.0308384887e+01    0.1586239    0.1113392 -24.08 0.0007000284    1.781    0.439
       452  -8.5820    220.1400    119.1237   7.7431519350e+01   1.3119337230e+01    0.1921254    0.1500127 -62.00 0.0003671334    1.239    0.193
       453  -8.8962    194.0443    118.9425   8.1997662734e+01   1.8671783594e+01    0.2187992    0.2054314 -51.75 0.0002903244    1.061    0.058
       454 -10.6325    157.4607    116.8476   8.9087134327e+01   2.7241413218e+01    0.6493986     0.275886 -37.97 0.0009662789    2.625    0.619
       455  -9.1972    147.6790    116.0888   9.1167440388e+01   2.9578058976e+01    0.2739346    0.1924966 -48.24 0.0006947192    1.402    0.287
       456  -9.1500     66.2028    117.0363   1.1403404857e+02   4.4713801285e+01    0.3792578    0.2870366 -17.76  0.001945752    1.567    0.362
       457  -8.5011    184.0239    117.9713   8.3712413819e+01   2.1071479134e+01     0.221932     0.185876  -0.51 0.0003260555    1.592    0.372
       458  -9.0223    173.8642    117.7952   8.5743159904e+01   2.3370650739e+01    0.2225091    0.2107634  -1.14 0.0004452022    1.212    0.175
       459  -7.8585    209.3076    117.2979   7.8857435354e+01   1.5718608967e+01    0.1375956    0.1166392  -0.94 0.0004349009    1.592    0.372
       460  -9.6163    137.0578    136.2756   9.8721374040e+01   2.7361072633e+01    0.4259418    0.2827259 -30.88  0.001777109    1.827    0.453
       461 -10.9907      7.2016    113.9799   1.3177309453e+02   5.1491339181e+01    0.5255083    0.2370684 -56.61  0.002687935    1.673    0.402
       462  -8.4475    163.2036    114.8148   8.7299936524e+01   2.6381424894e+01    0.2029546    0.1826825  -8.13 0.0003479967    1.316    0.240
       463  -8.6347    218.7972    113.5438   7.6430987882e+01   1.4454271488e+01    0.3581243    0.2363789  29.63  0.001603515    2.378    0.579
       464  -7.8430    212.2793    114.3252   7.7684034464e+01   1.5665291207e+01     0.136803    0.1146743  -9.42 0.0004267582    1.591    0.372
       465  -9.0289    202.9143    113.3822   7.9092271966e+01   1.7844317335e+01     0.303713    0.2347019 -71.76 0.0009259678    1.384    0.278
       466  -8.7968    181.2504    114.3819   8.3409165953e+01   2.2417137921e+01    0.2258181    0.1901001  34.31  0.001141565    1.376    0.273
       467  -9.3681    185.8410    113.0473   8.2185412311e+01   2.1660753037e+01    0.2942269    0.2384075  72.36 0.0003994489    1.317    0.241
       468  -8.3283     21.5603    114.2128   1.2739251127e+02   5.0370660458e+01    0.1917644   0.09199997 -52.05 0.0007714952    1.676    0.403
       469  -9.3619    194.1418    111.7389   8.0302040656e+01   2.0079663691e+01    0.3473704    0.2810128  21.06  0.001464114    1.676    0.403
       470  -8.2744    173.6710    113.2779   8.4686010243e+01   2.4342170938e+01    0.1543318    0.1176964 -85.51 0.0002527661    1.597    0.374
       471  -9.8674    121.9977    113.2600   9.6899834006e+01   3.5709896291e+01    0.2430549     0.213123 -86.43 0.0007419753    1.288    0.224
       472 -10.3513    119.4693    102.0572   9.4613623267e+01   3.8631837269e+01    0.4085071    0.2678492 -33.03  0.001153516    1.682    0.405
       473 -10.9008    122.9846    107.8670   9.5229587607e+01   3.6672714254e+01    0.4929488    0.3629296  47.05  0.001134604    1.377    0.274
       474  -9.8107    114.1765    112.8979   9.8914326525e+01   3.7380791414e+01    0.2655266    0.2272833  11.01 0.0004964498    1.346    0.257
       475  -8.1507     41.4605    113.4720   1.2099055228e+02   4.8642247869e+01     0.137808    0.1144334 -44.09 0.0008074646    1.079    0.073
       476  -8.9539    208.2300    111.6762   7.7778694653e+01   1.7031479458e+01    0.2021438     0.166497 -57.23 0.0004179066    1.115    0.103
       477  -8.2784    223.3083    110.9424   7.5143043992e+01   1.4014150267e+01    0.1974018    0.1589946 -46.91 0.0003067181    1.137    0.120
       478  -8.9434     61.1969    111.6169   1.1433460928e+02   4.6664293123e+01    0.1895984    0.1337551  11.93 0.0004984697    1.727    0.421
       479  -9.0198     17.2651    110.3229   1.2803196883e+02   5.1608576537e+01    0.2522739    0.1139763 -53.21  0.001234073    1.727    0.421
       480  -8.7738    168.0230    110.0153   8.5069079032e+01   2.6281810879e+01    0.1878836    0.1711009 -55.28 0.0004125631    1.065    0.061
       481  -8.8220    143.8616    110.1899   9.0575281944e+01   3.1675310221e+01    0.2067406    0.1804386  21.74 0.0004534269    1.314    0.239
       482  -8.9630    176.7422    108.5038   8.2892682093e+01   2.4611872809e+01    0.2711347    0.2042601 -42.42 0.0006361224    1.313    0.238
       483  -7.7204    150.3133    109.2868   8.8819795354e+01   3.0427549167e+01    0.1503228    0.1238897   7.58 0.0002752895    1.582    0.368
       484  -8.4914      1.8585    109.0863   1.3262549191e+02   5.2937152658e+01    0.2030415      0.10658 -43.61  0.001111445    1.690    0.408
       485  -9.6481    218.8524    103.3202   7.4178375175e+01   1.6347155386e+01    0.3282689    0.1909291 -38.25 0.0006155525    1.710    0.415
       486  -8.1340    201.1835    107.6056   7.8073028853e+01   1.9334636830e+01    0.2005932    0.1645814 -55.89 0.0004960018    1.128    0.114
       487  -8.2016    155.3049    108.3152   8.7428109847e+01   2.9506306097e+01    0.1513852    0.1242809   3.60 0.0006256473    1.622    0.384
       488  -8.5680    139.6548    108.2978   9.1104805689e+01   3.3000704706e+01    0.1579409    0.1216275  89.48 0.0007034897    1.674    0.403
       489  -8.3303     36.7436    108.1908   1.2138507269e+02   5.0354541643e+01    0.1878642    0.1346616 -33.87 0.0006340472    1.372    0.271
       490  -8.6998    190.0277    107.0653   7.9967227935e+01   2.1905769831e+01    0.2244969     0.209453 -67.28 0.0004908874    1.019    0.019
       491  -9.2740    153.1712    114.1154   8.9384217134e+01   2.8777282244e+01    0.2282298    0.2113171   3.06 0.0005568852    1.240    0.194
       492  -8.1737     29.3929    106.7496   1.2346329091e+02   5.1396932775e+01    0.1989404    0.0946904 -50.26 0.0008167453    1.717    0.418
       493  -9.8357     12.3274    106.1375   1.2884092281e+02   5.2923314904e+01    0.2428333    0.1982056  51.50  0.001155013    1.531    0.347
       494  -9.3122    160.8560    105.9167   8.5585589880e+01   2.8737878816e+01    0.2374727    0.2322971 -45.68 0.0002632344    1.077    0.072
       495  -9.4269    112.7477    105.7764   9.7436234463e+01   3.9216931554e+01    0.2499912    0.2174303  44.54 0.0006109903    1.170    0.146
       496  -9.5184    166.2348    105.1558   8.4236721858e+01   2.7666851217e+01    0.3194474    0.2137671  66.90  0.001409885    1.711    0.415
       497  -9.1956     66.6110    109.2867   1.1207460321e+02   4.6441786391e+01    0.2604757    0.1609098 -44.87 0.0007118005    1.489    0.329
       498  -9.5916     65.9250    103.8726   1.1095550403e+02   4.7756154550e+01      0.31829    0.1999868  16.55  0.001288959    1.994    0.498
       499  -8.3983    205.6696    103.0669   7.6261359661e+01   1.9214872303e+01    0.2032248    0.1696731 -51.92 0.0003165276    1.111    0.100
       500  -8.7619    190.0833    102.4576   7.8863283549e+01   2.2781419256e+01    0.2461436    0.1946587 -35.95 0.0003716489    1.341    0.254
       501  -7.6473    106.3136    103.3154   9.8573867611e+01   4.1013569927e+01    0.1516619    0.1175313  -6.27 0.0005373387    1.642    0.391
       502  -7.8637     55.2788    103.3785   1.1426659595e+02   4.9310415622e+01    0.1472235   0.09352764 -30.37 0.0005270597    1.709    0.415
       503  -8.5178     17.3023    103.3125   1.2671018379e+02   5.3191997522e+01      0.21689    0.1400904 -41.23 0.0006459827    1.377    0.274
       504  -8.8359     18.9986    100.0103   1.2550291620e+02   5.3796534744e+01    0.1862045    0.1654732 -77.97  0.001241855    1.256    0.204
       505  -9.4513      5.8688    102.4776   1.3025712816e+02   5.4172840928e+01    0.2146033    0.1149098 -57.89 0.0008394877    1.433    0.302
       506  -8.1934    195.0639    101.7064   7.7784320717e+01   2.1809248054e+01    0.1950425    0.1839751 -84.36 0.0004122581    1.056    0.053
       507  -9.7362    129.8006    100.3508   9.1459422254e+01   3.6794945753e+01    0.3186923    0.2215139  -4.36  0.001132778    2.371    0.578
       508  -8.1862     11.5004    100.4739   1.2806485387e+02   5.4246880520e+01     0.127791   0.09717406 -47.44 9.826147e-05    1.085    0.079
       509  -8.6216    167.6948     98.2123   8.2184478497e+01   2.8696293974e+01    0.2857286    0.1913012 -15.42  0.001152318    2.437    0.590
       510  -8.4408     24.5048     99.5193   1.2357060536e+02   5.3453508752e+01    0.2005992    0.1177663  -1.82  0.001013182    2.249    0.555
       511  -8.2968      3.3159     99.3125   1.3052405199e+02   5.5028301342e+01    0.1288445   0.06961279 -40.97 0.0002755221    1.640    0.390
       512 -10.3374      7.0039     96.8610   1.2886809126e+02   5.5340150310e+01    0.2940287    0.1727057 -49.39  0.001003211    1.341    0.254
       513  -9.7579      2.6840     89.8814   1.2899719884e+02   5.7110180120e+01    0.2210997    0.1917188 -63.27  0.001579551    1.179    0.152
       514  -8.6340    225.3674     97.8048   7.1990895810e+01   1.5986278590e+01    0.1894578    0.1227098 -36.32 0.0004213532    1.610    0.379
       515  -9.6950    229.0839     94.7847   7.0807769247e+01   1.5754392074e+01     0.303184    0.2119085  32.41  0.001379556    2.258    0.557
       516  -8.1892    160.0042     97.9910   8.3749141645e+01   3.0503200918e+01    0.1851317    0.1725676 -59.26 0.0005588827    1.055    0.052
       517  -8.9668     89.9293     98.0108   1.0192669485e+02   4.5183349770e+01    0.2158698    0.2093285 -49.00 0.0005655885    1.085    0.078
       518  -7.7534     44.3152     98.3373   1.1667015130e+02   5.1748782360e+01    0.1424283   0.08959847 -29.23 0.0007047566    1.697    0.411
       519  -8.3430    189.0107     97.0252   7.7763739237e+01   2.4050336172e+01      0.21271    0.1827564   7.65 0.0003760554    1.585    0.369
       520  -8.4929    122.0059     96.9290   9.2546552553e+01   3.9154274999e+01    0.2290097    0.1819932  -0.50 0.0004701406    1.610    0.379
       521  -7.6760     63.3200     97.3342   1.1012655119e+02   4.9557318680e+01    0.1462215   0.09957387 -21.72 0.0005368626    1.701    0.412
       522  -8.3388    203.4238     96.0394   7.5029006985e+01   2.1007902668e+01    0.2111668    0.1334631 -41.60 0.0005413388    1.533    0.348
       523  -8.6093    141.0902    100.3267   8.8664085038e+01   3.4322251232e+01    0.2387957    0.1854439  30.06 0.0005638466    1.480    0.324
       524  -8.6734     21.3924     94.8060   1.2361886151e+02   5.4748897415e+01    0.1984973   0.08594417 -49.07  0.000946734    1.827    0.453
       525  -7.8362    183.5024     94.4165   7.8146027400e+01   2.5789961140e+01    0.1457269    0.1371507 -83.48 8.040468e-05    1.031    0.030
       526  -8.1309     94.4873     94.0432   9.9464473538e+01   4.5189012876e+01    0.2084808    0.1383001 -42.10 0.0004614843    1.471    0.320
       527  -8.2705     75.9423     93.6977   1.0508279345e+02   4.8438974746e+01    0.1915559     0.177687   2.05 0.0004660803    1.074    0.069
       528  -7.7926    207.2917     93.3360   7.3779952080e+01   2.0647351845e+01    0.1335374    0.1153115   1.78 0.0004602355    1.640    0.390
       529  -7.8321    112.3718     93.7179   9.4250681198e+01   4.1795477627e+01    0.1493823    0.1178311  82.10 0.0007014222    1.701    0.412
       530 -10.1723    225.1774     90.7292   7.0496905523e+01   1.7273918261e+01    0.3937868    0.2060514 -44.88  0.001112883    1.714    0.416
       531  -8.3352    164.5896     92.2991   8.1321923668e+01   3.0537230419e+01    0.1943763    0.1438959 -30.66 0.0004702251    1.532    0.347
       532  -7.9013    188.3272     91.2932   7.6512471794e+01   2.5264237326e+01    0.1394099    0.1171864  19.03  0.000506847    1.624    0.384
       533  -8.8110    127.9798     91.3153   8.9457764817e+01   3.8988938663e+01    0.2005236    0.1796168  44.76 0.0001637286    1.107    0.096
       534  -8.1594    103.5260     91.5291   9.6118561770e+01   4.3991601551e+01    0.1456624     0.138081  -4.49 0.0008090157    1.043    0.041
       535  -9.1574     13.7392     91.1835   1.2547067216e+02   5.6118029333e+01    0.1796251    0.1168344 -35.42 0.0008652916    1.396    0.284
       536  -7.9772    196.8363     90.1957   7.4775738296e+01   2.3536049873e+01    0.1774782    0.1707023   7.63 0.0002625081    1.293    0.227
       537  -8.0596    121.2946     90.2770   9.0891940771e+01   4.0623441562e+01     0.144059    0.1160022   7.86 0.0001881661    1.528    0.346
       538  -8.2352    203.4777     88.9910   7.3401018680e+01   2.2266202876e+01    0.2117588    0.1329638 -42.77 0.0005269996    1.532    0.347
       539  -8.7077    158.1337     88.4400   8.1673349199e+01   3.2746489313e+01    0.2308769    0.2018558 -30.38 0.0003733145    1.256    0.204
       540  -7.7604    141.2893     89.3421   8.5670794671e+01   3.6423292696e+01    0.1486634    0.1193072   5.40 0.0004812129    1.648    0.393
       541  -8.1305    183.4486     88.4863   7.6711349057e+01   2.6889786970e+01    0.1456253    0.1352013 -78.01 8.301141e-05    1.015    0.015
       542  -9.0180     29.6192     88.2198   1.1928172844e+02   5.5445007281e+01    0.1889202   0.09387429 -46.47 0.0009159537    1.660    0.398
       543  -7.8311     75.9746     87.0125   1.0320544692e+02   4.9805035442e+01    0.1618342    0.1500601 -10.24 0.0003224376    1.024    0.023
       544 -10.1825      9.7433     85.9645   1.2576195764e+02   5.7503973050e+01     0.286749    0.2174042  43.75  0.001044495    1.733    0.423
       545  -8.3965    151.0032     86.2180   8.2624671560e+01   3.4796841645e+01    0.2310839    0.1639956  26.42 0.0004983653    1.885    0.470
       546  -7.8911     88.5346     86.4868   9.9116357674e+01   4.7783704493e+01    0.1429127    0.1308286  -9.57 9.563367e-05    1.056    0.053
       547  -7.9049    197.7155     85.6610   7.3567781680e+01   2.4144150306e+01    0.1337772    0.1157076   6.77 0.0003485688    1.631    0.387
       548  -8.2979     28.4635     84.5160   1.1879264280e+02   5.6328714900e+01    0.1296286    0.1028069 -35.61 0.0002675901    1.066    0.062
       549 -10.1320      2.3882     82.3876   1.2761078413e+02   5.8706402007e+01    0.2980079    0.1944721 -74.59  0.001794251    1.697    0.411
       550  -9.5284    217.7672     83.2366   6.9932476520e+01   2.0139075553e+01    0.3757584    0.2058945  44.70  0.001674088    2.397    0.583
       551  -7.9054    200.3703     82.2774   7.2350407777e+01   2.4135733796e+01    0.1357321     0.111124  28.81 0.0007008476    1.687    0.407
       552  -8.3883    185.4922     81.4889   7.4644036877e+01   2.7660040167e+01    0.2055188    0.1290103 -51.73 0.0005792032    1.570    0.363
       553  -8.9227    183.7130     76.8266   7.3817367334e+01   2.8870475178e+01    0.4266109    0.1110439 -42.91  0.001342078    3.614    0.723
       554  -8.1179    126.5952     81.1893   8.6968718689e+01   4.1193607265e+01    0.1890721    0.1398677 -26.43 0.0003055348    1.525    0.344
       555  -8.4756    159.0423     79.9733   7.9263361368e+01   3.4062143284e+01    0.2186071    0.1778884  19.33 0.0005053215    1.602    0.376
       556  -8.3567     19.4614     80.5006   1.2105439918e+02   5.7931538915e+01    0.1262931   0.09787531 -37.57 0.0001264023    1.059    0.055
       557 -10.3841      7.2887     79.9444   1.2533701230e+02   5.8916590446e+01     0.363903    0.1763752  18.43  0.001977855    2.378    0.579
       558  -8.5517    215.0704     78.8537   6.9355965257e+01   2.1463890207e+01    0.1922147    0.1695057  11.46 0.0006589838    1.659    0.397
       559  -8.6113    205.9235     82.8987   7.1621897033e+01   2.2788040550e+01    0.1934209    0.1874299 -39.65 0.0002868393    1.240    0.194
       560  -9.3545     85.0784     77.2107   9.7450373247e+01   5.0170200383e+01     0.306651    0.2660325 -15.09  0.001774682    1.122    0.108
       561  -8.4122     83.4785     72.9683   9.6661650645e+01   5.1226373597e+01    0.2084423    0.1299958 -38.53   0.00102624    1.582    0.368
       562  -8.2516    206.3072     77.0553   7.0236030824e+01   2.3694398202e+01    0.1909326    0.1569782 -57.39 0.0002950295    1.124    0.110
       563  -8.5214    150.8192     77.1936   8.0242532033e+01   3.6449675845e+01    0.1944486    0.1686978  26.51 0.0003608875    1.329    0.248
       564  -8.2044     17.3631     77.2920   1.2104595487e+02   5.8750083371e+01     0.130276   0.07413916 -29.22 0.0007028115    1.703    0.413
       565  -8.0430    194.0098     75.9833   7.1897411483e+01   2.6646904940e+01    0.1672995    0.1496974 -80.58 0.0003386044    1.003    0.003
       566  -8.4382    174.8012     75.9018   7.5169031194e+01   3.1095170214e+01     0.206317    0.1940724  36.57 0.0005291065    1.234    0.190
       567  -7.7613    223.3041     75.2951   6.7446011669e+01   2.0280161657e+01    0.1190743    0.1085347  19.50 0.0002405563    1.580    0.367
       568  -8.1655    167.1518     75.6041   7.6520820577e+01   3.2928371743e+01    0.2026361    0.1268849  46.44   0.00055928    1.678    0.404
       569  -8.0226    112.7061     75.6542   8.8968771452e+01   4.5140915122e+01    0.1457517    0.1107918   4.90 0.0004906488    1.667    0.400
       570  -8.3103    157.2379     73.8102   7.8001741734e+01   3.5540899993e+01    0.1897886    0.1704147  14.64  0.000550131    1.344    0.256
       571  -8.4773    206.2602     72.7292   6.9263293748e+01   2.4420344130e+01    0.1877352    0.1636824  82.86 0.0004375723    1.100    0.091
       572  -8.1400    203.6094     70.2183   6.9082201988e+01   2.5421689610e+01     0.172441    0.1295685 -34.17 0.0002210791    1.515    0.340
       573  -8.3142    139.9212     72.1644   8.1250329419e+01   3.9803247922e+01    0.1883147    0.1659673  21.62 0.0003333035    1.277    0.217
       574 -10.4786      1.8117     68.6448   1.2480450537e+02   6.1516914787e+01     0.497681    0.1270899 -56.54  0.001379475    2.798    0.643
       575 -10.4669     92.6131     69.5630   9.2817361211e+01   5.0174982898e+01    0.3466735    0.3254512  -7.23  0.001028481    1.043    0.042
       576  -9.2213    170.2578     68.5017   7.4121104719e+01   3.3378889677e+01    0.2889051    0.2681759 -71.96  0.001276821    1.063    0.059
       577  -7.9589    150.2683     70.3562   7.8506817793e+01   3.7732250988e+01    0.1401248     0.113075  12.72 0.0003738278    1.635    0.389
       578  -8.3396    116.1769     69.7607   8.6304074333e+01   4.5431052628e+01     0.193254    0.1612496   7.55 0.0005296277    1.356    0.263
       579  -8.0330    163.3061     69.3144   7.5624640024e+01   3.4871120729e+01    0.1393365    0.1118875  24.00 0.0003298056    1.623    0.384
       580  -7.5934    187.3591     67.2702   7.0891361792e+01   2.9599339601e+01    0.1354109    0.1064306  35.71 0.0006997056    1.646    0.392
       581  -8.1650     86.4074     65.7644   9.3510473485e+01   5.1964378822e+01    0.1880032    0.1227019 -25.31 0.0008853559    1.659    0.397
       582  -8.3889    138.8336     65.1415   7.9518486523e+01   4.1198923817e+01    0.1899893    0.1639202  25.02 0.0003727805    1.296    0.228
       583  -9.7203     68.5580     63.9458   9.8684274821e+01   5.5288060184e+01    0.3476252    0.2700706  27.52  0.001259295    1.256    0.204
       584  -8.5966    146.0103     64.0192   7.7660016038e+01   3.9734588963e+01    0.2253334    0.1690087  22.97 0.0008605941    1.737    0.424
       585 -12.8991    171.1693    246.0348   1.1227818059e+02  -2.7871323576e+00     1.393043    0.8346404  26.35  0.007050824    1.698    0.411
       586  -8.1927    208.1945     62.7937   6.6758485331e+01   2.5569742240e+01    0.1625409    0.1577033  57.80 0.0003931352    1.305    0.234
       587  -7.7653    197.3248     63.2437   6.8404688080e+01   2.7947870436e+01    0.1263095     0.102836  42.22 0.0002291591    1.531    0.347
       588  -8.0439    152.6670     64.6937   7.6478923490e+01   3.8089561481e+01    0.1426167    0.1085455  27.02 0.0007039637    1.665    0.400
       589 -10.0600     31.5411    247.3944   1.4066279030e+02   1.8145267737e+01    0.2441847     0.227438 -27.42 0.0001464346    1.736    0.424
       590  -9.8577      6.5087     33.0964   1.1265616447e+02   6.7504448064e+01    0.5316731    0.2473016   4.64  0.002850709    2.493    0.599
       591  -8.8327     24.0040    249.5009   1.4218408059e+02   1.8601532562e+01    0.1602609    0.1016679  44.32 0.0004994108    1.533    0.348
       592  -8.7873     75.5129    246.4964   1.3210740114e+02   1.2464087729e+01    0.1915466    0.1458427 -49.67  0.000572845    1.677    0.404
       593 -10.5009     80.1176    244.3520   1.3094793530e+02   1.2230244337e+01    0.3896309     0.258015  39.31 0.0004583337    1.474    0.322
       594  -9.4424     41.0882    244.8429   1.3867811968e+02   1.7500902888e+01    0.2187391    0.2174207  74.56 0.0008599193    1.485    0.327
       595 -10.2535     24.9178    240.0378   1.4133521798e+02   2.0461631586e+01    0.3234832    0.2104222 -56.14  0.001402286    1.905    0.475
       596 -10.0839      1.9967     45.9300   1.1874481090e+02   6.5705049358e+01    0.2655511    0.1364844 -40.38   0.00034895    1.481    0.325
       597 -10.1908      4.7333     41.6287   1.1625223661e+02   6.6256226985e+01    0.2170953    0.1679711 -25.30 0.0002816714    1.048    0.046
       598 -10.5442    125.2555    240.0715   1.2099034872e+02   5.9488659227e+00    0.3165344    0.3042472 -22.06 0.0004088573    1.217    0.178
       599  -9.9584    129.5489    235.4085   1.1940487887e+02   6.1673404497e+00    0.3285763    0.2713837  -3.38 0.0005718808    1.584    0.369
       600 -10.5025     68.3522    240.3369   1.3290660937e+02   1.4789216889e+01    0.2508475    0.2417522  39.85 0.0004981664    1.354    0.262
       601  -9.8740     51.3349    240.6211   1.3633091293e+02   1.7068982109e+01    0.2517383    0.2026671 -65.05 0.0007499307    1.410    0.291
       602 -10.2988    219.8490    238.7545   1.0141238003e+02  -9.1063749564e+00    0.2679138    0.2005312 -20.67 0.0005545978    1.254    0.203
       603  -8.3955    216.9986     61.3054   6.5266591778e+01   2.3858643306e+01    0.1793611    0.1543177 -83.26 0.0003921961    1.051    0.048
       604  -8.3774    157.4537     59.6801   7.4196793027e+01   3.7750501063e+01      0.17389    0.1393001 -20.71 0.0009289455    1.526    0.345
       605 -10.8691     78.7070     53.2377   9.1852288129e+01   5.5343710001e+01    0.5035672    0.3482449  48.42  0.002322199    1.571    0.363
       606  -9.9733     75.4794     51.4980   9.2301330261e+01   5.6163961665e+01     0.252655     0.206255  11.29 0.0006871237    1.143    0.125
       607  -8.0072     47.7021     59.7020   1.0469426921e+02   5.8987691642e+01    0.1281692   0.08568102 -12.66  0.000216777    1.573    0.364
       608  -8.0771     41.4672     59.5047   1.0696164291e+02   5.9787162329e+01    0.1256516    0.1035767 -16.94 5.318811e-05    1.015    0.015
       609  -7.6622     19.6121     59.7268   1.1551884091e+02   6.1957664232e+01    0.1262081     0.073276 -21.22 0.0006994177    1.719    0.418
       610  -8.4342    164.9117     57.8555   7.2343293997e+01   3.6283290030e+01    0.2036233    0.1811551  39.09 0.0004641493    1.275    0.215
       611  -8.6366     31.3478     58.1559   1.1042657251e+02   6.1141979340e+01    0.1968257    0.1234318 -29.16 0.0007035043    1.414    0.293
       612  -9.0149    146.8873     56.7243   7.5461198878e+01   4.0644297683e+01    0.2136672    0.1931151  -6.08 0.0004084479    1.304    0.233
       613  -9.7166    125.5384     56.1375   7.9932152574e+01   4.5558436773e+01    0.2414447     0.210822  52.85 0.0003062716    1.072    0.067
       614  -7.7353     38.6024     56.7088   1.0716276987e+02   6.0606110872e+01    0.1317157   0.08149756 -11.40 0.0007000269    1.791    0.442
       615 -12.6425    177.5320    232.5826   1.0877309240e+02  -1.4224011745e+00     1.305817    0.8386902 -37.79  0.006766739    1.658    0.397
       616 -11.3462     12.5865     39.6872   1.1220537948e+02   6.5986217736e+01    0.9410673    0.3716369  20.35  0.004899209    2.658    0.624
       617  -8.3493     34.7045     54.3095   1.0790119760e+02   6.1454489766e+01    0.1026561   0.09819802  87.73 0.0002109484    1.591    0.372
       618 -10.3113    225.8719     51.7130   6.2172376759e+01   2.3376608359e+01    0.3393722    0.2379381  31.43  0.001718523    2.685    0.628
       619  -8.2767     63.2341     52.8183   9.6845317542e+01   5.7943867734e+01    0.1796889    0.1325641  -3.86 0.0006834764    1.369    0.270
       620  -9.4705     21.6512     53.3195   1.1278582971e+02   6.2925436740e+01    0.1647948     0.146288  29.15  0.000760451    1.470    0.320
       621  -9.0760     20.3108     50.3611   1.1240930279e+02   6.3556461935e+01    0.2160032    0.1840558 -25.11  0.001565668    1.154    0.134
       622  -8.0882    163.2252     51.0513   7.0871297998e+01   3.7665349907e+01    0.1667874    0.1134895 -36.22   0.00045487    1.602    0.376
       623  -9.0597    172.0856     49.9567   6.9100557412e+01   3.5751474583e+01    0.1916685    0.1706402  74.52            0    1.050    0.048
       624  -7.4989     42.2950     49.3415   1.0331334806e+02   6.1394161011e+01      0.12794   0.08102412 -12.70 0.0007030842    1.659    0.397
       625 -13.2446    156.4325    240.5222   1.1446757665e+02   6.3855474275e-01     3.024379     1.651863 -25.60   0.01211643    3.238    0.691
       626 -12.8211    141.8751    245.1442   1.1821340631e+02   2.1976864330e+00     1.424108    0.9124506   9.60  0.006171342    2.558    0.609
       627 -11.6076    233.7045    244.4971   9.9814895945e+01  -1.1924071343e+01    0.5573331    0.2737584 -27.68  0.002782251    2.102    0.524
       628  -8.4070     38.0315     40.9639   1.0205805422e+02   6.3216833322e+01    0.1951579    0.1220847  -7.00  0.001123327    1.680    0.405
       629  -7.7015    132.3401     40.3223   7.3766243149e+01   4.6206719752e+01    0.1392427    0.0947348  30.98  0.000705064    1.721    0.419
       630 -11.1608      2.3685     53.9581   1.2086749556e+02   6.4259503952e+01    0.6826341    0.3025686 -64.38   0.00329912    2.940    0.660
       631 -12.0500    225.2164    243.3965   1.0119898930e+02  -1.0592697751e+01     1.147009    0.2324244 -39.16  0.003746939    4.979    0.799
       632  -8.2439    173.7930     33.8180   6.4822281399e+01   3.7478135984e+01    0.1677978    0.1311922 -80.78 0.0002123497    1.239    0.193
       633  -8.7919     25.9893     34.1745   1.0452048030e+02   6.5584725037e+01    0.1753626    0.1208575  -7.62 0.0004141835    1.264    0.209
       634 -10.3032     58.9408     30.1911   9.0271139922e+01   6.1793780778e+01     0.399467    0.2386329 -20.04  0.002292196    1.725    0.420
       635  -9.1548     35.2002    240.5950   1.3944682512e+02   1.9125215438e+01    0.2102301    0.1746574 -73.11 0.0006602997    1.344    0.256
       636  -8.1732    225.2817     32.3525   5.8307392510e+01   2.6158099304e+01    0.1072075   0.09595917  40.60 0.0007015459    1.655    0.396
       637  -9.1356     30.1151     31.3629   1.0174802374e+02   6.5537505054e+01    0.2169488    0.1529899 -13.63 0.0006807562    1.195    0.163
       638 -10.4533     69.5556     29.7976   8.6573590936e+01   6.0107980906e+01    0.3774206     0.204708   0.87  0.001635339    2.955    0.662
       639 -10.0754     66.3765     28.7896   8.7234645431e+01   6.0763630666e+01    0.2152037    0.1754779 -41.99  0.001033679    1.589    0.371
       640 -12.1164    216.3622    230.6949   1.0066798736e+02  -7.2859808842e+00    0.4732285    0.3643203 -31.16 0.0005731352    1.258    0.205
       641 -10.7325     66.4435     22.5278   8.4871516982e+01   6.1467842507e+01    0.3871915    0.2739615  42.69  0.002472023    1.340    0.254
       642  -9.5866     78.7052     22.0367   8.0940219112e+01   5.9359584258e+01    0.2401045    0.2023516 -34.86  0.001505601    1.442    0.307
       643 -12.1418    210.6380    214.0008   9.8750311768e+01  -3.5087721009e+00     1.541427    0.3586719 -45.94  0.004699029    4.562    0.781
       644  -8.8108     34.1423     20.4321   9.5815624918e+01   6.6488409395e+01    0.2035454    0.1275019 -10.51 0.0008001451    1.502    0.334
       645 -10.2955    134.9285    239.0696   1.1879128644e+02   4.5303995353e+00    0.2709242    0.2595697  32.01 0.0004195595    1.096    0.087
       646  -9.0257     47.5770     18.4180   8.9781076313e+01   6.4895360583e+01    0.2638442    0.1484311   2.07 0.0009141912    2.149    0.535
       647 -10.4577    139.5050    234.9417   1.1719852262e+02   4.5734540126e+00    0.3267225    0.2776208 -21.82 0.0004497929    1.410    0.291
       648  -9.1699     61.9276    239.2285   1.3409043063e+02   1.5929885400e+01    0.2147376    0.1699385 -67.08 0.0005211939    1.359    0.264
       649  -9.3402      9.3125    239.4017   1.4413634486e+02   2.2311938512e+01    0.2228779    0.1678468 -56.10  0.001514805    1.770    0.435
       650  -9.7132    112.2590    237.9012   1.2345576839e+02   8.5352234264e+00    0.2557086    0.2275933 -36.96  0.000529935    1.374    0.272
       651  -9.5222     41.3589    237.1156   1.3796900781e+02   1.9105725712e+01    0.3142291    0.1890949 -48.40  0.001136049    2.344    0.573
       652 -10.4737     91.0530    235.9687   1.2770974013e+02   1.2331971815e+01    0.3043313    0.2760392 -18.05  0.000491828    1.513    0.339
       653  -8.5229     47.0671    238.0499   1.3693462469e+02   1.8176963783e+01    0.2118331    0.1188388  65.89  0.001034837    1.671    0.402
       654 -10.0672     77.7695    235.7843   1.3047644952e+02   1.4392097601e+01    0.2586915    0.2298007  78.88 0.0004753389    1.087    0.080
       655  -9.3102      3.1790    236.0580   1.4501898748e+02   2.3640931047e+01    0.2245206    0.1731452 -50.69 0.0009995054    1.879    0.468
       656 -10.2238     63.7183     13.1368   8.2147962143e+01   6.2892843245e+01    0.3039728    0.1063001  37.58  0.001378991    2.605    0.616
       657  -9.6050    108.2472    233.3146   1.2369594869e+02   1.0148780884e+01    0.2424407    0.2315066 -34.95 0.0005306535    1.268    0.211
       658  -8.6085     64.6733    234.0268   1.3299680110e+02   1.6668172291e+01    0.1791123    0.1486085 -88.04 0.0004646631    1.124    0.110
       659  -9.8165     84.8787    231.7937   1.2851083043e+02   1.4183847288e+01    0.2662879    0.2254847 -55.18 0.0006109318    1.370    0.270
       660  -9.8875     35.4024    230.9877   1.3860390063e+02   2.1169569757e+01     0.350595    0.2324686 -42.92  0.001474611    2.337    0.572
       661  -9.6535    154.6369    212.3727   1.1019343950e+02   6.5340070095e+00    0.2702663    0.2353729  -5.99 0.0003735874    1.294    0.227
       662 -10.3495    145.4633    231.0858   1.1532103827e+02   4.3215966000e+00    0.3209404    0.2525643  20.79 0.0005089344    1.380    0.275
       663  -9.7787    143.8744    226.2469   1.1489550001e+02   5.5722781112e+00    0.3422689    0.2276924  28.09 0.0003772215    1.599    0.375
       664  -8.3625     82.2416     12.3872   7.6460627247e+01   5.9641410536e+01    0.1206428   0.07660686  20.36 0.0006931098    1.651    0.394
