#   1 NUMBER                 Running object number                                     
#   2 MAG_AUTO               Kron-like elliptical aperture magnitude                    [mag]
#   3 X_IMAGE                Object position along x                                    [pixel]
#   4 Y_IMAGE                Object position along y                                    [pixel]
#   5 X_WORLD                Barycenter position along world x axis                     [deg]
#   6 Y_WORLD                Barycenter position along world y axis                     [deg]
#   7 A_WORLD                Profile RMS along major axis (world units)                 [deg]
#   8 B_WORLD                Profile RMS along minor axis (world units)                 [deg]
#   9 THETA_WORLD            Position angle (CCW/world-x)                               [deg]
#  10 FWHM_WORLD             FWHM assuming a gaussian core                              [deg]
#  11 ELONGATION             A_IMAGE/B_IMAGE                                           
#  12 ELLIPTICITY            1 - B_IMAGE/A_IMAGE                                       
         1 -11.8395      4.1985     49.7271   9.9009497038e+01   6.6185169003e+01     1.424833    0.5438892 -53.64  0.006975869    2.042    0.510
         2 -12.2600      5.2587     16.9673   8.6650635416e+01   7.1998975924e+01     2.145576    0.6882265 -44.22   0.01036462    2.632    0.620
         3 -11.9431    134.2806     49.7872   5.1231349533e+01   4.4820072771e+01    0.9265959    0.4644391 -43.96            0    2.159    0.537
         4 -11.3756    119.3442     41.8772   5.2070235219e+01   4.9366921252e+01    0.6140584     0.362855 -31.47  0.001808552    1.833    0.455
         5 -12.4817    241.6200     12.3768   2.8502260360e+01   2.5587127566e+01     1.969194     1.097905 -57.45   0.01249024    1.443    0.307
         6  -8.4687    186.3497     23.9108   3.5785598941e+01   3.5903260868e+01    0.1706663    0.1516557 -70.80 0.0006531457    1.097    0.088
         7 -10.5121    132.0672     23.2341   4.3419290213e+01   4.8632118690e+01    0.4041265    0.1696649  48.79  0.001752182    2.210    0.547
         8 -10.4013    128.9568     11.0514   4.0153276629e+01   5.0544662094e+01    0.3048488    0.2016659  34.14   0.00169374    1.706    0.414
         9  -9.7110    163.5904     11.0079   3.5203043360e+01   4.2473379113e+01    0.2488542    0.1873393  50.52 0.0008064851    1.408    0.290
        10  -9.3551    146.8338      8.2965   3.6618170728e+01   4.6621380836e+01    0.2090263    0.1430869 -89.36  0.001198447    1.453    0.312
        11  -9.1102    137.7877     11.9543   3.9004534329e+01   4.8404173445e+01     0.209451    0.1271994 -58.74  0.001084767    1.971    0.493
        12  -8.4240    144.4734     15.5058   3.9029481982e+01   4.6503193472e+01     0.128308    0.1110645  76.55 9.888145e-05    1.024    0.023
        13  -8.4917     96.0986    212.4361   9.9558021409e+01   1.6553910273e+01    0.2215619     0.183916 -43.52  0.000370286    1.339    0.253
        14  -8.5741    167.2230    203.9405   8.1513565283e+01   6.9059777157e+00     0.213984    0.1863523  21.29 0.0002650499    1.090    0.082
        15  -7.5419    152.8327    200.7291   8.4186573306e+01   9.9558640018e+00    0.1912627    0.1699512  66.49  0.001047189    1.379    0.275
        16  -6.9360     36.3315    200.3050   1.1251298188e+02   2.7213624175e+01     0.126076   0.09620232 -40.00 0.0006161658    1.659    0.397
        17  -9.3618     28.4024    198.3310   1.1420749595e+02   2.8517979246e+01    0.2216199    0.2112043 -60.14  0.001484104    1.256    0.204
        18  -8.0348    245.4887    190.5193   6.3647563991e+01  -2.6125675004e+00    0.1288431    0.1010972 -19.25 2.530888e-05    1.023    0.022
        19  -7.8451     94.8931    188.9717   9.6403278663e+01   2.2207353375e+01    0.2132034    0.2013199  86.11 0.0003620212    1.052    0.050
        20  -7.4734     75.8708    189.2047   1.0135436534e+02   2.4976338981e+01    0.1869377    0.1630263 -36.18  0.000358294    1.304    0.233
        21  -7.2919    100.3977    185.5100   9.4418072748e+01   2.2174573035e+01    0.1433671    0.1407291 -53.08 0.0001062985    1.049    0.047
        22  -8.8461     30.8955    182.8851   1.1213759386e+02   3.2018485886e+01    0.2054102    0.1798428 -86.37 0.0003039415    1.038    0.037
        23  -8.0462    100.9598    176.0261   9.2645031911e+01   2.4394591591e+01    0.2076746    0.2052979 -76.99  0.001158763    1.014    0.014
        24  -7.4361    126.9811    172.3179   8.5126848765e+01   2.0810453314e+01    0.2046105    0.1899202  22.44 0.0001517086    1.080    0.074
        25  -8.3952      2.5122    163.5122   1.1757930078e+02   3.9251640947e+01    0.1283647    0.1046998 -83.55  8.35461e-05    1.011    0.010
        26  -7.4835    247.6886    159.3187   5.7273848326e+01   2.2669094424e+00    0.1223624   0.09508068 -59.68 0.0003010065    1.644    0.392
        27  -9.6907    174.8653    151.0683   6.9073978651e+01   1.6517110748e+01    0.2825576    0.2362019 -38.16 0.0002537887    1.130    0.115
        28  -8.2904    248.5140    149.5081   5.5203551182e+01   3.8092676373e+00    0.1312339    0.1064564 -33.47 0.0008104591    1.009    0.008
        29  -7.4004    180.1545    148.1286   6.7271516045e+01   1.6104692477e+01    0.1924445    0.1783033 -81.70 0.0004717675    1.265    0.210
        30  -8.5167    118.1970    147.1599   8.2201743052e+01   2.8471410567e+01     0.244739    0.2370667  -4.24  0.000373487    1.046    0.044
        31 -10.4804      3.3485    133.9954   1.1450708168e+02   4.6569896539e+01    0.6013381    0.2407016 -82.67  0.002494105    2.486    0.598
        32  -7.0891     81.6686    136.7447   9.0554861790e+01   3.7422299608e+01    0.1508888    0.1166155 -17.36 0.0003057926    1.561    0.359
        33  -8.9876    247.6870    131.8170   5.1772736719e+01   6.9551332162e+00    0.2804332    0.1012391 -34.88  0.001094424    2.664    0.625
        34 -10.5266    231.8554    121.6878   5.2001418060e+01   1.1411646468e+01    0.6285614    0.2842574 -53.47  0.002545775    2.577    0.612
        35 -10.0020    243.3143    120.3826   5.0058474325e+01   9.6325772763e+00    0.2802394    0.2240634  18.90   0.00166419    1.662    0.398
        36  -7.1894    124.5018    121.6103   7.4379695377e+01   3.3304928111e+01     0.154311    0.1512816   1.17 0.0008000675    1.026    0.025
        37  -8.4596      4.0096    114.4733   1.1191610091e+02   5.1402936195e+01    0.1724789    0.1300138   7.62  0.001035895    1.602    0.376
        38  -8.3070     67.7650    114.9952   9.0169567185e+01   4.4988702075e+01    0.2205363    0.2075303  10.03 0.0003245552    1.115    0.103
        39 -10.1027    243.4312    105.0539   4.6878672127e+01   1.2191746152e+01    0.8083419    0.2677107 -54.70  0.002282832    5.813    0.828
        40  -7.9434    101.8974    105.0853   7.6561485186e+01   4.1569193342e+01    0.2584567    0.1898911  -5.52  0.001133818    1.797    0.444
        41  -8.7044    181.8393    104.5771   5.6613839295e+01   2.4537798232e+01    0.3659258    0.2541475 -30.88  0.001100381    1.525    0.344
        42 -10.1861     86.1498     97.0867   7.9351971886e+01   4.6275809367e+01     0.280255    0.2481938 -18.84 0.0002741905    1.116    0.104
        43  -7.9409     97.7048     96.9478   7.5586987740e+01   4.4184335055e+01    0.2082267    0.1936075 -34.43 0.0003894479    1.052    0.050
        44  -8.5233    157.7077     92.2759   5.8378250983e+01   3.2253155309e+01    0.2633432    0.1783793 -44.44 0.0006069031    1.449    0.310
        45  -9.0039    134.9724     76.8189   5.9235507813e+01   4.0299527474e+01    0.2466667    0.2144691 -40.68  0.000350863    1.169    0.145
        46 -10.3278    157.1021     72.0747   5.2987723931e+01   3.6006787352e+01    0.6563552    0.3333255  29.73   0.00204887    4.298    0.767
        47  -9.7527    149.5334     72.2741   5.4611281287e+01   3.7735035458e+01    0.4245496    0.2093951  35.37   0.00151114    2.990    0.666
        48  -7.9600    170.6631     66.3197   4.8869044864e+01   3.3790014294e+01    0.1495494    0.1046986 -73.74 0.0005793499    1.706    0.414
        49  -9.7842    149.4861     64.4017   5.2373378715e+01   3.9043479853e+01    0.2933697    0.2227355  -5.36  0.001437931    1.773    0.436
        50  -8.0046    133.2744     65.3322   5.6209760428e+01   4.2665578336e+01    0.1440897    0.1128484  13.45 0.0003147786    1.597    0.374
        51  -8.3073    117.4150     62.2075   5.9171526394e+01   4.6778466153e+01    0.2016925    0.1337377 -48.22 0.0009446562    1.680    0.405
        52  -9.4176    187.2163    239.4222   8.3333545590e+01  -2.5394161060e+00    0.2935465    0.2680731 -86.28  0.001166664    1.760    0.432
        53  -7.0215    200.2793    238.6053   8.0589600244e+01  -4.2102940759e+00    0.1090756     0.102758  81.89 0.0006995335    1.751    0.429
        54 -10.2965    207.7794    233.8529   7.8333740631e+01  -4.4770260864e+00    0.2370244    0.2018198  -9.29 0.0004043288    1.135    0.119
        55  -9.8408    125.1400     56.4829   5.5406023712e+01   4.5943657561e+01    0.3840319    0.2361093  21.68  0.001584203    2.490    0.598
        56 -11.0579    155.8303     52.0210   4.7618389101e+01   3.9427277057e+01    0.5387453    0.3355837  37.99   0.00251668    1.950    0.487
        57  -9.1409    175.4116    233.5614   8.4821171369e+01   1.3690382675e-01    0.3181642    0.2078483  35.86  0.001075993    1.461    0.315
        58 -11.5970    150.3626     47.6321   4.7371633935e+01   4.1336772700e+01    0.7195609    0.4218247 -62.18  0.002032712    2.250    0.556
        59 -10.7919    140.1062     44.2139   4.8328593727e+01   4.4224063315e+01    0.5016362    0.2260049 -43.97   0.00209422    2.406    0.584
        60 -10.1600    164.1196     42.2464   4.3497332289e+01   3.8814655685e+01    0.4111655    0.1446795 -41.55  0.001601981    2.789    0.641
        61  -9.1934    155.8180     43.8074   4.5304775720e+01   4.0566014122e+01     0.195446    0.1538118 -77.94  0.001074179    1.357    0.263
        62 -10.5482    249.6228     37.0476   3.2584129485e+01   2.1126446980e+01    0.7187441    0.2242325 -38.48   0.00328647    2.697    0.629
        63  -8.9423    176.7697    229.0117   8.3793619692e+01   7.2748460328e-01    0.2311723    0.1987173   9.69 0.0004015145    1.021    0.021
        64 -10.0948    146.0090     59.1712   5.1575079310e+01   4.0679312079e+01    0.3303688    0.2051538  56.70  0.001564316    1.537    0.349
        65 -10.4311    151.0992     39.0463   4.4766533554e+01   4.2301632746e+01    0.6095128    0.1586175 -45.10  0.001890085    4.535    0.780
        66  -8.0784    224.3199     40.0283   3.5424127438e+01   2.5702927978e+01    0.1784439    0.1550181  80.19 0.0001885922    1.226    0.184
        67 -10.6475    139.8915     36.0681   4.5911367718e+01   4.5323414535e+01    0.4001736    0.2688242  12.12  0.001919476    2.243    0.554
        68  -9.7422    241.2061     37.2058   3.3308749586e+01   2.2704819273e+01    0.2397833     0.152969 -75.63  0.001472804    1.463    0.317
        69  -8.8345    236.6981     35.3109   3.3318563744e+01   2.3823613777e+01    0.2398985    0.1513792  52.52  0.001088915    2.057    0.514
        70  -8.3353    154.3197     37.6445   4.3818390719e+01   4.1717104886e+01    0.1431802   0.09632099 -69.91 0.0002852129    1.754    0.430
        71 -10.2859    160.7259     35.0651   4.2068608760e+01   4.0525066182e+01    0.2769795    0.2252955 -24.23  0.001625737    1.437    0.304
        72  -7.9269    177.0000     35.0180   3.9702227316e+01   3.6728891328e+01    0.2050187   0.07308757 -32.16 0.0008054773    2.964    0.663
        73  -8.0166    180.6560     32.3297   3.8541736394e+01   3.6215460839e+01    0.1405816   0.08720821 -69.76 0.0007050756    1.751    0.429
        74 -10.6863    126.7797     29.2263   4.6328786796e+01   4.9209745995e+01     0.398449    0.2520011  35.82  0.002018021    1.750    0.429
        75  -7.4606    188.6648     29.6966   3.6913418734e+01   3.4707565112e+01    0.1231466   0.09353049  42.04 0.0007037717    1.664    0.399
        76 -10.9440    138.0021     25.8015   4.3146217665e+01   4.6962817655e+01    0.3908522    0.2892337  22.93  0.002166379    1.693    0.409
        77  -9.8719    114.5043     26.2728   4.7945016258e+01   5.2369837265e+01    0.3327136    0.1921263  41.69  0.001657812    1.675    0.403
        78  -9.8418    155.7989     25.9642   4.0302564548e+01   4.2749888021e+01    0.2423057    0.1721692  70.29 0.0006011825    1.261    0.207
        79  -9.0341    146.6016     25.4150   4.1579013562e+01   4.4978552400e+01    0.2707884    0.1171622  80.63 0.0009565573    3.522    0.716
        80  -8.4263    177.4928    224.4035   8.2872558036e+01   1.4338962235e+00    0.2456229    0.2057394 -32.85 0.0001476041    1.244    0.196
        81  -6.9358    106.6405    232.7060   9.9793259462e+01   1.0647482874e+01    0.1323306    0.1017866  -4.67 0.0007030937    1.699    0.412
        82  -9.8827    151.8794     19.9237   3.9191766127e+01   4.4320702102e+01    0.2278482    0.1765432 -45.48 0.0007987757    1.379    0.275
        83  -6.8838    187.6997    225.3059   8.0898714450e+01  -2.4488965489e-01    0.1171916    0.1058045  60.81 0.0002871341    1.593    0.372
        84  -7.3837     97.4440    225.5302   1.0097005743e+02   1.3492538444e+01    0.1339903      0.12128  49.35 8.965674e-05    1.007    0.007
        85  -7.5996    204.7260    221.9932   7.6895871355e+01  -2.1424561244e+00     0.177126    0.1450673 -20.41            0    1.135    0.119
        86  -8.1793    168.7616     23.9756   3.7947183286e+01   3.9935008823e+01    0.1586796    0.1074482 -32.92 0.0008835954    1.623    0.384
        87 -10.0987    144.3640    217.8563   8.9053076503e+01   7.8427404843e+00     0.265008    0.2431961 -36.36 0.0005068765    1.162    0.139
