#   1 NUMBER                 Running object number                                     
#   2 MAG_AUTO               Kron-like elliptical aperture magnitude                    [mag]
#   3 X_IMAGE                Object position along x                                    [pixel]
#   4 Y_IMAGE                Object position along y                                    [pixel]
#   5 X_WORLD                Barycenter position along world x axis                     [deg]
#   6 Y_WORLD                Barycenter position along world y axis                     [deg]
#   7 A_WORLD                Profile RMS along major axis (world units)                 [deg]
#   8 B_WORLD                Profile RMS along minor axis (world units)                 [deg]
#   9 THETA_WORLD            Position angle (CCW/world-x)                               [deg]
#  10 FWHM_WORLD             FWHM assuming a gaussian core                              [deg]
#  11 ELONGATION             A_IMAGE/B_IMAGE                                           
#  12 ELLIPTICITY            1 - B_IMAGE/A_IMAGE                                       
         1 -13.2356    199.0039     41.9686   4.2586902675e+01   3.0353245780e+01     1.113322    0.9679786 -56.22  0.003284421    1.104    0.094
         2 -13.6925    208.8676     32.3854   3.9109387541e+01   2.9324035550e+01     1.287591    0.9297575 -12.29  0.001480994    1.962    0.490
         3 -12.9129    233.9179      6.2725   3.1174318307e+01   2.6876884256e+01    0.8181801    0.6116729 -85.60  0.004651325    1.141    0.124
         4  -8.0340    224.2686    206.6940   7.5351066795e+01  -2.5477118288e+00    0.1088121    0.1031637 -53.67  0.000189395    1.535    0.348
         5 -10.6658    140.1680    248.9703   9.8945258942e+01   3.5098783855e+00    0.3455956    0.2368797 -76.03  0.001901691    2.273    0.560
         6 -12.0462    117.6299    245.1639   1.0307179076e+02   7.5602553227e+00    0.5689758    0.3747145  26.04  0.003203476    1.565    0.361
         7 -13.6133     44.1083    197.2819   1.1374250836e+02   2.7634842548e+01     1.967322     1.001144  62.05  0.003832163    2.074    0.518
         8 -11.0771    192.4644    193.7529   7.9113179768e+01   4.7310024493e+00    0.7327389    0.4031497 -61.75  0.002649833    3.903    0.744
         9 -11.1698    111.2674    204.0204   9.8971380489e+01   1.6651531053e+01    0.4052846    0.2672687  69.90  0.001096896    1.973    0.493
        10 -10.4651    107.6062    203.7486   9.9782080838e+01   1.7299185094e+01     0.287689    0.1986519  81.63  0.001023499    1.900    0.474
        11  -9.2311     89.5611    211.5533   1.0499224915e+02   1.8397371457e+01    0.2391475    0.1928263  70.28   0.00139829    1.216    0.178
        12 -10.1066    204.4165    199.7475   7.7848150142e+01   1.6840268146e+00    0.1921172    0.1173275 -27.19 0.0009526761    1.666    0.400
        13 -10.8758    121.4084    197.0297   9.5515103772e+01   1.6479732517e+01    0.4612744    0.2699648 -74.67  0.001121117    2.589    0.614
        14 -10.2770     60.4909    197.9366   1.1003975094e+02   2.5475693511e+01    0.2521368    0.1919148  40.04 0.0003353367    1.313    0.238
        15 -10.4333    111.4610    197.4923   9.7935734769e+01   1.8035762476e+01    0.3033584    0.1313542  36.85   0.00109663    2.177    0.541
        16 -16.2960      6.7242    204.0656   1.2236896263e+02   2.9928905693e+01      15.4687     1.164272 -75.53   0.02153452    9.455    0.894
        17  -8.4947     24.0989    193.6433   1.1791812701e+02   3.0618212138e+01    0.1624567    0.1340769  68.80  0.001077651    1.089    0.082
        18  -7.9908     76.3334    194.2979   1.0585951376e+02   2.4161137962e+01      0.13032    0.1065672 -23.75 0.0002890553    1.647    0.393
        19 -12.9475     55.9616    185.7173   1.0969865960e+02   2.8891478910e+01     0.904986     0.820568  55.48  0.004470795    1.132    0.116
        20  -9.5155    147.5230    186.8864   8.7634262825e+01   1.4063338710e+01    0.4039733    0.1406653 -47.45  0.001214888    2.960    0.662
        21 -10.3879     43.7391    178.2816   1.1182167815e+02   3.2121247546e+01    0.5121326    0.3094712 -30.60  0.001706967    2.714    0.631
        22 -17.2867     14.7499    242.6781   1.2303066291e+02   2.1234833357e+01     5.979147     2.206759  26.31    0.0247744    3.810    0.738
        23  -8.8476     79.7775    183.2123   1.0350115213e+02   2.6248721675e+01    0.2131048    0.1743748  68.53 0.0005813573    1.204    0.169
        24  -8.9683     69.1636    182.8525   1.0609263895e+02   2.7837697572e+01    0.2170618    0.1726375  72.46 0.0007485953    1.232    0.189
        25 -10.2934     99.4891    180.9297   9.8219075703e+01   2.3743587058e+01    0.2855601    0.2534935 -66.88 0.0006240365    1.134    0.118
        26  -8.9402     37.8602    181.2059   1.1357173173e+02   3.2078810532e+01    0.1882109    0.1503831  72.72 0.0003218325    1.136    0.119
        27  -8.4621     89.7981    180.6227   1.0060344860e+02   2.5351802174e+01    0.1952003    0.1229414  47.14  0.000495471    1.555    0.357
        28  -9.9766    187.5139    175.9636   7.6624863651e+01   8.9251292579e+00    0.3364457     0.324441 -62.88  0.001197574    1.238    0.193
        29  -8.4946    148.0378    174.5228   8.5143999942e+01   1.6599463565e+01    0.1972317    0.1258068  62.13 0.0004610989    2.209    0.547
        30 -12.2869     53.8159    146.9283   1.0492959869e+02   3.8639222166e+01     2.391002     0.650229 -59.79  0.008190883    3.026    0.670
        31 -13.1252     70.7646    154.0935   1.0133933378e+02   3.4627270509e+01    0.6572192    0.5878468 -53.34  0.001133527    1.125    0.111
        32 -14.3497     68.7713    144.2320   1.0018804952e+02   3.7362503782e+01     4.885648     2.187361  61.78   0.01374805    5.261    0.810
        33 -11.4027     73.9833    167.4935   1.0263656835e+02   3.0867122521e+01    0.4528627    0.2939937 -59.12  0.001576992    1.473    0.321
        34 -11.4756     69.5925    172.2140   1.0449445374e+02   3.0334073941e+01    0.4709908    0.2962521 -37.81   0.00189204    2.053    0.513
        35  -8.2863     84.2610    173.6618   1.0092301552e+02   2.7858050189e+01    0.1451643    0.1052299  77.19 0.0003294693    1.584    0.369
        36 -10.8315    240.4379    169.6691   6.5309547269e+01   9.2851932103e-01    0.2998784    0.1666513 -30.18  0.001237564    1.630    0.387
        37  -8.7339    193.5701    170.7648   7.4297680723e+01   8.8078138863e+00    0.1963966    0.1337444 -50.00 0.0009402103    1.618    0.382
        38 -13.3997     48.5754    107.7055   9.9322541847e+01   4.8968302425e+01     2.587136     1.592226  83.85   0.01081046    2.742    0.635
        39  -8.9461    185.2577    168.0672   7.5464203810e+01   1.0877981869e+01    0.2085987     0.185716 -28.16 0.0007610393    1.084    0.077
        40  -8.6424     35.5188    166.9979   1.1259495960e+02   3.5737948113e+01    0.1891293    0.1610647  47.55 5.872367e-05    1.243    0.195
        41  -8.2755     29.7329    164.6904   1.1381119450e+02   3.6882570584e+01    0.1261404   0.08860167 -49.26 0.0002123647    1.539    0.350
        42  -9.2372     35.9700    158.2049   1.1143055089e+02   3.7839814070e+01    0.2587655    0.1581894  57.96 0.0008014582    1.748    0.428
        43  -9.5172     32.5033    156.5032   1.1214330855e+02   3.8608193486e+01    0.2308856    0.1581778 -42.27 0.0007777267    1.674    0.403
        44 -11.5991     89.5757    152.1346   9.5772063826e+01   3.2272984769e+01    0.7279392    0.4934856 -25.11  0.002441071    2.061    0.515
        45 -10.6235    134.3562    147.5226   8.2833928771e+01   2.5264497968e+01    0.7810545     0.265737 -52.11  0.002412871    3.181    0.686
        46 -10.2078    133.0000    140.5052   8.1593480148e+01   2.7140931278e+01    0.5961885    0.2097899 -50.74  0.001885758    2.949    0.661
        47  -9.3056    174.6207    148.8825   7.3578990080e+01   1.6829270628e+01    0.2883874    0.2029045  61.97 0.0007996407    1.830    0.454
        48  -8.4854    111.0227    149.4955   8.9382157306e+01   2.9235930334e+01    0.2248324    0.1235629  58.79 0.0007828317    2.570    0.611
        49 -10.5094     38.7211    146.3178   1.0911160796e+02   4.0494722503e+01    0.3319767    0.2680051  72.75 0.0008590462    1.263    0.209
        50  -9.2637    143.6701    145.9998   8.0154666557e+01   2.3748763854e+01     0.254249    0.1284155 -66.58 0.0007051611    4.347    0.770
        51 -10.1612    102.9316    138.3622   8.9228607036e+01   3.3370102282e+01     0.583178     0.356705 -22.29  0.002166872    2.705    0.630
        52 -10.0586    105.8812    130.8961   8.6714464998e+01   3.4629542733e+01    0.3814262    0.3242349 -60.18  0.001168996    1.186    0.157
        53 -11.6573     90.3685    137.9304   9.2715769020e+01   3.5634685561e+01      0.29339    0.2650279 -34.73 0.0004759064    1.148    0.129
        54  -9.7410    136.1607    129.6641   7.8210327126e+01   2.8959287667e+01    0.3038549     0.112682 -48.36 0.0009765423    2.715    0.632
        55  -9.6385    111.9430    129.2534   8.4620701924e+01   3.3885617981e+01     0.334767    0.2640169  13.96  0.001062537    1.515    0.340
        56 -10.7155     43.2033    129.4487   1.0519517806e+02   4.4221844633e+01    0.2877023    0.2171816  51.43  0.001022939    1.468    0.319
        57 -11.1806     31.4595    129.3650   1.0875055317e+02   4.5421182810e+01    0.4330163    0.2835841  23.93  0.002328736    1.777    0.437
        58 -10.3029     99.1119    125.1510   8.7323407649e+01   3.7229982202e+01    0.3141836    0.2545654  -9.22  0.001068519    1.495    0.331
        59 -10.5774    118.7186    123.2365   8.1277128419e+01   3.3971261255e+01    0.5742385    0.3884085  -6.84  0.002229886    2.432    0.589
        60  -9.4541    160.8535    128.0847   7.1792641245e+01   2.4067455730e+01    0.2472336    0.2194813 -76.27  0.001247024    1.286    0.222
        61  -8.8164     91.0619    124.0470   8.9447591047e+01   3.8899547072e+01    0.2283684    0.1799264  75.06 0.0005079185    1.593    0.372
        62  -9.5358    135.1444    120.6981   7.6241891041e+01   3.1174042037e+01    0.3941258    0.1059511 -43.69    0.0010817    3.722    0.731
        63  -9.2514    108.0838    118.3691   8.3063192417e+01   3.7170156732e+01    0.2394293    0.2018359 -35.38 0.0003846511    1.193    0.162
        64  -9.8855    231.2625    113.8398   5.4940883717e+01   1.2074196553e+01    0.2608062     0.243682 -30.71 0.0008063462    1.077    0.071
        65  -9.3758    205.2705    110.1476   5.8362607377e+01   1.7998672003e+01     0.285193     0.217456  50.16  0.001030998    1.411    0.291
        66 -10.1449    114.7597    110.0287   7.8997718702e+01   3.7766280677e+01    0.3000219    0.2351365 -40.61 0.0009972758    1.257    0.205
        67 -11.8624     31.5495    108.1347   1.0514553238e+02   5.0619469648e+01    0.4193013    0.3734142  55.74  0.002620042    1.295    0.228
        68  -8.3209    139.4113    106.2018   7.1349404022e+01   3.3385776278e+01    0.2101794    0.1462429 -54.14 0.0005836275    1.547    0.354
        69  -8.8616    134.4986    105.0607   7.2296633039e+01   3.4702740607e+01    0.2503982    0.1521989 -43.62  0.001045736    1.629    0.386
        70 -12.0768     82.3131    159.2938   9.9059698746e+01   3.1649644761e+01     1.037067    0.6562876  72.22 0.0005667454    2.157    0.536
        71 -10.3379     29.5606     98.8840   1.0404258044e+02   5.3013958665e+01    0.2853899    0.1883844  33.43 0.0008790796    1.733    0.423
        72  -9.3117    155.6696     87.6477   6.2366640637e+01   3.3374308860e+01    0.3463309    0.2232803 -62.95  0.001067387    2.049    0.512
        73  -9.6633    234.3926     86.2075   4.8334390558e+01   1.6048716634e+01    0.1974212    0.1073431 -46.50 0.0006146673    1.631    0.387
        74  -9.3474    128.2238     95.3860   7.1252914931e+01   3.8088713949e+01    0.3824313    0.2577995  75.99  0.001508645    2.388    0.581
        75  -8.7580    116.0600     85.0706   7.1570116939e+01   4.2797598116e+01    0.2308025    0.1882005  84.84 0.0006596489    1.631    0.387
        76  -9.2210    158.4926     82.9035   6.0424832684e+01   3.3584883435e+01    0.2268855    0.1473666 -38.95 0.0005833959    1.537    0.350
        77  -8.1754     56.5408     66.5454   8.5511529526e+01   5.7171594157e+01     0.134721    0.1217724 -21.54  7.40222e-05    1.061    0.057
        78 -13.0019    188.2879     50.0920   4.6112151090e+01   3.1752818796e+01     1.000654    0.8976443  11.75 0.0008676024    1.396    0.284
        79  -9.0630     92.9650    249.2300   1.0853136733e+02   1.0411829548e+01    0.2583385   0.09840548  50.11   0.00113214    2.482    0.597
        80  -9.0147     68.6407     52.7142   7.6177750569e+01   5.7921546023e+01    0.2155854    0.1657344 -43.70 0.0004727686    1.406    0.289
        81  -9.7235     29.6607     36.0042   8.6187927182e+01   6.6162912185e+01    0.1739632    0.1346739 -24.53  0.000453162    1.078    0.072
        82 -11.2855     21.7573     34.0086   8.9222405855e+01   6.7308514611e+01    0.3499255    0.2417355  33.99  0.001371767    1.784    0.439
        83 -11.2578    136.3163    211.5312   9.4411879371e+01   1.0966089798e+01    0.4908149    0.2281048  34.80   0.00209159    2.022    0.505
        84  -9.1815    198.3452     23.5851   3.8167179841e+01   3.2779941870e+01    0.2444505    0.1608728 -22.11 0.0009169683    1.888    0.470
        85  -9.5150    189.4816     14.9803   3.7027371947e+01   3.5785730277e+01    0.1953251    0.1572993  84.81 0.0006569116    1.086    0.079
