#   1 NUMBER                 Running object number                                     
#   2 MAG_AUTO               Kron-like elliptical aperture magnitude                    [mag]
#   3 X_IMAGE                Object position along x                                    [pixel]
#   4 Y_IMAGE                Object position along y                                    [pixel]
#   5 X_WORLD                Barycenter position along world x axis                     [deg]
#   6 Y_WORLD                Barycenter position along world y axis                     [deg]
#   7 A_WORLD                Profile RMS along major axis (world units)                 [deg]
#   8 B_WORLD                Profile RMS along minor axis (world units)                 [deg]
#   9 THETA_WORLD            Position angle (CCW/world-x)                               [deg]
#  10 FWHM_WORLD             FWHM assuming a gaussian core                              [deg]
#  11 ELONGATION             A_IMAGE/B_IMAGE                                           
#  12 ELLIPTICITY            1 - B_IMAGE/A_IMAGE                                       
         1 -11.9692    214.6664     24.3680   3.9929702689e+01   2.8968256376e+01    0.9061466     0.702903  28.99   0.00565748    1.898    0.473
         2 -12.1958    201.5006     37.5686   4.4233597230e+01   3.0262985957e+01      1.42173    0.9243349  37.69  0.007489274    2.156    0.536
         3  -9.8094    239.3065      2.1533   3.3662696983e+01   2.6350290061e+01    0.4803328    0.1852098  80.40  0.002558385    2.548    0.608
         4 -10.2438    116.7529    238.3885   1.0514536012e+02   9.4606733821e+00    0.6273652    0.2386619  20.53  0.002190586    3.708    0.730
         5  -8.5125    239.2050    249.8640   8.2105681056e+01  -7.6418152903e+00    0.1570858    0.1167074  -3.36 0.0004437921    1.172    0.147
         6 -14.3299      2.7284    203.8259   1.2860839799e+02   2.9574785940e+01     1.306116    0.3513743 -68.42  0.005471813    3.267    0.694
         7 -15.4392     36.7840    236.8445   1.2290878322e+02   1.9534351908e+01     1.603845    0.7559764  36.28  0.008253947    1.713    0.416
         8 -15.3624     15.6653    215.5123   1.2628501893e+02   2.5968304616e+01     1.449071    0.5479658  58.37  0.006613655    2.564    0.610
         9 -17.7788      9.7335    238.2752   1.2865249276e+02   2.1833705453e+01     2.654968     2.071808  85.19   0.01947947    1.240    0.194
        10 -14.5576     40.9531    247.7534   1.2271251607e+02   1.6991277143e+01     1.003236    0.3456235  34.68  0.004002839    2.185    0.542
        11  -9.2899    106.0000    235.9344   1.0728492504e+02   1.1362762496e+01    0.2570245    0.1376236 -35.48 0.0009993381    2.543    0.607
        12  -8.5539    248.4237    233.3077   7.7914153908e+01  -6.5920431843e+00    0.1947037   0.08578718 -28.65 0.0004833089    1.917    0.478
        13  -9.2004    132.9986    233.4722   1.0084976934e+02   8.0961846515e+00     0.278794    0.1478877 -30.18  0.001287449    2.487    0.598
        14  -9.0693    125.0960    231.9169   1.0242634596e+02   9.4787164251e+00     0.239222    0.1570306  42.84  0.000449089    1.495    0.331
        15  -9.3945    120.5962    231.2131   1.0336022096e+02   1.0235257731e+01    0.2642242    0.1745785 -55.83  0.001386844    1.833    0.455
        16  -8.9109    151.0063    229.6864   9.6298368036e+01   6.2223336397e+00    0.1956962    0.1499141  17.35 0.0008815477    1.087    0.080
        17  -9.4493    130.4234    229.3085   1.0085909076e+02   9.2023999177e+00    0.3468392    0.1674453  21.73  0.001529937    2.127    0.530
        18  -7.7322     73.5088    227.2139   1.1384584775e+02   1.7291483367e+01    0.1606693    0.1172675  80.13 0.0004506616    1.598    0.374
        19  -8.1926     66.5478    226.1263   1.1536599835e+02   1.8367064086e+01    0.2168072    0.1448783  43.00 0.0005998488    1.287    0.223
        20  -9.7155    111.9158    224.2935   1.0446686347e+02   1.2755567766e+01    0.4656721    0.2141922  25.05  0.001015226    2.120    0.528
        21 -14.0051     23.6224    238.5764   1.2580624128e+02   2.0501192431e+01    0.2773629    0.2518989  36.49   0.00104976    1.232    0.188
        22  -7.6126    208.0451    220.8399   8.3047852616e+01  -1.7596082796e-01    0.1762572    0.1369341  45.04  0.000851882    1.978    0.494
        23  -8.0306     93.6966    220.9255   1.0837063691e+02   1.5942814839e+01    0.1785022    0.1692672  65.56  0.001144187    1.156    0.135
        24  -9.9028    228.4567    215.1820   7.8303609945e+01  -1.9314652641e+00     0.211061    0.1685289  -3.57 0.0002615472    1.139    0.122
        25  -8.4166    196.6221    216.1067   8.4471651204e+01   2.0608120370e+00    0.1770332    0.1372327 -14.30 0.0004697039    1.141    0.123
        26  -8.5927    154.8278    213.7833   9.2967344401e+01   8.4610919174e+00    0.1797176    0.1563656  41.72 0.0008466453    1.361    0.265
        27  -8.2468     98.7778    214.0497   1.0627952773e+02   1.6652049906e+01     0.201125    0.1761465  21.27 0.0002930076    1.074    0.069
        28  -8.2608    101.2407    210.7939   1.0524354231e+02   1.6981162386e+01     0.201928    0.1704603  44.34 0.0005306653    1.148    0.129
        29  -7.6412     74.4721    209.5820   1.1174041684e+02   2.0878870793e+01    0.2944736    0.2032286 -28.92  0.001510271    1.914    0.478
        30  -8.5992     58.5906    211.7295   1.1588840554e+02   2.2368688160e+01    0.2390465    0.1249079  46.99 0.0008866715    1.757    0.431
        31  -7.6715    198.0425    211.4956   8.3389550584e+01   2.5892263913e+00    0.1831419     0.112365  25.92 0.0004841098    1.487    0.328
        32  -8.2199     75.3422    212.6312   1.1186813735e+02   2.0106936078e+01    0.4247578    0.2229321  19.95  0.001789545    2.121    0.529
        33  -8.4101    189.0073    210.0977   8.4969962486e+01   4.0837865206e+00    0.1985452    0.1639976  -2.03 0.0004374162    1.051    0.048
        34  -7.6931    198.7372    206.9280   8.2444968126e+01   3.2181588234e+00    0.1612019    0.1010588 -30.88 0.0004534031    1.499    0.333
        35  -7.6457     80.6401    206.1627   1.0979258773e+02   2.0818784114e+01    0.1837161    0.1200139 -50.19 0.0005274078    1.685    0.407
        36  -7.7312    121.8070    204.1497   9.9207187354e+01   1.5324153841e+01    0.1843467    0.1513124  -8.79            0    1.289    0.224
        37  -8.9323     63.1826    203.0428   1.1385405198e+02   2.3745528238e+01    0.2546534    0.1731365  39.01 0.0006317082    1.322    0.244
        38  -7.6032    118.3356    199.8162   9.9389752261e+01   1.6752792196e+01    0.1928624    0.1256393 -41.80  0.000812667    1.660    0.397
        39  -9.0033    193.7130    197.7828   8.1796923452e+01   5.4396904726e+00    0.3163889    0.2330566 -59.60  0.001639199    2.271    0.560
        40  -7.7770     90.1077    196.8089   1.0615001541e+02   2.1591205979e+01    0.2130851    0.1788541  57.45 0.0005527197    1.242    0.195
        41  -9.2104    165.7507    201.3956   8.8408507027e+01   9.0486175940e+00    0.2424192    0.2047844  -0.14 0.0002747942    1.038    0.037
        42  -9.7795    152.0505    194.9370   9.0384599853e+01   1.2420839055e+01    0.2460911    0.2033416   5.23   0.00137237    1.113    0.101
        43  -7.7288    115.1601    192.1596   9.8967828648e+01   1.8876644357e+01    0.1918633    0.1587412  48.17 0.0002449648    1.274    0.215
        44  -9.1374     74.9592    190.2134   1.0925357709e+02   2.5185435299e+01    0.2783864    0.1996062 -63.59 0.0006856662    1.467    0.318
        45  -7.6550    136.5022    190.5869   9.3338659157e+01   1.5802386452e+01    0.1461831    0.1281411  11.80 0.0001012499    1.032    0.031
        46  -8.6051    188.2662    186.8046   8.0849654608e+01   8.1535252434e+00    0.2891089    0.2253243 -62.94 0.0007836884    2.056    0.514
        47  -8.0550     81.8426    186.5340   1.0690165867e+02   2.5106363508e+01     0.333742    0.2219861 -12.96  0.001082024    2.158    0.537
        48  -8.0462    118.2284    183.7579   9.6762306702e+01   2.0225728116e+01     0.376791     0.172938  23.43  0.001187715    2.577    0.612
        49  -7.9503     78.0833    182.6341   1.0737364119e+02   2.6546251614e+01    0.1992379    0.1736356  31.21 0.0004942755    1.100    0.091
        50  -9.1084     50.5354    181.0534   1.1475739842e+02   3.0394124191e+01    0.4167072     0.178645 -55.63  0.001728704    2.304    0.566
        51  -8.1275     75.2923    170.0687   1.0630740045e+02   2.9968745773e+01    0.2442895    0.1947868 -13.10  0.000501683    1.482    0.325
        52  -9.5980     70.8313    173.6266   1.0811359414e+02   2.9702603566e+01    0.2971563    0.2624773 -24.51 0.0007599612    1.248    0.199
        53  -8.6291     61.7175    181.3163   1.1170801781e+02   2.9003233022e+01    0.2038279    0.1390358 -71.72 0.0004530948    1.521    0.343
        54  -9.9336     66.0991    179.1299   1.1020921081e+02   2.8980574667e+01    0.4600199    0.3066285 -30.21  0.002175287    1.915    0.478
        55  -8.4397     39.9546    181.0729   1.1764979426e+02   3.1538108432e+01    0.2014236    0.1867479  68.39 0.0006638824    1.013    0.013
        56  -8.4004    146.2827    179.5644   8.8914659685e+01   1.6449472555e+01    0.3171146     0.205837  62.30   0.00128429    2.679    0.627
        57  -9.6371     18.2003    177.1478   1.2315218998e+02   3.4515762872e+01    0.3944866    0.2450207  73.41  0.002102335    1.592    0.372
        58  -9.2962     14.5290    176.4368   1.2407193418e+02   3.4984346747e+01    0.2199169    0.1926958 -53.19 0.0008218873    1.259    0.205
        59  -9.4181     97.0068    238.6919   1.0964161641e+02   1.2043812923e+01    0.1832005    0.1435053  31.72 0.0005958348    1.064    0.060
        60  -8.4363     52.3652    175.0042   1.1353808529e+02   3.1663826215e+01    0.2370892    0.1904684  -0.78 0.0005548699    1.474    0.322
        61  -7.6082    109.4037    178.7607   9.8225486470e+01   2.2766268381e+01    0.1864125    0.1375462 -40.62 0.0003272453    1.425    0.298
        62  -9.5447    175.4529    172.4126   8.0739381743e+01   1.2879398928e+01    0.3267885    0.2737648  17.85 0.0007382109    1.128    0.113
        63  -8.6137     60.8916    176.0240   1.1126066495e+02   3.0393200902e+01    0.2270306    0.1978308 -73.17 0.0004934809    1.157    0.136
        64  -6.8257     48.6776    172.2392   1.1425009408e+02   3.2766862828e+01    0.1402821   0.09443872  54.71 0.0001876468    1.520    0.342
        65  -7.7227     37.0964    171.2958   1.1742965936e+02   3.4228903104e+01    0.1814712    0.1688194  62.48 0.0005623211    1.042    0.041
        66  -9.2698     89.5728    233.7445   1.1079918535e+02   1.3952379597e+01    0.1799712     0.161683 -26.12   0.00106795    1.301    0.231
        67  -8.7093     88.8679    165.1349   1.0158195755e+02   2.9203464461e+01    0.2603793    0.1904909  40.55            0    1.338    0.253
        68  -8.3630     85.2376    165.2368   1.0265094841e+02   2.9725226455e+01    0.2498077    0.2006746  34.58 0.0003801461    1.205    0.170
        69  -8.0756     42.6783    164.7424   1.1508544708e+02   3.5294957269e+01    0.3315263    0.1847702 -31.51  0.001400866    2.489    0.598
        70  -8.8619     80.0078    163.9868   1.0396792905e+02   3.0800512790e+01    0.2832928    0.2426002 -42.22 0.0007264077    1.206    0.171
        71  -7.7782     79.5971    160.3093   1.0347258674e+02   3.1771821630e+01    0.2342921    0.1667253  64.13 0.0006922807    1.707    0.414
        72  -8.5940     57.2658    163.3470   1.1059772638e+02   3.3991489505e+01    0.4978248    0.2855826  -3.90  0.001943546    2.841    0.648
        73  -7.9246    239.7732    163.0486   6.6712522834e+01   4.3132519211e+00    0.1710507   0.08714332 -35.38 0.0008727078    1.644    0.392
        74  -7.6220     99.4348    163.4539   9.8246288106e+01   2.7952445931e+01    0.1487057     0.143553  22.93 8.651166e-05    1.021    0.020
        75  -7.5829     28.4630    162.3212   1.1896668168e+02   3.7295185359e+01    0.1832353    0.1203955  87.75 0.0009296315    1.543    0.352
        76  -7.3762    107.9954    160.0274   9.5166112093e+01   2.7353920508e+01    0.1779328    0.1677806 -35.87            0    1.081    0.075
        77  -9.5050     67.8270    159.0710   1.0679624568e+02   3.3724636324e+01    0.3684664    0.2957714 -34.11  0.001014955    1.354    0.262
        78  -7.4801     33.9866    159.9694   1.1709197893e+02   3.7377165112e+01    0.1659323    0.1483512 -82.14 0.0005994796    1.048    0.046
        79  -7.7118    172.2171    159.0750   7.8669514504e+01   1.6014814934e+01    0.2037906    0.1758995 -17.82 0.0004933054    1.070    0.066
        80  -9.7328     85.9888    158.5419   1.0126596347e+02   3.1259293695e+01    0.4220982    0.3733824  -6.95  0.001058944    1.206    0.171
        81  -9.2234     88.3380    154.6787   9.9861073808e+01   3.1852668245e+01    0.4261032    0.2683057  51.40  0.001348043    1.807    0.447
        82  -6.8919    132.6691    158.7021   8.8170618978e+01   2.3316451086e+01    0.1585076    0.1162871  -5.36 0.0004090903    1.642    0.391
        83  -7.2401    126.9895    158.2546   8.9580971398e+01   2.4442532650e+01    0.1865767    0.1276907  33.90 0.0008414509    1.414    0.293
        84  -8.8877     23.0700    157.6945   1.2007711861e+02   3.8930380329e+01    0.2426403     0.159847  68.50 0.0007403477    1.578    0.366
        85  -9.3492     52.0126    156.2932   1.1118763897e+02   3.6407209416e+01     0.529274    0.3162501 -55.25  0.001050199    1.612    0.380
        86  -8.0425     33.1751    155.2713   1.1679728742e+02   3.8650432743e+01    0.3548614    0.2085575 -29.01  0.001596769    2.246    0.555
        87  -7.3279     24.5074    154.5336   1.1932819926e+02   3.9612064303e+01    0.1337809    0.1222601 -86.39 0.0008096854    1.003    0.003
        88  -7.4898     98.5161    153.4756   9.6611209080e+01   3.0511929553e+01    0.1531574    0.1457239  -1.37 1.502238e-05    1.035    0.034
        89 -11.2440     68.5039    144.5875   1.0414549356e+02   3.7317587925e+01    0.9919182     0.647463  88.64  0.004206264    2.128    0.530
        90  -8.4446    111.7002    150.0634   9.2091617848e+01   2.9070823302e+01    0.2374802    0.2068317  47.59  0.000411017    1.213    0.175
        91  -8.9848    133.6264    146.2032   8.5204285457e+01   2.5921898131e+01     0.562063    0.2580842 -47.18  0.002092289    2.204    0.546
        92  -9.4019      8.1821    147.6179   1.2356769320e+02   4.2581767792e+01    0.2184632    0.1762657  -4.06  0.001311102    1.483    0.326
        93  -8.1345    126.8695    147.1071   8.7219256731e+01   2.6991866871e+01    0.2282857    0.2103549  -5.42 0.0003016293    1.053    0.050
        94  -8.2020     85.5368    145.3596   9.8927948776e+01   3.4609231915e+01    0.3710074    0.1424031 -54.35 0.0009208256    2.525    0.604
        95  -9.4938     86.0025    238.7121   1.1213247667e+02   1.3461259016e+01    0.2722995    0.1915452  48.67 0.0009801168    1.326    0.246
        96  -7.7598     31.0880    145.8950   1.1631873591e+02   4.1253458675e+01    0.2070757    0.1708683  67.61 0.0005041653    1.241    0.194
        97  -9.8169    242.4455    144.1415   6.2547115315e+01   6.8354630496e+00    0.2923465    0.2815489 -25.42  0.002061763    1.297    0.229
        98  -8.6729     99.0136    143.5465   9.4435958651e+01   3.2846770225e+01    0.3572298    0.2430847  50.21  0.001574263    1.640    0.390
        99  -8.2099     89.3318    142.5695   9.7191016681e+01   3.4699870453e+01    0.3413987    0.1803345 -50.34 0.0009940282    1.860    0.462
       100  -9.3235      6.3546    141.9182   1.2362793249e+02   4.4140273692e+01    0.2884445    0.1529253  61.05   0.00136609    2.060    0.514
       101  -8.0558     82.1552    142.1582   9.9351122245e+01   3.5938852679e+01    0.2216635    0.1997429 -16.56 0.0004235469    1.150    0.131
       102  -8.3056     82.6874    137.4392   9.8226050799e+01   3.7043061983e+01    0.3631835    0.2453285  77.28 0.0008427563    2.298    0.565
       103  -7.3878    155.0039    137.0356   7.7682886233e+01   2.3730490474e+01    0.1804307    0.1667101 -16.36 0.0003009576    1.028    0.028
       104  -7.3378    109.6086    137.5133   8.9950701879e+01   3.2425036329e+01    0.1551493    0.1479036 -15.41 0.0001017685    1.025    0.025
       105  -7.6982     52.7759    137.2309   1.0799221759e+02   4.1238355561e+01    0.1931151    0.1592135 -29.14 0.0002091807    1.291    0.226
       106  -7.1054    117.7071    136.7107   8.7414855502e+01   3.1107199183e+01     0.157403    0.1207125  -8.78 0.0002570872    1.547    0.354
       107 -10.9371     84.0782    232.1183   1.1189201106e+02   1.4977844797e+01    0.5094377    0.4288386 -60.47  0.002553007    1.379    0.275
       108  -9.1058    105.3791    133.9371   9.0392540368e+01   3.4049406671e+01    0.2715853    0.2228671  31.98 0.0003167535    1.203    0.169
       109  -8.3038     29.0780    134.0261   1.1543900330e+02   4.4511826524e+01    0.1995196      0.19018 -72.99 0.0004784162    1.038    0.037
       110  -8.6337    192.6116    132.9269   6.8601939813e+01   1.7185420298e+01    0.2262426    0.2045661  45.53 0.0003841989    1.255    0.203
       111  -7.9138    136.0069    132.9856   8.1495681594e+01   2.8386785023e+01    0.2276573    0.2156706   2.25  0.001194966    1.008    0.008
       112  -9.5764      9.6035    132.2938   1.2168557999e+02   4.6400551655e+01    0.2607761    0.2010778 -22.72  0.001505045    1.480    0.324
       113  -8.0974     73.9881    131.0344   9.9735761708e+01   3.9994074193e+01    0.4156948    0.1812572 -43.03  0.001289856    2.465    0.594
       114  -8.1720     18.6618    131.3165   1.1858175776e+02   4.6045913535e+01    0.1431354   0.09365699  61.05 0.0007048337    1.702    0.412
       115  -8.3677     62.0880    136.5142   1.0476887540e+02   4.0257548549e+01    0.2193967    0.1450075  29.55 0.0005190797    1.537    0.349
       116  -8.0275    110.9913    131.9929   8.8262922698e+01   3.3475894671e+01    0.2545761    0.1886668 -10.84 0.0006361785    1.668    0.400
       117  -8.8749    120.0679    128.0069   8.4662368674e+01   3.2661913441e+01    0.2324159    0.2225829  16.55 0.0005171139    1.035    0.034
       118  -8.3677    124.8676    127.0655   8.3074309362e+01   3.1927435616e+01    0.2390568    0.2199287  78.21 0.0008054479    1.292    0.226
       119  -7.5408     99.1680    126.2383   9.0494252872e+01   3.7024798536e+01    0.2032387    0.1835002  85.03 0.0002658165    1.314    0.239
       120  -7.4657     19.6246    126.6909   1.1768234461e+02   4.7175157075e+01    0.1494511   0.08864759 -38.36  0.000703031    1.780    0.438
       121  -8.2072     89.0766    124.2119   9.3239707701e+01   3.9290404485e+01    0.2464063    0.2278404 -77.29            0    1.207    0.172
       122  -7.5250     70.5516    122.4583   9.9070601164e+01   4.2680642310e+01    0.1501687    0.1454156 -32.28  1.98445e-05    1.017    0.017
       123  -7.8507    104.4650    120.5135   8.7441607474e+01   3.7411565387e+01     0.246431    0.1549798 -61.33 9.297163e-05    1.934    0.483
       124  -7.3546    198.3214    120.7406   6.4730249351e+01   1.8276256229e+01    0.1312274    0.1103223 -74.74 0.0002737667    1.549    0.354
       125  -7.2926      5.6682    119.3113   1.2163673427e+02   4.9958945042e+01    0.1361555   0.09049364  61.28 0.0007043336    1.674    0.403
       126  -7.6171     66.1553    116.3991   9.9267935723e+01   4.4853805815e+01    0.2090875    0.1367726  40.43 0.0004599254    1.608    0.378
       127  -7.7420    121.7056    115.3477   8.0976459201e+01   3.5189917884e+01    0.1569457    0.1286661 -89.18 0.0007031672    1.672    0.402
       128  -7.4133    204.4292    112.4973   6.1752764120e+01   1.8520865186e+01    0.1394777    0.1233504 -23.71 4.880263e-05    1.060    0.057
       129  -8.4703    109.6170    111.6584   8.3562000477e+01   3.8463402866e+01    0.3068616    0.2300664  58.16   0.00103838    1.606    0.377
       130  -7.8356    126.8016    111.6003   7.8547831735e+01   3.4952147272e+01    0.2133137    0.1487263  51.26 0.0003621357    1.554    0.356
       131  -7.2905     59.3045    111.6693   1.0068777201e+02   4.7002019994e+01    0.1503913    0.1165941  69.64 0.0003191514    1.656    0.396
       132  -7.6941     43.1284    110.8310   1.0656684608e+02   4.9180948618e+01    0.2042454    0.1543439 -33.48 0.0004340439    1.323    0.244
       133  -9.3401    248.9577    105.4803   5.3787866906e+01   1.1671170905e+01    0.2866588    0.1194879 -48.55  0.001279786    2.478    0.597
       134  -7.4330      8.6310    106.6673   1.1903148527e+02   5.3040818653e+01    0.1513819    0.0793758 -41.17 0.0007030908    1.830    0.454
       135  -8.1807     69.2885    103.7428   9.5085529053e+01   4.7539585085e+01    0.2181817    0.1707621 -18.96  0.001054447    1.370    0.270
       136  -7.8560    135.4923    106.5132   7.4830147581e+01   3.4171466239e+01    0.3385861      0.15276  44.42   0.00122443    2.213    0.548
       137  -7.6573     36.4870     98.4790   1.0661649568e+02   5.3018728206e+01    0.1406775    0.1322048 -50.62 -1.160021e-05    1.069    0.065
       138  -6.9820     68.6758     96.7346   9.3466984239e+01   4.9328455049e+01    0.1537868    0.1128635 -13.46 0.0002509156    1.564    0.361
       139  -8.7295     43.0377     92.9686   1.0268012642e+02   5.3700631254e+01     0.211307    0.1968548 -30.05 0.0003352805    1.038    0.036
       140  -7.1101     93.3403     89.2839   8.2417006378e+01   4.6673724194e+01    0.1596355    0.1190033   0.51 0.0007014545    1.633    0.387
       141  -7.5596     75.7891     88.3760   8.8403774487e+01   5.0111308165e+01    0.2025391    0.1412891  21.08 0.0003910249    1.516    0.340
       142  -7.5607    196.4420     86.0440   5.6753088714e+01   2.4523937269e+01    0.2060756    0.1279795 -34.15  0.000568375    1.529    0.346
       143  -8.3965     99.4722     85.5792   7.9238798668e+01   4.6232355357e+01    0.2635508    0.2397505  26.81 0.0001462658    1.064    0.060
       144  -7.1515     59.5530     85.5485   9.3913259525e+01   5.3348705922e+01    0.1484589    0.1362311 -18.73 0.0001279538    1.008    0.008
       145  -7.2623     62.2943     81.7092   9.1664365417e+01   5.3822143021e+01    0.1386736    0.1190599  70.02 0.0002760116    1.552    0.356
       146  -7.8851     81.1042     77.8013   8.3125386651e+01   5.1473724763e+01    0.3739781    0.2333744   2.86  0.001427925    2.528    0.604
       147  -7.6337     11.4675     75.4738   1.1264299760e+02   6.0684500684e+01    0.1353313    0.1126172 -44.39 6.776152e-05    1.007    0.007
       148  -7.3881    105.6214     72.1580   7.2965620357e+01   4.7587411716e+01    0.1972531     0.141878 -22.71 0.0001133637    1.547    0.353
       149  -7.5488     74.5586     71.4642   8.3487403563e+01   5.3996682238e+01    0.1494016    0.1374107  -0.99  0.000108926    1.014    0.014
       150  -8.1645     49.7379     61.3630   9.0463548134e+01   6.0120446605e+01    0.1908445    0.1270083  16.73 0.0004019186    1.533    0.348
       151  -7.5867     58.1350     55.8370   8.4663891590e+01   5.9950416933e+01    0.1917543    0.1488409   1.57  0.001008393    1.275    0.216
       152  -7.7906     26.2484     53.0787   9.9229493712e+01   6.4698089619e+01     0.184057    0.1541586 -30.56 0.0003307202    1.060    0.057
       153  -8.5165    108.6053    243.8087   1.0761202515e+02   9.5840966581e+00     0.147938     0.123477 -85.63 0.0005068704    1.590    0.371
       154 -11.1298    193.2900     43.4908   4.6616978196e+01   3.1348765268e+01    0.4373432    0.4066856 -12.11   0.00181611    1.278    0.217
       155  -8.4246    209.9989    239.1003   8.5671583930e+01  -3.0110766049e+00    0.1775922    0.1318486   3.17 0.0003272527    1.019    0.019
       156  -7.9459     28.9201     46.6961   9.5543782843e+01   6.5752372424e+01     0.181231    0.1508878  -1.96 0.0003225644    1.100    0.091
       157  -7.6249    167.5591     33.4572   4.7295898542e+01   3.8551460339e+01    0.1331474    0.1204051 -85.37 0.0003114943    1.022    0.021
       158  -7.7714    127.9302     27.1101   5.1810029370e+01   4.8987969576e+01    0.1963265    0.1729197 -79.92 0.0003757772    1.215    0.177
       159  -8.4273    233.8142     17.8596   3.7107074199e+01   2.5816120555e+01    0.1563845    0.1428851 -60.94 0.0005044164    1.211    0.174
       160  -7.7048    245.6961     12.4379   3.5297117970e+01   2.4135570056e+01     0.130998   0.09428369  71.60 0.0009265625    1.533    0.348
