#   1 NUMBER                 Running object number                                     
#   2 MAG_AUTO               Kron-like elliptical aperture magnitude                    [mag]
#   3 X_IMAGE                Object position along x                                    [pixel]
#   4 Y_IMAGE                Object position along y                                    [pixel]
#   5 X_WORLD                Barycenter position along world x axis                     [deg]
#   6 Y_WORLD                Barycenter position along world y axis                     [deg]
#   7 A_WORLD                Profile RMS along major axis (world units)                 [deg]
#   8 B_WORLD                Profile RMS along minor axis (world units)                 [deg]
#   9 THETA_WORLD            Position angle (CCW/world-x)                               [deg]
#  10 FWHM_WORLD             FWHM assuming a gaussian core                              [deg]
#  11 ELONGATION             A_IMAGE/B_IMAGE                                           
#  12 ELLIPTICITY            1 - B_IMAGE/A_IMAGE                                       
         1 -14.3672    167.1137     53.4370   7.0816283020e+01   3.6416862560e+01     1.873137     1.343101  25.56  0.006768637    2.039    0.509
         2 -14.1464    181.3537     37.8190   6.4714987353e+01   3.5230402966e+01    0.8753983    0.7370802  89.10  0.002892996    1.040    0.038
         3 -13.7698    185.9101     31.1263   6.2519359298e+01   3.5022179430e+01    0.5859755    0.4954233 -85.01  0.001474698    1.044    0.042
         4 -14.6019    202.1317      6.6590   5.5334874784e+01   3.4141438889e+01     1.083279    0.9317269 -41.32  0.005034928    1.439    0.305
         5 -13.7279    190.0034     13.4819   5.8025877129e+01   3.6105127895e+01    0.6926805    0.4735527 -66.10  0.003226584    1.402    0.287
         6 -11.2957     87.5762     12.8490   7.5229747529e+01   5.8578949051e+01    0.2721824     0.179774  61.55 0.0006343367    1.588    0.370
         7 -11.8043     78.1978     10.4229   7.6841285843e+01   6.0573080898e+01    0.4378824    0.2007081  60.88  0.002087132    2.617    0.618
         8 -11.9648    193.6599    195.6653   9.8666295239e+01   2.8744163071e+00     1.257019    0.6446651 -66.68  0.003344662    6.423    0.844
         9 -12.5934    248.5228    248.2827   9.7794057730e+01  -1.4389594672e+01    0.4304512    0.3077198 -18.86  0.002877071    1.197    0.165
        10 -14.4206     66.8180    212.5026   1.3009308187e+02   2.1221034687e+01     1.836355     1.042936  38.53  0.006659719    1.775    0.437
        11 -17.8676     56.2678    238.6315   1.3516609740e+02   1.6833798962e+01     9.783802     7.940895 -78.86   0.05808819    1.222    0.182
        12 -11.3776    154.7129    187.5619   1.0556289506e+02   1.1908019102e+01     0.281648    0.2685108  42.27  0.001261364    1.045    0.043
        13 -10.4292    201.3140    168.6788   9.1615403234e+01   6.9317339557e+00    0.2808892    0.2346806 -78.74  0.001024598    1.487    0.328
        14 -11.1274    204.8423    166.3458   9.0426449355e+01   6.7350843512e+00    0.4550174    0.3129928 -50.76  0.001720257    1.436    0.304
        15 -11.7704    193.5310    165.9702   9.2614802351e+01   9.0019959083e+00    0.4380659     0.332918 -61.61 0.0007808545    1.469    0.319
        16 -10.7207    191.0296    161.5333   9.2177619087e+01   1.0432380787e+01     0.345297    0.2291391  64.85  0.001491387    2.037    0.509
        17 -10.3946    157.4942    199.5132   1.0722126888e+02   8.7489752041e+00     0.145122    0.1417925  48.80 -3.686998e-05    1.028    0.027
        18 -11.4325    204.6403    199.7385   9.7230514500e+01   1.4143478862e-01    0.2619476    0.1695072  25.69  0.001212972    1.710    0.415
        19 -10.9498      6.9365    161.2382   1.3808842743e+02   4.0348721460e+01    0.1875399    0.1699192 -42.02 0.0009160546    1.347    0.258
        20 -10.3010    236.3180    191.6595   8.9658694310e+01  -3.6082403839e+00    0.1268355    0.1049379 -71.11 0.0007049164    1.711    0.416
        21 -11.4997    189.0498    155.0027   9.1164722520e+01   1.2218648568e+01    0.4707465    0.4363323 -71.17  0.002133961    1.125    0.111
        22 -10.3035    156.3072    156.6210   9.8732964283e+01   1.8633196696e+01    0.1645323     0.123548 -86.56 0.0007026478    1.784    0.440
        23 -10.4470    126.1203    153.8140   1.0549403527e+02   2.5441475542e+01    0.2445313    0.2079319  85.92 0.0006529858    1.310    0.237
        24 -12.1254    133.9053    145.8238   1.0173588332e+02   2.5782087836e+01     1.372606    0.3607854 -54.98  0.003163234    5.516    0.819
        25 -10.0398    129.2462    140.5428   1.0170301172e+02   2.7980078416e+01    0.2769123    0.2401315  18.04 0.0008700436    1.330    0.248
        26 -10.2059    152.0029    150.4317   9.8360892386e+01   2.0951512664e+01    0.2519093    0.2009146 -48.82 3.990894e-05    1.223    0.182
        27 -19.0474     32.6601    101.9325   1.2137561389e+02   5.2173503904e+01     15.83659    0.9039488 -59.22   0.02677897   14.350    0.930
        28 -10.6420    174.4721    148.9813   9.2918004436e+01   1.6545020676e+01    0.2971277     0.261235  74.84 0.0007034834    1.251    0.201
        29 -10.6879    120.3575    149.5780   1.0604793294e+02   2.7594394912e+01    0.3064063    0.1483762  45.23  0.001142507    2.127    0.530
        30  -9.6987     64.1074    186.5281   1.2729966956e+02   2.7850023728e+01    0.1855233    0.1325262  45.06 0.0005678075    1.428    0.300
        31 -12.5500    110.4946    138.8166   1.0624448430e+02   3.2091374198e+01     0.762666    0.4509983 -36.20  0.003069779    1.985    0.496
        32 -11.9459    105.9699    130.8292   1.0562449203e+02   3.4854291170e+01    0.5040612    0.3759624 -68.28  0.001186588    1.488    0.328
        33 -11.2988    105.3117    125.1928   1.0445709010e+02   3.6304880730e+01    0.2933887     0.247924 -18.19 0.0008852787    1.358    0.264
        34 -12.6109     99.7757    138.1812   1.0903508071e+02   3.4226975981e+01    0.4022812    0.3196546  36.96 0.0004663229    1.331    0.248
        35 -11.4667    135.4770    127.0774   9.6897434276e+01   2.9799657481e+01    0.6357653    0.2303745 -50.65  0.002019466    2.858    0.650
        36 -11.1355    117.0734    129.2299   1.0221481585e+02   3.3087232186e+01     0.336099    0.2900308 -15.56 0.0008876129    1.343    0.255
        37 -10.9887    160.3743    127.3247   9.0996168988e+01   2.4343070822e+01    0.4109612    0.2741301 -63.16  0.001116842    1.744    0.426
        38 -11.3893    150.7355    182.4919   1.0547942690e+02   1.3822597123e+01    0.2974195    0.2462694 -84.21 0.0005161144    1.420    0.296
        39 -10.6922    121.0173    123.9439   9.9866998775e+01   3.3516917968e+01    0.2458237    0.1931516  -9.30 0.0007286206    1.678    0.404
        40 -10.4019    111.8734    118.6445   1.0101530526e+02   3.6550502392e+01    0.2457555    0.2065224 -33.94    0.0004626    1.226    0.185
        41 -10.7835    167.9611    112.8942   8.5794185053e+01   2.5707550439e+01    0.3924361    0.2902156 -83.25  0.001370213    1.725    0.420
        42  -9.8746    168.9997    177.9168   1.0038707591e+02   1.1266536228e+01    0.2345475    0.1855486  89.83 0.0005425442    1.670    0.401
        43 -10.7254    205.4248    110.0840   7.7900845645e+01   1.7938803596e+01    0.3054761    0.2206131  49.56 0.0009239767    1.511    0.338
        44 -10.3836    134.5736    105.2956   9.1573905871e+01   3.4740123137e+01    0.2974994    0.1460502 -47.95  0.001136046    2.061    0.515
        45 -10.1082     78.0651    104.7234   1.0734863349e+02   4.5728915198e+01    0.1946953     0.183974   9.00 0.0004762037    1.093    0.085
        46 -10.3939     65.3245     99.0070   1.0990887199e+02   4.8910913407e+01    0.2624494    0.2108459  41.57  0.001456475    1.388    0.280
        47  -9.6690    127.0251     94.5040   9.0579034432e+01   3.8569767241e+01    0.2162334    0.1461592  48.05 0.0009925009    1.473    0.321
        48 -10.1335     78.6325     75.0651   9.8837591907e+01   5.1673172359e+01    0.2125791    0.1790282  42.24 0.0004024433    1.283    0.221
        49 -12.7088    172.5173     71.5170   7.4477829217e+01   3.2359662513e+01    0.7651071    0.4304024 -84.01  0.002040455    3.390    0.705
        50 -10.5890    168.1099    233.4873   1.1088948889e+02  -9.4944857846e-03    0.3191517    0.2080368  53.76  0.001505923    1.775    0.437
        51 -10.9340    204.3573    175.5297   9.2438770973e+01   4.9633045734e+00    0.4738451    0.2172093 -59.81  0.001455507    4.163    0.760
        52  -9.7235    160.2523    197.6190   1.0624619692e+02   8.6424403750e+00    0.1467168    0.1160189 -86.62 0.0006958967    1.658    0.397
        53 -10.3889     13.5672     59.8704   1.1796322934e+02   6.2414331051e+01    0.1822445    0.1562214   4.20 0.0004271512    1.277    0.217
        54 -12.6334    151.8421    191.7400   1.0703127049e+02   1.1523767799e+01    0.4480319    0.3378362 -73.09   0.00128615    1.612    0.380
        55 -10.2123    165.2509    172.0222   1.0000111825e+02   1.3318479098e+01     0.227101    0.1980167 -74.48 0.0005668534    1.266    0.210
        56  -9.6674    107.4722     19.5268   7.2724864938e+01   5.3938224450e+01    0.1236215    0.1064407  48.52 6.076081e-05    1.035    0.034
        57  -9.8382    101.0237     17.3200   7.3475104715e+01   5.5485746184e+01    0.1724678    0.1340525  50.94 0.0003781928    1.116    0.104
        58 -11.4557     11.6530    206.2090   1.4127374784e+02   2.9343494457e+01    0.4169718    0.2303949  36.98  0.002376052    1.961    0.490
