#   1 NUMBER                 Running object number                                     
#   2 MAG_AUTO               Kron-like elliptical aperture magnitude                    [mag]
#   3 X_IMAGE                Object position along x                                    [pixel]
#   4 Y_IMAGE                Object position along y                                    [pixel]
#   5 X_WORLD                Barycenter position along world x axis                     [deg]
#   6 Y_WORLD                Barycenter position along world y axis                     [deg]
#   7 A_WORLD                Profile RMS along major axis (world units)                 [deg]
#   8 B_WORLD                Profile RMS along minor axis (world units)                 [deg]
#   9 THETA_WORLD            Position angle (CCW/world-x)                               [deg]
#  10 FWHM_WORLD             FWHM assuming a gaussian core                              [deg]
#  11 ELONGATION             A_IMAGE/B_IMAGE                                           
#  12 ELLIPTICITY            1 - B_IMAGE/A_IMAGE                                       
         1 -10.2199    249.8656      8.1091   3.1625904904e+01   2.3404534969e+01    0.5455102    0.1644156 -35.12  0.001903168    2.262    0.558
         2  -9.2795    248.3978      1.9605   3.0310761147e+01   2.4289887935e+01    0.2081756    0.1299446 -63.49 0.0003401122    1.410    0.291
         3 -11.8165    248.2491     38.9056   3.8780398053e+01   2.0388880028e+01    0.9489072    0.5322149 -30.45  0.005280117    1.484    0.326
         4 -11.1992    249.3558     20.0975   3.4375298654e+01   2.2271329261e+01     1.038064    0.3008773 -35.14  0.004625224    2.357    0.576
         5 -10.4859     23.2631     17.5581   8.6215977149e+01   7.3463509336e+01    0.6224276     0.250909  29.81  0.002762504    2.647    0.622
         6 -10.6188     15.6153      9.4552   8.7201757799e+01   7.5863926863e+01    0.6063427    0.3540244  -7.24  0.003066676    2.201    0.546
         7 -10.4900     26.1209     10.3090   7.9887520491e+01   7.4442203539e+01     0.562795    0.3839757  60.33  0.002409918    2.639    0.621
         8 -10.1780     41.4053     12.9007   7.1937977892e+01   7.1684710539e+01    0.6974037    0.4239379  11.90  0.003248744    2.306    0.566
         9  -9.7889     33.2600     12.8101   7.6740017864e+01   7.2996258173e+01    0.3465014    0.1980213  33.23 0.0006047977    1.812    0.448
        10 -10.3390     50.9442     18.2399   7.0113260325e+01   6.9159617056e+01    0.4238965    0.3459055  42.96  0.001283399    1.296    0.228
        11 -10.3423    142.3809     23.0551   4.5866590249e+01   4.6949376727e+01    0.9174177    0.5089463 -63.17  0.003247812    2.238    0.553
        12 -11.1115    141.0954     13.0235   4.2347907061e+01   4.8397439425e+01    0.8871992    0.3314449  63.67  0.000488464    2.405    0.584
        13 -10.2697    136.5831     16.2156   4.4233274752e+01   4.9237638843e+01    0.5519083    0.3190549  80.02  0.002218462    1.838    0.456
        14 -10.5980     16.2871     20.1070   9.2510886989e+01   7.3686709578e+01    0.6056103    0.3077227 -66.94  0.002748006    2.540    0.606
        15  -9.5919    197.1133     18.3307   3.7744027611e+01   3.3732368041e+01    0.5225392     0.190473 -53.56  0.001979193    2.864    0.651
        16  -9.3754    193.2044     13.5104   3.6713211045e+01   3.5173478876e+01    0.3647554    0.1916431  68.14  0.001194632    1.917    0.478
        17 -11.1831     88.4642     16.0658   5.4510681783e+01   6.1456371943e+01    0.5751031    0.4887435  25.61  0.002508567    1.191    0.160
        18  -8.8651    151.9079     17.7298   4.2537440561e+01   4.5082258824e+01    0.4184292      0.17741 -13.83   0.00139815    3.255    0.693
        19  -9.9292     60.2398     11.5967   6.1913963310e+01   6.8332617612e+01    0.7047344    0.4732362  84.15  0.003143841    2.773    0.639
        20  -8.6748     66.9767     11.7698   5.9319732565e+01   6.6889388783e+01    0.2168232     0.190373  10.94 0.0004905601    1.092    0.085
        21  -9.7795    156.6688     15.8808   4.1270161701e+01   4.4050919579e+01    0.3756412    0.2401749 -32.61  0.001851603    1.515    0.340
        22 -12.7302    113.0575     11.8642   4.6614371046e+01   5.5810156588e+01    0.7298371    0.3227684 -23.58  0.001457902    2.345    0.574
        23 -10.3394    243.1218      3.1940   3.0835426832e+01   2.5214379883e+01    0.6732488    0.4123987 -10.17  0.003774952    2.088    0.521
        24  -9.6901    234.4878      1.5181   3.0863228396e+01   2.7130932983e+01    0.2152672     0.145577 -73.02 8.595541e-05    1.383    0.277
        25  -9.9889    237.0199      5.4554   3.1666835507e+01   2.6229877264e+01    0.3338312    0.2103463 -35.99  0.002017183    1.308    0.235
        26  -9.5155    233.0316      5.5157   3.1892396118e+01   2.7047876464e+01    0.3137814    0.1647204 -46.40 0.0009005225    1.505    0.335
        27  -9.9290    236.4283     15.2790   3.4035453470e+01   2.5358658447e+01    0.4317983    0.1765291 -28.90  0.002060701    2.065    0.516
        28 -10.5655    239.4671     12.9782   3.3307314621e+01   2.4976866917e+01      0.58565    0.1455505 -47.16  0.002333559    3.004    0.667
        29  -8.9535    103.9953      8.0186   4.6728300549e+01   5.8515455321e+01    0.2552792    0.2001357  59.48 0.0005809086    1.201    0.167
        30 -11.6133    101.3634     13.7166   4.9990760927e+01   5.8576622652e+01    0.3148272    0.2906209 -21.79 0.0002597659    1.118    0.105
        31  -9.8867    100.2864      9.7030   4.8340981070e+01   5.9279577948e+01    0.2208961    0.1781967  66.03 0.0002196661    1.205    0.170
        32 -11.0633      6.5954      7.5510   9.3643862513e+01   7.7071511858e+01    0.8039258    0.2778393 -57.28   0.00349358    2.675    0.626
        33  -8.6685    203.2634      7.5448   3.4256142135e+01   3.3405507863e+01    0.1747498    0.1140791  64.75 0.0009502691    1.640    0.390
        34 -10.0176    204.6252     12.2620   3.5441666791e+01   3.2616251488e+01    0.3369485    0.2095486 -48.92  0.000765936    1.389    0.280
        35  -8.4209    232.8960     11.0267   3.3226875847e+01   2.6526864970e+01    0.1525453    0.1418223 -10.55 0.0006717538    1.320    0.243
        36 -10.3512    184.5643      8.9430   3.6121655187e+01   3.7727106206e+01    0.3992187    0.2831372  68.82 0.0008193426    1.432    0.302
        37 -11.1889    186.4723      4.0507   3.4517243036e+01   3.7731831578e+01    0.4041261    0.2444935 -35.74     0.001073    1.496    0.332
        38  -8.8520     80.4185     11.2445   5.4413150615e+01   6.3931784014e+01     0.191143    0.1666071 -68.59   0.00108312    1.358    0.264
        39  -9.2334    134.0341     10.0314   4.2242550188e+01   5.0545090851e+01    0.2221141    0.2109571  78.35   0.00131251    1.027    0.026
        40  -9.4143    128.1106      9.6007   4.2984931204e+01   5.2135510689e+01    0.2411314    0.1858532 -41.65 0.0006997288    1.310    0.237
        41  -9.6610    123.5092     10.2935   4.4024629094e+01   5.3266464063e+01    0.3027335    0.1692768  59.07  0.001122076    1.660    0.398
        42  -9.0699     85.3722      9.0683   5.1796979360e+01   6.3006727846e+01    0.3603592    0.2329397   4.91  0.001450539    1.896    0.473
        43  -9.8240     78.0286      2.6605   5.0391147136e+01   6.5410523576e+01    0.2299408    0.1921562 -19.99 0.0003403984    1.231    0.188
        44 -11.7349     65.1987      6.2229   5.6702222974e+01   6.7949906202e+01    0.5424975    0.3179907  43.95  0.001526951    1.614    0.380
        45  -9.3348     74.0251      5.4445   5.3197955891e+01   6.6058684525e+01    0.3620573    0.2785562 -52.16  0.001539893    1.548    0.354
        46 -10.3623     32.5724      6.3044   7.2871351325e+01   7.4157143748e+01    0.2670032    0.2645254 -22.51 0.0006017471    1.317    0.241
        47 -10.3160    223.6990      6.0955   3.2558035086e+01   2.8970250680e+01    0.2926252    0.1879858 -48.04 0.0004321103    1.270    0.212
        48  -8.8261    144.9836      5.8028   3.9161606835e+01   4.8086972739e+01    0.2695315    0.1581021 -74.88 0.0006656845    1.902    0.474
        49  -8.5599    148.3022      6.6757   3.9074138372e+01   4.7141850224e+01    0.2272882    0.1866933 -66.53 0.0006788475    1.177    0.150
        50  -9.7605    150.0349      2.4167   3.7355245088e+01   4.7077066476e+01    0.5399127    0.2527537  56.90  0.002352623    2.065    0.516
        51  -9.5377    138.4597      6.1062   4.0109746515e+01   4.9762422148e+01    0.2359724    0.1907233  43.88 0.0002998006    1.315    0.239
        52  -8.8481    168.6295      5.2457   3.6417705832e+01   4.2051065122e+01    0.2116325    0.1756487 -12.69 0.0005500433    1.357    0.263
        53  -8.1946    162.9802      7.0000   3.7549432780e+01   4.3323170759e+01    0.2233917   0.07453777  74.34 0.0007971688    2.906    0.656
        54  -9.9886     94.5167      5.2552   4.7496291463e+01   6.1164568402e+01    0.4590458    0.2294615  68.64   0.00199327    2.010    0.502
        55  -9.1989    218.0015      3.2108   3.2163551309e+01   3.0492058541e+01    0.2066881    0.1596234 -40.31 0.0005572711    1.139    0.122
        56  -8.4763    130.6683      3.0661   3.9988545574e+01   5.2072888054e+01    0.2721322     0.106394 -30.27  0.001082987    2.418    0.586
        57  -9.3248    209.1099     10.4012   3.4610586917e+01   3.1777468552e+01    0.2839551      0.14884 -38.27 0.0006093071    1.593    0.372
        58  -9.0140    202.5526      2.9404   3.3049635114e+01   3.4013312541e+01    0.1936476    0.1559171 -80.67 0.0003418233    1.171    0.146
        59  -8.3694    121.4411      3.5034   4.1529317452e+01   5.4443472614e+01    0.1381692    0.1288201  58.32 0.0001473271    1.055    0.052
        60  -8.1637     37.9798      3.0443   6.7260002744e+01   7.3733476214e+01    0.1530305    0.1325938  -2.40 0.0009711897    1.020    0.019
        61  -8.9683     14.7135      3.1198   8.3768912614e+01   7.7115021370e+01    0.2213991    0.1651198   8.43 0.0008400243    1.335    0.251
        62  -7.9999    210.4610      2.5046   3.2430606612e+01   3.2242408948e+01    0.1282142    0.1071423 -55.80 0.0001565119    1.007    0.007
        63  -8.5707    210.0877     91.0270   5.5715062757e+01   2.0968196576e+01    0.2091526    0.1565271 -64.17 0.0006034388    1.628    0.386
        64  -8.9163    249.1549    250.2004   7.9648744961e+01  -5.5324320523e+00    0.1540912   0.09347756   5.10 0.0006878396    1.229    0.186
        65  -9.5316     55.7449     89.5342   9.5168999432e+01   5.2808292007e+01    0.5169693    0.2833201  65.56  0.001928341    2.911    0.656
        66  -8.2954     99.6670     90.6741   8.0083912331e+01   4.5062910294e+01    0.1573339    0.1231463  -9.54 0.0004293513    1.712    0.416
        67  -8.4796     38.3208     90.0056   1.0211548004e+02   5.4813611099e+01    0.1984603     0.161957 -71.41 0.0002574757    1.105    0.095
        68  -8.8288     27.5616     88.8713   1.0624345442e+02   5.6161209939e+01    0.2791678    0.1566665  46.53  0.001317158    1.935    0.483
        69  -9.9835    188.9803     88.0065   5.8281104491e+01   2.5891923328e+01    0.2162838    0.2060022  57.61            0    1.148    0.129
        70  -8.9736    230.6281     83.9613   5.1204517258e+01   1.7960152574e+01    0.2756562    0.2313623  60.24  0.001711527    1.420    0.296
        71 -10.6922    195.6393     82.1044   5.5634709209e+01   2.5398658601e+01    0.2931851      0.23476  61.75 0.0002435169    1.394    0.283
        72 -10.2568    188.8947     82.0892   5.6716800916e+01   2.6879947087e+01    0.2872899    0.2277285  43.79 0.0003240272    1.387    0.279
        73  -7.7186    154.6992     83.6635   6.3592052219e+01   3.4392837687e+01    0.1538067    0.1203162   5.94 0.0005200382    1.661    0.398
        74  -8.5618    135.5180     83.1070   6.7820301398e+01   3.8928551168e+01    0.2335669    0.1479274 -42.96 0.0008231811    1.529    0.346
        75  -9.7008     87.3961     82.1338   8.1572200936e+01   4.9418548382e+01    0.4101152    0.3084197  85.24  0.001706735    1.786    0.440
        76  -8.3475     69.4928     82.4662   8.8087374086e+01   5.2505223331e+01    0.1485829    0.1402008 -57.00 0.0008044942    1.011    0.011
        77 -11.4575    245.7012     78.1914   4.8103381299e+01   1.5941295357e+01    0.7965575    0.4064323 -66.08  0.003154108    3.938    0.746
        78  -8.4933    174.5142     79.0228   5.8356662422e+01   3.0633561390e+01    0.2206126    0.1383343 -35.71 0.0004034255    1.491    0.329
        79  -8.1135     48.6576     79.7149   9.5580166252e+01   5.6231244700e+01    0.1464805    0.1053172 -28.97 0.0007017585    1.640    0.390
        80  -9.6120    199.6631     76.7239   5.3597780373e+01   2.5363592215e+01    0.2612143    0.2359691  16.99 0.0008367787    1.250    0.200
        81  -8.3314    195.5682     77.4847   5.4418633664e+01   2.6141358838e+01    0.1825682    0.1409738  81.79 0.0001571573    1.573    0.364
        82  -9.1875     31.3531     77.0931   1.0235335264e+02   5.8848978138e+01    0.3555032    0.1976197   8.61  0.001579431    2.414    0.586
        83  -8.3509    149.0558     76.5075   6.2679432161e+01   3.7029908230e+01    0.2137266    0.1524752  56.81 0.0003445038    1.466    0.318
        84  -9.4324     63.8968     82.6386   9.0262909463e+01   5.3349659260e+01    0.3519872    0.2638398 -80.48  0.001125659    1.524    0.344
        85  -9.2775     72.2953     74.0998   8.4535479836e+01   5.4035008790e+01    0.5257497    0.1840332 -58.75  0.001578454    3.608    0.723
        86 -10.1163    234.0508     74.6525   4.8578015795e+01   1.8596526132e+01     0.313622    0.1987639 -65.31  0.001532348    2.055    0.513
        87 -10.1851     18.8807     73.5838   1.0722851990e+02   6.0814224119e+01    0.4387017    0.2703541  78.29  0.002143833    1.883    0.469
        88  -8.7931    218.2177     73.9586   5.0326977000e+01   2.1845264852e+01    0.2712335    0.1650567 -78.34  0.001193896    2.664    0.625
        89  -7.7207    189.4447     73.4541   5.4278928118e+01   2.8137106201e+01    0.1442108     0.130937 -41.61 0.0001228979    1.008    0.008
        90 -10.7016    129.2825     70.7858   6.5499080622e+01   4.2776582394e+01     0.474475    0.3306417  29.96 0.0004876765    1.788    0.441
        91 -10.3085    113.7205     70.4527   6.9547173788e+01   4.6442943549e+01    0.5183192    0.4039241  84.15  0.002410223    1.631    0.387
        92  -9.2352     59.6368     70.7405   8.8509592416e+01   5.6895985593e+01    0.4040177     0.184154 -55.39  0.001597715    2.054    0.513
        93  -9.7690     28.9825     71.5381   1.0218343750e+02   6.0489251375e+01    0.2495855    0.1812794 -65.55 0.0003325331    1.216    0.178
        94  -8.6058    160.8467     71.1277   5.8617207796e+01   3.5181315591e+01    0.2335572    0.1894709 -59.03 0.0004737067    1.281    0.219
        95  -8.6766     80.0367     71.7772   8.0905377394e+01   5.3180402464e+01    0.2001953    0.1246846  41.52  0.000876308    1.676    0.403
        96 -10.0410     49.0894     65.1025   9.1299600763e+01   5.9776062536e+01    0.4801242    0.3197038  22.17   0.00233933    1.735    0.424
        97  -9.8869     37.4547     71.0529   9.8213259386e+01   5.9746997391e+01    0.2284761    0.2212912  27.05 0.0003880923    1.146    0.128
        98 -10.0414     38.6355     66.8488   9.6561480766e+01   6.0660851050e+01    0.4819759    0.2564824  22.13  0.002151783    2.195    0.544
        99  -8.6162    211.7877     70.0717   5.0169475104e+01   2.3747424398e+01    0.1880533    0.1630779 -34.54 0.0003826148    1.035    0.034
       100  -9.2303    138.9005     69.3356   6.2712666478e+01   4.0761054449e+01    0.4860605    0.2192937  49.22  0.001299842    2.265    0.559
       101 -10.7367     95.5814     66.0971   7.3584749337e+01   5.1319993450e+01    0.3535074    0.3144864  10.65 0.0008849464    1.263    0.208
       102 -10.9009    100.7951     62.7927   7.0742726012e+01   5.0872552933e+01    0.5214247    0.4264478 -60.15  0.002261798    1.309    0.236
       103  -8.3385     21.3208     81.3341   1.0754371955e+02   5.8635378381e+01    0.1455647   0.08765534 -43.28 0.0007049728    1.702    0.413
       104 -10.8505    235.2907     61.8564   4.5375703393e+01   2.0069125822e+01    0.2816642    0.2486673  12.77  0.001150251    1.366    0.268
       105  -8.4150    192.1289     69.5920   5.2803114540e+01   2.8130344217e+01    0.1941065    0.1290756  45.11 0.0009332894    1.705    0.414
       106  -8.4781    168.8309     67.8351   5.6137573229e+01   3.3828991676e+01    0.2064815    0.1683719 -63.59 0.0005596362    1.296    0.228
       107  -9.3321    173.1632     66.7035   5.5040343349e+01   3.2982687119e+01    0.2723528    0.2027564 -29.05 0.0005823431    1.323    0.244
       108  -9.8294    149.1794     66.9880   5.9697058033e+01   3.8702517156e+01    0.2749023    0.2182236  59.50 0.0003636384    1.305    0.234
       109 -11.3042    233.5163     43.9416   4.1201047604e+01   2.2699472076e+01    0.8214911    0.3477448 -48.11  0.003738008    2.128    0.530
       110  -9.1845    242.8911    245.2554   7.9900053797e+01  -4.4296210571e+00    0.2006662   0.09927592  -4.45  0.001242056    2.164    0.538
       111  -9.3605    233.7270    244.1620   8.1146589692e+01  -3.3509995489e+00    0.3087742    0.1475919  -5.91  0.001755979    2.592    0.614
       112 -11.5683    243.9980     58.3050   4.3667050887e+01   1.8842402441e+01    0.6299749    0.3920888 -50.36 0.0007700998    1.483    0.326
       113 -10.8122    249.5961     59.5899   4.3440693984e+01   1.7629675474e+01    0.7406053    0.1965718 -28.36  0.002676658    3.384    0.705
       114 -11.0787    244.1089     50.2792   4.1774604532e+01   1.9823048198e+01    0.5774799    0.4282362 -63.91  0.003240453    1.389    0.280
       115  -9.5884      3.3973    244.1902   1.2352542007e+02   2.3199737991e+01    0.1433413   0.07050133  71.59 0.0007678371    1.711    0.416
       116 -10.5989    241.3907     36.6945   3.8793835640e+01   2.1984494010e+01    0.5535861     0.328946  -2.69  0.002636519    2.681    0.627
       117  -9.6788    236.5622     35.8869   3.8984635757e+01   2.3046546098e+01    0.3367627    0.1852625 -73.76  0.001209726    2.215    0.549
       118 -10.1377    247.1915    239.6669   7.8469192809e+01  -4.3422640264e+00    0.2467201    0.1373001 -22.85  0.001788049    1.641    0.391
       119 -10.5789    245.4937     23.0692   3.5300161440e+01   2.2706919972e+01    0.3616166    0.3027074  74.61 0.0009355841    1.405    0.288
       120 -10.0681     16.2243     65.6829   1.0694740428e+02   6.3014716942e+01    0.4571107    0.2467914  -9.99  0.001786281    2.544    0.607
       121  -8.7555    208.3828     64.8334   4.9249002963e+01   2.5230999062e+01    0.1895893    0.1505482 -34.08 0.0003667214    1.123    0.109
       122  -9.7275    144.1136     64.0711   5.9842045374e+01   4.0441084722e+01    0.3587295    0.2708068 -67.88  0.001091974    1.543    0.352
       123  -8.9742     66.9737     64.8267   8.3591717383e+01   5.7095892044e+01    0.2120896    0.2015284 -61.07 0.0004212784    1.059    0.055
       124  -8.2965     74.5197     64.4857   8.0500701843e+01   5.5840123085e+01    0.1480972     0.141378 -48.89 8.260885e-05    1.020    0.019
       125  -9.0417      5.3169     64.3107   1.1202405051e+02   6.4006012941e+01    0.1384902   0.07912231 -46.06 0.0007033289    1.639    0.390
       126  -9.7734    135.0724     60.0530   6.0526021307e+01   4.3349224569e+01    0.6820194    0.3153144 -54.93  0.002249657    3.063    0.674
       127 -10.6369     39.5462     60.3602   9.4255243409e+01   6.2139481822e+01    0.3838452    0.2957591  55.73 0.0007943591    1.535    0.348
       128 -10.5391     34.7489     59.7197   9.6386082066e+01   6.2844305957e+01    0.3776116    0.2337878 -48.40 0.0005115522    1.453    0.312
       129  -8.9497      1.4751     62.1757   1.1358782908e+02   6.4716573425e+01    0.2494647    0.1116464 -83.14  0.001121585    2.079    0.519
       130  -8.0830    161.2767     62.2947   5.5833711943e+01   3.6553735267e+01    0.1439855    0.1169648  14.77 0.0003712182    1.528    0.346
       131  -9.2226     81.7752     62.0096   7.6900337068e+01   5.5004797267e+01    0.3292564    0.2262837  28.61  0.001501647    1.702    0.412
       132  -9.0788     28.7498     54.0435   9.7732931805e+01   6.4845274052e+01    0.3053068    0.1674903 -39.23 0.0007346666    1.846    0.458
       133  -8.9573     27.9880     61.7657   1.0027552840e+02   6.3032362213e+01    0.1790799    0.1757712  12.18 0.0005201421    1.145    0.127
       134 -10.2999     24.7100     58.9881   1.0118918671e+02   6.4018943206e+01    0.4013016    0.2860608 -28.68  0.001837845    1.517    0.341
       135  -8.9042    185.2746     60.5429   5.1295294732e+01   3.1081152517e+01    0.3214408    0.1328805  57.06  0.001234363    2.501    0.600
       136 -11.5546    245.5788     71.4615   4.6569109212e+01   1.6851040425e+01    0.6472265    0.3849649 -72.83  0.002323032    2.591    0.614
       137  -8.8441    175.2467     57.7758   5.2043337967e+01   3.3880353676e+01     0.433677    0.2239692 -10.05   0.00138978    3.883    0.742
       138  -8.8044     89.7775     65.1732   7.5202185672e+01   5.2724110636e+01    0.2163217    0.1843132  -7.37  0.001085987    1.366    0.268
       139  -8.0845    159.5095     58.5009   5.4973993122e+01   3.7597811776e+01    0.1486026    0.1422927 -49.30 -0.0001313721    1.019    0.018
       140 -10.3689     63.6172     56.3250   8.1954905569e+01   5.9575824773e+01     0.444817    0.3311976  82.63 0.0009267356    2.000    0.500
       141  -9.8131    235.2855     56.9042   4.4182487474e+01   2.0713707195e+01    0.2558326     0.177196 -52.63  0.000760652    1.357    0.263
       142  -9.8389    192.1192     55.9358   4.8998161654e+01   3.0160494155e+01    0.5602294    0.2842121 -61.84  0.001854611    2.759    0.638
       143  -8.9106    184.5661     51.7225   4.8845089446e+01   3.2539009172e+01    0.3180836      0.29626  -9.64  0.001723976    1.180    0.153
       144  -8.8814     89.5728     57.0469   7.2297866960e+01   5.4448047765e+01     0.218886    0.1942898  46.12 9.761636e-05    1.159    0.137
       145  -9.9624    112.6326     54.5953   6.4250032015e+01   4.9734558534e+01    0.4499274    0.3675444  60.80  0.001730526    1.271    0.214
       146  -8.6198    204.9906     51.7439   4.6181967365e+01   2.7805795184e+01    0.2111145    0.1861729 -38.02 0.0005299501    1.054    0.051
       147  -9.0334    207.2481     48.1557   4.4949291351e+01   2.7780445852e+01    0.2417519    0.1668463 -32.32 0.0004359708    1.305    0.234
       148  -9.2304    142.4563     54.0328   5.6858368961e+01   4.2543490719e+01    0.3456825    0.2034722  50.89 0.0005245266    1.734    0.423
       149  -9.7353    124.8861     54.0396   6.0848664863e+01   4.6884707469e+01    0.2289295    0.2207763 -43.02  0.000459645    1.024    0.024
       150 -10.0637    192.7618     49.0119   4.6951382234e+01   3.0983072448e+01    0.5329518    0.2836663 -57.76  0.002269589    2.156    0.536
       151  -8.6543    197.5180     48.5023   4.6204254017e+01   2.9946969088e+01    0.2331773    0.1395656  76.08 0.0008847429    1.920    0.479
       152 -10.0751      9.9074     52.4463   1.0740217251e+02   6.6722236437e+01    0.2738948    0.2425644  38.57 0.0009061197    1.313    0.238
       153  -9.0883     93.0769     49.2373   6.8072846509e+01   5.5205431105e+01     0.535231    0.1890384 -49.09  0.001639655    3.524    0.716
       154  -8.8938    228.1967     50.4696   4.3312907134e+01   2.2972592101e+01     0.319658    0.1619101 -13.18  0.001307792    2.894    0.654
       155 -10.2492    120.2368     50.5082   6.0718047030e+01   4.8625541837e+01    0.2637927    0.2504107 -39.68 0.0002931266    1.042    0.041
       156  -9.3946     80.2431     49.8790   7.2815983881e+01   5.7809868956e+01    0.3594986    0.2890582   2.82  0.001801268    1.502    0.334
       157  -9.9516     72.4953     49.1185   7.5485523058e+01   5.9492662623e+01    0.5684721    0.3808228 -47.98   0.00271656    1.473    0.321
       158  -9.3856    213.2472     47.9717   4.4230413762e+01   2.6475533421e+01    0.2945935    0.2807756  -7.35  0.001869731    1.198    0.165
       159  -8.0507    168.5302     49.5068   5.0595149399e+01   3.6751290203e+01    0.1480609    0.1353128 -56.56 4.622506e-05    1.033    0.032
       160  -8.0005    159.9103     50.0000   5.2190336657e+01   3.8816995416e+01     0.228566   0.08438499  62.00 0.0003183176    2.795    0.642
       161  -9.1790    173.8215     44.9132   4.8356791051e+01   3.6103475863e+01    0.3268365    0.2219511  -9.66  0.001508163    1.864    0.464
       162  -9.8830    208.2436     55.0599   4.6680346971e+01   2.6629632318e+01    0.2544684    0.2285074  79.01 0.0008613384    1.221    0.181
       163  -8.6783     87.9921     46.9528   6.8850675109e+01   5.6743571101e+01    0.2396232    0.1805301  12.10  0.001121826    1.705    0.414
       164  -9.6426     41.1506     46.4716   8.8719354097e+01   6.5177019878e+01    0.3449709    0.2401724  66.57  0.001648628    2.165    0.538
       165  -8.6418     20.2754     47.3893   1.0033033138e+02   6.7216527532e+01    0.1667819    0.1212706  34.06 0.0004446204    1.560    0.359
       166  -8.4389    164.5107     45.9771   5.0128014950e+01   3.8260897109e+01    0.2253086    0.1367705 -34.53  0.001013325    1.555    0.357
       167  -9.4916    155.9934     44.0327   5.0915985781e+01   4.0679727842e+01    0.2964566    0.2427502 -38.31            0    1.176    0.150
       168  -9.0866    152.6866     41.3429   5.0586388647e+01   4.1902969004e+01    0.5450911    0.1985459 -46.38  0.001831575    2.931    0.659
       169  -9.3094     84.5185     51.0000   7.1711461903e+01   5.6708895750e+01    0.3187735    0.1956811  51.54  0.000864841    1.736    0.424
       170 -10.6123     31.9011     43.8914   9.2676081032e+01   6.6893662447e+01    0.6035171     0.318549  31.03  0.001830875    2.045    0.511
       171  -8.1928    220.3360     45.6530   4.2884701716e+01   2.5237909024e+01    0.1469801   0.08361198 -55.96 0.0007048278    1.776    0.437
       172 -10.0578    140.9891     39.7982   5.2189783234e+01   4.5105019049e+01    0.4832046    0.3194371  52.23  0.002254268    1.531    0.347
       173  -8.6366    139.0073     43.7720   5.3998894265e+01   4.5022671353e+01    0.2276879    0.1966618  29.58  0.000304999    1.296    0.229
       174  -9.3764      3.1769     43.7541   1.0930326507e+02   6.9191470444e+01    0.2872517    0.2138491 -57.89  0.001353184    1.106    0.096
       175  -9.5582      2.3089     38.7787   1.0868181477e+02   7.0423737021e+01    0.3445294    0.2278179 -47.90  0.002022634    1.287    0.223
       176  -9.8402      4.7528     33.5027   1.0571302400e+02   7.1549185237e+01    0.3631043    0.2059287 -76.43  0.001890136    1.770    0.435
       177  -9.3530     96.7341     43.2026   6.4437911193e+01   5.5466366878e+01    0.2996814    0.2547911   1.49 0.0007993978    1.327    0.246
       178  -9.8437     99.4363     37.0799   6.1038724674e+01   5.5857725532e+01    0.4370004    0.2368138 -45.12  0.001275666    1.941    0.485
       179  -8.9024    162.9593     42.1987   4.9161861564e+01   3.9185538803e+01    0.2560862    0.1875494  46.26 0.0004963349    1.497    0.332
       180  -8.8291    147.4196     41.9637   5.1740721594e+01   4.3152933798e+01    0.3675555    0.1770912  43.26  0.001217094    2.490    0.598
       181  -9.4418    127.8727     41.5066   5.5534724170e+01   4.8182645578e+01    0.3376563    0.2766974  74.93  0.001428244    1.278    0.218
       182  -7.9665     85.4865     42.4786   6.7836953944e+01   5.8105994901e+01    0.1469251    0.1396849  -1.83 0.0008096791    1.048    0.046
       183  -8.9486     67.5340     41.8532   7.4433386157e+01   6.1877794390e+01    0.3015031    0.1995697  43.71 0.0008896727    1.571    0.364
       184  -9.1745    223.7552     40.0469   4.1123772912e+01   2.5207237870e+01    0.3340868     0.148292 -33.51  0.001540708    1.849    0.459
       185  -9.6128     18.1639     39.9327   9.9222273167e+01   6.9148143769e+01    0.5592738     0.192464  34.45  0.002085163    3.154    0.683
       186  -8.8164     12.6100     35.8038   1.0130989737e+02   7.0531076443e+01    0.2171216    0.1718516 -64.28 0.0008429071    1.178    0.151
       187 -10.0059     13.5670     30.8661   9.8973314369e+01   7.1587154611e+01    0.2917315    0.2095129   6.82 0.0009167542    1.538    0.350
       188 -10.4511      8.6327     26.3577   1.0070121798e+02   7.2951052986e+01    0.3641475    0.3305345  80.83  0.001341462    1.341    0.254
       189  -8.3383    106.5525     39.9172   6.0200920442e+01   5.3703467726e+01    0.2108282    0.1445281 -33.82 0.0003582526    1.455    0.313
       190  -8.8448     90.8395     40.5547   6.5200494957e+01   5.7263642454e+01    0.4409802    0.1413243  50.95  0.001442477    3.107    0.678
       191  -9.2567    119.7930     38.9488   5.6414970743e+01   5.0600920064e+01    0.2387875    0.2066319  65.29 0.0004159775    1.163    0.140
       192  -9.8199     61.7563     38.2832   7.5322057896e+01   6.3640946228e+01    0.3638332    0.3155255  63.75  0.002025352    1.388    0.280
       193 -10.1189     52.0834     37.3921   7.9414954014e+01   6.5490366592e+01     0.381265     0.274462  20.06 0.0004057744    1.572    0.364
       194  -9.0633    215.9852     38.2808   4.1406687268e+01   2.7102393492e+01    0.3407089    0.2204764 -37.15  0.001171264    1.315    0.240
       195  -9.7521    212.0180     37.5143   4.1593922313e+01   2.8073800975e+01    0.3414672    0.2258079  60.28 0.0007799536    1.677    0.404
       196 -10.5755    124.5333     35.1612   5.3849135152e+01   4.9966639125e+01    0.4734433    0.2812188 -34.61   0.00186181    1.655    0.396
       197  -9.6747    112.4981     36.1142   5.7071316957e+01   5.2844553847e+01    0.5948518    0.2368191  51.37  0.002178119    2.417    0.586
       198  -8.4884    192.9070     36.5268   4.3364621236e+01   3.2595727438e+01    0.1934984    0.1345768  70.48 0.0007198803    1.512    0.338
       199  -9.6234     92.9969     35.4999   6.2306042988e+01   5.7616447680e+01    0.4447297    0.2401976  45.47  0.001891507    1.867    0.464
       200 -10.0980     20.1975     31.8307   9.5005744051e+01   7.0808329012e+01    0.3831234    0.3017421  53.29 0.0003403006    1.627    0.385
       201  -9.5877     23.7408     31.3309   9.2546347184e+01   7.0570116316e+01     0.529379    0.2926098 -80.34  0.002002813    3.671    0.728
       202  -8.8697    165.7571     35.1993   4.6471206961e+01   3.9428129407e+01    0.2163936     0.178283 -64.85 0.0005442368    1.195    0.163
       203  -9.7895    152.7659     33.9292   4.8043921891e+01   4.2900590638e+01    0.4849833    0.3250193  70.69  0.001760592    1.517    0.341
       204  -8.9217     33.3485     34.2977   8.8011832742e+01   6.8838807958e+01    0.2680814    0.1545154 -53.51    0.0013184    1.627    0.385
       205  -9.2534    135.1857     43.9174   5.4839624267e+01   4.5968134553e+01    0.5198298    0.2221452 -50.78  0.001649512    2.911    0.656
       206  -8.1853     55.3075     44.6854   8.1058647382e+01   6.3467722469e+01    0.1367019    0.1132758  88.91 0.0006492769    1.627    0.385
       207 -10.1794    134.0889     32.3069   5.0779644999e+01   4.7921645046e+01    0.2696086    0.2465516  71.06 0.0003342804    1.080    0.074
       208  -9.1910    130.2448     26.5694   4.9330261630e+01   4.9665656193e+01     0.596549    0.1913953 -45.72  0.001860013    3.586    0.721
       209  -8.4472     59.4258     33.2685   7.4015884848e+01   6.5012591912e+01    0.1794318    0.1298625 -48.25 0.0002785533    1.432    0.301
       210  -9.5095     39.4587     32.6270   8.3788476542e+01   6.8377432605e+01    0.2504385    0.2232714 -27.28 0.0006395071    1.006    0.006
       211  -9.1912    212.2223     31.8711   4.0075547940e+01   2.8710715652e+01    0.2154614       0.1635 -67.93 0.0005509157    1.286    0.222
       212  -9.8606    239.6911     30.9298   3.7552626001e+01   2.2987913438e+01    0.2373938    0.1855761 -84.32            0    1.373    0.271
       213  -9.3198     84.8161     29.2495   6.2095812481e+01   6.0472255451e+01    0.3167168    0.2403005  35.16  0.001023153    1.359    0.264
       214 -10.0757    224.3784     26.7480   3.7702427097e+01   2.6641580965e+01     0.318877    0.2077392 -42.46 0.0006683099    1.266    0.210
       215 -10.0892    218.1579     25.6736   3.7930154509e+01   2.8113155612e+01    0.3797141    0.2153104 -76.96   0.00188752    2.001    0.500
       216  -9.5770    175.6204     27.8637   4.2826001935e+01   3.7873295831e+01    0.4095521    0.1652875 -45.79  0.001387702    2.348    0.574
       217  -9.1633    167.2148     28.9576   4.4249213193e+01   3.9850895809e+01    0.2298103    0.2022499  84.94  0.000508115    1.125    0.111
       218 -10.0376     68.1503     30.2961   6.8789489467e+01   6.3867277322e+01    0.5843107     0.325283 -55.16   0.00239716    2.514    0.602
       219  -9.0110    229.8586     27.7181   3.7516582405e+01   2.5369973595e+01    0.3191352    0.0654426 -44.06  0.001102228    3.523    0.716
       220  -9.4077    123.8429     26.9482   5.0753285123e+01   5.1265556188e+01    0.3199147    0.2047453 -28.59 0.0007214111    1.586    0.369
       221  -9.7152     51.9933     26.0683   7.3912087213e+01   6.7647382738e+01     0.562473    0.2457986 -44.08  0.002346065    2.258    0.557
       222  -9.4521    239.8672    239.6785   7.9575548309e+01  -3.5670527126e+00    0.2022646    0.1131172 -20.78  0.001434757    1.636    0.389
       223  -8.2922    216.3393    237.3300   8.2958161904e+01  -6.8893485128e-01    0.1134248   0.06467567   4.69 0.0007051788    1.739    0.425
       224 -10.1850    171.9371    233.5839   9.0138501499e+01   5.2439793800e+00    0.3134913    0.2902879  45.36  0.002434221    1.467    0.318
       225 -10.6874    249.2329    231.7668   7.7021234638e+01  -3.7851283961e+00    0.4347793    0.1441854 -34.16  0.002368013    3.050    0.672
       226  -8.6348    194.6825    242.3360   8.7262251389e+01   1.3168823961e+00   0.09588898   0.07872459  43.35 0.0003076833    1.699    0.411
       227  -8.7588    244.6569    229.8175   7.7419855045e+01  -3.0954623680e+00    0.1310923   0.08246572 -29.47  0.000675465    1.695    0.410
       228  -9.5594     44.5307     17.7484   7.3152987589e+01   7.0366334032e+01    0.4378636    0.2827232  13.12  0.002143765    1.986    0.496
       229  -8.8470     33.5263     16.4790   7.8808529388e+01   7.2317987236e+01    0.2039886    0.1887009  23.01 0.0007128821    1.204    0.169
       230  -8.2975    114.7679     27.3896   5.2913853427e+01   5.3519345867e+01    0.2068153    0.1274048  50.71 0.0003720405    1.589    0.371
       231  -9.6384     62.9044     25.7699   6.8705405849e+01   6.5669395790e+01    0.2869555    0.2333147  20.98   0.00104799    1.269    0.212
       232  -8.9933     37.9164     26.0412   8.1439695302e+01   6.9905661583e+01    0.2460493    0.1641094 -37.21 0.0007049661    1.381    0.276
       233  -9.0825    234.5106     26.1466   3.6783280569e+01   2.4580099358e+01    0.2015232    0.1499427 -68.57 0.0005269456    1.304    0.233
       234  -8.1166    170.4720     26.5584   4.3054624021e+01   3.9319259322e+01    0.1420022    0.1286584 -63.82 0.0001098524    1.020    0.019
       235 -10.6531    238.6721    219.0203   7.6704895138e+01  -1.2856617659e+00    0.4197503    0.1713464 -32.38  0.002397187    2.363    0.577
       236 -11.1175    247.7032    216.0507   7.4867536018e+01  -2.0004297605e+00    0.4583471    0.1790332 -30.84  0.002601073    2.365    0.577
       237  -9.9039    133.3446     19.3165   4.5957039443e+01   4.9736452572e+01    0.8512103    0.3420414  75.94  0.002964307    2.994    0.666
       238  -9.3208    233.4774    211.7474   7.6380544138e+01   1.4176695350e-01    0.2841884    0.1458424  -7.15  0.001554574    2.305    0.566
       239 -10.2184    136.8327     25.2872   4.7631155060e+01   4.8120292802e+01    0.4021062    0.2211662 -35.66  0.001610938    1.757    0.431
       240  -8.7830    105.2257     25.9478   5.4605906522e+01   5.6100828241e+01    0.2134737    0.1849709 -49.54  0.000390732    1.205    0.170
       241  -8.8836     78.2286     25.4158   6.2504067229e+01   6.2527378169e+01    0.3419028      0.30152  44.75  0.001939509    1.130    0.115
       242  -8.9581     78.6533     22.3266   6.0799270901e+01   6.2889174290e+01    0.3257968    0.2223101  81.21  0.001231325    2.195    0.544
       243  -8.8702    213.3359    213.6642   7.9968364101e+01   2.4246009392e+00   0.09691891   0.08990498  46.24 -0.002934031    1.745    0.427
       244  -8.8610    204.1342     68.8016   5.0862073949e+01   2.5580384789e+01     0.206882    0.1709023 -54.86 0.0003429382    1.187    0.157
       245 -10.1747    239.0833     20.2911   3.5062142672e+01   2.4286821475e+01    0.2840128     0.227102   9.93  0.001315639    1.707    0.414
       246  -9.1967    192.9731     24.1359   3.9790876808e+01   3.4070588501e+01    0.3487053    0.1904548  -9.40  0.001481692    2.546    0.607
       247 -10.9894    157.5885     22.8949   4.3545124440e+01   4.3032061523e+01    0.4959017    0.2724214  62.10  0.002241269    1.770    0.435
       248  -8.6371     22.5962     23.4833   8.9740039877e+01   7.2352149050e+01    0.3069627    0.1221817 -59.01  0.001238474    2.769    0.639
       249  -9.4821    103.4933     20.8480   5.2763367871e+01   5.7196891779e+01     0.354006    0.2399136 -41.66  0.000940693    1.527    0.345
       250  -9.1451    232.3239     20.9324   3.5669315211e+01   2.5606289633e+01    0.1785006    0.1324943 -36.41 0.0004246368    1.159    0.137
       251  -8.7504    225.9180    217.9638   7.8557788985e+01   3.4499041942e-01    0.1458861    0.1304144  34.05 0.0009625654    1.704    0.413
       252  -9.0036    242.8294    201.0105   7.3188755922e+01   2.3909987247e-01    0.1564871    0.1232051 -43.82  0.001082653    2.025    0.506
       253  -9.4219     70.9396     20.2828   6.2539120112e+01   6.4872149238e+01    0.3067195    0.2108114 -49.55  0.001065899    1.702    0.412
       254  -8.5527     73.1428     16.8467   5.9875911343e+01   6.4876326138e+01    0.2238603    0.1822187  17.67  0.001235391    1.266    0.210
       255  -8.3072     29.5137    198.5073   1.1651451665e+02   2.9390090352e+01     0.120891   0.09384972  60.21 -4.090867e-05    1.017    0.017
       256  -9.4778    211.5024     19.4558   3.6839484633e+01   3.0285097610e+01    0.2147329    0.1770114 -50.92  0.001146308    1.028    0.028
       257  -9.5457    209.0112     16.4082   3.6223435670e+01   3.1177194788e+01    0.2522834    0.1641818 -39.18 0.0005869077    1.317    0.241
       258 -10.4937    246.9154    192.5581   7.1150973568e+01   7.1823677201e-01    0.3152174    0.1373014 -36.51  0.001722224    2.302    0.566
       259  -8.9051    237.7484    191.9761   7.2451547951e+01   1.9425458733e+00    0.2183004   0.09779774 -28.99  0.001050836    2.023    0.506
       260  -9.4136     63.2218     18.6058   6.4709169600e+01   6.6731903858e+01     0.395661    0.2245677  36.91  0.001626785    1.845    0.458
       261  -9.7074     65.8485     15.0432   6.1633792900e+01   6.6695972995e+01    0.2869104    0.1823834  45.67  0.001009596    1.527    0.345
       262  -9.6176    237.5440    187.2874   7.1673122761e+01   2.5429669328e+00    0.2691621    0.1729393 -42.54  0.001644159    2.027    0.507
       263  -9.6324    170.2633     17.6978   4.0246575180e+01   4.0381730925e+01    0.4854953    0.1869298  59.12  0.001918821    2.502    0.600
       264 -10.4374    121.7828     17.6906   4.7396602839e+01   5.2923937569e+01    0.2501445     0.227911 -73.81 0.0001819889    1.115    0.103
       265  -8.7197    183.7699     16.7793   3.8538597559e+01   3.7115531531e+01    0.3415656    0.1550409  86.22  0.001383921    2.560    0.609
       266  -8.9872    249.6302    184.1029   6.9285406918e+01   1.3760908913e+00    0.2544843   0.08966432 -32.39  0.001253188    2.487    0.598
       267 -10.3746    242.2561    180.4520   6.9743655669e+01   2.7701814918e+00    0.3725549    0.1799256 -32.46  0.002095038    1.858    0.462
       268  -8.4183    226.3041    178.3420   7.1867701358e+01   5.2141647343e+00    0.1257314   0.07873628  -1.08 0.0007040433    1.681    0.405
       269 -10.6064    244.1949    168.5251   6.7281467591e+01   4.0085205681e+00    0.3283091    0.1932859  29.44  0.001984644    1.728    0.421
       270  -8.5085    250.6808    157.9369   6.4344550264e+01   4.4653980110e+00    0.2384972   0.08977628 -26.59  0.001087994    2.478    0.596
       271  -9.4789    246.0088    157.5051   6.4934074288e+01   5.1740311952e+00    0.2215972    0.1450321 -37.95  0.001109754    1.574    0.365
       272  -9.2845    242.1370    153.6162   6.4747850641e+01   6.2405054273e+00    0.2116089    0.1404794 -32.87 0.0009288096    1.373    0.272
       273 -10.1494    249.9676    150.9410   6.3097833187e+01   5.4646544430e+00    0.3842039    0.1376795 -32.15  0.001784974    2.334    0.572
       274 -10.2346    244.0956    148.6726   6.3490890123e+01   6.6122988123e+00    0.2430871    0.1521091 -23.10  0.001159104    1.346    0.257
       275  -9.1973    234.8342    147.0413   6.4533536273e+01   8.2260309297e+00    0.1947242    0.1317217 -50.19  0.001032506    2.000    0.500
       276  -8.0085    224.3123    144.6798   6.5681415365e+01   1.0217085691e+01    0.1177174   0.09784521 -55.65 0.0007037511    1.650    0.394
       277  -8.3342    216.6169     14.2776   3.5095972549e+01   2.9692842023e+01    0.2107854     0.112015 -56.38 0.0005432151    1.723    0.420
       278  -9.5776    250.4676    140.0256   6.0870367476e+01   6.8201597136e+00    0.2280607    0.1479125 -24.79 0.0006830069    1.254    0.203
       279 -10.4008    248.9297    134.9888   6.0062477062e+01   7.7185383700e+00    0.3048735    0.1964534 -28.52  0.001126636    1.269    0.212
       280 -10.3522    248.8380    130.1368   5.9079731928e+01   8.3826835090e+00    0.2515948    0.1993254 -25.68  0.001122373    1.087    0.080
       281 -11.0275    242.0467    133.5413   6.0720858791e+01   8.9736961543e+00    0.3930074    0.1950229 -33.89  0.002039706    1.696    0.410
       282  -8.8272     13.4819    133.0325   1.1642855437e+02   4.5916940396e+01    0.1867542    0.1615418  61.36 0.0005285435    1.127    0.112
       283  -9.3127     65.3701    131.8227   1.0019158545e+02   4.0723190069e+01    0.2442081    0.1946858  39.59 0.0003385328    1.269    0.212
       284  -8.2851    171.0111     11.4700   3.8175867122e+01   4.0845152154e+01    0.1927085    0.1294766  79.16 0.0003727881    1.459    0.315
       285  -8.1936     26.3010    128.6734   1.1204584486e+02   4.5963602555e+01    0.1432908   0.08621175  64.76 0.0004464887    1.639    0.390
       286  -7.9417     77.2988     10.2856   5.4873575156e+01   6.4766127547e+01    0.1409391   0.09760002  27.04 0.0002135166    1.551    0.355
       287  -8.5988    225.6805    124.3190   6.1145299565e+01   1.2981663734e+01    0.1253294   0.09715286 -56.48 0.0007042361    1.663    0.399
       288  -9.8939     69.3541    122.8795   9.7396942239e+01   4.2405980503e+01    0.2454171    0.2164502  48.18 0.0002923945    1.144    0.126
       289 -11.4128    249.0849    117.8893   5.6482587995e+01   9.9969394951e+00    0.7040262    0.2847044  48.64  0.003338225    2.922    0.658
       290 -10.7114    249.5124     97.5715   5.2028954425e+01   1.2674880837e+01    0.3319848    0.2066536 -29.31  0.001470707    1.307    0.235
       291 -10.2941    239.4741     84.9130   5.0356239362e+01   1.6170690281e+01    0.3940167    0.1371551 -36.21  0.001383298    2.259    0.557
       292  -9.6987    235.8726     83.5314   5.0462793543e+01   1.7028631715e+01    0.3323933    0.1905583 -29.78  0.001728263    1.484    0.326
       293 -10.8643    247.9620    112.3322   5.5438460035e+01   1.0933129881e+01    0.5276225    0.2762567  31.33  0.002586311    2.611    0.617
       294 -11.7433    248.0459    105.7028   5.3990642553e+01   1.1821271787e+01    0.6993962    0.3518765 -43.13   0.00355046    1.880    0.468
       295 -12.4477    243.1671     87.7791   5.0580463031e+01   1.5108915992e+01     1.595233    0.3011995 -28.35  0.003692988    7.959    0.874
       296  -9.0116     12.0153    115.0250   1.1539784266e+02   5.0584521614e+01    0.2012067    0.1665602  81.05 0.0005656218    1.060    0.056
       297  -9.4320     15.4898    112.0474   1.1391828896e+02   5.1104021297e+01    0.2433926    0.1879674  65.98 0.0006496349    1.233    0.189
       298  -8.8093     22.5626    114.2121   1.1170591441e+02   4.9995965921e+01    0.1908035     0.108207 -64.56  0.000428836    1.566    0.361
       299  -9.6977     26.0290    111.9934   1.1023534895e+02   5.0276244476e+01    0.2010723    0.1739784 -88.14  0.001207353    1.007    0.007
       300  -8.2163    105.0353    111.7758   8.4039182994e+01   3.9120007648e+01    0.2006182    0.1246906  41.70 0.0008228808    1.629    0.386
       301  -9.1051    119.9347    102.9970   7.7571688909e+01   3.8158369580e+01    0.2571429    0.2199659  48.16 0.0003405734    1.192    0.161
       302  -8.6128     25.5077    103.4489   1.0929860256e+02   5.2543043672e+01    0.1366729     0.119519 -77.22   0.00013824    1.034    0.033
       303  -8.2042    230.4974    102.4846   5.5550867816e+01   1.5331459973e+01    0.1323889     0.111375 -28.31 -5.145661e-06    1.015    0.015
       304  -9.1635     72.5806     95.4057   9.0402724121e+01   4.8821158838e+01    0.2863449    0.2612749 -36.05 0.0009859194    1.163    0.140
       305  -8.7439    165.0272     94.5941   6.4513080079e+01   3.0030356590e+01    0.2369396    0.1911002 -37.40 0.0005489574    1.178    0.151
       306  -8.5530     38.4917     95.4669   1.0309704367e+02   5.3378841337e+01    0.1412038    0.1265158 -77.11 0.0001056236    1.008    0.008
       307 -11.0192    248.8092     87.5306   4.9876505524e+01   1.4143149675e+01    0.4769591    0.2125175 -28.73  0.002270343    1.907    0.476
       308  -9.4635     20.0050     91.0831   1.0965070991e+02   5.6209044933e+01    0.3195965    0.2284168 -47.70  0.001502521    1.409    0.290
       309 -10.3557    236.9968     90.6682   5.1985440113e+01   1.5827820214e+01    0.2454295    0.1681295  -8.00    0.0013276    1.697    0.411
