#   1 NUMBER                 Running object number                                     
#   2 MAG_AUTO               Kron-like elliptical aperture magnitude                    [mag]
#   3 X_IMAGE                Object position along x                                    [pixel]
#   4 Y_IMAGE                Object position along y                                    [pixel]
#   5 X_WORLD                Barycenter position along world x axis                     [deg]
#   6 Y_WORLD                Barycenter position along world y axis                     [deg]
#   7 A_WORLD                Profile RMS along major axis (world units)                 [deg]
#   8 B_WORLD                Profile RMS along minor axis (world units)                 [deg]
#   9 THETA_WORLD            Position angle (CCW/world-x)                               [deg]
#  10 FWHM_WORLD             FWHM assuming a gaussian core                              [deg]
#  11 ELONGATION             A_IMAGE/B_IMAGE                                           
#  12 ELLIPTICITY            1 - B_IMAGE/A_IMAGE                                       
         1 -13.0698    231.5704     34.8578   3.5513562360e+02   2.4714481087e+01     1.373093    0.4496325 -61.39  0.005122205    4.116    0.757
         2 -12.6274    244.6211     22.3265   3.5165194046e+02   2.3730992381e+01    0.5936509    0.3416266 -82.62  0.002385745    1.802    0.445
         3 -13.0591    219.8223     27.8982   3.5438558710e+02   2.7834094796e+01    0.4006917    0.3529606 -10.70 0.0007933375    1.508    0.337
         4 -13.0086    226.5072     22.6900   3.5276365496e+02   2.7100682999e+01    0.4212856    0.2770209 -82.86  0.001643681    1.496    0.331
         5 -11.3712    227.5310      9.4372   3.4976416159e+02   2.8328075103e+01    0.3399007    0.1860293 -53.97 0.0005518743    1.392    0.282
         6 -12.0911    228.5637     15.5840   3.5106611378e+02   2.7478735817e+01    0.4074371    0.2861568  56.99  0.002593783    1.886    0.470
         7 -12.4977    221.3123     10.9905   3.5042634437e+02   2.9400771314e+01    0.5649768     0.385736 -43.86   0.00369152    1.197    0.165
         8 -13.7357     98.5931     67.0094   2.6239408065e+01   5.0531746027e+01     2.356995     1.951392 -54.52   0.01174245    1.238    0.192
         9  99.0000     36.0585     20.9687   3.3070492290e+01   7.2122231208e+01     4.350053     1.564726  48.99   0.01522767    3.614    0.723
        10 -13.0391     66.6885     13.9462   1.3686149428e+01   6.6790282161e+01    0.7019193      0.47122  60.96 0.0004626916    1.412    0.292
        11 -14.1415     35.5257     56.0956   4.9666911512e+01   6.4901211061e+01     2.261573     1.506044 -17.89    0.0101729    1.862    0.463
        12 -14.2417     79.9095     44.9961   2.4088894600e+01   5.9050375837e+01     1.718256     1.244914 -58.10  0.005085875    1.609    0.378
        13 -13.3176     64.0297     38.2775   2.7451127264e+01   6.3739694822e+01    0.9344832    0.6679118 -63.57 0.0006364447    1.856    0.461
        14 -12.8782     81.3638     21.7558   1.2859890798e+01   6.2289842796e+01    0.7606672    0.4132656  53.61  0.001455251    1.656    0.396
        15 -12.1881     76.0560     20.6067   1.3991030998e+01   6.3730274560e+01    0.3287086    0.3188449 -56.94 0.0003723558    1.118    0.106
        16 -13.6229    244.8013     58.4318   3.5921258688e+02   1.9387258563e+01     1.314899     1.084897  67.71  0.009462218    1.512    0.339
        17 -12.6594     25.7121     40.7251   4.9952914126e+01   6.9663080828e+01     1.265697    0.6172423 -48.32  0.005683288    1.902    0.474
        18 -13.3631      8.7135     40.4821   6.1862966958e+01   7.1263300869e+01     1.234027    0.7843193 -39.83  0.006207755    1.435    0.303
        19 -12.4426      3.0131     27.7330   6.2236183801e+01   7.4565651934e+01     0.769753    0.4463017 -62.51  0.004094832    1.598    0.374
        20 -13.0787    203.9839     38.5269   3.5819820005e+02   2.9833036467e+01     1.368074    0.9738493  68.69  0.008140283    1.534    0.348
        21 -11.8578    149.8874     40.1853   5.1474912209e+00   4.2299701419e+01    0.8523135     0.570532  79.98  0.002992946    1.506    0.336
        22 -12.6133    177.6961     38.1476   8.0079324639e-01   3.5787184843e+01    0.8739921    0.6029223 -78.11  0.004567303    1.445    0.308
        23 -10.2896    102.4245     15.3035   4.4736967746e+00   5.7692247008e+01    0.2843395    0.1453089 -18.04   0.00117839    2.432    0.589
        24 -11.2550    112.7227     22.6524   5.4429382433e+00   5.4172502313e+01     0.693898     0.418593 -17.81  0.003160408    2.057    0.514
        25 -12.4467    116.4538      7.8188   3.5884741657e+02   5.4764783836e+01    0.5527396     0.464449   1.05   0.00217768    1.468    0.319
        26 -11.3987     20.5180     21.8665   4.4808586467e+01   7.4255419346e+01    0.4719945     0.241066 -59.40   0.00178555    2.430    0.588
        27 -10.8937    203.1168     18.2664   3.5325519068e+02   3.2419251200e+01    0.3867852    0.2817871  22.60  0.001800393    2.275    0.561
        28 -11.5110    231.3822      1.5452   3.4787679737e+02   2.8375221409e+01    0.7781869    0.3804843 -84.64  0.002926842    1.994    0.498
        29 -13.0988    249.9126     11.3784   3.4915568301e+02   2.3954813153e+01    0.4042038    0.2781194 -31.87  0.002836231    1.414    0.293
        30 -13.6984    243.6800      7.9275   3.4871447694e+02   2.5430030384e+01    0.6870871    0.3154462 -77.64  0.003559219    2.181    0.541
        31 -10.6653    125.4129     12.3633   3.5927163060e+02   5.1975219499e+01    0.3360282    0.3002031 -64.79  0.001645978    1.101    0.092
        32 -10.7467    150.3914     13.2703   3.5644156171e+02   4.5428513091e+01    0.2471521    0.2054585 -67.96  0.000646696    1.068    0.063
        33 -10.1473    108.1806     11.0352   1.5307914347e+00   5.6628086567e+01     0.358824    0.2585579 -32.36  0.001910681    1.491    0.329
        34 -11.3722     38.1218     12.3513   2.6267592521e+01   7.3118213591e+01    0.2157559    0.1861286   1.58  0.000330795    1.126    0.112
        35 -11.6937     13.9199     12.1223   4.4635565269e+01   7.6902637362e+01    0.1998772    0.1627337 -29.05 0.0003350841    1.140    0.123
        36  -9.8073     88.7340     12.0166   6.0627598551e+00   6.1571553805e+01    0.1777438    0.1678107   1.48 0.0004876744    1.188    0.158
        37 -10.3733     55.1249     11.0985   1.6616115671e+01   6.9779146238e+01     0.384311    0.2251143 -64.10  0.001523982    3.362    0.703
        38  -9.7934    129.8236     11.3084   3.5826424580e+02   5.0927538195e+01    0.1935266    0.1600301 -57.98 0.0006919493    1.172    0.147
        39  -9.9537    144.0851      9.9056   3.5603179237e+02   4.7375017817e+01    0.1978171    0.1481738 -69.43 0.0002983043    1.216    0.177
        40 -11.1607     70.2308      3.6385   6.6468347190e+00   6.7025253494e+01    0.6162904    0.4444141 -24.99  0.003413696    1.534    0.348
        41 -10.6692     79.0611      9.4591   7.2987969072e+00   6.4277592708e+01    0.6099106    0.1440948  57.04  0.001834478    3.148    0.682
        42 -12.3868     77.0005      5.1737   5.5874240294e+00   6.5208568438e+01    0.3747061    0.2650355   5.13 0.0008556126    1.731    0.422
        43 -11.4854     63.1420      6.8990   1.0870599927e+01   6.8413531077e+01    0.3340149    0.2686359 -88.74 0.0004114282    1.473    0.321
        44 -11.4411     65.0599      3.1752   7.9817249519e+00   6.8323410423e+01    0.2556741    0.2470375  49.69 0.0004036527    1.090    0.083
        45 -11.2249     25.5922      9.5633   3.2924682546e+01   7.5725833298e+01    0.3909722    0.2150044  27.04  0.001919702    1.895    0.472
        46 -11.0067    194.2758      8.0667   3.5128560194e+02   3.5444415065e+01    0.2464098    0.1984405 -69.17 0.0008381528    1.047    0.045
        47 -12.5670    173.2549      6.1416   3.5221482143e+02   4.0500587134e+01    0.3931527    0.2689017 -16.39   0.00169822    1.806    0.446
        48 -10.4200     49.6304      6.2993   1.5992175471e+01   7.1553425218e+01    0.6881152        0.328  37.73   0.00262664    2.182    0.542
        49 -12.0527     45.9175      2.8087   1.5339059496e+01   7.2746025209e+01    0.2587163    0.2166025  -3.13 0.0003614713    1.249    0.200
        50 -10.1130    163.9971      8.0486   3.5350852636e+02   4.2557100679e+01    0.2008905    0.1682855 -74.73  0.001060882    1.015    0.014
        51  -9.8517    132.7995      8.0754   3.5671481183e+02   5.0465194745e+01      0.16485    0.1482754  48.67 0.0003280236    1.268    0.212
        52  -9.0541    124.4608      8.4782   3.5794660321e+02   5.2603295036e+01    0.1396678    0.1208759 -84.92 0.0003874285    1.031    0.030
        53 -10.8063      3.9204      5.6963   5.0593722523e+01   7.9127008274e+01    0.4326426    0.1992459 -15.65  0.001783617    3.208    0.688
        54  -9.1232    209.6247      6.0058   3.4988977799e+02   3.2319273530e+01    0.2146216    0.1224597  71.95  0.001233476    1.847    0.458
        55  -9.3480    188.8607      5.4177   3.5094483766e+02   3.6929746731e+01     0.160248    0.1061999 -84.89 8.514404e-05    1.359    0.264
        56 -10.0308    217.8470      2.3199   3.4862874097e+02   3.0980994778e+01    0.3301063    0.1579406  79.45  0.001286741    2.100    0.524
        57 -10.3112    213.5636      2.1971   3.4879971818e+02   3.1873401386e+01    0.2987258    0.1644989 -23.50  0.001661227    2.008    0.502
        58  -9.9888    184.2513      3.7285   3.5079216423e+02   3.8150208542e+01    0.2352217    0.1390067  71.09  0.001060259    1.690    0.408
        59  -9.9732    142.0532      4.0954   3.5430016200e+02   4.8442422410e+01    0.1869741    0.1570911  71.32 0.0003723639    1.183    0.155
        60 -10.5648     56.1386      3.9147   1.1636519358e+01   7.0350905770e+01    0.3821038    0.1761848  61.91 0.0009559134    2.061    0.515
        61 -10.1294    154.6804      3.1287   3.5280811619e+02   4.5331361733e+01    0.1638648    0.1232641 -10.82 0.0003494691    1.687    0.407
        62  -9.0957    207.9408      3.0000   3.4926312981e+02   3.2973543062e+01    0.1756071   0.06178179  80.91 0.0007824149    2.805    0.644
        63 -10.4733    126.9784      1.6905   3.5509045810e+02   5.2550598134e+01    0.1881653     0.147248  83.81 0.0002370992    1.117    0.104
        64 -11.2974     87.3130      1.3577   1.1573834224e+00   6.2924353651e+01     0.437051    0.1093627  66.10  0.000650095    3.113    0.679
        65  -9.2152    250.6747      1.2913   3.4710542064e+02   2.4838040562e+01    0.1183957   0.05357679 -55.71 0.0004132524    1.616    0.381
        66  -9.9675    250.3535    131.9957   1.3525276448e+01   8.4780246656e+00     0.161823    0.1140541 -31.09 0.0003800567    1.091    0.083
        67  -9.6515    222.0481    124.9494   1.5875960072e+01   1.3712195423e+01    0.1848395    0.1506725 -41.81 0.0003668124    1.162    0.139
        68 -12.2585    220.2813     37.8031   3.5663917665e+02   2.6556606413e+01    0.5432966    0.2620904 -67.68  0.001363885    2.315    0.568
        69 -12.0170    237.6401     50.8111   3.5816564469e+02   2.1625056177e+01    0.4702692      0.19788 -48.24  0.001239538    1.902    0.474
        70 -13.1807    229.4808     46.5190   3.5787990064e+02   2.3679975878e+01    0.7248704     0.526428 -87.01  0.003663156    1.476    0.323
        71 -11.7714     45.2839     92.6009   5.5068995638e+01   5.4337279214e+01    0.4638183    0.2773616  11.83  0.001915658    2.112    0.527
        72 -12.8096    113.9447     86.4333   2.7944757336e+01   4.2939349912e+01    0.6979963    0.5526375   7.59  0.001763978    1.743    0.426
        73 -10.7622    106.4682     86.6636   3.0219379818e+01   4.4572248944e+01    0.4040572    0.2546944  43.61  0.001627873    1.601    0.375
        74 -12.3308    114.1764     80.3129   2.5991078187e+01   4.4178957529e+01    0.5884267    0.4693824 -64.51  0.002114513    1.345    0.256
        75  -9.3403     78.3010     92.2901   4.1449869979e+01   4.9094002349e+01    0.1547158    0.1248743 -13.87 0.0006983163    1.564    0.361
        76 -10.3968    167.5888     89.7642   1.6496151192e+01   3.0040159593e+01    0.4768047    0.2324691  64.77  0.001822861    2.690    0.628
        77 -12.5213    180.1098     79.8410   1.1747594151e+01   2.9004706097e+01    0.8316725    0.5494277 -17.33  0.003851379    2.030    0.507
        78 -10.8916    173.0712     90.6551   1.5736129818e+01   2.8685222006e+01    0.4383598    0.2545604 -50.25 0.0003998774    1.698    0.411
        79 -11.2681    173.9533     86.6136   1.4532330042e+01   2.9200467976e+01    0.4829816    0.1663138  47.09  0.001659531    3.366    0.703
        80 -12.6136     59.5723     89.9835   4.8246100117e+01   5.2948861000e+01    0.4207496    0.4026403  85.91  0.001772351    1.051    0.049
        81 -11.2365    212.8759     90.1563   9.5495555865e+00   2.0705209791e+01    0.2017777     0.158214 -55.37 0.0006916608    1.228    0.186
        82 -11.7436    207.2909     89.5206   1.0144810139e+01   2.1863095552e+01    0.2786134     0.222394 -33.88  0.001259597    1.142    0.125
        83 -11.6146    207.4912     85.0703   9.0784636645e+00   2.2515134172e+01     0.234869    0.2168625 -46.26  0.001024109    1.088    0.081
        84  -9.8009     87.8825     89.7187   3.7230768713e+01   4.7841217149e+01    0.2608409     0.178574  68.77  0.001066144    1.922    0.480
        85 -11.2287      5.6946     88.4076   7.2758489774e+01   5.9063352862e+01    0.3333399    0.1463915 -69.43   0.00141197    1.945    0.486
        86 -11.5170    237.5164     86.6486   5.8666491000e+00   1.6837086849e+01    0.3288831    0.2607705 -80.00 0.0008066992    1.526    0.345
        87 -11.5734    233.3903     85.0802   5.9769224777e+00   1.7762356625e+01    0.3631231    0.2315068 -35.16  0.001448721    1.288    0.224
        88 -12.4808    221.6251     84.6297   7.2131408663e+00   1.9917331279e+01    0.5612873    0.1695098 -36.36  0.001594041    2.669    0.625
        89 -12.8745     66.6363     82.7604   4.3253084075e+01   5.3585743978e+01     1.258072     0.799062  78.40  0.003529331    2.714    0.631
        90 -14.6265     39.3204     79.7257   5.4708193329e+01   5.8502462362e+01     1.638655     1.553062   5.80  0.007603039    1.100    0.091
        91 -10.0870    221.3245    121.6632   1.5294271311e+01   1.4337839458e+01    0.2238384    0.2048231  80.95  0.001503938    1.419    0.295
        92 -11.5697    228.8606    118.9717   1.3695655742e+01   1.3535439089e+01    0.2683456    0.1817306  47.97 0.0006992476    1.798    0.444
        93 -12.9722     55.4196     73.7976   4.5381828634e+01   5.7698735439e+01    0.8915621     0.486713 -64.60  0.003554556    2.103    0.525
        94 -10.5502    204.2727    117.5326   1.6948531058e+01   1.7905900158e+01    0.4252985    0.2672174 -59.09  0.002081922    2.060    0.515
        95 -10.9061    246.9415    117.4916   1.1119339301e+01   1.0990834458e+01    0.2328063    0.1892301 -80.60  0.001012556    1.791    0.442
        96 -12.7314     57.8457     60.4719   3.9688155751e+01   6.0429154558e+01     1.068932    0.6605168 -76.91  0.003539515    2.819    0.645
        97 -14.0946      6.5937     67.7088   6.9399160144e+01   6.4545125672e+01     1.495893    0.9170508  84.47  0.007258514    1.788    0.441
        98 -12.9276     17.2070     63.4644   6.2443983430e+01   6.4968474664e+01    0.6463825    0.3770374  44.85 0.0004032016    1.940    0.485
        99 -12.7018     49.9282     55.3247   4.1608972419e+01   6.2947166540e+01     1.051885    0.4448341 -62.66  0.003378236    3.668    0.727
       100 -13.5591     51.0153     44.8927   3.6740866582e+01   6.5003802079e+01    0.8631315    0.6365602 -15.43  0.002751066    1.653    0.395
       101 -14.4153     77.1443     58.9229   3.0812061062e+01   5.6973375434e+01    0.9914474    0.4710249  45.72  0.003689904    2.061    0.515
       102 -10.8721    125.8489    115.8878   3.2772410033e+01   3.3840974269e+01    0.2271082    0.2104857 -13.63  0.000245133    1.171    0.146
       103 -13.2954     60.9879     43.2709   3.1134596582e+01   6.3438030034e+01    0.4859988    0.4256617 -83.44 0.0005717891    1.396    0.284
       104 -10.3700     65.8199    114.6002   5.1655439237e+01   4.5479800932e+01    0.2301111    0.1351047  43.99 0.0009466973    1.698    0.411
       105  -9.7684    196.4021    113.2401   1.7243782998e+01   2.0057817677e+01    0.2009623    0.1120835 -46.49 0.0009466635    1.695    0.410
       106 -11.1707    196.9812    107.8005   1.5905049225e+01   2.0867239704e+01    0.3976611    0.3686902 -79.29  0.002477068    1.219    0.179
       107 -12.0969     51.9746     86.9795   5.0725995616e+01   5.4892452869e+01     0.430616    0.2667777 -25.64  0.001209573    2.263    0.558
       108 -10.9528     47.9810     85.6348   5.2164097528e+01   5.5815315635e+01    0.3003808    0.2577329  44.25 0.0005972818    1.194    0.163
       109 -10.3361    165.4346     71.7685   1.1997570891e+01   3.3652170561e+01    0.2476648    0.2146632 -32.63  0.001186841    1.201    0.167
       110 -12.2245    162.1465     83.4271   1.5810291239e+01   3.2390511419e+01    0.5006284     0.463967  80.94  0.002826941    1.108    0.098
       111 -12.6094    168.9815     79.5408   1.3517968120e+01   3.1524344780e+01    0.6061375    0.4104982 -44.24  0.001561152    1.360    0.265
       112 -11.6054    148.0017     84.0107   1.8800013323e+01   3.5531933674e+01    0.4445841    0.3620172  87.18  0.001211641    1.372    0.271
       113 -12.6297    147.3211     79.1609   1.7550121166e+01   3.6593036884e+01    0.3662592    0.2943481 -42.59 0.0004070688    1.209    0.173
       114 -11.8557    137.5584     82.0053   2.0531062849e+01   3.8354346295e+01    0.7558526    0.5135338  60.54  0.002898262    1.538    0.350
       115 -12.8416    248.8136     83.0963   3.9790706099e+00   1.5467148337e+01    0.2613284    0.2146755 -48.31  0.000558436    1.116    0.104
       116 -11.9960    215.9764     83.6368   7.6685798091e+00   2.1111271415e+01    0.2810067    0.1905366 -83.88  0.001084246    1.994    0.498
       117 -11.2727     17.7474     83.1164   6.6116924986e+01   5.9744368622e+01     0.446709    0.1989242 -34.44  0.001206275    2.740    0.635
       118 -10.6664      1.3999     83.2251   7.4252021908e+01   6.0657328584e+01    0.2682905    0.1115383 -72.42 0.0007429292    2.048    0.512
       119 -11.8010    239.0066     81.0451   4.5236446156e+00   1.7366889873e+01    0.3542852    0.1820887  58.25 0.0005971674    2.394    0.582
       120 -11.2980    232.6056     79.4240   4.8393315704e+00   1.8698057140e+01    0.2921352    0.2062112  77.03  0.001096068    1.783    0.439
       121 -11.3515     84.1796     72.0656   3.2929369348e+01   5.2667257955e+01    0.7930744    0.5610754 -79.91  0.003342542    2.016    0.504
       122 -10.7575     84.9691     79.7728   3.5201621451e+01   5.0765529286e+01    0.4611855    0.2881946  18.31  0.001123706    2.593    0.614
       123 -10.7184     81.5466     79.4644   3.6360595328e+01   5.1537999229e+01     0.282867    0.2657028  10.64 0.0005944706    1.152    0.132
       124 -11.8898     74.8157     75.2684   3.7576882386e+01   5.3855457426e+01    0.6824409    0.4845838  32.79  0.002066053    1.482    0.325
       125 -11.4394    243.3501     74.4043   2.6972210498e+00   1.7538055030e+01    0.4139065    0.2273669 -21.72  0.001830108    2.171    0.539
       126 -12.8174    239.5494     72.7000   2.6970790074e+00   1.8416176929e+01    0.9533603    0.2683202 -45.44  0.003553357    2.907    0.656
       127 -13.6111    118.5949     62.8189   1.9061301911e+01   4.6547393015e+01     1.247149    0.7501649 -60.43  0.004443024    2.051    0.512
       128 -12.2151    249.2302     72.8424   1.8337524852e+00   1.6767184812e+01    0.5315978    0.3277887 -47.79  0.000991586    1.313    0.238
       129 -10.6170    191.5902    103.2267   1.5702770477e+01   2.2680158299e+01    0.3733208    0.1606074 -43.11  0.001552754    2.077    0.519
       130 -11.4192    161.3710     65.7783   1.0999093466e+01   3.5595678161e+01    0.3950679    0.3369674 -39.81  0.001593112    1.161    0.139
       131 -11.7446    167.6337     64.3551   9.5543168770e+00   3.4351369720e+01    0.5890948    0.4137242  60.07  0.002047743    1.485    0.326
       132 -11.9058    178.0180     71.6531   9.9200872922e+00   3.0804223613e+01    0.6258396     0.393029 -71.37  0.002181685    2.018    0.504
       133 -10.8706    172.2752     68.6314   1.0000736278e+01   3.2591060966e+01    0.4034658    0.2792964 -72.65   0.00197012    1.653    0.395
       134 -11.7201    137.3943     71.7730   1.7481655411e+01   4.0317603155e+01     1.066195    0.3801181  59.08   0.00344687    3.101    0.677
       135 -10.6991     74.6350     70.1488   3.5913579993e+01   5.5063599136e+01    0.4003046    0.2672725 -27.16  0.001686928    1.945    0.486
       136 -10.9983     70.2642     70.7850   3.7907222993e+01   5.5776389700e+01    0.3786462    0.2665941  41.44  0.001425848    1.410    0.291
       137 -11.9898    223.5966     61.4156   1.7599139884e+00   2.2843816762e+01    0.3851467    0.2236627 -82.68  0.001978064    2.288    0.563
       138 -12.5151    229.4927     65.5092   2.1030523983e+00   2.1183726238e+01    0.5524352    0.2241196 -37.01  0.002644574    1.934    0.483
       139  99.0000    136.6858     61.8688   1.4525219135e+01   4.2246131122e+01    0.5633594    0.2679941  52.57   0.00221715    2.097    0.523
       140 -11.0614    136.3736     57.2603   1.3103949014e+01   4.3100872783e+01    0.3851062    0.2825842  76.23  0.001288457    1.422    0.297
       141 -11.0382    154.8923     64.8267   1.1864415361e+01   3.7298838524e+01    0.6495723    0.2900457 -36.72  0.002550842    2.158    0.537
       142 -11.3234    151.9720     59.1985   1.0706370507e+01   3.8926956197e+01    0.3333315    0.2834527 -10.21 0.0003087058    1.464    0.317
       143 -10.4754    142.1732     55.1040   1.1251986321e+01   4.2005116333e+01    0.4059568    0.2691065 -33.05  0.001900609    1.574    0.365
       144 -10.5130    145.8493     52.3651   9.6947201055e+00   4.1520731052e+01    0.3492921    0.2307015  34.55   0.00137284    2.083    0.520
       145 -10.9514    149.5291     67.0187   1.3520483788e+01   3.8222576132e+01    0.4537445    0.3356462 -20.45  0.002172213    1.659    0.397
       146 -11.8732    145.0903     65.7622   1.4012229275e+01   3.9514360718e+01    0.6650394    0.5214833   0.47  0.002570109    1.807    0.447
       147 -11.3142    145.8294     59.1769   1.1835766057e+01   4.0438142197e+01    0.4179409    0.3210691  43.44 0.0008037672    1.483    0.326
       148 -11.6914     11.9281     24.7632   5.3381879701e+01   7.4576874758e+01    0.4831091    0.2965962 -44.33 0.0006532004    1.473    0.321
       149  -9.6724    172.1666    112.8289   2.1443943263e+01   2.4841427922e+01    0.1907682    0.1660087   0.07 0.0004625796    1.303    0.232
       150 -12.6826     14.9092     47.3158   5.9579212516e+01   6.9178522890e+01    0.8279163    0.5418432  74.86  0.002867804    2.139    0.532
       151 -10.2222    133.4877    113.4752   3.0179292178e+01   3.2770078241e+01    0.1517182      0.14956 -50.93  6.46907e-05    1.010    0.010
       152 -11.5141      1.6728     60.3675   7.1054372090e+01   6.6672025561e+01     0.267713    0.1711307 -82.72 0.0007542534    1.523    0.343
       153 -12.6847      5.5404     56.3231   6.7941274126e+01   6.7536344324e+01    0.6226342    0.5416961   4.12  0.002147855    1.229    0.186
       154 -11.3182      5.9926     34.9932   6.2218226460e+01   7.2725342632e+01     0.286337    0.2584026 -15.69 0.0003497885    1.089    0.082
       155 -12.1283     12.1336     32.3680   5.6459087763e+01   7.2892717428e+01    0.6208871    0.2765861  23.21  0.002413675    2.225    0.551
       156 -10.5553    127.0738     58.7777   1.5634762760e+01   4.5165703110e+01    0.3622533    0.2533793  30.79  0.001602394    1.910    0.476
       157 -11.0666    167.7409     52.4086   6.1399886572e+00   3.6162837581e+01    0.3461576    0.3133673  11.97  0.001470823    1.412    0.292
       158 -10.8327    161.2290     51.5621   6.8723014373e+00   3.7855037952e+01    0.3126109     0.255011 -61.81 0.0009776615    1.138    0.121
       159 -11.4412    162.4045     57.4900   8.4280471419e+00   3.6670238009e+01    0.3817461     0.367925  12.16  0.002239846    1.248    0.199
       160 -10.8589    156.7714     54.4290   8.4397446040e+00   3.8505738648e+01    0.3909021      0.18671  56.27  0.001010234    2.110    0.526
       161 -12.6494    173.5500     57.0521   6.6094503139e+00   3.4100909871e+01    0.2920044    0.2635919 -88.33  0.000446445    1.101    0.091
       162  -9.8062    211.5341    112.1395   1.4663100466e+01   1.7496718084e+01     0.217214   0.09316345  54.48 0.0008283317    2.882    0.653
       163 -11.0538    123.2542     53.6764   1.4774411258e+01   4.6988641640e+01    0.3102995    0.2492962  67.71 0.0005523886    1.213    0.176
       164 -12.6063    126.2782     45.6410   1.1288625421e+01   4.7510786829e+01    0.5699806    0.4244447  84.54 0.0006472167    1.413    0.292
       165 -12.5157    133.5691     46.6593   1.0148408397e+01   4.5495853108e+01    0.5072354    0.3995133  -3.55  0.000589678    1.714    0.417
       166 -11.4670    133.0532     40.3269   8.0792749019e+00   4.6564241060e+01    0.5075445    0.2967795 -58.52  0.002086811    1.901    0.474
       167 -10.0976    111.8414     52.7065   1.7242287603e+01   5.0012952979e+01    0.1973232    0.1761037  79.36  0.000227253    1.099    0.090
       168 -11.5825    181.3636     50.1904   3.6681654917e+00   3.3293909189e+01    0.4191052    0.3542503 -20.14  0.001021199    1.390    0.280
       169 -12.5146    189.2966     44.6743   1.2518911698e+00   3.2252322136e+01    0.6587568    0.4475483  68.15  0.002318246    1.547    0.354
       170 -10.8209    249.3055     48.9129   3.5688256254e+02   1.9803357856e+01    0.2936617    0.2016224 -51.03  0.001987944    1.137    0.120
       171 -10.7527    185.0335     31.4802   3.5818605283e+02   3.4924802695e+01    0.3382981    0.1926953 -28.93 0.0009718573    1.793    0.442
       172 -11.9776    160.7857    104.9615   2.1760983041e+01   2.8689895253e+01    0.4353699    0.2547783 -55.81 0.0002664927    1.947    0.487
       173 -11.2283    185.8326     37.6483   3.5976216451e+02   3.3963843704e+01    0.3202074    0.2061093 -84.21  0.001673636    1.612    0.380
       174 -12.6424    189.3780     34.2649   3.5849778997e+02   3.3586008194e+01    0.4459674    0.3632914 -67.91 0.0004990217    1.069    0.065
       175 -11.3175    164.5955     30.8294   2.4094372110e-01   3.9871369134e+01    0.5359924    0.2908302 -57.22  0.002090861    1.812    0.448
       176 -12.0759    158.9857     26.6709   3.5966258412e+02   4.1767155417e+01    0.3207226    0.2530136 -12.37  0.001352858    1.602    0.376
       177 -10.4493    154.0313     26.1493   1.1500061132e-01   4.3070166479e+01    0.3179287    0.1904655 -64.60 0.0009468089    1.695    0.410
       178 -10.2110    143.1166     45.9278   8.1203275184e+00   4.3184024363e+01    0.4586881    0.2020123  45.69   0.00167294    2.835    0.647
       179 -10.1919    148.1411     35.1847   3.8149683868e+00   4.3418801944e+01     0.189941    0.1450248 -68.63 -0.000430966    1.261    0.207
       180  -9.8492     86.1371    107.1664   4.2627694659e+01   4.3903823389e+01    0.2215965    0.1855261  71.85 0.0005487631    1.307    0.235
       181 -11.5401    160.8534     40.4331   3.6042089440e+00   3.9536554793e+01    0.4756859    0.2928932  51.01 0.0009840532    1.823    0.451
       182 -11.8418    160.1051     36.1478   2.4118040026e+00   4.0295601554e+01    0.7035429    0.2495959  65.47   0.00234773    2.672    0.626
       183 -12.0801    171.1501     44.2266   3.3225017960e+00   3.6520098729e+01    0.5986852    0.3317993  63.05  0.001379085    1.825    0.452
       184  -9.9571    101.0395     46.4472   1.7823741064e+01   5.3756327163e+01    0.4312667    0.1461922  57.00  0.001403466    2.889    0.654
       185 -11.1994     96.9582     42.6324   1.7478910924e+01   5.5393113422e+01    0.6906678    0.2496488  54.48  0.001763546    2.569    0.611
       186 -11.4570     40.9613     39.5199   3.9839020854e+01   6.7807165340e+01    0.4498269    0.3288391 -12.05  0.001444577    1.627    0.385
       187 -10.7926     35.2492     41.5812   4.4188717522e+01   6.8237248809e+01    0.4693407    0.2294111  17.32  0.001783979    2.861    0.650
       188 -11.2993    247.3690     41.9846   3.5557976031e+02   2.0978930126e+01    0.3732427    0.1717408 -53.26  0.001505336    1.814    0.449
       189  -9.2852    111.0541     39.4559   1.2451176626e+01   5.2343317426e+01    0.2749446    0.1578699  27.70 0.0009979975    2.998    0.666
       190 -10.7410     41.4496     45.2672   4.2105585538e+01   6.6519539061e+01    0.2940624    0.2718819 -80.88   0.00110769    1.268    0.211
       191  -9.9232    250.4355     39.2170   3.5480647277e+02   2.0774475051e+01    0.1687223   0.07498361 -43.20 0.0006398735    1.605    0.377
       192 -11.9819     92.7401     33.1779   1.4724264546e+01   5.7901461078e+01    0.5805253    0.3533373  32.75  0.001453202    2.110    0.526
       193 -10.6574     87.5086     34.4978   1.6890792174e+01   5.8993005457e+01    0.2801827    0.2185745 -49.41   0.00143486    1.376    0.273
       194 -11.1250    131.7011     33.7222   6.0222563538e+00   4.7827795114e+01    0.2817591    0.2032201 -59.23 0.0004151277    1.397    0.284
       195 -11.0961    239.8092     31.4503   3.5385210216e+02   2.3576267462e+01    0.3900017    0.2478369 -39.44 0.0004644484    1.257    0.205
       196 -11.2513     15.3931    106.6755   7.0560044265e+01   5.3470860008e+01    0.2565347    0.2328453  82.15 0.0003095166    1.043    0.041
       197  -9.9599    112.2863     32.3507   9.3913264061e+00   5.3044485543e+01    0.3750545     0.213863  46.67   0.00163492    1.845    0.458
       198  -9.6019    101.4937     19.4669   6.4843991549e+00   5.7469183241e+01    0.1434615    0.1290975  63.27 4.417534e-05    1.054    0.051
       199 -10.7427    209.2061    104.3984   1.3281508032e+01   1.9151332743e+01    0.4517738    0.2654077 -61.84  0.002092475    2.379    0.580
       200 -11.7389    103.4615     29.5601   1.0320095385e+01   5.5696899284e+01     0.355609    0.2955753  84.82 2.965404e-05    1.200    0.167
       201 -10.3532    102.0745     23.3572   8.0291970906e+00   5.6854012375e+01     0.301483    0.2003974 -25.05 0.0009380179    1.690    0.408
       202  -9.8387    121.8684     32.8781   7.5719453884e+00   5.0489772286e+01    0.1984161    0.1814232  58.74 0.0003449764    1.128    0.114
       203 -11.1694    198.6279     27.8243   3.5598908237e+02   3.2305754439e+01    0.4466479    0.1520024 -39.13  0.001666683    2.277    0.561
       204  -9.2760    137.7983     30.2800   3.7927879442e+00   4.6701949481e+01    0.5281351    0.2486863 -10.83  0.001672764    4.517    0.779
       205 -11.3663    134.4075     26.1747   2.9095998638e+00   4.8090539162e+01    0.4315022    0.2854129 -68.67  0.001522934    1.585    0.369
       206 -12.1049    134.4032     21.1810   1.1531442618e+00   4.8680889245e+01     0.365508    0.2843264 -76.80 0.0007184202    1.221    0.181
       207 -10.7672     85.8828     29.0505   1.4930601471e+01   6.0192560391e+01    0.4209491    0.2006244  48.66   0.00128457    1.982    0.495
       208  -9.8950     90.5084     27.5687   1.2875894808e+01   5.9252081798e+01    0.1449214    0.1328579  60.44 0.0002466525    1.017    0.016
       209 -10.2660     80.4522     30.5152   1.7372658312e+01   6.1297185656e+01    0.1435738    0.1356182  64.34 0.0001843555    1.041    0.039
       210  -9.7222    114.3225     28.2976   7.3582281848e+00   5.3054886729e+01    0.1471497    0.1060536  37.29 0.0007022615    1.623    0.384
       211 -12.9356    121.6279    102.7203   3.0471814442e+01   3.7672868586e+01    0.4413326    0.4137533 -86.42  0.002170219    1.091    0.083
       212 -10.6529    112.8808     14.9233   2.2930664584e+00   5.4999075014e+01    0.2112775    0.1874507  72.80 0.0003586216    1.049    0.047
       213 -10.6316     69.6011    102.7986   4.7523602702e+01   4.7977021286e+01    0.2232007     0.150131 -72.21 0.0007285572    1.665    0.399
       214 -10.0173    184.2895     25.9227   3.5675741918e+02   3.5766479489e+01    0.1800413    0.1427586 -46.17 0.0003047874    1.155    0.134
       215 -10.3250    175.9145     25.1435   3.5734988382e+02   3.7824192003e+01    0.4435279    0.1679199 -66.09  0.001494951    3.817    0.738
       216 -10.0285    149.6871     22.8740   3.5962271727e+02   4.4555191965e+01    0.5445615    0.2891239  21.08   0.00176776    4.952    0.798
       217 -10.8035    215.3540    100.7038   1.1597847502e+01   1.8620620935e+01    0.4092514     0.210287 -20.27  0.001534354    2.854    0.650
       218  -9.9702    193.1307     24.0193   3.5547412973e+02   3.3972269635e+01    0.3056177    0.1319471  61.60  0.001405027    2.449    0.592
       219 -11.0410    124.0326     23.9654   3.8383282875e+00   5.1059469502e+01     0.353041     0.190325  74.16  0.001051351    1.799    0.444
       220 -11.9592    169.1772     96.7730   1.8022157668e+01   2.8427470880e+01    0.5439168    0.4243631 -41.36  0.002093088    1.193    0.162
       221  -9.8502    200.4993     15.5805   3.5276992326e+02   3.3281800115e+01    0.1905162    0.1415156 -59.27 0.0001133375    1.082    0.076
       222 -10.4482    180.3029     20.3584   3.5560291907e+02   3.7337069678e+01    0.2412657    0.1654596 -65.08            0    1.287    0.223
       223 -11.3870    161.6135     20.1782   3.5738215542e+02   4.1869396991e+01    0.4838475    0.2596652  86.32  0.001878779    1.872    0.466
       224 -11.4729     97.2012     22.3879   8.7737745604e+00   5.8227050781e+01    0.2575327    0.2345386 -36.21 0.0005653394    1.188    0.158
       225 -10.8262      5.1198     17.4625   5.6058061994e+01   7.6676983064e+01     0.266794    0.1813865  75.80  0.001317042    2.445    0.591
       226  -9.2148    170.3491     19.2639   3.5621944338e+02   3.9832789726e+01    0.1273775   0.09660327  48.56 0.0006980513    1.612    0.380
       227 -10.6352    212.9721     15.9927   3.5205907566e+02   3.0575454044e+01    0.1882989    0.1332641 -56.74            0    1.110    0.099
       228 -10.1190    154.5235     15.5056   3.5670434395e+02   4.4150526323e+01    0.1910066    0.1354665  -9.42 0.0008752011    1.862    0.463
       229 -11.3491    127.1228    102.1356   2.8841042625e+01   3.6599563995e+01    0.2432438    0.2167469  -3.87  0.001182328    1.315    0.240
       230  -9.7421    149.3182     93.6707   2.1208673052e+01   3.3384433164e+01    0.2969113    0.1979059 -82.05  0.001197223    2.336    0.572
       231 -11.7834    153.6233     99.8238   2.1930925602e+01   3.1231185070e+01    0.3328092    0.2575642 -52.81 0.0008616929    1.276    0.216
       232 -10.9748    151.0028     97.4928   2.1875800441e+01   3.2263666266e+01    0.2951787    0.2477474  -3.87  0.001375037    1.481    0.325
       233 -10.5973    160.1690     13.9963   3.5565283130e+02   4.2898800931e+01    0.2096372    0.1674379  88.34 0.0002801046    1.137    0.121
       234 -11.0345    249.6988     97.2846   6.7742759902e+00   1.3393460264e+01    0.2893171    0.1562411 -38.22 0.0005545367    1.409    0.290
       235 -11.2215    250.0649     92.3444   5.7385540622e+00   1.4013701537e+01    0.4952388    0.1172929 -43.59   0.00189461    3.423    0.708
       236 -12.2796    182.6885     95.9094   1.5403149004e+01   2.5730863327e+01     0.572983     0.457933  -4.10  0.002154926    1.592    0.372
       237 -12.3962    127.9495     78.5559   2.1792600609e+01   4.1296767949e+01     0.923693    0.6527784   1.99  0.003706985    2.462    0.594
       238 -12.4711    121.4234     87.7878   2.6277166466e+01   4.0944144237e+01    0.5506373    0.3543793 -49.88  0.002387185    1.562    0.360
       239 -12.9592    126.1500     90.9580   2.5956679617e+01   3.9198794864e+01    0.7565292    0.4905488  19.05  0.002825716    2.690    0.628
       240 -11.7645    133.0933     87.5442   2.3214925276e+01   3.8303998566e+01    0.5857534    0.3567033  61.20  0.001968646    1.829    0.453
       241 -13.4241    138.8614     95.9617   2.4212943877e+01   3.5283478245e+01     1.178674    0.6030517  62.87  0.003282276    2.650    0.623
       242  -9.6123    102.4816     10.4908   2.3609867930e+00   5.8172240552e+01    0.1414304    0.1237117  61.21 2.657896e-05    1.091    0.084
       243 -13.1905    128.5428     96.0006   2.6775841462e+01   3.7596772571e+01    0.6858873    0.5138965  87.67   0.00135755    1.752    0.429
       244 -12.7142    102.8338     96.4300   3.4220988869e+01   4.3152644342e+01     0.523167    0.4662382  27.07 0.0008319141    1.216    0.178
       245 -11.6440     95.1157     90.0258   3.4849075128e+01   4.6273068532e+01    0.5897812    0.4294167  65.57   0.00166376    1.609    0.379
       246 -11.8418    199.7494     96.5897   1.2868949035e+01   2.2192423091e+01    0.3552771    0.2381492 -45.77  0.001073894    1.332    0.249
       247 -11.4574    160.0892     96.2144   1.9640884264e+01   3.0503721832e+01    0.3557914    0.3067367 -76.07 0.0005834072    1.253    0.202
       248 -10.6472    144.4557    103.0572   2.4820576959e+01   3.2597426963e+01    0.3215988    0.2991476   2.91 0.0009503772    1.198    0.165
       249 -10.5311     87.1110     97.7989   3.9811478684e+01   4.6043125017e+01    0.3720094    0.2535547  45.58  0.001152949    1.463    0.316
       250 -10.8972     11.8254     97.9790   7.1071062146e+01   5.6103650320e+01    0.2259932    0.1724264 -53.68 0.0007560122    1.266    0.210
       251 -10.5773     16.9412     96.9845   6.8648290107e+01   5.6026801079e+01    0.2119981    0.1945914 -78.56 0.0003308026    1.002    0.002
       252 -13.6523    184.6083     61.6804   6.3203386410e+00   3.0881788187e+01     1.572774     1.047612 -67.57  0.003374059    1.611    0.379
       253 -11.4589    210.7800     22.0981   3.5365272433e+02   3.0358413949e+01    0.5801386    0.2491447  61.64  0.002785537    2.603    0.616
       254 -12.0743    197.0437     55.5897   3.1887537673e+00   2.9040619097e+01    0.4777397    0.2745805  68.23  0.001981203    1.888    0.470
       255 -12.8161    214.3185     44.1878   3.5863456829e+02   2.6955687820e+01    0.5830931    0.5527086 -11.17  0.001110521    1.357    0.263
       256 -11.0727    180.6537    244.0357   4.3788876868e+01   1.4339009531e+00    0.1587311    0.1229071  -3.78  0.001158803    1.124    0.111
       257  -9.9901    218.6840    239.9869   3.6557486867e+01  -2.1089568465e+00    0.1501433    0.1083843  -7.36 0.0007564418    1.090    0.083
       258 -14.1585    197.1827     80.7295   9.4343678871e+00   2.5248596980e+01      1.26676    0.9858368  -7.36  0.003576761    1.676    0.403
       259 -13.9557    202.5163     69.0827   5.8877172782e+00   2.5932768746e+01     1.081212    0.5553644 -55.74  0.004977956    2.045    0.511
       260 -13.4118    218.7313     53.9644   5.1963484983e-01   2.4790906755e+01     1.106042    0.6941079 -15.18  0.004033946    2.221    0.550
       261 -10.7297     16.0433    238.4857   7.8628655762e+01   2.1188291299e+01    0.1737981    0.0949447  28.50 0.0005231246    1.552    0.356
       262 -11.5639    234.4081     24.1511   3.5261040431e+02   2.5415292157e+01     0.305916    0.1972426 -51.27 0.0007018691    1.172    0.147
       263  -9.6798    218.7249    213.3334   3.2577323263e+01   1.2099026437e+00   0.09351582   0.08630902 -23.77 0.0005011817    1.600    0.375
       264 -14.1341    219.3221     70.6343   4.3055674095e+00   2.2375362241e+01    0.8738386     0.768181 -57.98  0.005842763    1.099    0.090
       265 -13.2335    208.9400     68.2500   4.9179316725e+00   2.4749593450e+01    0.8990819    0.3375817 -38.45  0.001139091    2.160    0.537
       266 -13.0965    209.1829     58.8338   2.6360123622e+00   2.6040706840e+01    0.5657333    0.4792655  79.22  0.003620628    1.297    0.229
       267  -9.6532    236.7985    146.1293   1.8005567460e+01   8.3392202675e+00    0.1575509    0.1159103 -13.56 0.0003799829    1.272    0.214
