#   1 NUMBER                 Running object number                                     
#   2 MAG_AUTO               Kron-like elliptical aperture magnitude                    [mag]
#   3 X_IMAGE                Object position along x                                    [pixel]
#   4 Y_IMAGE                Object position along y                                    [pixel]
#   5 X_WORLD                Barycenter position along world x axis                     [deg]
#   6 Y_WORLD                Barycenter position along world y axis                     [deg]
#   7 A_WORLD                Profile RMS along major axis (world units)                 [deg]
#   8 B_WORLD                Profile RMS along minor axis (world units)                 [deg]
#   9 THETA_WORLD            Position angle (CCW/world-x)                               [deg]
#  10 FWHM_WORLD             FWHM assuming a gaussian core                              [deg]
#  11 ELONGATION             A_IMAGE/B_IMAGE                                           
#  12 ELLIPTICITY            1 - B_IMAGE/A_IMAGE                                       
         1  -9.9866     32.7341      8.3599   9.7058544031e+01   6.8637274360e+01    0.7884917    0.1053749 -33.75   0.00245003    7.289    0.863
         2 -10.5556     32.8654     22.8162   1.0318299362e+02   6.6844887090e+01    0.8166697   0.09432086 -39.00  0.002321302    7.751    0.871
         3 -11.3377    199.9100     22.4657   6.2867596995e+01   3.2915522052e+01     0.803943    0.5024152  88.25  0.004289389    1.536    0.349
         4 -11.7503    206.7316     14.1592   6.0203790275e+01   3.2263588717e+01    0.8281605    0.5091208  48.89  0.002120359    1.948    0.487
         5  -8.4052     83.0000     11.5156   8.0939928036e+01   6.0421509411e+01    0.2363359   0.06625962 -25.33 0.0009246835    3.854    0.741
         6 -10.6139     20.1742      3.5642   1.0037998542e+02   7.0618573159e+01    0.3468007    0.3025573  14.08  0.002841025    1.542    0.351
         7 -10.8198    218.3862      2.5230   5.6578281148e+01   3.0851418054e+01    0.6194041     0.254052  75.69  0.002647902    2.106    0.525
         8 -10.9463     58.7340    240.7249   1.3929345557e+02   1.7268479631e+01    0.4384493    0.2213989 -71.44  0.002386299    1.922    0.480
         9  -9.8353    163.4257    247.9360   1.1974366738e+02  -8.1357474079e-01    0.3747782    0.2444402 -61.71   0.00202086    2.042    0.510
        10 -10.0491    139.6347    249.4959   1.2464881540e+02   2.9495445193e+00     0.283516    0.1983697  45.24  0.001532434    1.204    0.169
        11  -9.3144    101.7442    247.5910   1.3181835334e+02   9.5352292697e+00     0.530759   0.09082188 -57.70  0.001650583    5.904    0.831
        12 -10.3639     83.2259    247.6304   1.3536188554e+02   1.2389020961e+01    0.5473363    0.2980328 -62.51  0.003000332    1.976    0.494
        13  -9.6440     82.9998    237.6664   1.3436708933e+02   1.4391693649e+01    0.3679189    0.1387948 -62.60  0.001628609    2.727    0.633
        14  -9.5728     83.1475    230.9601   1.3360321569e+02   1.5739682378e+01    0.3835329    0.1604241 -69.09  0.001685547    2.598    0.615
        15 -11.5146     43.5688    222.6089   1.4054320225e+02   2.3017885246e+01    0.6089725    0.4807276 -39.04  0.001035661    2.044    0.511
        16 -14.3272     52.8148    211.0840   1.3759954630e+02   2.4341777350e+01     5.880669     4.196606 -54.69   0.03481205    1.661    0.398
        17 -11.5526    127.5002    230.9282   1.2455186481e+02   8.4780536418e+00    0.6447187    0.4582841 -56.35  0.003579663    1.562    0.360
        18 -12.1704    113.7816    229.7272   1.2722017008e+02   1.1062977943e+01     1.031359    0.5155249  45.10  0.004871452    1.755    0.430
        19 -10.6294     71.4768    218.7485   1.3459865308e+02   2.0072142398e+01    0.6855117    0.2749554  54.67  0.002905274    2.497    0.600
        20 -12.0728     96.3796    227.7699   1.3054943189e+02   1.4330837643e+01     1.337855    0.3676549  46.52  0.004825578    3.161    0.684
        21 -11.6065     80.7353    222.2596   1.3309920361e+02   1.7938330773e+01       1.1363    0.5074741  68.36  0.004193285    3.519    0.716
        22 -14.9522      2.4241    233.0917   1.4870361268e+02   2.5442769590e+01     21.76034          nan -74.47   0.04420489   15.981    0.937
        23 -10.8142     55.2302    230.3973   1.3901352196e+02   1.9859489176e+01    0.3441957    0.2290477  67.72  0.001849371    1.266    0.210
        24  -9.8251     68.1815    190.9492   1.3192843662e+02   2.6839308598e+01    0.4146275    0.2546037 -43.27  0.001866335    2.183    0.542
        25  -9.9654     73.1305    184.2668   1.2987551600e+02   2.7699825235e+01    0.3143752    0.2523893 -47.38 0.0005782591    1.461    0.315
        26  -9.6551     82.1413    172.8214   1.2598255338e+02   2.9081917623e+01    0.2962864    0.2693307 -81.65   0.00046492    1.054    0.051
        27 -11.4872     69.5518    169.8744   1.2860286805e+02   3.1677505061e+01    0.5458219    0.3001699 -43.60   0.00138706    2.254    0.556
        28 -11.0343     86.5763    164.3848   1.2346036706e+02   3.0428605354e+01      0.94695    0.5516685  52.57  0.001974243    1.821    0.451
        29 -10.6472     32.7103    130.6670   1.3202758813e+02   4.5592796774e+01    0.8800535     0.141726 -64.92  0.002430053    5.290    0.811
        30 -11.1469     32.7111    158.1261   1.3598691541e+02   3.9047480892e+01     1.354379    0.2764842 -70.77  0.003694207    5.657    0.823
        31 -10.2874     32.7998    144.7874   1.3414957452e+02   4.2224594905e+01    0.8693734    0.1364104 -66.00  0.002432014    5.169    0.807
        32  -9.8801     73.3109    154.5218   1.2513168267e+02   3.4877759295e+01    0.4577109    0.2647392 -68.94  0.002089954    1.696    0.410
        33 -11.3700     67.6453    144.3797   1.2482030171e+02   3.8167415660e+01    0.7684441    0.5363158  74.66  0.002728806    1.721    0.419
        34  -9.3077    101.8640    147.3292   1.1624520400e+02   3.1991673232e+01    0.5445086    0.2812361 -35.16  0.001929386    2.902    0.655
        35 -10.3207     89.7555    147.8659   1.1955848579e+02   3.3942620509e+01    0.2971554    0.2569685 -39.33 0.0005106929    1.265    0.209
        36 -10.4247     29.0425    139.1803   1.3432419072e+02   4.3923897268e+01    0.4279451    0.1669119 -68.83   0.00185619    2.195    0.544
        37 -10.7176     59.0048    135.7224   1.2559434655e+02   4.1428752505e+01    0.7804437    0.2275646 -64.06  0.002473075    3.635    0.725
        38  -9.0829     98.9154    131.9264   1.1369698801e+02   3.6223261541e+01    0.3089026    0.2196499 -36.31 0.0005564204    1.559    0.359
        39  -7.9964    108.0520    122.6395   1.0899577121e+02   3.6728505660e+01     0.203317    0.1946393  36.84  0.000472895    1.099    0.090
        40 -11.0089     32.6185    118.8482   1.3005500588e+02   4.8376001879e+01    0.6835323    0.2194095 -56.42  0.002766971    2.358    0.576
        41 -10.9664     32.7891     99.1396   1.2618335126e+02   5.2846813051e+01     1.242404     0.103567 -59.93  0.002702843    8.909    0.888
        42  -8.8400     83.0000    132.8962   1.1832539117e+02   3.8667941428e+01    0.4132099    0.0778951 -55.54  0.001047198    4.897    0.796
        43  -9.2054    167.9597    113.1058   9.1575488531e+01   2.5860790819e+01    0.3675389    0.2733321 -70.78 0.0009131393    1.608    0.378
        44 -12.9238      8.9897    207.1289   1.4587780057e+02   3.0193986292e+01     1.236306     1.011744 -68.86  0.004260015    1.413    0.292
        45  -8.5937    110.8067    135.4231   1.1127055384e+02   3.3203044795e+01    0.2118978    0.1498185  26.88 0.0009439238    1.710    0.415
        46  -8.2472     59.5085    110.4856   1.2028519521e+02   4.7332688705e+01     0.138417    0.1214896 -48.63   0.00012554    1.021    0.021
        47  -8.3543     43.6525    108.3049   1.2469233357e+02   4.9700292688e+01    0.1293073   0.09832534  76.09 0.0007041592    1.696    0.410
        48  -8.3050     83.3733    100.8475   1.1060671452e+02   4.6024829205e+01    0.2239911    0.1202663 -40.39 0.0009565388    1.848    0.459
        49  -8.9516     83.1884    218.3580   1.3212852789e+02   1.8403878592e+01     0.320859    0.1965802 -75.18  0.001388729    1.648    0.393
        50  -9.7715     33.0000     61.0514   1.1653118222e+02   6.0657512445e+01    0.5993554   0.05951903 -52.14  0.001413031    8.781    0.886
        51  -9.5517     95.4546    241.9830   1.3240847765e+02   1.1610599239e+01    0.2139503    0.1465386  49.48  0.001091716    1.255    0.203
        52  -8.2219     83.0000     40.9205   9.1960209866e+01   5.7011982383e+01    0.2046096   0.07053342 -34.58 0.0008028154    2.945    0.660
        53 -11.0729    192.8253     27.8414   6.5025458028e+01   3.3960851332e+01    0.4569906    0.3581003  76.19  0.002191269    1.120    0.107
        54 -10.7090    134.3733    230.7752   1.2310965022e+02   7.3112341136e+00    0.6559709    0.1879957 -52.08   0.00231694    3.829    0.739
        55 -10.4824    113.9852    246.5905   1.2931892166e+02   7.7499235546e+00    0.3985308    0.2549503  84.62  0.002086249    1.991    0.498
        56 -10.0181     91.4089    247.9060   1.3383733964e+02   1.1091792956e+01    0.2972242    0.1976715  32.64  0.001341009    1.779    0.438
        57 -10.3052     72.7248    245.6552   1.3714137560e+02   1.4321196597e+01    0.4232526    0.2086677  61.00   0.00201441    1.906    0.475
        58  -8.9078    181.4968    246.4900   1.1598017645e+02  -3.6227825808e+00       0.1287    0.1101539  33.27 -0.000141332    1.026    0.025
        59 -11.3151     50.4131    235.5986   1.4038930622e+02   1.9422090589e+01    0.4351012    0.2725236 -69.38  0.001483883    1.573    0.364
        60 -10.4095    126.4779    244.6280   1.2660813672e+02   6.0427451543e+00     0.349177    0.2282178  75.62  0.001809902    1.936    0.483
        61  -9.6504    106.8710    242.6595   1.3024516103e+02   9.6557995509e+00    0.2311954    0.1773365 -85.97 0.0007887575    1.362    0.266
