#   1 NUMBER                 Running object number                                     
#   2 MAG_AUTO               Kron-like elliptical aperture magnitude                    [mag]
#   3 X_IMAGE                Object position along x                                    [pixel]
#   4 Y_IMAGE                Object position along y                                    [pixel]
#   5 X_WORLD                Barycenter position along world x axis                     [deg]
#   6 Y_WORLD                Barycenter position along world y axis                     [deg]
#   7 A_WORLD                Profile RMS along major axis (world units)                 [deg]
#   8 B_WORLD                Profile RMS along minor axis (world units)                 [deg]
#   9 THETA_WORLD            Position angle (CCW/world-x)                               [deg]
#  10 FWHM_WORLD             FWHM assuming a gaussian core                              [deg]
#  11 ELONGATION             A_IMAGE/B_IMAGE                                           
#  12 ELLIPTICITY            1 - B_IMAGE/A_IMAGE                                       
         1 -12.3248      2.5106     20.4539   9.2096092575e+01   7.4776849702e+01    0.3215027     0.273639  85.90 0.0006621973    1.361    0.265
         2 -10.1580     14.0715      3.1702   7.2926575196e+01   7.7665430707e+01    0.2529773    0.1649365  23.05 0.0007007582    1.502    0.334
         3 -10.1038     14.2156     12.2042   7.8178661013e+01   7.5834866133e+01    0.2162698    0.1931725 -72.01 0.0006508871    1.363    0.266
         4 -11.3822      5.9160      7.7345   8.3887582859e+01   7.7445900929e+01    0.8426067    0.2842873  31.37  0.003517072    3.067    0.674
         5 -10.5320     16.9284      8.4474   7.3571863586e+01   7.6326452691e+01    0.2734869    0.2113918  41.22  0.001613525    1.538    0.350
         6 -12.4604     19.6162      2.5190   6.7154922263e+01   7.7125554661e+01    0.3716208    0.2420065 -22.66  0.001269599    1.589    0.371
         7 -12.1813    125.2144     16.9700   3.0616169144e+01   5.1409410541e+01    0.3218449    0.2569623 -77.47 0.0004302547    1.310    0.236
         8 -10.4242     60.7716     16.1734   4.9165184466e+01   6.7582056662e+01    0.4172294     0.271944 -60.02   0.00185903    2.356    0.576
         9 -11.7960     34.7384     12.3381   6.1701172196e+01   7.3165573527e+01    0.3981605    0.3058992  41.03   0.00141186    1.370    0.270
        10 -11.5751     30.1949      7.7068   6.1971761411e+01   7.4694957553e+01    0.4523954    0.3101161  20.33  0.002454438    1.469    0.319
        11  -9.8045    148.7525     10.7657   2.4787899622e+01   4.5858402400e+01    0.1996531    0.1465064 -61.20   0.00104931    1.353    0.261
        12 -11.3853     55.6916      9.4944   4.7573489239e+01   6.9636539430e+01    0.3145368    0.2333435  39.76 0.0001849353    1.243    0.195
        13 -10.3688     50.9202     10.5221   5.0638197667e+01   7.0486959722e+01    0.2295017    0.2249099 -39.77  0.001079262    1.201    0.168
        14 -10.5114     45.5174      9.5536   5.3014228939e+01   7.1705320377e+01    0.2391751     0.215194  31.83 0.0007264157    1.095    0.087
        15 -10.0505     42.4746      9.4193   5.4741542180e+01   7.2304098674e+01    0.2542915    0.2086523 -50.21 -0.0001073242    1.484    0.326
        16 -12.2328    196.1444      5.3273   1.8714125061e+01   3.4737533419e+01    0.5693198    0.3664733 -85.95  0.002486562    1.528    0.346
        17  -9.3967     86.3825     10.2301   3.6451693039e+01   6.2301292902e+01    0.1793113    0.1298777 -40.04 0.0009033176    1.503    0.335
        18  -9.3623    215.4931      9.5830   1.8532499047e+01   3.0092231859e+01    0.1215393    0.1014022 -55.15 6.989623e-05    1.015    0.015
        19 -12.1713    126.0232     10.8923   2.8085471422e+01   5.1836070922e+01    0.3056834    0.2550125 -66.29 0.0003413878    1.221    0.181
        20 -10.8070     88.9204      6.1681   3.3670222208e+01   6.2092108122e+01    0.2245155    0.2011891   2.34 0.0003450229    1.208    0.172
        21 -10.4319    247.0851      5.9572   1.6004879515e+01   2.4190511919e+01    0.1664921    0.1273808 -49.06 0.0003644091    1.030    0.029
        22 -10.0529    111.6207      5.8966   2.8527615770e+01   5.6158759520e+01    0.2371442     0.177417  55.67 0.0006016761    1.241    0.194
        23 -10.1519    104.7102      4.3299   2.9155908429e+01   5.8141701306e+01    0.2181894     0.191056 -89.02 0.0003746463    1.142    0.125
        24 -10.5055    123.6684      2.9948   2.5307266515e+01   5.3206346541e+01    0.2985706    0.2297205 -57.59  0.001605568    1.339    0.253
        25 -10.9008    148.4890      2.4390   2.1950040828e+01   4.6693797141e+01    0.2348259    0.2122929 -85.06 0.0005017329    1.006    0.006
        26 -10.5888    138.3858      2.2386   2.3035540400e+01   4.9359690134e+01    0.2561346    0.2198333  87.42  0.000266019    1.063    0.059
        27  -9.7393     59.1553      3.2222   4.1992711506e+01   6.9674933264e+01    0.1766111    0.1645056 -65.25 0.0006455049    1.291    0.226
        28 -11.0452    191.1722      9.5481   2.0226576805e+01   3.5488147750e+01    0.2251548    0.1821247 -48.98 0.0006637116    1.102    0.093
        29  -9.0859     49.6844      2.6924   4.6100066977e+01   7.1821375213e+01    0.1421488   0.09532997  22.01 0.0002523986    1.629    0.386
        30  -9.4585     67.3945      1.5365   3.7684811389e+01   6.7935427859e+01    0.1357552     0.125051  39.74 0.0001016356    1.030    0.030
        31 -10.1805     29.5914      1.3206   5.7824004052e+01   7.5843550344e+01    0.2854763    0.1127312  44.00 0.0007253493    2.578    0.612
        32  -9.5930     20.2621    209.4318   1.0361127489e+02   2.8150470425e+01    0.1653256   0.07827056  38.10 0.0006882712    1.567    0.362
        33 -10.2748    110.0237    250.5676   8.6620120108e+01   1.1765061599e+01    0.1728548   0.08229688  29.09 0.0004649341    1.527    0.345
        34 -10.9940     29.0860    250.2943   1.0318865680e+02   2.0150400617e+01    0.2808553    0.1051593  28.24   0.00157085    1.966    0.491
        35 -12.9997     10.8680    244.4580   1.0668699179e+02   2.2647995643e+01     0.585439    0.3754862 -81.04  0.004317707    1.868    0.465
        36 -12.4237      4.7858    241.3108   1.0784332327e+02   2.3654159667e+01    0.4306452    0.3499452   3.25  0.003420738    1.609    0.378
        37 -10.0656     39.3354    207.0247   9.8991561245e+01   2.6882307129e+01    0.1627167    0.1344936  60.55  0.000585173    1.143    0.125
        38 -10.8302      2.6634    205.8468   1.0756854214e+02   3.0238426171e+01    0.2829699   0.07366559  79.85  0.001114776    4.284    0.767
        39  -9.5129    123.9969    205.9853   7.8828803310e+01   1.6952059314e+01    0.1463801    0.1166194  25.02            0    1.015    0.015
        40  -9.4414    193.7881    201.4069   6.3816671086e+01   8.2063436253e+00    0.1661668   0.09136046  20.89 0.0006145622    1.623    0.384
        41 -10.5822      4.5929    201.2267   1.0701072235e+02   3.1005040548e+01    0.1422241   0.09923717 -76.15 0.0005435125    1.612    0.380
        42  -9.0081    208.5577    191.4939   5.9576965844e+01   7.5767205173e+00    0.1184077   0.09070415   2.50 0.0001672761    1.008    0.008
        43  -9.8538     13.6640    181.1656   1.0411829456e+02   3.4474132432e+01    0.2363187   0.09352294  81.77  0.001066862    2.676    0.626
        44  -9.0129     69.7161    177.6426   8.8835079021e+01   2.9584309817e+01    0.1290196   0.09869325 -24.57 0.0007019187    1.671    0.402
        45  -9.8038      5.0242    167.7771   1.0591467454e+02   3.8048546669e+01    0.1586337   0.09064552  23.87 0.0002818805    1.670    0.401
        46 -10.4520      5.3310    154.3517   1.0533215154e+02   4.1100636129e+01    0.3952486    0.1010286  46.04   0.00155468    2.975    0.664
        47  -9.5798     13.3304    151.6762   1.0284154084e+02   4.1184300905e+01    0.1425953   0.07504591  54.14 0.0007050079    1.700    0.412
        48 -10.7576      6.5421    145.0090   1.0457207502e+02   4.3234322442e+01    0.2416151    0.1766912  46.47 0.0006477892    1.222    0.182
        49 -10.1624     57.9861    143.3761   8.8170019718e+01   3.8869122642e+01    0.1978067    0.1573904  32.49 0.0004346874    1.188    0.158
        50  -9.2746    235.6970    138.3359   4.5548525721e+01   1.0716953559e+01    0.1095094   0.08727187 -47.35 0.0007037583    1.664    0.399
        51  -9.1577     25.4824    136.3712   9.7967989913e+01   4.3962522205e+01    0.1303906    0.1188947  55.73 9.853653e-05    1.037    0.035
        52  -9.7172     95.8641    133.8670   7.4850140386e+01   3.5639325337e+01     0.200835    0.1708326  66.75 0.0006248003    1.300    0.231
        53  -9.6232     22.2823    131.3132   9.8613802588e+01   4.5485892757e+01    0.1318491   0.09518396 -43.67 0.0002002519    1.573    0.364
        54 -10.1732     11.9452    128.9795   1.0194874454e+02   4.6816596170e+01    0.2273943    0.1263587  56.81  0.001125424    1.705    0.413
        55  -9.3067      4.4671    129.4778   1.0449420336e+02   4.7146568729e+01    0.1269851     0.114171  77.01 0.0001245409    1.034    0.032
        56 -10.3156     28.0692    127.9364   9.6321356116e+01   4.5858514826e+01    0.2031419    0.1889735  66.66 0.0005274464    1.018    0.017
        57 -11.6046     24.8260    122.4667   9.6928016405e+01   4.7521126531e+01    0.4132257    0.2371519  67.34  0.001033436    1.831    0.454
        58  -8.9915    208.6526    123.2829   4.6584721195e+01   1.7044170343e+01    0.1177651    0.1013783 -66.74 0.0007015948    1.646    0.393
        59  -9.6198     75.0694    121.6764   7.9115161767e+01   4.1831766518e+01    0.2044072    0.1843515  38.49 0.0004206124    1.063    0.059
        60 -11.5123      9.2731    120.6324   1.0232930265e+02   4.9084536508e+01    0.3847868    0.2435311  56.35 0.0008623212    1.495    0.331
        61 -11.4367     14.9346    118.3700   1.0012989862e+02   4.9301885376e+01    0.2992731     0.185865 -35.26  0.001490301    1.923    0.480
        62  -9.6602     18.1075    121.5106   9.9244960355e+01   4.8280364504e+01    0.1829972     0.129101  22.24 0.0003878319    1.463    0.317
        63  -9.9169     86.1624    118.8177   7.4870951218e+01   4.0761072020e+01    0.2050268    0.1755368 -19.09 0.0004631502    1.328    0.247
        64 -10.5020     69.1766    116.9863   8.0239698224e+01   4.3862453739e+01    0.2399707    0.2023335  37.53 0.0002563482    1.143    0.125
        65 -11.9093      2.7448    112.2282   1.0417526233e+02   5.1570316028e+01    0.3410627    0.2412834  84.83 0.0004643012    1.289    0.224
        66 -10.3853     36.5931    111.1877   9.1238885692e+01   4.9365550782e+01    0.4227937    0.1974842  73.03  0.001499205    3.203    0.688
        67 -10.1891     20.5717    112.2937   9.7487983080e+01   5.0466523829e+01    0.1897738    0.1156249 -64.09 0.0008704596    1.558    0.358
        68 -11.5770     13.7839    109.1378   9.9786077444e+01   5.1748858011e+01    0.4878873    0.1866231  82.41  0.001781063    3.110    0.678
        69 -11.1166     13.1284    103.8197   9.9566270443e+01   5.3166554272e+01    0.2612975    0.1813659 -80.89 0.0002701228    1.338    0.253
        70  -9.7566     66.2343    104.5924   7.8809387371e+01   4.7383726177e+01    0.1996617    0.1433275  15.92 0.0002912704    1.576    0.366
        71 -10.3569     27.5303    108.0365   9.4330638746e+01   5.1018065334e+01    0.2505692    0.1631494  62.79 0.0006112299    1.607    0.378
        72  -9.3818      1.3073    104.0349   1.0423974333e+02   5.3727591822e+01    0.2283983   0.04278666 -59.65 0.0007043044    4.250    0.765
        73 -11.5146      5.7386    102.3046   1.0238192141e+02   5.3967180697e+01    0.3712835    0.1678454  89.10  0.001617408    2.153    0.535
        74 -10.6667    247.4067    101.7307   3.6627943951e+01   1.3573006536e+01     0.168876   0.09504461 -21.51 0.0009473922    1.611    0.379
        75 -10.3289     65.5269    100.4965   7.8189563706e+01   4.8513066227e+01    0.1457063     0.144764  -2.52 -1.166431e-05    1.032    0.031
        76  -9.5955    217.9781     98.6853   3.9742722087e+01   1.8896738905e+01    0.1668177    0.1546555  -6.35  0.000405649    1.093    0.085
        77 -12.0529     20.0542     93.4268   9.5567684992e+01   5.5419407242e+01     0.669403    0.3869423 -45.06  0.003189906    1.792    0.442
        78 -10.4283      7.2812     95.6332   1.0122556899e+02   5.5617409842e+01    0.2310442    0.1650439  81.88 0.0005762503    1.333    0.250
        79 -11.5891     10.5348     93.7448   9.9681162353e+01   5.5937964963e+01    0.3875629    0.2275509 -88.66  0.001693632    1.640    0.390
        80 -10.3350      7.3944     90.7497   1.0074637478e+02   5.6880996669e+01    0.2528296    0.1869881 -60.95 0.0006267208    1.271    0.213
        81  -9.8860    147.5762     96.5245   5.1977239795e+01   3.3429151994e+01    0.1463882    0.1408245  -2.23  3.08038e-05    1.018    0.017
        82  -9.7859     36.9843     96.3005   8.8794901043e+01   5.3197075635e+01    0.1946176    0.1930249  59.92 0.0008806654    1.042    0.040
        83 -10.5724     29.1937     94.0456   9.1729491789e+01   5.4527377725e+01    0.3594977    0.1782506 -66.83 0.0009094805    1.861    0.463
        84 -11.9843    125.2879     93.0076   5.6601114597e+01   3.8944330424e+01    0.2640697    0.2496744  19.16 0.0002689952    1.058    0.055
        85 -10.6005    105.8466     91.3077   6.1779080599e+01   4.3416552201e+01    0.3665663    0.2232043 -54.93 0.0008175863    1.826    0.452
        86 -11.6062     58.0707     91.4065   7.9069665384e+01   5.1882766092e+01    0.3480616    0.2722028   7.66 0.0006776188    1.460    0.315
        87  -9.6581     54.3219     89.6778   8.0216727707e+01   5.2840899542e+01    0.2482306    0.2310762 -29.19  0.001046348    1.115    0.103
        88 -11.5519    159.8272     89.1615   4.7316618269e+01   3.2072483844e+01    0.2410356    0.2359543 -30.19 0.0002418489    1.037    0.036
        89  -9.1227     12.2709     87.4087   9.8259873621e+01   5.7494269525e+01    0.1494291   0.08381665 -47.99 0.0006970993    1.765    0.434
        90 -13.5034     65.4616     81.7652   7.3623724448e+01   5.3156221388e+01    0.4266966    0.3856473  60.49  0.000716655    1.166    0.142
        91 -11.5749      8.0282     83.6258   9.9768796009e+01   5.8704892288e+01    0.5411261    0.2374253 -41.06  0.002112853    2.435    0.589
        92 -12.1436     12.0918     76.7106   9.7040130141e+01   6.0296018201e+01    0.3898604    0.2340966 -20.62  0.001175016    1.929    0.482
        93  -9.8192    187.6270     82.9451   4.0554023687e+01   2.7080396921e+01    0.1915815    0.1599592 -31.70 0.0003971061    1.116    0.104
        94 -10.3071     17.4709     85.1459   9.5631213340e+01   5.7765477045e+01    0.2661461    0.1767627 -65.99 0.0007073617    1.378    0.274
        95  -9.2403     27.7332     82.2818   9.0456259236e+01   5.7728984820e+01    0.1374208    0.1007025  62.26 0.0006888222    1.489    0.328
        96  -9.9854    250.3825     80.7619   3.1915254560e+01   1.5638096015e+01    0.1637123   0.09443285 -22.02 0.0005184701    1.576    0.366
        97  -9.6002    125.0435     81.0081   5.3200689904e+01   4.1377767306e+01    0.1899641    0.1613481 -39.33 0.0003948572    1.198    0.165
        98 -10.5243     91.5151     87.1534   6.5301551689e+01   4.7218478971e+01    0.3758266    0.2107107  34.57  0.001156858    1.839    0.456
        99  -9.7016     85.9940     78.8856   6.4825931082e+01   5.0165783513e+01    0.2833844    0.2132286  30.88  0.001340646    1.367    0.268
       100 -10.0084     48.0005     78.9647   8.0427739129e+01   5.6392490066e+01    0.2185482    0.2013592 -37.87 0.0003612204    1.087    0.080
       101  -9.7544     22.6077     76.8154   9.1941970451e+01   5.9572999676e+01    0.1927613    0.1256344 -89.20 0.0003990346    1.641    0.390
       102  -9.9556    177.0118     76.4962   4.0640326570e+01   3.0347065334e+01    0.2084518    0.1391905  55.94 0.0008957103    1.573    0.364
       103 -10.2279     52.3820     75.5482   7.7575377808e+01   5.6657402510e+01     0.274023    0.2367774  75.63 0.0008709494    1.299    0.230
       104  -9.1024     87.5250     75.4392   6.3206017408e+01   5.0633494926e+01    0.1528623    0.1465534  13.99 4.343985e-05    1.051    0.049
       105  -9.6068     41.9282     77.0000   8.2742912513e+01   5.7641852283e+01     0.235565    0.0819042  25.42 0.0008041461    2.954    0.662
       106 -11.6673      9.4204     70.3907   9.7528294525e+01   6.2078110546e+01    0.2583167    0.2112691 -46.86 0.0008119365    1.177    0.151
       107 -12.4620      4.9985     68.9482   9.9610854571e+01   6.2649563288e+01    0.8796046    0.2780876 -73.30  0.003369219    2.671    0.626
       108 -10.1223     35.0269     73.5569   8.5240567467e+01   5.9288880421e+01    0.2533061    0.2248996  38.73  0.001009984    1.168    0.144
       109  -9.9537    142.4303     73.0891   4.6508969141e+01   3.8822283959e+01     0.290872    0.1967545 -78.01 0.0009628957    2.334    0.572
       110  -9.3997    118.3296     71.2167   5.1998549936e+01   4.4801444984e+01    0.1497574    0.1141927  26.37 0.0002361383    1.507    0.336
       111  -9.4711    105.8264     71.7024   5.5845671753e+01   4.7545888714e+01    0.2179856    0.1354597  54.64 0.0006071806    1.697    0.411
       112 -12.7969     81.0014     66.9252   6.2864400066e+01   5.3805099172e+01    0.3724083    0.3265073 -30.62 0.0005183449    1.186    0.157
       113 -10.3500     85.9175     67.0976   6.1070196925e+01   5.2776824432e+01    0.2200232     0.212443  66.44  0.001186282    1.080    0.074
       114 -10.6777     76.1703     71.5554   6.6271324220e+01   5.3702433907e+01    0.3086462    0.1417404  42.77  0.001156049    2.155    0.536
       115  -9.1821     30.3387     71.6293   8.7128065474e+01   6.0250775002e+01    0.1536528    0.1000045  61.76 0.0007023971    1.855    0.461
       116  -9.4254     91.8656     70.6055   6.0103103187e+01   5.0794675899e+01    0.2063421    0.1420429  54.56 0.0005254881    1.557    0.358
       117 -10.1106     39.0843     70.7666   8.2597859869e+01   5.9553867215e+01    0.2117701    0.1870256  56.15 0.0003909922    1.213    0.175
       118 -10.0348     45.6602     69.5606   7.9091147417e+01   5.9052199929e+01    0.3063656    0.2758735 -45.93  0.001708613    1.080    0.074
       119  -9.0254    172.7114     69.3016   3.9410017863e+01   3.2408919707e+01    0.1419835    0.1059423 -63.97  0.000486327    1.562    0.360
       120 -11.9744    211.8437     67.4638   3.3218791519e+01   2.4277233800e+01    0.2303053    0.2097426 -34.57 0.0003214779    1.028    0.027
       121 -10.3212     58.6860     66.0550   7.1950300157e+01   5.8016518068e+01    0.2907958    0.2253113 -50.89 0.0008365217    1.280    0.219
       122 -11.1216      3.9413     57.6144   9.8731081847e+01   6.5601275557e+01     0.341231    0.2123182 -19.75  0.001773677    1.731    0.422
       123 -12.6004      2.7022     45.1872   9.7576473439e+01   6.8784364759e+01      1.35854    0.6417465  62.12  0.005747492    2.819    0.645
       124 -11.4153      1.9489     35.7119   9.6334560446e+01   7.1152495731e+01     0.661833    0.1425611 -72.04  0.002214756    3.775    0.735
       125 -11.1241     16.9296     50.7070   8.9780376069e+01   6.6666188451e+01    0.5999199    0.3258117  59.10  0.001840029    2.505    0.601
       126 -13.8553     20.6025     58.4933   8.9413943454e+01   6.4438645853e+01    0.5417167    0.3683021 -43.43  0.000906896    1.402    0.287
       127 -11.7789     11.8352     59.8766   9.4624190055e+01   6.4661401441e+01    0.4694494    0.3375029  58.91 0.0003364896    1.558    0.358
       128 -10.7178     55.2742     61.2799   7.1997277677e+01   5.9679925350e+01    0.2241912    0.2214586 -86.24 0.0001724986    1.074    0.069
       129 -11.6089     58.4790     58.9765   6.9710408693e+01   5.9698934978e+01    0.3377261    0.2316073  32.50 0.0007196888    1.460    0.315
       130 -11.0471    145.3001     58.9849   4.1519675925e+01   4.0490836132e+01    0.2566129     0.211523  56.19 0.0002025942    1.204    0.169
       131  -9.8935     90.8922     59.3055   5.6535269839e+01   5.3341422301e+01    0.2098174    0.1870592  40.20 0.0003524929    1.091    0.083
       132  -9.6340    229.2509     56.7208   2.8725567043e+01   2.2227215610e+01    0.1597551    0.1334683  -5.49 0.0009179254    1.326    0.246
       133  -9.3122    130.7037     57.2811   4.4204420704e+01   4.4342211148e+01    0.1487209    0.1168467 -75.95 0.0002555261    1.538    0.350
       134 -10.2734     72.0254     57.0455   6.2992544764e+01   5.7700569175e+01    0.2423604     0.209665  61.10 0.0008006511    1.281    0.219
       135  -9.3751    159.0450     56.4816   3.8085458101e+01   3.7540943134e+01    0.2149923    0.1081063  38.76 0.0008097556    2.585    0.613
       136 -13.0956    114.5493     53.3630   4.6964005368e+01   4.8959805055e+01    0.3542473    0.3065311  50.56 0.0004941171    1.119    0.106
       137 -12.8454    106.3191     50.4353   4.8232573759e+01   5.1459622334e+01    0.5589341    0.3463564 -52.99 0.0003542417    1.892    0.471
       138 -11.2165     86.8870     54.0061   5.6004455304e+01   5.5267578717e+01    0.5168068     0.275156  35.63  0.001389766    2.087    0.521
       139  -9.8971    225.3779     53.1667   2.8278407620e+01   2.3392163408e+01    0.1832467   0.09283002 -38.68 0.0004410412    1.643    0.391
       140 -11.7208     66.8680     52.5958   6.3550771130e+01   5.9633229102e+01    0.5200067    0.2390306  38.14  0.001587196    2.165    0.538
       141  -9.8367     44.9648     52.4847   7.4200604325e+01   6.3270429473e+01    0.2047895    0.1812512 -40.90  0.001137572    1.093    0.085
       142  -9.9168    148.8897     52.1275   3.8618107321e+01   4.0669510378e+01    0.2197446    0.1903988 -73.64 0.0004381237    1.221    0.181
       143 -10.0156    135.2142     51.8349   4.1338933830e+01   4.4109065051e+01    0.2952971    0.2093697  49.51 0.0006114909    1.394    0.283
       144 -10.4627    138.5388     50.0144   4.0009959393e+01   4.3562066374e+01    0.2505309    0.2223771  15.07 0.0003942768    1.270    0.213
       145  -9.4236    129.3145     52.2968   4.2837635472e+01   4.5503063304e+01    0.1524623     0.115526  24.36 0.0002535387    1.604    0.377
       146  -9.8095    232.7989     50.3385   2.6912216556e+01   2.2304475404e+01    0.2476675   0.07596704 -31.31  0.001036531    2.576    0.612
       147  -9.4897     97.9656     51.0167   5.1041782758e+01   5.3333636907e+01    0.1772758    0.1742416 -19.82            0    1.049    0.046
       148  -9.3554     38.5525     51.5321   7.7359625213e+01   6.4348061466e+01    0.1411383    0.1319879 -28.52 0.0001017482    1.015    0.014
       149  -9.9890    128.4588     63.0800   4.6675615766e+01   4.3897553663e+01    0.2155809    0.1496436 -35.76 0.0003612316    1.473    0.321
       150 -10.4181     54.1613     48.4754   6.7967798181e+01   6.2772565766e+01    0.3197205    0.2417822  65.31 0.0007397468    1.751    0.429
       151 -10.5476     73.9387     47.6338   5.8544739046e+01   5.9269659077e+01    0.2681221    0.2373188  43.07 0.0009292342    1.113    0.101
       152  -9.1038    160.6937     47.3073   3.4992733664e+01   3.8460735873e+01    0.1486229    0.1046514 -64.62 0.0002792476    1.609    0.378
       153 -10.3511    155.3089     46.7349   3.5727728034e+01   3.9865705468e+01     0.272049    0.2302696  48.00 0.0008178526    1.225    0.184
       154 -10.5520     79.2536     45.4537   5.5501009668e+01   5.8577927953e+01    0.2529577    0.2464788  76.63 0.0002865409    1.106    0.096
       155 -10.5171     26.6662     44.4581   8.2038267547e+01   6.7376261725e+01    0.4561286    0.3533025  35.37  0.001972223    1.377    0.274
       156 -10.6238     16.8687     43.7099   8.8052340404e+01   6.8401296040e+01    0.3856643    0.2306054  53.25  0.001420626    2.118    0.528
       157  -9.0803     57.5093     43.4719   6.4280605954e+01   6.3271672290e+01    0.1453426    0.1371233   1.18 0.0008098839    1.018    0.018
       158 -12.2212    141.8238     41.0783   3.6328365153e+01   4.4044266513e+01    0.2724468    0.2561988  82.26 0.0004054887    1.034    0.032
       159 -10.2158    110.9317     41.4318   4.3481433811e+01   5.1828550914e+01    0.2231261    0.2020661 -56.32  0.001187979    1.165    0.142
       160 -11.5765     38.1328     40.7530   7.3712108195e+01   6.6898892970e+01    0.3808283    0.2630626 -22.13  0.001875034    1.643    0.392
       161 -10.1960    184.3873     40.5310   2.9577393126e+01   3.3683090586e+01    0.3374891    0.2314172 -70.62  0.001738172    1.627    0.385
       162 -10.6168    170.5204     40.2502   3.1338781354e+01   3.7008598979e+01    0.2448366    0.2122039 -73.11 -0.0001875121    1.147    0.128
       163 -10.1321    116.9696     41.2261   4.1831420769e+01   5.0344491126e+01    0.2660173    0.1951905  48.35 0.0002720345    1.325    0.245
       164 -11.7134    121.4850     37.1708   3.9203546124e+01   4.9801305817e+01    0.4199522    0.3589756  18.75  0.001419558    1.331    0.249
       165 -11.3511      4.7544     40.0363   9.5255017166e+01   6.9987901895e+01    0.3625193    0.1683562 -76.87  0.001320739    2.094    0.522
       166 -10.4903    120.2449     48.8818   4.3842179038e+01   4.8311629112e+01    0.5093156    0.2485878 -45.43  0.001970466    2.202    0.546
       167 -11.1081     91.7551     40.9954   4.9087526294e+01   5.6564378154e+01    0.4280002    0.2995431 -31.77  0.001430812    1.517    0.341
       168 -10.2006     70.6717     43.3350   5.8139928008e+01   6.0784342095e+01    0.2226433    0.1809996  85.35 0.0006110434    1.671    0.402
       169 -10.5718     81.6904     37.3338   5.1087966204e+01   5.9520076624e+01    0.3845936     0.284278 -31.76  0.001258974    1.424    0.298
       170  -9.2584     77.4517     37.4524   5.2771760311e+01   6.0445484565e+01     0.148094    0.1388648  23.96 0.0001153259    1.031    0.030
       171  -9.5514    132.8483     35.1932   3.6021263132e+01   4.7156224035e+01    0.1929551    0.1564979  35.37            0    1.350    0.260
       172  -9.9528     43.9545     39.8066   6.9941056346e+01   6.6281298999e+01     0.189594    0.1777098  13.73 0.0003803734    1.059    0.056
       173 -10.5569     89.8233     32.2757   4.5967126886e+01   5.8458171390e+01    0.4712765    0.1870725 -42.40  0.001635035    2.715    0.632
       174 -11.9851     91.1736     26.5045   4.2916932609e+01   5.9001370880e+01    0.3412976    0.3059348 -28.16 0.0002598844    1.179    0.152
       175 -11.6421     45.9433     32.8713   6.5741711522e+01   6.7433395105e+01    0.4071445    0.2598417  37.85  0.000694297    1.559    0.359
       176 -10.8547     28.1953     33.3251   7.7029272437e+01   6.9801708964e+01    0.2460962    0.1847505 -33.86  0.001345226    1.275    0.215
       177  -9.4270     40.5731     34.5676   6.9667873476e+01   6.7912097770e+01    0.1390219    0.1280183 -11.86 0.0001174951    1.014    0.014
       178 -10.3215    206.0191     32.1145   2.4959402703e+01   2.9808308818e+01    0.1880337    0.1662509 -48.21 0.0004190228    1.018    0.017
       179 -12.8669     10.2249     29.5918   8.8637367028e+01   7.2240929861e+01    0.3846409    0.2312706  28.96  0.002007077    1.776    0.437
       180  -9.4154    188.2221     29.9903   2.6176148322e+01   3.4042668103e+01    0.1942349    0.1373691  46.12  0.001043061    1.630    0.387
       181 -11.3320    135.7298     29.1474   3.3285067189e+01   4.7203317420e+01    0.2491154     0.220778  84.94 0.0002745023    1.100    0.091
       182  -9.0987     59.2642     30.6952   5.7609579962e+01   6.5461171282e+01    0.1331598    0.1153918 -84.78 0.0002509684    1.525    0.344
       183  -9.6356     38.9999     30.4264   6.8740162247e+01   6.9015973337e+01    0.1961142    0.1316192  27.91 0.0003943355    1.485    0.327
       184  -9.0884    152.7115     29.6944   3.0635218423e+01   4.2758323092e+01    0.1406589    0.1066921  31.90 0.0003160199    1.570    0.363
       185 -10.3704    144.8234     28.2181   3.1382344662e+01   4.4961710404e+01    0.2406964    0.2239577 -84.10 0.0007679904    1.027    0.026
       186  -9.5498    242.4701     28.5307   2.1209190479e+01   2.2867003513e+01    0.1170938   0.09380401 -43.61 4.336053e-05    1.005    0.005
       187 -10.3234    209.1187     27.9906   2.3622630717e+01   2.9592018557e+01    0.1846959    0.1613832 -51.82 0.0003676513    1.010    0.010
       188 -10.0673     68.3219     27.2963   5.1743358267e+01   6.4190528692e+01    0.3063761    0.2513996 -81.75  0.001563912    1.666    0.400
       189 -10.2894     45.3663     26.8635   6.3141073661e+01   6.8722760911e+01    0.3303179    0.1658547 -48.00  0.001387838    2.080    0.519
       190  -9.5333    140.2628     26.9561   3.1701205052e+01   4.6296649833e+01    0.1914855    0.1797672 -69.71 0.0004380469    1.047    0.045
       191  -9.8184     80.8409     26.8111   4.6545932013e+01   6.1441515889e+01    0.2160633    0.1903998  23.57 0.0005416686    1.146    0.128
       192  -9.9552    103.0105     26.3644   3.9426531366e+01   5.6053070166e+01    0.2232451    0.1895833  36.63 0.0008692823    1.196    0.164
       193 -10.6013    102.6825     22.2773   3.7725787650e+01   5.6680040112e+01    0.5137522    0.2570632  65.60  0.001669065    2.011    0.503
       194  -9.6201     18.5634     26.3559   8.1098096776e+01   7.2356916656e+01    0.1814219    0.1103322 -46.78 0.0008491783    1.482    0.325
       195 -10.3672      2.5057     26.5135   9.3803797627e+01   7.3352179891e+01    0.1993767    0.1721224  20.67 0.0007664959    1.289    0.224
       196 -10.7339    191.3154    249.3312   7.0984797245e+01   2.7106889103e+00    0.1556278   0.08095697  16.36 0.0004413844    1.548    0.354
       197  -9.2940      7.3608     20.6699   8.7981043196e+01   7.4486584208e+01    0.1910574    0.1217942 -73.98 0.0006129532    1.686    0.407
       198  -9.3118    216.7260     25.6593   2.2407713791e+01   2.8230215038e+01    0.1154534   0.09319223  16.47 0.0003846296    1.613    0.380
       199  -9.8902     51.4900     24.4834   5.8445366414e+01   6.8078731608e+01    0.2321443    0.1331172 -52.28  0.001014133    2.141    0.533
       200  -9.6429     34.6540     24.3860   6.8594255482e+01   7.0888295463e+01    0.2725981    0.1214255  36.69  0.001149143    2.236    0.553
       201 -10.3124    128.0894     23.0237   3.2428849544e+01   4.9954187592e+01     0.214916    0.2008515  65.48 0.0003699086    1.038    0.036
       202 -10.0618     39.8482     22.1488   6.4027205245e+01   7.0538391351e+01    0.3088346    0.2003906 -15.77   0.00144861    1.961    0.490
       203 -11.2847     38.1940     18.4237   6.3020583363e+01   7.1506088387e+01     0.368369    0.2241521  48.40  0.001541848    1.933    0.483
       204  -9.2589    226.6613     22.7322   2.0961526383e+01   2.6503428175e+01    0.1094756   0.08930901  32.26 0.0006319836    1.598    0.374
       205  -9.7946     19.9207     16.4725   7.5476533553e+01   7.4370534518e+01    0.1789045     0.123092  21.80 0.0003415177    1.446    0.308
       206 -11.9207     17.7388     20.7483   7.9341096639e+01   7.3677440129e+01    0.6418656    0.2754222  27.32  0.001865092    2.300    0.565
       207 -11.6217     18.6452    247.9850   1.0521553644e+02   2.1427221539e+01    0.3016851    0.2013099   3.64  0.001649983    1.995    0.499
       208 -10.8015     14.1783     16.0011   8.0119536269e+01   7.5031378332e+01    0.2353714     0.216639  -7.66 0.0004795183    1.097    0.088
       209  -9.5570    230.1535    247.2031   6.4265423359e+01  -1.0824625055e+00    0.1248361   0.09133429  11.42 0.0005055668    1.277    0.217
       210  -9.7707    170.6838    246.7994   7.4387472431e+01   5.2886523909e+00    0.1647989    0.1108637  -2.83 0.0009863612    1.413    0.292
       211  -9.6736    116.1261    246.7884   8.5032723424e+01   1.1603418914e+01    0.1460191    0.1121352   7.38  0.001048083    1.297    0.229
       212 -10.0340     52.3786    244.1985   9.8127683244e+01   1.8948764773e+01    0.1439044    0.1364312 -11.17 0.0008246119    1.401    0.286
       213  -9.7688    199.9957     22.0000   2.2860431097e+01   3.2230449390e+01    0.1945444   0.07088985  72.89 0.0006670651    2.865    0.651
       214 -10.0124    111.8912     20.8480   3.4886651914e+01   5.4469929965e+01    0.2163123    0.1770555  43.57 0.0003875133    1.222    0.182
       215  -9.6547     31.3395     20.8313   6.9031140420e+01   7.2071108193e+01    0.1886066    0.1127176 -38.54 0.0003939725    1.636    0.389
       216  -9.5219    132.0552     20.5331   3.0770596101e+01   4.9202582230e+01    0.2058673    0.1344341  67.49 0.0003730546    1.440    0.306
       217 -10.9248     78.3431     19.4350   4.3784603732e+01   6.3115276188e+01    0.3992403    0.2524775  77.75  0.001694572    2.266    0.559
       218 -10.4054    238.0569     19.2105   1.9404594182e+01   2.4630960704e+01    0.1602266    0.1516003 -24.39 0.0006603026    1.235    0.190
       219  -9.5200     39.6226    243.3053   1.0075364026e+02   2.0327347694e+01    0.1233461   0.05331687  47.77 0.0007027708    1.774    0.436
       220  -9.9765     70.8313     18.4291   4.6096754537e+01   6.5013194311e+01    0.2060035    0.1219086  41.63 0.0007333738    1.626    0.385
       221  -9.1686    202.3184    241.3192   6.8050519247e+01   2.3927085347e+00    0.1114411   0.06236899   3.24 0.0004020171    1.661    0.398
       222  -9.9469     50.1564     17.9094   5.5526449065e+01   6.9474456144e+01     0.193259    0.1870236 -52.37  0.001164144    1.221    0.181
       223  -9.9855    229.0388     16.1116   1.9249303954e+01   2.6688782794e+01    0.1771494    0.1425933 -49.56 0.0004066333    1.023    0.022
       224  -9.3690    171.0094     16.2455   2.4008482450e+01   3.9660351333e+01    0.1677846    0.1093033  75.46 0.0003022676    1.497    0.332
       225 -10.6533    160.0018     15.9810   2.5159829648e+01   4.2443605845e+01    0.2224352    0.1872795  82.49 0.0004003758    1.129    0.114
       226 -10.6134    235.2703     14.9207   1.8599558263e+01   2.5582577399e+01     0.165563    0.1300723 -38.62  0.000517629    1.093    0.085
       227  -9.8884      5.6477     14.5443   8.7191793719e+01   7.5971700906e+01    0.1274512    0.1048739 -40.07 0.0002458299    1.052    0.049
       228 -10.5065    207.8746     13.1484   1.9935599192e+01   3.1384971157e+01    0.1928271    0.1422689 -54.82   0.00039826    1.182    0.154
       229  -9.1064     60.6943    240.7188   9.6171208406e+01   1.8675762600e+01    0.1015669   0.07877789   2.85 0.0002426831    1.556    0.357
       230 -12.0219      2.5519    247.7677   1.0840027048e+02   2.2759282858e+01    0.4512736    0.3170947  34.77  0.002884996    1.161    0.139
       231  -8.9123    109.4233     12.4363   3.1817063942e+01   5.6082772522e+01     0.142984    0.1317754  88.58 0.0003380151    1.079    0.073
       232  -9.5941     59.1456    236.1100   9.6221682801e+01   1.9600286382e+01    0.1552422    0.1001877  46.34 0.0003682002    1.267    0.211
       233  -9.4848    204.1980    235.4230   6.6938873112e+01   2.8344994246e+00    0.1358314   0.08096398  29.46 0.0005223484    1.493    0.330
       234  -9.3868    238.8624    234.1880   6.1137575670e+01  -6.8184474946e-01    0.1391391   0.08328428   1.46 0.0004409813    1.263    0.208
       235 -11.8348      3.6804    232.8413   1.0790788418e+02   2.5186756733e+01     0.319788    0.1918975  27.74  0.001189601    1.413    0.292
       236 -10.1443     32.2032    233.1668   1.0189102832e+02   2.2733751363e+01    0.1551866    0.1259284  33.58  0.000451219    1.154    0.133
       237 -10.4004    244.8955    230.2352   5.9663118954e+01  -8.9462731366e-01    0.3175809    0.1013469  27.70  0.001312194    2.722    0.633
       238  -9.3212     97.4717     10.5276   3.3654343121e+01   5.9422351346e+01    0.1433987    0.1325626  64.00 0.0004610827    1.021    0.020
       239 -10.0455    174.2211    235.0112   7.2263950213e+01   6.3151527927e+00    0.1247163   0.08598522 -30.07 0.0005433207    1.636    0.389
       240 -10.6722    140.4156    227.9528   7.8024909708e+01   1.1386551862e+01    0.2385587    0.1876761  57.09  0.001034013    1.808    0.447
       241  -8.9672    152.4568    227.4744   7.5520112781e+01   9.9510883335e+00    0.1182812     0.089879  19.98 0.0003796138    1.028    0.027
       242  -9.3111    223.2968    226.6643   6.2523030393e+01   1.7005354036e+00   0.08851664   0.07743646  13.46 0.0005357881    1.650    0.394
       243 -11.0204      1.7985    224.7663   1.0814916160e+02   2.6758769531e+01    0.2759411    0.0971723  72.46  0.001036945    2.745    0.636
       244 -11.0084      2.4302    219.7439   1.0791604484e+02   2.7625268295e+01    0.3282618   0.08664986  59.74  0.001513251    3.045    0.672
       245  -8.8646     61.3017    224.6713   9.5001165751e+01   2.1345316014e+01    0.1240777   0.06806199  51.12 0.0004595033    1.645    0.392
       246 -11.3529      8.5230    219.2145   1.0657411101e+02   2.7256617396e+01    0.3819406    0.1377123 -68.31  0.001405997    3.225    0.690
       247  -9.6649    131.3374    221.1721   7.9109486092e+01   1.3545526653e+01     0.242792    0.0747714  29.50 0.0009985364    2.687    0.628
       248  -9.7371     28.2210    219.6107   1.0219978018e+02   2.5527638964e+01    0.1520944   0.09562511  18.77 0.0006218908    1.594    0.373
       249  -9.5802     85.8003    215.1411   8.8614911566e+01   2.0258207330e+01    0.1504312    0.1265459   8.89            0    1.267    0.211
       250  -9.4040    205.5299    211.4898   6.3272776683e+01   5.4586635619e+00    0.1161191   0.08406028   5.63 6.077662e-06    1.045    0.043
       251 -10.0226      4.2231    211.1405   1.0733490368e+02   2.9102698009e+01    0.1675777   0.09388442  50.88 0.0005831652    1.360    0.264
       252  -9.3454    229.7170    209.3504   5.8911697112e+01   2.8782741720e+00   0.09000278   0.08106351  -8.56 0.0007016982    1.653    0.395
