#   1 NUMBER                 Running object number                                     
#   2 MAG_AUTO               Kron-like elliptical aperture magnitude                    [mag]
#   3 X_IMAGE                Object position along x                                    [pixel]
#   4 Y_IMAGE                Object position along y                                    [pixel]
#   5 X_WORLD                Barycenter position along world x axis                     [deg]
#   6 Y_WORLD                Barycenter position along world y axis                     [deg]
#   7 A_WORLD                Profile RMS along major axis (world units)                 [deg]
#   8 B_WORLD                Profile RMS along minor axis (world units)                 [deg]
#   9 THETA_WORLD            Position angle (CCW/world-x)                               [deg]
#  10 FWHM_WORLD             FWHM assuming a gaussian core                              [deg]
#  11 ELONGATION             A_IMAGE/B_IMAGE                                           
#  12 ELLIPTICITY            1 - B_IMAGE/A_IMAGE                                       
         1 -11.1253     23.7872     32.1746   9.5248723125e+01   6.7281526862e+01     1.648675    0.4164169 -40.15  0.004204652    3.314    0.698
         2 -10.9247     33.4958     62.9579   1.0110045287e+02   6.0304041494e+01     2.412157    0.7452639 -35.79  0.007685199    4.670    0.786
         3 -10.8672     37.2518      9.4430   7.8618168404e+01   6.9419754197e+01     1.176348    0.3487127 -42.45  0.004420922    4.353    0.770
         4 -10.3116     26.8815     11.3592   8.4656074195e+01   7.0401449698e+01     0.800939    0.3946712  31.76   0.00399934    2.159    0.537
         5 -10.1906     17.9563      5.0600   8.6173059772e+01   7.2242252219e+01    0.5560894     0.412487 -48.88  0.003071265    1.950    0.487
         6 -10.6143      6.9581     30.2080   1.0272304868e+02   6.8893325483e+01    0.6209937    0.3801099 -50.08  0.003195082    1.319    0.242
         7 -10.1905     52.4037     13.9100   7.4138579219e+01   6.6682389643e+01    0.9124372    0.4615698   7.41  0.003774728    3.285    0.696
         8  -9.9980     46.3072     29.6631   8.3948298728e+01   6.5242877722e+01    0.7528778    0.4092157 -31.52  0.002799199    1.638    0.389
         9  -9.4966    101.0453     32.3849   6.5405013923e+01   5.5300050609e+01    0.6714745    0.2475877 -29.74  0.002546425    2.777    0.640
        10  -9.3155     96.1730     14.7804   5.9588251980e+01   5.8471415306e+01    0.6239539    0.2854789 -10.18  0.002498175    2.978    0.664
        11  -9.3293    102.7795     21.2494   6.0462770522e+01   5.6328059739e+01    0.4101489    0.2917522 -37.63  0.001269384    1.574    0.365
        12  -8.6325    104.4665     15.3475   5.7627798789e+01   5.6607211837e+01    0.3990556    0.2114602  12.39  0.001646601    2.740    0.635
        13  -9.2996     91.4677     26.3094   6.5788309506e+01   5.8095787275e+01    0.4912241    0.2143496 -38.35  0.002075424    2.482    0.597
        14 -10.8803    134.0533     31.0105   5.6610808609e+01   4.7924018649e+01    0.3914618    0.2773688   1.10            0    1.698    0.411
        15 -10.0986     62.7029      3.1268   6.4782641574e+01   6.6216244323e+01    0.4679296    0.3622776  22.74  0.002176657    1.081    0.075
        16  -9.7692     60.7194     31.9606   7.8962826769e+01   6.2820026845e+01    0.8980676    0.3270867 -31.10  0.002752947    2.914    0.657
        17  -9.5436     63.3333     21.4639   7.3327636679e+01   6.3940342134e+01    0.4677918    0.2715673 -45.75  0.002040468    2.304    0.566
        18  -9.9834     64.4300     12.6722   6.8815787589e+01   6.4871708600e+01    0.4433754    0.2985619 -29.45  0.001535879    1.514    0.339
        19  -9.5835    119.2070     20.1251   5.5941089249e+01   5.2737075276e+01      0.63232    0.2922264 -20.77   0.00203169    2.415    0.586
        20  -9.7778     10.3432     18.9028   9.6742843686e+01   7.0707107645e+01    0.6940013    0.2690897 -18.43  0.002680065    4.461    0.776
        21  -8.3094     71.9952      8.5085   6.4155770573e+01   6.3975524755e+01    0.2355422    0.1992294 -23.70 0.0008535067    1.327    0.246
        22  -8.6085     78.7381      3.1092   5.9453220325e+01   6.3209128778e+01    0.2379781    0.2227715 -84.48 0.0009682587    1.512    0.338
        23  -9.3683     73.6085     19.5458   6.8696424607e+01   6.2402740417e+01    0.3520908    0.2165537 -37.01  0.001151389    1.780    0.438
        24  -8.7369     73.5050     14.0092   6.6211474883e+01   6.3088600954e+01    0.5030577    0.2314116  -7.13  0.001900116    3.574    0.720
        25  -9.0676    114.3261     10.0057   5.3155614476e+01   5.4901162126e+01    0.3672274    0.1891612  36.65 0.0006290141    1.946    0.486
        26  -9.6784     85.2786     12.5073   6.1745752121e+01   6.0974040792e+01    0.6302307    0.2680966 -33.38    0.0022625    2.468    0.595
        27  -8.2733     89.1662      2.4705   5.6174909269e+01   6.1138153445e+01    0.2440723    0.1703292  -1.43  0.000869394    1.454    0.312
        28  -9.3633      2.3022     14.3634   9.9246081083e+01   7.2021157833e+01    0.3850259    0.2024154 -61.90  0.001988058    2.567    0.610
        29 -10.4374      5.3900      4.9012   9.3228205383e+01   7.3355163849e+01    0.4571345    0.3125305 -21.34  0.001679038    1.085    0.079
        30  -8.7796    125.4150     13.0248   5.1940791788e+01   5.2005384337e+01     0.243645    0.2133774  85.91 0.0004348418    1.284    0.221
        31  -8.6809    126.8084      9.1539   5.0239712702e+01   5.2037698207e+01    0.2865609    0.2077273  14.65 0.0004255936    1.530    0.346
        32  -9.1331    124.7782      4.7771   4.9021284446e+01   5.2908702537e+01    0.3500205    0.2807856  44.35  0.001313011    1.110    0.099
        33  -8.0309    120.4968      5.4999   5.0126750853e+01   5.3863079281e+01    0.2520859    0.1246622  66.89 0.0008658575    1.998    0.499
        34  -9.1765    133.3245     11.2768   4.9763620864e+01   5.0266730176e+01    0.4334795    0.2020357 -36.83  0.001642001    2.322    0.569
        35  -8.0332    141.0450     11.7709   4.8543431824e+01   4.8329098928e+01    0.3293865    0.2181226 -55.04  0.001526674    1.826    0.452
        36  -7.9800    137.4114      9.7920   4.8499130097e+01   4.9408179471e+01     0.264508    0.1641104  39.70  0.001066704    1.601    0.375
        37  -7.6161     80.4806     12.5324   6.3241132180e+01   6.1924338537e+01    0.2226513    0.1048151 -37.08  0.001016263    2.416    0.586
        38  -8.4969    155.4976      9.0136   4.5303275974e+01   4.4998506760e+01    0.2607649    0.1228389 -30.23  0.001164907    2.213    0.548
        39  -8.5520     77.4532      6.4942   6.1428794795e+01   6.3140128797e+01    0.2981964    0.2124156  -2.75  0.001330475    1.354    0.261
        40  -8.4470    101.8148      7.7800   5.5187807852e+01   5.7939057900e+01    0.2810291    0.1700872 -27.52  0.001019125    1.761    0.432
        41  -8.3027    104.3372      2.1937   5.2283445710e+01   5.7863392933e+01     0.279505    0.1745351  39.40  0.001343516    1.417    0.294
        42  -9.0267    110.8311      5.1282   5.2010393470e+01   5.6144146237e+01    0.4745556    0.2244773   1.40   0.00191605    3.095    0.677
        43  -8.8722    115.3548      4.2017   5.0679531684e+01   5.5178321483e+01    0.2311438    0.2014417 -88.72 0.0005473378    1.355    0.262
        44  -9.1736    132.2730      4.7654   4.7641658619e+01   5.1106617320e+01    0.5109725    0.2245858  31.52  0.001987014    3.009    0.668
        45  -8.1837     97.6421      6.1356   5.5543928988e+01   5.9003782211e+01    0.2346634    0.1643509   9.15 0.0003521415    1.472    0.321
        46  -7.9918     96.0079      2.9816   5.4613942381e+01   5.9634949468e+01    0.1812844    0.1754163  65.11 0.0005163401    1.249    0.200
        47  -8.4292    237.9621      4.3090   3.5369098062e+01   2.5625823513e+01    0.1942115    0.1727821 -35.14 0.0005224242    1.300    0.231
        48  -8.1062    143.0505      4.9774   4.5902100339e+01   4.8452017607e+01    0.2098873    0.1487021 -65.13 0.0005561617    1.690    0.408
        49  -8.1731    160.5235    128.5431   7.9886710969e+01   2.4016394262e+01    0.3964208     0.191251 -52.04  0.001414069    2.373    0.579
        50 -10.0918    198.3515    245.6712   9.4556098870e+01  -3.8788930897e+00    0.3473559    0.2847413  81.93  0.002151428    2.316    0.568
        51 -10.0930    109.1357    250.1649   1.1180130055e+02   9.0503808089e+00    0.2039783    0.1381262  42.81 0.0003951261    1.215    0.177
        52  -7.8919    126.0000    129.0444   8.8580737006e+01   3.1158502146e+01    0.2608138   0.08649658 -48.59 0.0008039677    2.953    0.661
        53 -10.0288    117.3190    125.4652   9.0037359556e+01   3.3684779835e+01    0.6980503     0.489483 -80.65  0.001722213    2.022    0.505
        54  -9.3695    125.9195     83.6725   7.6281260160e+01   4.1111762452e+01    0.6782815     0.350708  28.78  0.002323852    2.906    0.656
        55 -10.8752    122.9438     92.5511   7.9754397189e+01   3.9917886233e+01    0.9734464    0.7293974 -41.31   0.00299856    1.296    0.228
        56 -10.4555    131.9854    119.8952   8.4771070438e+01   3.2018452957e+01     0.847276    0.5470846  78.04  0.002930964    2.895    0.655
        57 -10.3138    139.3829    104.0339   7.8651895862e+01   3.3909735304e+01    0.8249598    0.4250716 -38.52  0.001524779    1.965    0.491
        58 -10.1883    127.6948    102.2300   8.1219947183e+01   3.6831860616e+01    0.5849858    0.4780082 -47.47  0.001649892    1.205    0.170
        59 -10.2202    108.9124    114.6317   8.9710482617e+01   3.7804074603e+01    0.7937351    0.5023499 -79.68  0.001776806    2.766    0.638
        60 -11.2920    121.2827    110.2411   8.5135423138e+01   3.6389781768e+01     1.337563    0.7362487 -47.20  0.003037581    1.763    0.433
        61 -10.8024    108.8649    100.9358   8.6127999288e+01   4.0944153934e+01     1.031181    0.8228152 -78.53  0.004129918    1.584    0.369
        62  -9.9340     41.9025    122.5901   1.1102663946e+02   4.5623136437e+01    0.7508003    0.3445628 -87.34   0.00260993    3.675    0.728
        63  -9.0383     36.6343    111.7141   1.1077642488e+02   4.8776929919e+01    0.3774488    0.2130551  77.68  0.001372651    2.619    0.618
        64  -8.8998    145.8461    123.3019   8.2109122938e+01   2.8328273742e+01    0.2993515    0.2744479  70.57 0.0003085053    1.187    0.158
        65 -10.2311    140.5921    118.4572   8.2191752442e+01   3.0519412370e+01    0.7541859    0.3624882 -50.12  0.001125123    2.164    0.538
        66  -9.8936     27.3001    122.9620   1.1527687011e+02   4.6900668205e+01    0.4790775    0.2577981  71.26   0.00196921    2.440    0.590
        67  -9.7243    202.1583    121.5091   6.9237857576e+01   1.6239592683e+01    0.3011449    0.2353905 -37.97 0.0002702653    1.215    0.177
        68 -11.3993    133.4869    109.7132   8.1725401809e+01   3.3962889765e+01     1.494205    0.5238183 -45.16  0.004779146    2.788    0.641
        69  -8.1888    245.8119    121.8127   6.1730092346e+01   7.1982956537e+00    0.2262446   0.08489487 -42.78 0.0003505982    2.507    0.601
        70  -7.3919      7.3143    120.6669   1.2057604798e+02   4.8929798283e+01    0.1246438   0.07795347  73.29 0.0003099506    1.684    0.406
        71  -8.1987    206.9743    118.0035   6.7456383618e+01   1.5838441698e+01    0.2261773    0.2143147 -16.45 0.0004410312    1.025    0.024
        72  -9.0956     92.1690    103.9396   9.1884734384e+01   4.3301018140e+01    0.6382257    0.4153222   5.34  0.002577811    2.539    0.606
        73 -10.0163     14.2476    111.3618   1.1744987882e+02   5.0673084920e+01     0.461214    0.2428465  78.94  0.002101775    2.399    0.583
        74  -8.4773     14.3874    104.8329   1.1649099490e+02   5.2208554731e+01     0.292129    0.1237775 -44.15  0.001368204    2.371    0.578
        75  -8.1011      1.2920    116.3506   1.2176094330e+02   5.0301850156e+01    0.2975761   0.09160633 -79.04  0.001192256    2.938    0.660
        76  -9.1975    152.8066    115.4671   7.8392946567e+01   2.8493517808e+01    0.2934911    0.2186799 -42.53 0.0006516023    1.317    0.241
        77 -10.3613     78.2242    112.5467   9.8208864692e+01   4.3503385028e+01    0.7381061    0.3706228 -67.21  0.001653339    2.441    0.590
        78  -9.4235     81.5270    100.4488   9.4267039624e+01   4.5861372486e+01    0.5215109    0.2994272 -64.61   0.00113023    2.039    0.509
        79  -8.6448     82.0638     94.1925   9.2455232040e+01   4.7221140650e+01    0.4411198    0.2707356   1.86  0.001682045    2.993    0.666
        80  -8.4538    157.5363    121.4610   7.8811667068e+01   2.6172339114e+01     0.414727    0.2590437 -73.81  0.001414696    3.104    0.678
        81 -11.0757     44.7693    102.4378   1.0649128937e+02   5.0198356901e+01     1.282164    0.6590564  69.20  0.003330593    4.509    0.778
        82 -10.6122     65.9818    108.5201   1.0106035339e+02   4.6208994711e+01     1.152215    0.6024985 -64.20  0.002901286    1.918    0.479
        83  -9.1461     59.6328    109.6148   1.0327146637e+02   4.6766771603e+01    0.4732014    0.2733469 -72.35  0.001257683    1.920    0.479
        84 -10.3575     62.9962     95.8664   9.9077782527e+01   4.9610184144e+01    0.5514791    0.3605239 -87.33  0.001484783    2.385    0.581
        85  -9.2855     64.4942     86.5235   9.6189932604e+01   5.1567969011e+01    0.7484813    0.4072198 -16.90   0.00264983    3.710    0.730
        86 -10.2904     91.8989    113.0580   9.4240051654e+01   4.1205868042e+01     0.638402    0.4204598 -73.59  0.001771293    1.951    0.487
        87  -8.2775    158.9410    111.7651   7.5955325544e+01   2.7892711509e+01    0.2748891    0.2188684 -42.70 0.0004950704    1.233    0.189
        88 -10.3484      4.4218     86.4661   1.1690517443e+02   5.7072014344e+01     1.389906    0.3855272 -69.27  0.004470284    2.775    0.640
        89  -8.7421    174.5086    249.5172   9.9512264560e+01  -7.7615861556e-01    0.1213084   0.09605087  29.79 0.0008103248    1.017    0.016
        90  -9.7441    188.0684    246.0115   9.6501655174e+01  -2.3676637455e+00    0.2010259    0.1828043 -39.11 0.0006906072    1.433    0.302
        91 -11.0846     21.1958    101.0278   1.1378152938e+02   5.2630944112e+01     1.559638     0.758339  88.70  0.004583547    3.042    0.671
        92 -10.5962     25.6152     77.8455   1.0784090072e+02   5.7686389391e+01    0.8150035    0.5078401 -83.41  0.002962193    2.041    0.510
        93  -9.6077    162.7039    248.0656   1.0152278442e+02   1.2480962728e+00    0.2882575    0.2028213  76.21  0.001599533    2.463    0.594
        94 -10.2702     15.9959     70.3539   1.0976456188e+02   6.0053655160e+01     1.398847    0.1912149 -58.73  0.004108155    3.769    0.735
        95  -9.2905    184.3204    248.7979   9.7593421193e+01  -2.1746174194e+00    0.1954875    0.1698505   7.43  0.001131083    1.172    0.147
        96  -8.0540    226.2334    244.5470   8.9364449797e+01  -7.8054790383e+00    0.1652839   0.08885617  25.33 0.0006074497    1.594    0.373
        97 -10.9280     21.9242     53.6003   1.0317476791e+02   6.3248697248e+01    0.7978638     0.531508 -84.06  0.002901175    2.374    0.579
        98 -10.0948     13.0938     45.5078   1.0466027898e+02   6.5526141926e+01    0.6529805    0.3056475 -17.77  0.002431929    2.710    0.631
        99 -10.1747      4.9303     41.8502   1.0729032939e+02   6.6738911995e+01    0.6666362    0.2827314 -58.46  0.002387462    1.860    0.462
       100  -8.0012    234.5432    240.0381   8.7185648394e+01  -8.4309745890e+00    0.1584536    0.1033012 -23.48 0.0004199847    1.544    0.352
       101  -8.4654     40.0359    106.8596   1.0885465310e+02   4.9618298978e+01      0.28953     0.175175 -75.68 0.0008408579    1.662    0.398
       102  -9.9240      5.8999    104.0022   1.1895440461e+02   5.2927874995e+01    0.4463327     0.380551  62.07   0.00145563    1.356    0.263
       103  -7.6562    230.1680    106.2438   6.0551083105e+01   1.2937720247e+01    0.1989159    0.1570465 -54.05  0.001010381    1.329    0.247
       104  -9.5845    149.3961    103.2198   7.5922681224e+01   3.1836676746e+01    0.4761485    0.2950792 -51.26  0.001008593    1.723    0.420
       105  -8.7649    149.0083     97.4752   7.4407769396e+01   3.3108029069e+01    0.3762933    0.2823351  17.70  0.001194093    1.678    0.404
       106  -8.3256     35.8448    105.1079   1.0985138061e+02   5.0439557167e+01    0.1899624    0.1308908 -47.70 0.0006798394    1.328    0.247
       107  -8.4890    166.0197    103.8821   7.2204318800e+01   2.7873693212e+01    0.2693681     0.217528 -43.59 0.0004419423    1.218    0.179
       108  -8.3630     74.1020    102.0600   9.7008206980e+01   4.6610927270e+01    0.4359681    0.1981398 -47.97  0.001039666    1.986    0.496
       109  -8.4934    158.9244    101.2807   7.3113470594e+01   3.0044793957e+01    0.2660199    0.2083108 -54.00 0.0005381414    1.354    0.261
       110  -9.6849     93.6970     97.4755   8.9704718186e+01   4.4522849276e+01    0.4264318    0.3285941  30.16  0.002140901    1.407    0.289
       111  -8.8796     96.0780     91.2022   8.7220394730e+01   4.5507509569e+01    0.5515746    0.3152303 -17.21   0.00183864    3.530    0.717
       112  -9.7579    240.4935     96.5068   5.6646454100e+01   1.2402208316e+01    0.3394459    0.2131858  47.99  0.001468145    1.790    0.441
       113  -8.0051    171.4731     95.5111   6.8698692684e+01   2.8233564673e+01    0.2905331    0.1517087 -26.71 0.0009052071    2.378    0.580
       114  -8.8336    164.3122     94.1412   6.9887447792e+01   3.0195891326e+01    0.4500297    0.2648039 -33.78  0.001314563    1.736    0.424
       115  -9.9342     34.5700     90.7155   1.0745675958e+02   5.3967258753e+01    0.5897413    0.2792059 -79.04  0.001884545    3.169    0.684
       116  -9.9213     37.3683     80.8010   1.0426022093e+02   5.5998227020e+01    0.6811469     0.342972 -19.25  0.002564427    3.320    0.699
       117  -9.4005    140.2269     82.2877   7.2120254483e+01   3.8161287945e+01    0.6029453    0.2856126 -38.15  0.001179779    2.093    0.522
       118  -8.5507    139.9816     75.5620   7.0110701192e+01   3.9498301477e+01    0.3695567    0.2544859 -67.48 0.0005727456    2.081    0.520
       119  -8.5787    157.6709     91.3965   7.0615033639e+01   3.2301561872e+01     0.349052    0.1865012 -39.47 0.0009622535    1.834    0.455
       120  -9.0524    150.5471     89.6515   7.1784432677e+01   3.4319151841e+01    0.5442536    0.2907767 -30.37  0.001697498    2.113    0.527
       121  -9.4511    138.7671     92.6635   7.5580486640e+01   3.6425044537e+01    0.4185388    0.2941372 -59.32 0.0007692046    1.690    0.408
       122  -9.5005    110.6266     89.9988   8.2501324322e+01   4.3000484281e+01    0.8378359    0.3932397  29.88  0.002823937    3.068    0.674
       123  -7.9567    174.5468     88.2663   6.6021395154e+01   2.8866094814e+01    0.3062769    0.1433282 -41.72 0.0006984897    2.078    0.519
       124 -10.0043     81.6443     72.4223   8.6198414103e+01   5.2049431826e+01    0.5187615    0.3537421 -69.00 0.0009593049    2.210    0.547
       125  -9.0133     83.3029     64.7282   8.3107678806e+01   5.3320709964e+01    0.5629333    0.3314593 -10.14  0.002145414    2.939    0.660
       126 -10.2636     85.3297     86.5467   8.9271827816e+01   4.8407022515e+01    0.4742878    0.3828816 -79.18 0.0008656999    1.604    0.376
       127  -9.4918     87.3156     78.7939   8.6314706401e+01   4.9749579002e+01    0.5495188    0.3650739   1.44  0.001640294    2.233    0.552
       128 -10.6072     55.3525     70.9717   9.5054058909e+01   5.6205676544e+01    0.6164558    0.3940132  55.66  0.001358183    2.405    0.584
       129  -9.8939     62.6603     60.9770   8.9190308981e+01   5.7313380601e+01     0.625851    0.2514165  31.77  0.002220988    2.779    0.640
       130 -10.2882     50.0707     53.9138   9.1656580910e+01   6.0385156135e+01     0.825029      0.36997 -53.04  0.003004628    2.285    0.562
       131  -9.5281     56.5886     43.1091   8.5121190835e+01   6.1557795358e+01    0.7360764    0.3908249  -1.96  0.002701918    3.863    0.741
       132  -8.5601    163.6222     87.1816   6.8056137838e+01   3.1694272785e+01     0.241929    0.1853331 -50.91 0.0005744767    1.358    0.264
       133  -9.5327    241.3068     84.5349   5.3691236455e+01   1.4151282736e+01    0.3719369    0.1677334 -54.56  0.001386665    2.890    0.654
       134 -10.2962    104.0504     82.7262   8.2268255401e+01   4.5840559819e+01    0.5250711    0.3264211 -56.96 0.0007501608    1.901    0.474
       135  -9.5680    106.0137     71.3259   7.8056293697e+01   4.7762353886e+01    0.7743649    0.5571272   3.36  0.003537606    1.809    0.447
       136  -9.3961    109.8132     63.9847   7.4472106103e+01   4.8371037851e+01     0.456706     0.277508 -51.78 0.0007856328    1.959    0.490
       137  -9.0603    110.4952     58.3251   7.2321021113e+01   4.9241619445e+01    0.4204243    0.2842486  22.65  0.001399152    1.753    0.429
       138 -10.3997     48.1705     83.0892   1.0096680229e+02   5.4363523493e+01    0.9320309    0.4138154 -53.79  0.002125122    1.876    0.467
       139  -8.7874    157.7937     82.9765   6.8134742744e+01   3.3883657584e+01    0.4591231    0.2052031 -41.73   0.00121541    2.202    0.546
       140  -8.0165    170.4132     83.3006   6.5473469551e+01   3.0778123710e+01    0.2283416    0.1392585 -47.47 0.0009456898    1.695    0.410
       141  -8.7385    149.9061     80.8030   6.9312699515e+01   3.6175399495e+01    0.3814335    0.2121161 -44.29 0.0008103354    1.818    0.450
       142  -8.9655     44.0848     53.8184   9.4032790121e+01   6.1111651517e+01    0.2983012    0.2053028 -17.97 0.0008658892    1.491    0.329
       143  -8.8921    119.0126     80.5111   7.7214263075e+01   4.3240760644e+01    0.3685559    0.2502997 -57.18 0.0006685005    1.756    0.431
       144  -8.3215    119.8575     75.8955   7.5522612658e+01   4.3973639161e+01    0.2913544    0.2489655  22.61 0.0008636038    1.220    0.181
       145  -9.2036    115.1957     72.4646   7.5735581891e+01   4.5638153010e+01    0.5979365    0.3280744 -33.99  0.001824171    1.862    0.463
       146  -9.1877     74.1848     80.0643   9.1072752351e+01   5.1613425770e+01    0.4248737    0.2580496 -64.40  0.001187454    2.124    0.529
       147  -8.4881     75.3429     74.3109   8.8939158724e+01   5.2672666190e+01    0.2896567    0.1899499  -1.87   0.00128504    2.190    0.543
       148  -7.7373    167.1379    114.1339   7.4691476584e+01   2.5543025830e+01     0.217006    0.1838326 -65.19 0.0005243724    1.335    0.251
       149  -8.3343    166.5809     78.1153   6.4776454943e+01   3.2648746975e+01    0.3407984       0.1483 -36.49  0.001070333    2.261    0.558
       150  -8.1234    184.4898     77.9901   6.1154090976e+01   2.8297764063e+01    0.2202016    0.2107966  68.08 0.0004849211    1.067    0.063
       151  -7.0003    174.4395     78.5154   6.3267260576e+01   3.0658851404e+01    0.1532355    0.1474221 -56.48 8.107753e-05    1.038    0.036
       152  -8.7604    156.9746     76.5761   6.6411954106e+01   3.5261263775e+01    0.2868075    0.2044302 -52.12 0.0003399154    1.520    0.342
       153  -9.4858    127.3277     75.1327   7.3237532491e+01   4.2477382078e+01    0.4141283    0.2949219 -60.59  0.000583756    1.769    0.435
       154  -8.8927    129.6161     68.7912   7.0593809223e+01   4.3143727828e+01    0.5228317    0.2881211  24.47  0.001801676    3.023    0.669
       155  -8.6095    130.4924     65.4690   6.9280760453e+01   4.3540017402e+01    0.3581173    0.2719226 -20.48  0.001551619    1.412    0.292
       156  -9.2303     55.5405     63.0843   9.2558089401e+01   5.7845448828e+01    0.4122326    0.2847914   6.10  0.001340456    1.700    0.412
       157  -8.9395    203.6735     73.7328   5.6605762244e+01   2.4379647981e+01    0.3626583    0.2488158 -28.50  0.001107756    1.494    0.330
       158  -7.7929    175.7606     73.1349   6.1450813589e+01   3.1271824665e+01    0.2736753    0.1632003 -71.25 0.0009586609    2.940    0.660
       159  -8.2766    162.5322     72.7829   6.4055910841e+01   3.4583838925e+01    0.2942932    0.2414139 -61.62 0.0007669402    1.350    0.259
       160  -8.1188    169.4953     71.1081   6.2107523143e+01   3.3162373502e+01    0.2304872    0.1482427 -37.06 0.0004762143    1.532    0.347
       161  -9.1792    147.0132     69.2858   6.6451039176e+01   3.8969889474e+01    0.3659101    0.2634891 -60.45 0.0008769894    1.700    0.412
       162  -7.7362     47.2678     71.6542   9.8250741237e+01   5.7018086596e+01    0.1252096     0.102045 -84.25 0.0003071674    1.612    0.380
       163  -8.1324    156.6696     70.0184   6.4488718372e+01   3.6500756313e+01    0.2134859    0.1964855 -34.74 0.0005056998    1.084    0.078
       164  -9.7797     94.8823     68.3744   8.0526731080e+01   5.0513043628e+01    0.4430226    0.2739918 -53.27 0.0008354362    1.870    0.465
       165  -8.2314     95.3151     61.3242   7.7985844843e+01   5.1778751205e+01    0.3164135    0.2134889  13.30  0.001435224    1.898    0.473
       166  -8.8801     98.3411     57.2474   7.5595839919e+01   5.1931948945e+01    0.5308908    0.3253944   8.25  0.001918333    2.650    0.623
       167  -9.2252    121.2570     66.1999   7.1976491073e+01   4.5496561715e+01    0.4095027     0.256798 -48.70   0.00105582    1.758    0.431
       168  -8.1729    122.2021     61.0015   6.9973655987e+01   4.6211780618e+01    0.3947585    0.1977968  40.13  0.001216781    2.097    0.523
       169  -8.4251    170.7976     65.4643   6.0174222695e+01   3.3788277163e+01     0.330213    0.2069474 -33.12  0.001252759    1.605    0.377
       170  -8.9401    138.0935     66.1696   6.7596374623e+01   4.1643501979e+01    0.3975327    0.2401506 -42.99  0.001265962    1.693    0.409
       171  -8.3450    138.6999     61.6887   6.5992996656e+01   4.2272850123e+01    0.3029801    0.1935781  45.13  0.001348064    1.549    0.355
       172  -7.8233    147.4500     63.8705   6.4639120798e+01   3.9801314870e+01    0.3159408     0.184171  37.80 0.0008864516    1.918    0.479
       173  -8.4708    157.5305     62.9879   6.2135182126e+01   3.7483169264e+01    0.2196848    0.2086149  63.16 0.0006171783    1.060    0.056
       174  -8.4724      9.8055     60.3236   1.0991842676e+02   6.2623595035e+01    0.3126862    0.1573647 -76.84  0.001512596    2.449    0.592
       175  -9.8706     73.1438     59.3833   8.4812893175e+01   5.6051142778e+01    0.4745898    0.2594936 -52.72  0.000848399    2.093    0.522
       176  -9.4752     74.8756     51.2648   8.1280711196e+01   5.7290505258e+01    0.7949858    0.4323835  11.33  0.002929746    3.428    0.708
       177  -9.0548    164.8605     59.1939   5.9458054856e+01   3.6280635451e+01    0.4646211    0.2038825 -23.72   0.00155682    3.048    0.672
       178  -8.7996    162.9384     53.4128   5.8059771493e+01   3.7660330798e+01    0.5023396    0.2098402 -27.73  0.001497197    2.700    0.630
       179  -7.8897    152.7537     60.5492   6.2400912205e+01   3.9060341420e+01    0.2068483    0.1477093  70.41 0.0005957247    1.604    0.376
       180  -9.2544    146.8381     57.0976   6.2604998834e+01   4.1068785006e+01    0.7591774    0.3090363 -24.93     0.002445    3.308    0.698
       181 -10.0801    149.5334     45.4909   5.8243185966e+01   4.2175402070e+01    0.9244645      0.23447 -37.11  0.002561628    3.690    0.729
       182  -8.6315     87.5587     58.6316   7.9566074982e+01   5.3730710061e+01     0.353799      0.22319 -50.50  0.001322532    1.795    0.443
       183  -8.1390     90.0467     52.1717   7.6411357085e+01   5.4433405330e+01    0.3364624    0.2507777   2.91  0.001221128    1.495    0.331
       184 -10.1668     85.1806     48.0683   7.6497368376e+01   5.6047812524e+01    0.4004189    0.3116682 -61.53 0.0009297195    1.812    0.448
       185  -9.3832    118.2998     54.9176   6.8936153390e+01   4.8122201498e+01    0.5096084     0.342296 -40.50 0.0008965968    1.526    0.345
       186  -8.8720    130.0935     57.5291   6.6737314662e+01   4.4997807348e+01    0.4911423    0.2332008 -31.39  0.001894215    2.202    0.546
       187  -9.1025    105.6209     51.7822   7.1417828302e+01   5.1390669571e+01    0.6021912    0.3326145 -25.52  0.001914861    1.999    0.500
       188  -9.0395    112.6294     45.0423   6.6954368198e+01   5.0960126490e+01    0.7240054    0.3697149 -13.61  0.001418492    3.193    0.687
       189  -8.8617    138.8591     56.7722   6.4337751131e+01   4.3050998998e+01    0.2793263    0.2062937 -42.02 0.0004768653    1.398    0.285
       190  -8.8977    141.9384     48.6382   6.0922209965e+01   4.3578908399e+01    0.3961951    0.2784562  -7.53  0.001787664    1.753    0.430
       191  -8.9944    139.4910     39.8921   5.8509635768e+01   4.5434757895e+01    0.5493791    0.2590531 -30.14  0.001776251    2.191    0.543
       192  -9.0646    144.1163     36.5955   5.6411136871e+01   4.4744285211e+01     0.298226    0.2451616 -75.18 0.0006039529    1.441    0.306
       193  -7.5020    172.4222     50.4381   5.5372380000e+01   3.5726223788e+01    0.1458015    0.1389824 -78.19  0.000122712    1.046    0.044
       194  -8.4626    157.3174     48.8039   5.7726342109e+01   3.9755828741e+01    0.2557333    0.1817628 -36.38 0.0009957837    1.428    0.300
       195  -9.5343    130.5984     46.1063   6.2695144839e+01   4.6682685286e+01     0.782496    0.3356018 -21.89  0.002664175    3.193    0.687
       196  -9.0351    121.1405     46.9668   6.5369755912e+01   4.8753607779e+01    0.3166257    0.2277704 -36.62 0.0004618969    1.425    0.298
       197  -8.2546    122.2786     41.3007   6.3044919794e+01   4.9334272818e+01    0.4052018    0.2226063  11.75   0.00136369    3.642    0.725
       198  -7.5354    162.2409     46.3911   5.6010120775e+01   3.8873273430e+01    0.1976098    0.1392943  73.70 0.0003867889    1.545    0.353
       199  -8.5985     45.4125     15.7237   7.8010622189e+01   6.7464450555e+01    0.2086056    0.1268353 -17.34  0.001037378    1.534    0.348
       200  -9.0924    183.6006    239.2236   9.6344786034e+01  -7.3314823879e-01     0.155133    0.1114856 -22.09 0.0009480655    1.617    0.381
       201  -7.9313    250.6100    238.0717   8.4102733296e+01  -1.0384098425e+01    0.1513923   0.09594759 -22.63 0.0003102853    1.512    0.339
       202  -9.0644     42.1366     28.1199   8.5119193825e+01   6.6026810321e+01    0.3909959    0.2211897  -9.02 0.0002755097    2.217    0.549
       203  -9.8709     37.9530     42.2405   9.2571870814e+01   6.4031936734e+01    0.3597444    0.3198365 -83.22  0.001489931    1.717    0.418
       204 -10.3328     35.8921     37.9941   9.1897023408e+01   6.5039196393e+01    0.4822289    0.2545998 -24.04  0.000358906    2.043    0.510
       205  -9.9698     76.1922     32.2345   7.3298143343e+01   6.0199027634e+01    0.4091636    0.3538803  63.81  0.001043058    1.623    0.384
       206  -9.1617     71.5819     25.9642   7.2263092546e+01   6.1915392194e+01    0.4577174    0.2629586  38.23  0.001567063    1.682    0.406
       207  -9.5522     79.1709     23.9579   6.8737632675e+01   6.0807046153e+01    0.4789163    0.2545249  26.10  0.001188304    2.157    0.536
       208  -9.0978     84.5257     21.5218   6.5926697794e+01   6.0087917041e+01    0.2659447    0.2261219  14.59 0.0007668147    1.016    0.016
       209  -8.9370    105.0785     41.1963   6.7650540294e+01   5.3181952548e+01    0.3426405    0.2516852 -54.11  0.000935717    1.760    0.432
       210  -8.3070    106.5313     36.1793   6.5323092172e+01   5.3597140446e+01    0.2852403    0.2019724  34.91 0.0009429123    1.362    0.266
       211  -8.7904    153.7288     40.5103   5.5776623601e+01   4.1829936470e+01    0.3723341     0.184645 -34.75  0.001467129    2.032    0.508
       212 -10.3167     90.2390     38.1578   7.0987691664e+01   5.6680447649e+01     0.810613    0.3405699  33.19   0.00300169    2.956    0.662
       213  -8.2022    111.8969    236.1812   1.0978761980e+02   1.1013223503e+01    0.1839411    0.1379327  58.20 0.0002822131    1.188    0.158
       214  -9.6439    187.7063    233.2266   9.4661684747e+01  -5.1736493250e-01    0.3258508    0.2257868 -53.15  0.001729405    2.013    0.503
       215  -7.7467    124.6757    229.3380   1.0646482425e+02   1.0245290337e+01    0.1305548   0.08669423  65.60            0    1.721    0.419
       216  -8.5624    222.0711    228.0277   8.7422441959e+01  -5.1193997147e+00    0.1795788    0.1455297  15.49            0    1.060    0.056
       217  -8.1945    249.3637    219.1957   8.1076430084e+01  -7.9531108785e+00    0.1549133    0.1013997 -33.79 0.0006467545    1.663    0.399
       218  -8.2616     92.6446     20.6630   6.3072841735e+01   5.8553036415e+01    0.3027419    0.1897354  16.34 0.0008802764    1.809    0.447
       219  -8.4682     53.8047     39.3025   8.4758111182e+01   6.2614452664e+01    0.2093296    0.1623843 -41.30 0.0006785365    1.326    0.246
       220  -7.1256    160.2852     39.6546   5.4258919577e+01   4.0301637105e+01    0.1500596    0.1080825 -63.79 0.0004596787    1.647    0.393
       221  -8.8208    132.9828     36.0084   5.8605561590e+01   4.7537891196e+01    0.3200736    0.2336165  -2.03 0.0004749344    1.607    0.378
       222  -7.5096     56.0000    215.5388   1.1867123697e+02   2.2733384127e+01    0.2407881   0.06178057 -69.34 0.0009242772    3.851    0.740
       223  -8.9005    118.9702     34.7322   6.1475669317e+01   5.1010903260e+01    0.3342767    0.1930318 -32.66  0.000760311    1.774    0.436
       224  -8.7002    152.6973     34.8621   5.4139739514e+01   4.2837008400e+01    0.2631701    0.1801142  51.32 0.0009759188    1.379    0.275
       225  -8.9097    220.7357    210.6391   8.4643928413e+01  -2.5107589385e+00    0.2246948    0.2124944  37.43 0.0006294024    1.420    0.296
       226  -8.5498     15.5811    206.6761   1.2578885709e+02   2.8989408616e+01    0.1985331    0.1213992 -75.18  0.001305018    1.476    0.322
       227  -9.3226      8.2028    208.3879   1.2725051382e+02   2.9332802863e+01    0.2560884      0.14719  48.08  0.001215719    1.554    0.357
       228  -9.0728     11.5101    206.9871   1.2656472371e+02   2.9310719332e+01    0.2039585    0.1490857  66.16 0.0006923385    1.122    0.109
       229 -10.0742     69.3471     40.4980   7.9166030386e+01   6.0070795033e+01    0.7892432    0.3579217 -38.48  0.002275501    2.075    0.518
       230  -9.0411    110.2771     32.9886   6.3072814386e+01   5.3211599288e+01    0.3592741     0.225943 -45.03 0.0009445164    1.876    0.467
       231  -8.4889    149.5444    109.9729   7.7728156892e+01   3.0386775073e+01    0.2381025    0.1531286 -42.09 0.0002973925    1.524    0.344
       232  -7.8918    214.6338     29.6942   4.3533032554e+01   2.8085851782e+01    0.2024415    0.1510648  35.90 0.0005466914    1.723    0.420
       233  -9.1582    152.8695     28.0434   5.1882976727e+01   4.3638856194e+01    0.4177099    0.2062063  -8.34  0.001510939    3.310    0.698
       234  -8.4496    156.6759     27.3112   5.0972204056e+01   4.2770334841e+01    0.2928196    0.1573992 -70.01 0.0009257201    3.252    0.693
       235  -8.9954    144.2894     25.9373   5.2775544494e+01   4.6025447201e+01     0.319618    0.2415599 -25.63  0.001370432    1.410    0.291
       236  -7.9450    109.9881     26.6749   6.0710690792e+01   5.4086680321e+01    0.1993606    0.1749577  36.41  0.001160909    1.054    0.051
       237  -8.3516    128.4860     25.9534   5.6017993395e+01   4.9878861506e+01    0.2435137    0.1932061  84.53 0.0006908842    1.513    0.339
       238  -7.9631    140.0656     22.6874   5.2476690028e+01   4.7439315306e+01    0.1975829    0.1685408  62.52 0.0004728088    1.116    0.104
       239  -9.8045    124.0025    206.0076   1.0346736331e+02   1.4698727002e+01    0.1887733    0.1684263  51.84   0.00116305    1.005    0.005
       240  -8.8876    165.0857     21.5987   4.7794983768e+01   4.1305275935e+01    0.2587579    0.2037072  -4.30 0.0001631267    1.509    0.337
       241  -8.0094    111.4229     22.1879   5.8596292143e+01   5.4297051530e+01    0.1872583    0.1226249 -38.11 0.0006930664    1.693    0.409
       242 -10.4169    240.1703    203.4037   7.9800632487e+01  -4.5182889951e+00    0.2216107    0.1882302  -2.48 0.0002517843    1.120    0.107
       243  -8.1533    130.0330     21.4678   5.4065486608e+01   5.0019337900e+01    0.2474276    0.1713296  20.62  0.001236496    1.646    0.393
       244  -9.3199    132.4646     17.6005   5.2181369595e+01   4.9846703101e+01    0.3743757    0.2556676  70.80 0.0007545121    1.517    0.341
       245  -8.8449    208.7833    205.0290   8.5877419347e+01   2.7206729009e-01    0.2578462    0.1678182  41.49 0.0005678505    1.526    0.345
       246  -9.0031    209.8890    200.3668   8.4807737543e+01   8.0961499210e-01    0.2211048    0.1934825 -13.10 0.0002298992    1.138    0.121
       247  -9.0447    192.0386    194.5322   8.7226685573e+01   4.8608500457e+00    0.8555878    0.4575834 -64.53  0.002313999    7.627    0.869
       248  -8.2827    210.3277    195.8075   8.3867573490e+01   1.4535869443e+00    0.2007941    0.1666554  32.63 0.0003852092    1.199    0.166
       249  -7.4483    151.3198     20.6378   4.9733100583e+01   4.4870466939e+01    0.1473076    0.1013772 -64.32 0.0007041885    1.773    0.436
       250  -8.0345    189.2736     15.9934   4.2859519271e+01   3.5850739577e+01    0.1876107    0.1730539 -49.39  0.000590233    1.133    0.117
       251  -8.6678    112.4243     15.5402   5.5753187094e+01   5.4793896647e+01    0.2422291     0.220756 -52.17 0.0005810992    1.313    0.238
       252 -10.3054    178.0713    191.1308   8.9453794091e+01   7.9759732714e+00    0.2414836    0.2354911  -7.09 0.0003188773    1.129    0.114
       253  -8.0573    237.2264    191.0452   7.7965937797e+01  -2.2883792005e+00    0.2395461    0.1566552 -14.43 0.0007618053    1.501    0.334
       254  -8.2500    130.1324    190.5481   9.9751779877e+01   1.6756578216e+01    0.1861052    0.1796836 -81.16 0.0002755222    1.093    0.085
       255  -9.2883     62.9503    185.0986   1.1417467389e+02   2.8328060159e+01    0.2020014    0.1651157 -77.02            0    1.156    0.135
       256  -8.7241    198.9969    175.5495   8.2106906491e+01   6.8884636755e+00    0.2280269    0.1927719 -38.75  0.001273496    1.257    0.205
       257  -8.1659    185.0210    173.2209   8.4501162348e+01   9.9633852291e+00    0.2482325    0.2077896 -34.32  0.001146431    1.215    0.177
       258  -7.8001    246.9683    171.7617   7.2404974696e+01  -9.8353147932e-01    0.1706591    0.1057507  37.05 0.0008986397    1.677    0.404
       259  -8.5726     63.8543    169.3686   1.1204271226e+02   3.1803353347e+01    0.2175909    0.1637544 -66.78 0.0003095122    1.249    0.199
       260  -7.1500      9.3268    170.6662   1.2464245281e+02   3.7245464210e+01     0.126439   0.06796817  68.69 0.0003592837    1.716    0.417
       261  -8.2348    230.4269    168.1673   7.4561352166e+01   2.4019582426e+00    0.3319564    0.1209706 -39.44  0.001281481    2.640    0.621
       262  -7.1736    126.9919    167.4883   9.6450266388e+01   2.2239195368e+01    0.1974707    0.1399053  40.89 -3.449527e-05    1.376    0.273
       263  -8.8158    133.8789    146.7673   9.0592372143e+01   2.5564664692e+01    0.6597989    0.2088305 -56.29  0.001753989    4.600    0.783
       264  -7.3257    156.8301    147.0688   8.5126627874e+01   2.0858525714e+01    0.1969169    0.1128218 -46.03 0.0003552526    1.759    0.431
       265  -8.4893    234.4823    146.5207   6.9166157746e+01   5.2373918825e+00    0.1415545    0.1230379 -13.64 0.0008099633    1.022    0.021
       266  -9.2533     67.1894    144.2543   1.0752491755e+02   3.7353209226e+01    0.5502326    0.3133178  61.79  0.002453649    2.181    0.542
       267  -8.7022    112.3891    134.0535   9.3338000399e+01   3.2605832724e+01    0.4074065    0.2700924  73.79  0.001419535    2.265    0.559
       268  -8.6507    135.9858    132.4633   8.6820308923e+01   2.8365610753e+01     0.591195    0.1931558 -49.48  0.001814541    3.132    0.681
       269  -9.3960    131.9527    131.3050   8.7573769856e+01   2.9448274430e+01     0.380396     0.274142 -89.38  0.001596814    2.073    0.518
       270  -8.8333     83.4289    131.8701   1.0082215545e+02   3.8039472806e+01    0.6722735    0.3856001  75.73  0.002410251    3.305    0.697
       271  -7.9402    142.7774    132.3748   8.5097453836e+01   2.6980947723e+01    0.2611055    0.1948638  83.13  0.001123782    1.913    0.477
       272 -10.8159     70.3034    126.2657   1.0344639215e+02   4.1317083439e+01     0.796851    0.6175058 -38.33  0.001483478    1.396    0.284
       273 -10.1273     58.2693    124.4441   1.0658833934e+02   4.3330395391e+01    0.6257814    0.3650571  80.86   0.00224439    2.625    0.619
       274  -9.8331     98.5754    128.6114   9.5904143421e+01   3.6361838073e+01    0.6160314    0.3829852  74.21  0.002362856    2.714    0.632
