#   1 NUMBER                 Running object number                                     
#   2 MAG_AUTO               Kron-like elliptical aperture magnitude                    [mag]
#   3 X_IMAGE                Object position along x                                    [pixel]
#   4 Y_IMAGE                Object position along y                                    [pixel]
#   5 X_WORLD                Barycenter position along world x axis                     [deg]
#   6 Y_WORLD                Barycenter position along world y axis                     [deg]
#   7 A_WORLD                Profile RMS along major axis (world units)                 [deg]
#   8 B_WORLD                Profile RMS along minor axis (world units)                 [deg]
#   9 THETA_WORLD            Position angle (CCW/world-x)                               [deg]
#  10 FWHM_WORLD             FWHM assuming a gaussian core                              [deg]
#  11 ELONGATION             A_IMAGE/B_IMAGE                                           
#  12 ELLIPTICITY            1 - B_IMAGE/A_IMAGE                                       
         1 -14.9691    244.9234     99.7655   3.0052374516e+01  -4.2619218481e+01    0.1342703   0.05769809  72.18  0.009141886    4.286    0.767
         2 -14.4777    248.6548     80.5994   2.9825610373e+01  -4.2799259467e+01   0.09667592   0.03949962  62.33  0.007817188    2.791    0.642
         3 -13.8715    249.1054     60.7545   2.9641139203e+01  -4.3007713061e+01   0.08282567   0.03113814  53.17  0.006795302    2.594    0.614
         4 -15.4756    247.0099     18.4167   2.9289968848e+01  -4.3471659058e+01    0.2421596   0.06501517  55.26   0.01703644    3.547    0.718
         5 -12.9839     11.9213     24.0990   3.3014804973e+01  -4.4917177833e+01   0.03403269   0.01868741  28.00  0.002923523    2.631    0.620
         6 -12.8621      6.1824     11.7437   3.2999581462e+01  -4.5087179768e+01   0.04509582   0.02570785  33.19  0.004180809    2.192    0.544
         7 -12.0894      9.9077      2.2334   3.2856756718e+01  -4.5167828320e+01   0.03784762   0.01621339 -18.25   0.00289045    3.065    0.674
         8 -11.9115     13.4860     12.6919   3.2890545009e+01  -4.5031850705e+01   0.01771357   0.01335192  37.46  0.001768098    1.405    0.288
         9 -12.1549     15.4622      7.3248   3.2812006192e+01  -4.5078092502e+01   0.02172042   0.01422511  19.39  0.002136139    2.007    0.502
        10 -11.7498     19.8566     14.2824   3.2802263398e+01  -4.4975192383e+01   0.01771514   0.01035706  38.15  0.001709499    1.942    0.485
        11 -12.2852     25.2992      3.9854   3.2625024097e+01  -4.5053505257e+01   0.02647688   0.01701851   5.04  0.002533869    2.139    0.533
        12 -10.5983     41.7959      2.3995   3.2347184323e+01  -4.4968034667e+01  0.009436175  0.006192308 -14.18 0.0009524865    1.697    0.411
        13 -10.9867    214.6718    239.8656   3.1715896503e+01  -4.1308502488e+01   0.01062433  0.007830581  40.53  0.001174674    1.420    0.296
        14 -12.4497    248.2390    215.5662   3.1008812540e+01  -4.1356763993e+01   0.06013376   0.01494268  45.80  0.003668541    4.768    0.790
        15 -12.2840    234.0583    245.5204   3.1473831670e+01  -4.1124713980e+01   0.03832335    0.0168993  51.70  0.003378482    2.237    0.553
        16 -10.9646    243.5085    235.5057   3.1248576029e+01  -4.1172498520e+01   0.01319034   0.01140831  47.46 0.0009815862    1.177    0.151
        17 -11.0115    244.9816    230.4859   3.1184143132e+01  -4.1217131461e+01   0.02099787   0.01007922  59.03   0.00190087    2.146    0.534
        18 -11.5886    240.1233    239.7370   3.1334736929e+01  -4.1148496855e+01   0.01957464   0.01196889  51.80  0.001343763    1.644    0.392
        19 -11.5217    248.8593    225.3803   3.1083078155e+01  -4.1247273431e+01   0.02290097   0.01498691  58.99  0.001869635    1.579    0.367
        20 -12.1706    242.8283    246.1233   3.1348330453e+01  -4.1062490457e+01   0.03442096    0.0173904  47.50  0.002884509    2.025    0.506
        21 -10.9772    249.1550    250.0847   3.1287683291e+01  -4.0979560174e+01   0.02192141   0.01197792 -20.47   0.00203743    2.020    0.505
        22 -10.8563    248.8838    245.1302   3.1249934782e+01  -4.1034624952e+01    0.0198473   0.01158567  48.88    0.0019863    1.734    0.423
        23 -11.6024    247.2701    239.6148   3.1227342290e+01  -4.1104280297e+01   0.02400714   0.01457497  47.53  0.001597081    1.679    0.404
        24 -11.3241    249.9799    232.9922   3.1130990240e+01  -4.1158239286e+01    0.0222131   0.01272806  54.15   0.00170444    1.752    0.429
        25 -11.3848    225.5305    248.4856   3.1625929542e+01  -4.1146765481e+01   0.01800498   0.01170437  47.47  0.001664919    1.568    0.362
        26 -12.1048    212.2183    248.2926   3.1823271173e+01  -4.1232920784e+01   0.02370446   0.01667343  31.18   0.00253743    1.615    0.381
        27  -9.5145    183.4773    250.4901   3.2272968773e+01  -4.1389477872e+01  0.006497897  0.006201309   1.95 0.0001740196    1.040    0.039
        28 -10.5944     50.0710    250.1476   3.4304816557e+01  -4.2209158842e+01   0.01631028  0.009043373 -28.85  0.001586874    1.727    0.421
        29 -11.5709     36.6422    248.5181   3.4499430296e+01  -4.2307235043e+01   0.02670937    0.0149443 -47.56  0.002542313    1.959    0.490
        30 -12.1672     25.5902    228.8257   3.4512359085e+01  -4.2589901128e+01   0.02882521   0.02073148 -76.50   0.00303783    1.811    0.448
        31 -12.9025     13.9508    218.5279   3.4610637075e+01  -4.2772571955e+01   0.06115251   0.02553672 -51.27  0.004477171    3.466    0.711
        32 -12.9316     12.2356    205.4936   3.4531899170e+01  -4.2926400488e+01   0.03474494   0.02321776 -53.36  0.003287692    1.699    0.411
        33 -15.0097      3.8611    168.9364   3.4365035713e+01  -4.3378905993e+01    0.1161221    0.0554305  73.21  0.009508463    2.878    0.653
        34 -11.8493     11.0292    225.7753   3.4714721520e+01  -4.2709999181e+01   0.02514263   0.01565725 -43.25  0.001914644    1.631    0.387
        35 -12.5579     15.6844    240.1883   3.4757988112e+01  -4.2523466534e+01    0.0388946   0.02160712 -47.30  0.003039625    1.967    0.492
        36 -12.0136     12.2639    248.8211   3.4880325677e+01  -4.2448433924e+01   0.02679872   0.01535155 -39.68  0.001773195    1.711    0.415
        37 -12.3098      6.6051    236.4400   3.4869434559e+01  -4.2618499283e+01    0.0318144   0.02352817 -68.97  0.003453826    1.666    0.400
        38 -12.2140      4.8548    228.2881   3.4831358026e+01  -4.2718811744e+01   0.02948674   0.02069879 -63.60  0.002209318    1.758    0.431
        39 -11.7163      2.2223    220.6365   3.4810990129e+01  -4.2818812124e+01    0.0223224   0.01567122  83.58  0.001551236    1.769    0.435
        40 -11.5272      3.7033    250.0982   3.5023800985e+01  -4.2484777959e+01   0.02354098   0.01206993 -26.28  0.001752694    1.901    0.474
        41 -12.7130      3.4082    243.2498   3.4973776023e+01  -4.2562162007e+01   0.03549641   0.02478339  89.64  0.003688211    1.860    0.462
        42  -9.9227    220.3611    238.7747   3.1621589677e+01  -4.1284306328e+01  0.009589171  0.005681031  48.38 0.0009503744    1.713    0.416
        43 -11.3211    231.4618    234.9860   3.1423794259e+01  -4.1254776541e+01    0.0213855   0.01094739  50.31  0.001868948    1.956    0.489
        44 -10.1085     33.0501    236.2112   3.4456013144e+01  -4.2464137099e+01   0.01269604   0.00836966 -73.72  0.001224496    2.149    0.535
        45 -11.0062    206.7360    234.4955   3.1789753291e+01  -4.1416635916e+01   0.01453004  0.006986336  45.76  0.001294455    2.182    0.542
        46 -11.8614    236.6777    228.5945   3.1291916413e+01  -4.1290457021e+01    0.0194394   0.01323977  60.02  0.001707122    1.526    0.345
        47 -10.2994    192.5074    234.4946   3.2003586058e+01  -4.1506229526e+01  0.006505094  0.006201473   1.92 0.0001212068    1.042    0.041
        48 -10.9991    217.7800    231.9351   3.1602646069e+01  -4.1374481921e+01   0.01744405  0.007539459  49.31  0.001502136    2.320    0.569
        49 -10.6042     39.9916    230.9949   3.4306109203e+01  -4.2480090168e+01   0.01436564  0.009877103 -60.30  0.001486929    1.768    0.434
        50  -9.5543    225.4809    230.4758   3.1475088971e+01  -4.1341396671e+01  0.006464181  0.006227476  -9.72 0.0001020593    1.012    0.012
        51 -10.3582     32.3686    229.3418   3.4411110021e+01  -4.2543819870e+01    0.0134566  0.008640469 -61.09  0.001251732    2.003    0.501
        52 -10.0571    229.4842    227.4517   3.1389681552e+01  -4.1348563171e+01   0.01341022  0.006442559  59.19  0.001204768    2.145    0.534
        53 -11.8036    239.3531    219.2572   3.1172786198e+01  -4.1373917726e+01   0.01794176   0.01116551  43.15  0.001831698    1.692    0.409
        54 -10.5674     24.1811    217.2757   3.4440867097e+01  -4.2725485706e+01   0.01820258  0.009647012 -58.46  0.001515199    2.780    0.640
        55 -11.5505     21.6075    211.2565   3.4432189358e+01  -4.2807104773e+01   0.01733431   0.01267078  84.84  0.001869506    1.676    0.403
        56 -10.2280    227.5757    219.2523   3.1348794464e+01  -4.1449077080e+01   0.01598802  0.005971683  56.16  0.001291325    2.625    0.619
        57 -10.3249    233.1873    212.0945   3.1204031513e+01  -4.1490396173e+01   0.01433064   0.00824813  45.78  0.001407309    1.798    0.444
        58 -10.5628     28.8652    211.2909   3.4319248616e+01  -4.2763386345e+01   0.01154918  0.009182925  82.11  0.001285866    1.449    0.310
        59 -10.9270    240.1054    206.9560   3.1056793841e+01  -4.1501447987e+01   0.01527371   0.00951657  59.11  0.001455944    1.659    0.397
        60 -10.3426    247.0087    206.1047   3.0946410776e+01  -4.1466342185e+01   0.01420855  0.009461704  65.25  0.001263632    1.639    0.390
        61  -9.3936    225.2880    206.3696   3.1273630903e+01  -4.1602457184e+01  0.006909079  0.004810375  26.59 0.0007021822    1.710    0.415
        62 -10.4200    250.5607    200.5555   3.0845904443e+01  -4.1503133224e+01   0.01694472  0.006408738  59.07  0.001353384    2.730    0.634
        63 -12.2906     16.5803    196.3789   3.4389754256e+01  -4.3000886559e+01   0.01758658   0.01161042 -57.73  0.001784639    1.829    0.453
        64 -10.7325    243.3012    199.5393   3.0945630311e+01  -4.1560691681e+01   0.02156343  0.008293094  57.58  0.001761496    2.610    0.617
        65  -9.7077    237.3485    197.2229   3.1014856646e+01  -4.1623779336e+01  0.009145113  0.006258333  71.85 0.0009479937    1.705    0.414
        66 -10.9298    246.1983    192.4539   3.0841572393e+01  -4.1618191645e+01   0.01254166  0.009127083  58.79  0.001390414    1.421    0.296
        67 -12.1500      3.6078    197.1752   3.4599573197e+01  -4.3069360223e+01   0.02970391   0.01867062  72.77  0.002315578    1.861    0.463
        68 -14.1139      4.4641    187.5722   3.4507985994e+01  -4.3170090380e+01   0.07825495   0.04493713  83.18  0.006928001    2.589    0.614
        69 -12.4859     20.2679    249.0617   3.4757807535e+01  -4.2398464782e+01   0.05308358   0.01632747 -27.73  0.003883516    3.102    0.678
        70 -10.5529    249.4927    184.4827   3.0723761862e+01  -4.1682540259e+01   0.01324777  0.006514164  59.90   0.00112381    2.128    0.530
        71  -9.7127    248.3001    175.6512   3.0665421533e+01  -4.1784982897e+01   0.00674464  0.004972211 -66.35 0.0007037605    1.688    0.408
        72 -10.2828    246.5110    167.9896   3.0625964152e+01  -4.1878713272e+01   0.00990365  0.006492322  60.16   0.00103179    1.592    0.372
        73 -12.3085      2.2942    211.1419   3.4733300787e+01  -4.2923142897e+01   0.05090219   0.01626328  66.44  0.003438639    4.012    0.751
        74 -10.3129    245.9683    157.4651   3.0542824247e+01  -4.1995057003e+01   0.01118244  0.007144372  69.74 0.0009813061    1.831    0.454
        75 -12.8368      3.1582    128.4740   3.4041610703e+01  -4.3828056657e+01    0.0279974   0.01437337  78.62   0.00227233    3.020    0.669
        76 -11.9900     14.1348    231.8651   3.4715280656e+01  -4.2624439447e+01   0.02834237   0.01853385 -57.79   0.00268807    1.856    0.461
        77 -13.0076      3.9290    136.6975   3.4097802629e+01  -4.3733073153e+01   0.02328457   0.01629631 -79.38  0.002387451    1.929    0.482
        78 -11.0155    249.8926    150.9267   3.0427048750e+01  -4.2039664071e+01   0.01178856  0.009103889  68.26  0.001270668    1.418    0.295
        79 -10.2604    244.4572    148.6123   3.0488499417e+01  -4.2099715955e+01    0.0130271  0.006465407  59.31  0.001128308    2.095    0.523
        80 -10.2582    234.5858    146.2861   3.0616754872e+01  -4.2188577593e+01   0.01220436  0.006574814  64.89  0.001128222    2.098    0.523
        81 -10.3842    247.7054    144.1973   3.0401194545e+01  -4.2125924594e+01    0.0170601  0.009409683  79.76  0.001403737    2.991    0.666
        82  -9.6854    242.2798    153.6424   3.0564990914e+01  -4.2059913558e+01  0.006652891  0.004996798 -69.04 0.0004150982    1.662    0.398
        83 -10.7319    248.8470    135.4718   3.0307747010e+01  -4.2211898230e+01   0.01594379  0.009887363  73.31  0.001189101    2.030    0.507
        84 -10.9316    247.9816    129.8948   3.0271878710e+01  -4.2277199734e+01   0.01696905   0.01330038 -70.81  0.001200625    1.554    0.356
        85 -10.8005    243.9249    139.5028   3.0417023473e+01  -4.2200746819e+01   0.01231717  0.009408886  85.06  0.001111575    1.615    0.381
        86 -10.9318    242.4371    133.7789   3.0389358172e+01  -4.2271701805e+01   0.01198344  0.006586934  63.81  0.001126562    2.015    0.504
        87  -9.9657    233.1628    129.1557   3.0488713137e+01  -4.2381434448e+01  0.009060714  0.007741725 -69.43 0.0006169172    1.330    0.248
        88 -12.6958      7.6000    125.7819   3.3948830943e+01  -4.3830876763e+01   0.02245436   0.01203852  84.11   0.00178689    3.221    0.690
        89 -11.9096    241.9057    125.3815   3.0323763762e+01  -4.2365047099e+01   0.01830276   0.01007363  64.70  0.001491235    2.045    0.511
        90 -12.6342    243.5771    107.7318   3.0143162721e+01  -4.2542911025e+01   0.04501172   0.01541062  66.93  0.002797605    4.898    0.796
        91 -12.7462    240.3911    110.0035   3.0211312354e+01  -4.2539423531e+01    0.0294408   0.01046061  59.38   0.00227744    2.960    0.662
        92 -10.5920    249.5042    123.9981   3.0197180777e+01  -4.2330337409e+01   0.01358201   0.01040528  60.34  0.001130617    1.363    0.266
        93 -11.9827    248.7564    118.6302   3.0161199996e+01  -4.2392600972e+01   0.02247075   0.01218835  58.30  0.001793455    1.900    0.474
        94 -10.3607    227.5134    124.5073   3.0533372593e+01  -4.2467883691e+01   0.01132664  0.006584077  74.35  0.001031336    2.301    0.565
        95 -11.0167    243.2998    118.9020   3.0245811162e+01  -4.2425290756e+01   0.01023489  0.008202888 -89.12  0.000905083    1.516    0.341
        96 -10.1718    230.7327    116.1327   3.0411230939e+01  -4.2536719586e+01   0.01022247   0.00837151  85.51  0.001155562    1.436    0.304
        97  -9.8341    220.0000    114.9749   3.0563590962e+01  -4.2618766203e+01   0.01062987  0.003723857  58.83 0.0008024083    2.942    0.660
        98 -10.1536     65.5429    248.8405   3.4055566439e+01  -4.2130718724e+01   0.01325669  0.007566167 -56.81  0.001195402    2.305    0.566
        99 -11.6561    194.1898    246.2911   3.2076899281e+01  -4.1367932045e+01   0.02008629   0.01022691  43.15  0.001830432    2.135    0.532
       100 -11.0928    177.1989    245.0736   3.2322514584e+01  -4.1487434202e+01   0.01457469  0.008352458  46.47  0.001430352    1.796    0.443
       101 -10.6520     44.6031    244.9516   3.4347454170e+01  -4.2298997842e+01    0.0166096   0.01164311 -54.22  0.001771867    1.608    0.378
       102 -12.2168      6.0131     86.2466   3.3641716995e+01  -4.4274042667e+01   0.01535761  0.008414988  51.30  0.001487699    1.823    0.451
       103 -10.9582    230.6002    103.8546   3.0305129338e+01  -4.2669020189e+01   0.01247164  0.008541055  78.51  0.001276839    1.854    0.461
       104 -12.0665      3.2280     76.9959   3.3607677756e+01  -4.4392271961e+01   0.01518564  0.009422188  55.65  0.001373625    1.622    0.383
       105 -10.9831    238.5206    102.5315   3.0173597368e+01  -4.2631520561e+01   0.01296843  0.006459496  58.68  0.001002703    2.076    0.518
       106 -12.0823      2.3526     61.0410   3.3485843306e+01  -4.4572243136e+01   0.02545077  0.009943827  63.02  0.002036438    2.786    0.641
       107 -12.7622      2.8932     50.7568   3.3389233713e+01  -4.4681429639e+01   0.03732594   0.01377327  53.35  0.003043069    2.600    0.615
       108 -11.9762      2.9299    105.1449   3.3850107520e+01  -4.4085533406e+01   0.01501693  0.009277361  54.52  0.001543685    1.624    0.384
       109 -11.8810      7.1965     62.7112   3.3422729995e+01  -4.4524459972e+01   0.01387537  0.008533557  48.56  0.001415739    1.649    0.393
       110 -11.6705      1.8135     94.6932   3.3779911826e+01  -4.4206913059e+01   0.01478019    0.0088386  62.48  0.001480657    1.753    0.430
       111 -11.4844      8.3511     44.6170   3.3249192898e+01  -4.4715174487e+01   0.01430442  0.007579186  52.05  0.001362798    1.879    0.468
       112 -12.2440    236.6167     89.1915   3.0084238433e+01  -4.2786522840e+01   0.02140553   0.01187639  75.59  0.001861984    2.627    0.619
       113 -12.2428      2.4842     40.6468   3.3308982745e+01  -4.4794428250e+01   0.02629612   0.01101264  57.66  0.002254327    2.365    0.577
       114 -11.8383     12.2659     38.1884   3.3131182008e+01  -4.4761370106e+01   0.01660951  0.009431249  38.68  0.001574918    2.003    0.501
       115 -11.1088     18.5452     31.3367   3.2971501758e+01  -4.4797499154e+01   0.01546131  0.009147027  16.85  0.001342377    2.604    0.616
       116 -10.6010    218.9857    243.9989   3.1686048445e+01  -4.1236596886e+01   0.01076794   0.00765792  24.01  0.001118103    1.675    0.403
       117 -10.9571    202.3208    241.9428   3.1918459867e+01  -4.1363919595e+01    0.0205385  0.004688913  55.09   0.00136132    3.884    0.743
       118 -12.0869    225.9162    241.4429   3.1561002472e+01  -4.1220328463e+01   0.01971555   0.01192609  52.16  0.001749384    1.661    0.398
       119 -11.9582     29.4672    240.7073   3.4547873176e+01  -4.2435959531e+01   0.02414734   0.01702675 -64.14  0.002133302    1.756    0.430
       120 -10.5427    202.8165    249.5143   3.1974322310e+01  -4.1278879205e+01   0.01316935  0.009745631  26.92  0.001279592    1.537    0.349
       121 -11.8635      1.7411     25.3378   3.3188866517e+01  -4.4966166575e+01   0.02024997  0.009583129  62.50  0.001799065    2.250    0.556
       122 -10.3528     57.3634    241.8342   3.4124987468e+01  -4.2256824466e+01   0.01697127  0.007137992 -42.45  0.001408489    2.445    0.591
       123 -10.4173     38.1719    240.4536   3.4410778717e+01  -4.2386893236e+01     0.015977  0.009197099 -49.06  0.001481425    1.942    0.485
       124 -10.5378    236.1507    107.1667   3.0250362305e+01  -4.2597417201e+01  0.009060212  0.007714964 -67.82 0.0009899213    1.331    0.248
