#   1 NUMBER                 Running object number                                     
#   2 MAG_AUTO               Kron-like elliptical aperture magnitude                    [mag]
#   3 X_IMAGE                Object position along x                                    [pixel]
#   4 Y_IMAGE                Object position along y                                    [pixel]
#   5 X_WORLD                Barycenter position along world x axis                     [deg]
#   6 Y_WORLD                Barycenter position along world y axis                     [deg]
#   7 A_WORLD                Profile RMS along major axis (world units)                 [deg]
#   8 B_WORLD                Profile RMS along minor axis (world units)                 [deg]
#   9 THETA_WORLD            Position angle (CCW/world-x)                               [deg]
#  10 FWHM_WORLD             FWHM assuming a gaussian core                              [deg]
#  11 ELONGATION             A_IMAGE/B_IMAGE                                           
#  12 ELLIPTICITY            1 - B_IMAGE/A_IMAGE                                       
         1 -16.6287    150.2263     86.0404   9.4061669526e+01   3.5473061339e+01     6.044314     3.044517 -34.44   0.02273746    2.120    0.528
         2 -19.0267    216.4178     95.9461   8.3589432823e+01   1.7508980523e+01     8.973038     6.981034 -25.59   0.04529828    1.315    0.240
         3 -15.9222    236.2492     48.4901   6.8753714722e+01   2.0158417418e+01     3.541764     1.362977  62.89   0.01419156    2.605    0.616
         4 -15.7899    183.4776     54.7657   7.7872798251e+01   3.2440774142e+01     2.428918     1.550333  62.60  0.005954506    1.537    0.350
         5 -12.7061    225.7125     23.1659   6.3573008500e+01   2.5945536908e+01    0.4959514    0.4115077  80.16 0.0009519929    1.164    0.141
         6 -10.6816    247.6393     15.7621   5.9864412502e+01   2.1660461046e+01    0.3722125    0.1901503 -36.28  0.001880586    1.763    0.433
         7 -12.2418    237.7333     10.0352   5.9323819995e+01   2.4582055609e+01    0.4374652     0.268141  66.05  0.001693931    1.637    0.389
         8 -11.4762    223.1464      8.0573   6.0051192495e+01   2.8270093035e+01    0.2489388    0.1990813 -72.23 0.0002624383    1.090    0.083
         9  -9.1920     12.4831      9.4876   1.1463311450e+02   7.2725710918e+01    0.1128813   0.08382446 -24.96 0.0008103132    1.006    0.006
        10 -10.0458    184.9040      8.4475   6.3977325077e+01   3.7876345142e+01    0.2118321    0.1226997  70.78  0.001012105    1.552    0.355
        11  -9.5854    142.8330      8.3916   6.9840151602e+01   4.8768573732e+01     0.201558    0.1085996  54.65 0.0003897658    1.624    0.384
        12  -9.8753    126.8404      8.1271   7.2636585326e+01   5.2788809341e+01    0.1843892    0.1747735  73.61 0.0003203768    1.112    0.101
        13 -10.0527    120.9248      7.5615   7.3602358681e+01   5.4277549139e+01    0.1879862    0.1710619  34.08 0.0003199976    1.050    0.048
        14  -9.9018    117.0186      7.1137   7.4242216849e+01   5.5252748981e+01    0.1952816    0.1794608  39.08 0.0004465432    1.037    0.036
        15 -10.5019    209.7733      6.1062   6.0751247228e+01   3.1768680900e+01    0.2094213    0.1696868  88.75 0.0004864559    1.096    0.088
        16  -9.5322     66.2129      6.4141   8.8106627889e+01   6.6033711552e+01    0.1576209    0.1159192  52.80 0.0009420027    1.581    0.367
        17 -10.9963    187.2765      4.4084   6.2549165145e+01   3.7655006683e+01    0.2253956    0.1991188 -81.24 0.0002632994    1.046    0.044
        18 -13.9246    166.7866      2.4419   6.4365445921e+01   4.3137856013e+01    0.4034204    0.2730572  73.07  0.001461499    1.319    0.242
        19  -9.4373    151.4816      3.5806   6.6823241846e+01   4.6989536910e+01    0.1374338    0.1215085  70.33 0.0001292649    1.021    0.021
        20  -8.9878    180.2655      1.2854   6.2417636365e+01   3.9752161301e+01    0.1303764   0.09535207  43.86 0.0006893267    1.493    0.330
        21  -9.2648     57.6189      1.2786   8.8649105516e+01   6.8073590397e+01    0.1051222   0.09754398 -73.02 0.0007005432    1.715    0.417
        22  -8.9204     49.3059    226.3113   1.4252403889e+02   2.3015433846e+01   0.09317353   0.08722317 -63.76 0.0004993771    1.616    0.381
        23 -10.6609    228.7809    250.4235   1.1265973455e+02  -7.9926859194e+00    0.2500033    0.1101382  39.31  0.001385168    1.843    0.457
        24  -9.3335    222.4769    250.4504   1.1372535276e+02  -7.0765600661e+00    0.1139094   0.08659392  26.22 0.0001332498    1.053    0.051
        25 -10.1412    192.0471    250.6012   1.1899833129e+02  -2.4737618849e+00    0.1730233   0.08917491  39.75 0.0003067459    1.505    0.336
        26 -10.0260    182.6857    250.3106   1.2060971327e+02  -9.6933328214e-01    0.1112681   0.08156153  58.47 0.0007030662    1.633    0.388
        27 -10.6556    165.4706    249.4497   1.2356701505e+02   1.8776933589e+00    0.2439465    0.1864174  70.61   0.00123822    1.701    0.412
        28 -10.5613    161.8668    245.8421   1.2376088171e+02   2.9563754467e+00    0.1851714    0.1460503  44.85 0.0003667605    1.063    0.059
        29  -9.3282    150.0816    251.0000   1.2651707618e+02   4.1096915322e+00    0.2054838   0.05305112  41.68 0.0003596465    2.978    0.664
        30  -9.9123    125.2754    249.9872   1.3085928218e+02   8.1508139142e+00    0.1597775    0.1322972  59.23  0.001150655    1.116    0.104
        31 -10.1391    238.3194    223.9922   1.0687804215e+02  -6.4166010749e+00    0.1599796    0.1295438   4.64 0.0003840777    1.101    0.092
        32 -11.1085    179.6992    222.9225   1.1726190514e+02   3.3126088111e+00    0.4420027    0.1504511  41.01  0.001624751    2.451    0.592
        33 -11.4029     88.7234    220.2184   1.3459523422e+02   1.8812585434e+01      0.30474    0.2353671 -65.66  0.001574832    1.484    0.326
        34 -10.9242     63.7304    220.2309   1.3938729704e+02   2.2319746729e+01    0.3010627    0.1324705  60.88   0.00108576    2.133    0.531
        35  -9.4637    230.4722    220.5123   1.0764072091e+02  -4.7805084939e+00    0.1227231   0.09710854  17.04 -4.970319e-05    1.018    0.017
        36 -10.9476    124.5115    215.5323   1.2698387754e+02   1.4017096020e+01    0.2439342    0.2111315  34.87  0.000774583    1.262    0.208
        37 -11.1720      3.2078    214.4214   1.4998091005e+02   3.0230644422e+01    0.2131242    0.1940817   3.41  0.001184442    1.978    0.495
        38 -11.4305    202.5247    211.5711   1.1115201339e+02   1.0415227565e+00    0.3797795    0.2547598 -41.72  0.001039296    1.754    0.430
        39 -11.4722     59.2522    214.5247   1.3975844983e+02   2.4007167998e+01    0.4105085    0.1796195  44.64 0.0008076159    1.913    0.477
        40 -10.7672     90.0377    211.0625   1.3336873779e+02   2.0362534932e+01    0.1927961    0.1529084  64.81 0.0003676251    1.026    0.025
        41 -10.1547    232.7424    209.8268   1.0540287842e+02  -3.7833916706e+00    0.2343444    0.1456621 -16.67  0.001317225    1.730    0.422
        42 -10.1394    157.8898    209.8090   1.1949115904e+02   9.2278574954e+00      0.19221    0.1583141  32.82 0.0002890383    1.156    0.135
        43 -10.2814     96.9870    208.7524   1.3170367669e+02   1.9747881279e+01    0.1744585    0.1440864  60.93 0.0004095492    1.039    0.037
        44  -9.6008    242.1938    207.6401   1.0338675531e+02  -5.0105621534e+00    0.1798877      0.10513  36.15   0.00026003    1.539    0.350
        45 -10.4887    237.7027    206.9407   1.0403062960e+02  -4.2076379676e+00    0.2914695    0.1921027  39.62  0.001731277    1.460    0.315
        46 -11.0076     89.9423    206.0435   1.3282938812e+02   2.1361319660e+01    0.1922424    0.1571603  64.91 0.0003571285    1.014    0.013
        47  -9.2490    229.3665    205.2280   1.0517656804e+02  -2.6248229116e+00    0.1283156   0.08125152  18.93 0.0006885318    1.588    0.370
        48 -11.4656    210.2006    203.9761   1.0841432671e+02   8.0934745751e-01    0.2455639     0.204367 -24.17 0.0002809619    1.286    0.223
        49 -10.8451    250.2355    202.2939   1.0106498931e+02  -5.5956175252e+00    0.1994928    0.1536107 -21.44 0.0003671083    1.284    0.221
        50 -11.5456    191.4402    201.5082   1.1152503853e+02   4.5235487626e+00    0.4260979     0.282803  62.93  0.001284125    2.139    0.532
        51 -10.8703    182.8985    200.2684   1.1297344349e+02   6.2806349447e+00    0.4011352    0.2533162 -58.20  0.001978115    2.237    0.553
        52  -9.8932    157.1603    201.7479   1.1837502247e+02   1.0754526853e+01    0.2246598    0.1390498  73.36 0.0009517102    2.809    0.644
        53 -10.7864     68.1338    201.4255   1.3679634998e+02   2.5439491919e+01    0.2455468    0.1623897  77.39   0.00100095    1.387    0.279
        54  -9.5806    170.1464    200.7070   1.1557997966e+02   8.5526482784e+00    0.1941897    0.1526878  40.50  0.001118677    1.111    0.100
        55  -9.5430    110.7955    200.1014   1.2776663894e+02   1.9224392810e+01     0.270713    0.1060576 -65.92  0.001042116    3.361    0.702
        56 -10.5853     47.4437    201.4976   1.4096945456e+02   2.8091744491e+01    0.2200288    0.1032159  39.33 0.0008027416    2.042    0.510
        57 -10.7306    128.1310    200.1044   1.2412704568e+02   1.6265667170e+01    0.2103887    0.1668225  47.34  0.000304846    1.116    0.104
        58 -10.6646     36.9509    199.3506   1.4286979295e+02   2.9758540528e+01    0.1864874    0.1242343  79.86 0.0003677455    1.212    0.175
        59 -11.5316    214.2771    196.5959   1.0633090298e+02   1.1740054029e+00    0.3660835    0.3127789  69.57  0.001789767    1.666    0.400
        60 -10.6578    149.0339    196.2980   1.1917252305e+02   1.3226278663e+01     0.319564    0.2342448 -36.42  0.001063123    1.668    0.400
        61 -12.1766     47.4128    194.6100   1.4038775896e+02   2.9517212940e+01    0.3735133    0.3046567  80.56 0.0007836439    1.087    0.080
        62 -12.1129    201.2128    192.5506   1.0804004971e+02   4.1492330874e+00    0.4889272    0.3785946  -4.07  0.001700705    1.423    0.298
        63 -11.8603    208.1439    191.1936   1.0647286842e+02   3.0911671326e+00    0.3423718    0.2781332 -18.15 0.0007296769    1.270    0.212
        64 -10.3556    249.3889    194.6701   9.9794250320e+01  -4.4871429948e+00     0.224752    0.1458378  35.11 0.0009708117    1.447    0.309
        65  -9.8901    166.4331    195.3114   1.1542011402e+02   1.0174297115e+01    0.1716288    0.1337421 -61.12 0.0009456724    1.560    0.359
        66 -11.2680    156.4257    194.2128   1.1729364821e+02   1.2239840117e+01    0.4487107    0.2266108  40.38  0.002031741    1.791    0.442
        67 -10.0191    144.0000    194.9632   1.2001136669e+02   1.4398126037e+01    0.1890465    0.1554255  83.30 0.0008381886    1.386    0.278
        68 -10.0001    140.7852    192.2128   1.2024992867e+02   1.5508524531e+01    0.2968427    0.1913241  67.59 0.0007827916    1.937    0.484
        69 -10.9097     99.0042    193.9733   1.2946210010e+02   2.2383782256e+01     0.360953    0.1622688 -75.42  0.001403877    3.302    0.697
        70 -11.0815    106.9829    190.3143   1.2724427759e+02   2.1831754116e+01    0.2436634     0.165472  49.23  0.001320762    1.310    0.236
        71 -10.4196     31.0856    193.9739   1.4362402079e+02   3.1513253795e+01     0.176341    0.1333192  81.31 0.0004834437    1.042    0.040
        72 -12.7941    230.6238    187.7003   1.0169997107e+02  -4.0157753808e-01    0.5138253    0.3747844  16.18  0.000599172    1.321    0.243
        73  -9.6844    186.9960    193.4617   1.1096780545e+02   6.6397689719e+00    0.2149143    0.1208904  44.16  0.001029718    1.611    0.379
        74 -10.9905    129.9807    192.1457   1.2254454647e+02   1.7479922564e+01    0.2019343    0.1835307  82.67  0.000297955    1.116    0.104
        75 -11.3563    118.0174    190.4552   1.2486838652e+02   1.9926132663e+01    0.4473269    0.2451986 -65.09  0.001274012    2.098    0.523
        76 -10.0713    113.8996    193.1473   1.2614796722e+02   2.0089995220e+01    0.2124403    0.1599891  65.67 0.0005159191    1.260    0.206
        77 -10.3094     10.6425    192.5053   1.4751227744e+02   3.3858252955e+01    0.2103415    0.1426343  61.17  0.001005159    1.230    0.187
        78 -11.9544     89.5959    190.2839   1.3101721228e+02   2.4629513239e+01    0.3281159    0.2272235  60.81  0.001859149    1.297    0.229
        79 -11.3162     75.5701    189.7509   1.3398381699e+02   2.6829028809e+01     0.296955    0.1673904  86.50  0.001340623    2.046    0.511
        80 -10.5206    244.6811    185.8712   9.8910522984e+01  -2.5424421027e+00    0.3395966    0.2666512 -66.27  0.001878308    2.324    0.570
        81 -11.8932    215.2480    185.4528   1.0405534796e+02   2.6776462713e+00    0.4662095    0.3541184   4.02  0.002634071    1.382    0.276
        82 -10.6641    143.9068    189.3561   1.1912031857e+02   1.5479715344e+01    0.2319752    0.1918886 -81.00  0.001309713    1.390    0.281
        83 -10.3426    128.6077    188.0137   1.2219742628e+02   1.8544453216e+01    0.1964864    0.1689925 -36.72 0.0005856278    1.429    0.300
        84 -10.6393     55.1425    187.8498   1.3814948024e+02   2.9990376247e+01    0.2022392    0.1352374  72.57 0.0007967876    1.312    0.238
        85 -11.3723    110.2982    184.6527   1.2570183816e+02   2.2446389194e+01    0.3634702    0.2396462 -28.37  0.001630275    2.751    0.636
        86 -10.0977    243.7950    247.7819   1.0977247651e+02  -9.8465555610e+00    0.1387851    0.1136576  28.94 0.0003674419    1.334    0.250
        87 -16.0566    183.2737     80.0211   8.5238678604e+01   2.8361369719e+01     2.464948     1.369489  74.90  0.008484218    2.625    0.619
        88 -15.7245    193.0686     75.9630   8.2285551988e+01   2.6585987228e+01      2.25571     1.254969 -89.52  0.007134104    3.763    0.734
        89 -15.5666    211.0293     64.3071   7.6150161998e+01   2.3958495061e+01     1.231809    0.9697521   7.72  0.006078888    1.684    0.406
        90 -10.0251    132.2430    246.7973   1.2925701959e+02   7.5512865478e+00    0.2132801    0.1206629  49.95 0.0005553179    1.415    0.293
        91 -11.1546    146.0312    171.4528   1.1552125631e+02   1.8605001456e+01    0.3143515    0.1981896  38.74  0.001464804    1.548    0.354
        92  -9.6238    110.7082    173.6255   1.2391116753e+02   2.4716531743e+01    0.1925228    0.1188911  50.71  0.000930058    1.511    0.338
        93 -10.2629    113.6512    169.7021   1.2258945468e+02   2.5047660671e+01    0.2433857    0.1646193 -47.71 0.0007021114    1.654    0.395
        94 -11.3512     81.9675    168.9725   1.2989381447e+02   3.0427625050e+01    0.2276605    0.1449202  73.32  0.001134526    1.708    0.414
        95 -12.1635     69.3783    167.0136   1.3258382515e+02   3.2692872573e+01    0.3189721    0.2510331  34.62  0.001015672    1.478    0.323
        96 -11.6652     72.5051    163.5101   1.3137206808e+02   3.3049118469e+01    0.2428508    0.1557526 -58.71 0.0008030144    1.556    0.357
        97 -11.3909    205.6205    166.9281   1.0217624463e+02   7.5008391912e+00    0.3236841    0.2149067  31.71  0.001369427    1.514    0.339
        98 -11.6884    221.3485    177.6102   1.0139509908e+02   2.7644406537e+00    0.4162797    0.3179733  29.92  0.001859281    1.218    0.179
        99 -10.8901    127.9635    181.6255   1.2131374544e+02   1.9951979991e+01    0.3646719    0.2189884 -33.26  0.001417744    2.595    0.615
       100 -10.8394     96.0093    166.0153   1.2613760113e+02   2.8879980794e+01    0.2096474    0.1840588  76.81 0.0003721556    1.016    0.016
       101 -10.1123     83.4621    182.4646   1.3136825121e+02   2.7229789621e+01    0.1328821    0.1120752  74.04 0.0001228038    1.004    0.004
       102 -11.1921     55.7877    164.4106   1.3544976190e+02   3.5080466289e+01     0.258467    0.2014971  69.98  0.001597486    1.143    0.125
       103 -10.7318    128.5525    163.5925   1.1804442822e+02   2.3623878207e+01    0.3509259    0.2409198  78.82 0.0005111935    1.916    0.478
       104 -11.3398    120.9649    162.0174   1.1953650753e+02   2.5392416765e+01    0.2675532    0.2139839 -71.06 0.0009465649    1.297    0.229
       105  -9.6289     52.4262    182.4961   1.3819647916e+02   3.1482564217e+01    0.1253569   0.09972561  79.69 0.0001018653    1.012    0.012
       106  -9.6723     90.2976    163.3054   1.2707809474e+02   3.0413507899e+01    0.1272419     0.109177 -28.41 0.0002203184    1.587    0.370
       107 -11.6566    138.3598    159.2094   1.1493003994e+02   2.2653779036e+01    0.3066761    0.2395189  44.92 0.0002118395    1.224    0.183
       108 -12.7568    128.2308    155.6632   1.1661848024e+02   2.5402073500e+01    0.6353855    0.4208497  63.41  0.002288246    1.711    0.416
       109 -12.7036    138.9760    154.4986   1.1384974922e+02   2.3534095360e+01    0.7164043     0.308547  45.59  0.002716593    2.221    0.550
       110 -14.9915    222.7019     75.8306   7.7442211697e+01   1.9320797649e+01    0.6438933    0.4950319 -52.10  0.001692006    1.261    0.207
       111 -10.1973    243.2151    160.3783   9.4018838920e+01   1.3772051233e+00    0.2241308    0.2002838  89.58  0.001022379    1.639    0.390
       112  -9.9197     86.4886    158.4996   1.2725026976e+02   3.2108859362e+01    0.1389048    0.1227232  82.87 0.0008105872    1.001    0.001
       113  -9.9822     16.2381    156.1003   1.4377880096e+02   4.1146875952e+01    0.2404228    0.1455728 -55.22  0.001441318    1.809    0.447
       114 -11.7221     77.5395    154.7368   1.2887045695e+02   3.4336166315e+01    0.2987223    0.2158355 -86.01  0.000702268    1.361    0.265
       115 -10.2048    250.1446    153.6318   9.1452070683e+01   1.1302922247e+00    0.1962979    0.1665464 -31.68 0.0003369579    1.193    0.162
       116 -12.2091    118.8796    153.1175   1.1837796073e+02   2.7746470586e+01    0.3930853    0.2797852  38.56  0.001235874    1.448    0.309
       117 -11.9901    120.4649    149.3756   1.1726332257e+02   2.8282590276e+01    0.5356296     0.254938  43.09  0.001799697    2.048    0.512
       118 -11.1183      8.0336    152.9659   1.4539065884e+02   4.2521606237e+01    0.1697614    0.1284344  87.24            0    1.013    0.013
       119 -11.6415    128.8488    149.7934   1.1530643518e+02   2.6568112237e+01    0.5852334    0.2705635  60.46  0.001886795    3.463    0.711
       120 -10.9473    108.3606    150.2309   1.2041828623e+02   3.0327739524e+01    0.1938556    0.1815577  57.99 0.0003153904    1.095    0.087
       121 -10.5252     34.7196    150.2511   1.3885041137e+02   4.0727593403e+01    0.1580559    0.1280307 -61.04 0.0003574587    1.318    0.241
       122  -9.9144     16.7082    147.3083   1.4289243183e+02   4.3081063341e+01    0.1808077    0.1262481 -80.73 0.0005966533    1.139    0.122
       123 -11.8878     91.3212    147.7257   1.2425107003e+02   3.3824237943e+01    0.3419457    0.2655046  62.15  0.001451063    1.269    0.212
       124 -15.6631    233.1301     78.5105   7.6619311073e+01   1.6463374846e+01     1.206625    0.8610384  29.17  0.005865645    1.851    0.460
       125 -10.7715     13.1704    148.2454   1.4381410399e+02   4.3163487143e+01     0.495444    0.1782272  62.45  0.002089944    3.373    0.703
       126 -10.9320     77.4989    146.0623   1.2750440632e+02   3.6364129189e+01    0.2113606    0.1260033 -63.60  0.001025127    1.567    0.362
       127 -10.2893     85.9401    142.6786   1.2474255528e+02   3.5866121376e+01    0.1941784    0.1731984  66.72 0.0004579332    1.093    0.085
       128 -10.1382    157.2912    181.0307   1.1482158622e+02   1.4530959480e+01    0.3476606     0.206304  64.46  0.001462955    2.345    0.574
       129 -10.3053    101.7885    179.8678   1.2689978436e+02   2.4890008265e+01    0.3035771    0.1805867  79.01  0.001349768    2.271    0.560
       130 -11.1262     98.9664    139.4807   1.2075495689e+02   3.4459080690e+01    0.2249554    0.1869847 -66.20 0.0005055148    1.155    0.134
       131 -11.3467     33.2536    177.5773   1.4186180105e+02   3.4761367725e+01    0.3651334    0.1596234 -75.88  0.001125311    1.991    0.498
       132  -9.7913     32.6531    134.8556   1.3756298034e+02   4.4503365204e+01    0.2673561   0.07881249 -62.15   0.00109287    2.633    0.620
       133 -11.7060    109.3967    132.8154   1.1666826709e+02   3.4133775080e+01    0.3121109    0.2044518  48.77 0.0007222231    1.535    0.348
       134  -9.9819     41.8151    130.8622   1.3459304658e+02   4.4509565216e+01    0.1746921    0.1313616  80.57 0.0003981783    1.277    0.217
       135  -9.7711     25.7493    131.2867   1.3893990716e+02   4.5976352454e+01    0.2216302   0.08726303  38.25   0.00105104    2.618    0.618
       136 -10.4473      6.9851    131.0089   1.4376186770e+02   4.7528187911e+01    0.1736376    0.1333464 -83.08  0.001204183    1.017    0.017
       137 -11.6277    103.0060    123.7500   1.1639604787e+02   3.7406220261e+01    0.3196725    0.2546746  13.51  0.001025115    1.668    0.401
       138  -9.7127     20.2345    128.4146   1.4005906100e+02   4.7114309952e+01    0.1558554    0.1026475  49.24 0.0009439167    1.617    0.382
       139 -10.5517     42.8744    127.1882   1.3377053323e+02   4.5264174720e+01    0.2018419    0.1531312  80.02 0.0009076615    1.290    0.225
       140 -10.1112     47.7144    124.9738   1.3208620393e+02   4.5257121850e+01    0.1844737    0.1453733 -71.66 0.0003570751    1.086    0.079
       141  -9.6938     12.1459    123.8213   1.4169369124e+02   4.8799827364e+01    0.1615259    0.1170166 -59.83 0.0004719252    1.306    0.234
       142 -12.9805    120.7784    115.8783   1.0974887947e+02   3.5779749423e+01     0.788204    0.4575718  66.19  0.002931597    2.596    0.615
       143 -13.0977     99.4675    117.1450   1.1587080138e+02   3.9577750144e+01    0.5991037    0.5668173  20.91  0.001406804    1.192    0.161
       144  -9.7811     29.5037    118.4834   1.3624835425e+02   4.8631803347e+01     0.126735    0.1033123 -78.43 -6.668279e-05    1.015    0.015
       145 -11.6272     90.7606    116.5019   1.1818057612e+02   4.1240834927e+01    0.3558496    0.2720395  30.81 0.0006296925    1.491    0.330
       146  -9.9868     70.4366    117.2414   1.2419472155e+02   4.4216121752e+01    0.1999632    0.1254618 -71.74 0.0009426153    1.625    0.385
       147 -11.1110     56.8706    116.5069   1.2801238276e+02   4.6188272625e+01    0.3227928    0.1903161 -67.03 0.0002894379    1.533    0.348
       148 -10.9222     11.5332    113.9679   1.4074110497e+02   5.1106544133e+01    0.1866143    0.1508921 -41.55 5.542952e-05    1.445    0.308
       149 -12.3757    112.8396    109.4364   1.1027737946e+02   3.8821760303e+01    0.4219727     0.344908 -31.85   0.00119775    1.350    0.259
       150  -9.6256     17.3041    113.3249   1.3902493014e+02   5.0839189783e+01    0.1237796   0.07552891 -49.26 0.0007032679    1.642    0.391
       151 -12.0250    100.5552    105.7919   1.1281103095e+02   4.1992379314e+01     0.520006    0.4079821 -47.95  0.002010349    1.229    0.187
       152 -10.5309     29.2814    106.3215   1.3448628597e+02   5.1498036555e+01    0.2571628    0.1935481  73.13  0.001580286    1.427    0.299
       153  -9.7202     64.2989     97.3934   1.2176665115e+02   4.9726626869e+01    0.1784506    0.1275516  46.78   0.00075505    1.561    0.359
       154 -10.9387    123.4193    176.3927   1.2146669147e+02   2.1862794907e+01    0.3526378    0.2196152 -87.64  0.001508074    2.437    0.590
       155 -10.1717     87.2229     88.4477   1.1220331772e+02   4.8256269611e+01    0.3097463    0.1769096 -35.34  0.001319753    1.989    0.497
       156  -9.8544      3.4456     88.5053   1.3987641716e+02   5.7394165292e+01     0.118624   0.09016215 -68.57 0.0001584549    1.012    0.012
       157 -11.9328    117.3887     84.8167   1.0217070687e+02   4.3227803979e+01    0.4808252    0.3165201  52.95 0.0008663536    1.616    0.381
       158  -9.8598     49.3214     84.5946   1.2368459065e+02   5.4521512365e+01    0.2330405    0.1220334  36.37  0.001130283    2.148    0.534
       159  -9.8310     58.9884     82.9545   1.1996815783e+02   5.3716633913e+01    0.2152259    0.1478635 -29.87 0.0005797704    1.643    0.391
       160  -9.5097     84.0148     82.4612   1.1151857458e+02   5.0109231533e+01    0.1959797    0.1423195  37.18  0.000345744    1.479    0.324
       161 -11.6217    101.9424     78.6535   1.0477967926e+02   4.7656355699e+01    0.2662387    0.2580613  75.14 0.0001893559    1.111    0.100
       162 -10.5184     95.6349     77.6787   1.0640970029e+02   4.9063892307e+01     0.405807    0.2412882  32.83 0.0009397513    1.918    0.479
       163 -10.7176     25.4958     77.7658   1.3048788360e+02   5.8358041840e+01    0.1773922    0.1678544 -11.22 0.0003793249    1.244    0.196
       164 -12.1651    114.4891     76.0658   1.0028865057e+02   4.5617721947e+01    0.4676921    0.3411366  24.58   0.00217879    1.640    0.390
       165  -9.5260     80.4657     75.5221   1.1061577153e+02   5.2184586372e+01    0.1405204    0.1305365 -43.53  0.000468963    1.038    0.036
       166 -11.4021     79.4883    178.0517   1.3169085382e+02   2.8782853177e+01    0.2569798    0.1581103  58.36 0.0008996727    1.533    0.348
       167 -11.3373    119.8930     69.5265   9.6667452395e+01   4.5709242550e+01    0.3252342    0.2863693 -84.49  0.000898546    1.339    0.253
       168 -10.4587    101.1594     69.1978   1.0199971941e+02   4.9714292544e+01     0.243703    0.2331248  -6.86 0.0004324091    1.028    0.027
       169 -10.2198     67.6581     70.1627   1.1334721279e+02   5.5305265158e+01    0.2053996    0.1852771  48.75 0.0003900416    1.277    0.217
       170 -10.7428     12.9931     64.1760   1.3221362101e+02   6.2224088799e+01    0.1931293    0.1053718 -32.66 0.0008635423    1.936    0.483
       171 -11.7454    100.6266     61.7158   9.9640017838e+01   5.1251535157e+01    0.3505712     0.339518 -86.61  0.002012151    1.170    0.146
       172 -11.2591     18.3962     62.0985   1.2963799457e+02   6.2314500875e+01    0.2121175    0.1741301 -55.80  0.000312208    1.055    0.052
       173 -11.0216     55.7991     60.7214   1.1470719267e+02   5.8896557348e+01    0.2244868    0.2061743 -64.31 0.0002025478    1.239    0.193
       174 -10.3237    109.1406     59.8607   9.6451738513e+01   4.9831327984e+01    0.1961282    0.1676086   6.15 0.0002586903    1.260    0.206
       175 -11.4491     46.5903     57.9833   1.1737138942e+02   6.0584404156e+01    0.2918068    0.1959946  26.03  0.001658004    1.679    0.404
       176 -10.7719     90.8723     57.9991   1.0141720768e+02   5.3838134218e+01    0.3668282    0.1961852  54.00  0.001536345    2.346    0.574
       177 -11.2478    131.4538     49.0439   8.6682844469e+01   4.6565426185e+01    0.3185732    0.1455069 -33.35 0.0006527907    2.228    0.551
       178 -12.1993    126.5099     56.2466   9.0426118537e+01   4.6571902402e+01    0.4919896    0.2645634  36.56  0.001946292    2.165    0.538
       179 -11.2608    119.0332     55.0289   9.1979696180e+01   4.8500533728e+01    0.4222737     0.219666  34.14   0.00161716    2.398    0.583
       180 -10.5127     36.9531     52.7517   1.1958173459e+02   6.2688955789e+01    0.3677787    0.1860164 -51.89  0.001466879    1.671    0.402
       181 -10.4040    223.1313    245.1599   1.1283041091e+02  -6.5834083185e+00    0.1726734    0.1230282  20.60 0.0003762036    1.142    0.124
       182 -11.4690    214.8744    244.0833   1.1408737059e+02  -5.2143299059e+00    0.2339559    0.1999244  29.90 0.0004545144    1.215    0.177
       183  -9.2228    115.6929     52.2840   9.1919184715e+01   4.9713998571e+01    0.1413057    0.1169579 -77.81 0.0002033537    1.564    0.361
       184 -10.0400    106.1077     51.4931   9.4360803890e+01   5.1938584045e+01    0.2125884    0.1395051  45.91  0.000478373    1.520    0.342
       185  -9.4298     94.3829     51.2618   9.7856676109e+01   5.4375263976e+01    0.1462723     0.105155  13.45 0.0006978491    1.681    0.405
       186  -9.5879     11.5288     54.0276   1.3045839311e+02   6.4467079732e+01    0.1728707   0.09234869 -59.78 -2.185633e-05    1.473    0.321
       187 -12.4953    119.2214     46.8177   8.8995108856e+01   4.9797070059e+01    0.5857497    0.3591002  74.27 0.0002314058    2.518    0.603
       188 -10.0651    236.2455    177.0556   9.8627364441e+01   1.5540495330e-01    0.2126371    0.1708156  30.36 0.0005579587    1.188    0.159
       189 -15.9149    179.7233     93.8926   8.9822290686e+01   2.6745323669e+01     2.087421     1.588773  15.88  0.009397931    1.728    0.421
       190  -9.6430     85.2004     45.1748   9.8556757130e+01   5.7170787237e+01    0.1815781    0.1683929 -64.53  0.001072276    1.332    0.249
       191  -9.8800     19.5057     42.9989   1.2398467766e+02   6.6172740532e+01    0.1480751   0.09854111 -82.47 0.0005883188    2.331    0.571
       192  -9.2327      6.3087     40.6450   1.2923275216e+02   6.7496242987e+01    0.1049314   0.08337239  84.31 0.0007042907    1.724    0.420
       193 -10.4308    242.4965     38.2103   6.5580619435e+01   2.0084420783e+01    0.2656876    0.2177393 -21.61  0.001037136    1.397    0.284
       194 -11.5985    145.9925     36.6858   7.9129481486e+01   4.4749352986e+01    0.4962923    0.3151994  76.46  0.001673508    1.852    0.460
       195 -11.0943    141.9422     34.8151   7.9319461738e+01   4.6025026633e+01    0.3919383    0.3013193  58.54  0.001379324    1.234    0.190
       196 -11.0992     96.4062     37.3203   9.1875884748e+01   5.6232320246e+01    0.2501624    0.2259604  12.40 0.0003542432    1.030    0.029
       197 -10.1882    134.9777     37.0241   8.1607667071e+01   4.7467324854e+01    0.2116706    0.2049151  32.34            0    1.025    0.024
       198 -10.5450    119.4951     36.9801   8.5290523532e+01   5.1199055974e+01    0.2119734    0.1400076 -31.06 0.0005339505    1.547    0.354
       199  -9.1285    105.6905     37.2604   8.9112672834e+01   5.4275892499e+01    0.1306346    0.1122973 -80.24 0.0002170061    1.528    0.345
       200 -10.2993     70.8686     36.1877   1.0001314631e+02   6.1183046540e+01    0.1838155    0.1721693 -27.89 0.0004671304    1.199    0.166
       201 -11.0366    161.2437    174.7666   1.1281791193e+02   1.4954751968e+01    0.6633015    0.2056476 -44.30  0.002217114    3.541    0.718
       202 -11.1075     92.4774    184.4847   1.2963040840e+02   2.5407343985e+01    0.2680511    0.1248945 -62.15   0.00121538    2.188    0.543
       203 -10.2938    132.5885     31.9247   8.0305355850e+01   4.8736669115e+01     0.341219    0.2188904 -22.83  0.001607921    1.683    0.406
       204  -9.6339     48.8411     33.1898   1.0748815202e+02   6.4973293685e+01    0.1698855    0.1262614 -13.03 0.0003172746    1.284    0.221
       205 -10.1658    223.5291    182.7133   1.0200507544e+02   1.5891220151e+00    0.2900988    0.1273741 -32.84  0.001187454    2.380    0.580
       206 -11.7104    177.8791    174.8495   1.0932617213e+02   1.1633526822e+01    0.3052949    0.2223316  39.44 0.0004507067    1.277    0.217
       207 -10.8826    112.6094     29.0567   8.4018245373e+01   5.3862890808e+01    0.3563594    0.2406761 -34.39   0.00164098    1.539    0.350
       208  -9.9203    140.9964     29.9836   7.7818818718e+01   4.6885941293e+01    0.2113385     0.199031  45.31  0.001205826    1.022    0.021
       209  -9.0531     15.6688     29.2683   1.2117537811e+02   6.9079297573e+01   0.09602883   0.08910477  78.29 0.0003914211    1.583    0.368
       210  -9.5589    250.5309     27.5513   6.2323920776e+01   1.9605896971e+01    0.1316611    0.1104463 -62.96 8.559428e-05    1.004    0.004
       211 -10.5234    250.5573     23.9811   6.1503273239e+01   2.0034691969e+01    0.2292621    0.1374142 -35.64 0.0003798461    1.544    0.352
       212 -10.3521     65.9809     27.3040   9.8059135988e+01   6.3374241348e+01    0.1774764    0.1533395   7.46 0.0003872837    1.066    0.061
       213 -10.1910     65.9895    242.2392   1.4071575821e+02   1.8013855625e+01    0.1768757    0.1307239  78.23 0.0002960788    1.179    0.152
       214  -9.2037    138.2679     26.6948   7.7207761954e+01   4.7976909271e+01    0.1394475     0.108157 -64.50 0.0001660592    1.532    0.347
       215  -9.8514     99.4517     25.4431   8.6142327702e+01   5.7246189208e+01    0.2791645    0.1704335  13.91  0.001256951    2.148    0.534
       216  -9.7574    152.8078     24.7556   7.3759634876e+01   4.4496933244e+01    0.1881201    0.1596243 -74.26 0.0004503989    1.272    0.214
       217 -10.3543    128.7627     24.0326   7.8241922264e+01   5.0651642427e+01    0.2937286    0.1815155 -83.51  0.001190189    2.690    0.628
       218 -10.4556    201.5922     21.5234   6.5729148352e+01   3.2167118891e+01    0.2504364    0.2003646  56.02 0.0007822709    1.299    0.230
       219 -10.0008     43.2760     22.4099   1.0524416067e+02   6.7454108210e+01    0.1466905    0.1121196  36.33 0.0005262688    1.546    0.353
       220 -10.3628    125.8727     19.9500   7.7334829682e+01   5.1823971812e+01    0.2127493    0.1692925  31.65 -0.0006383859    1.245    0.197
       221  -9.3609      2.6577     19.7051   1.2432742022e+02   7.1666222490e+01    0.1175712   0.06052818 -31.43  0.000643363    1.661    0.398
       222 -11.3966    226.2312    239.9888   1.1151469361e+02  -6.4584209241e+00    0.3631971    0.2657108  -5.09  0.002197669    1.381    0.276
       223 -11.4168    169.4032    172.8161   1.1070463804e+02   1.3701528813e+01    0.3814217    0.2636665 -67.41  0.001360734    2.002    0.501
       224 -10.7070     91.3325     16.0178   8.4466742795e+01   6.0103470745e+01     0.182436    0.1632138   9.44 0.0007703408    1.049    0.047
       225  -9.0629      5.7431     15.3165   1.2094740923e+02   7.2251304308e+01   0.09288148   0.08090722 -62.96 0.0002264259    1.535    0.349
       226 -10.4172    169.1509     13.9545   6.7650983390e+01   4.1423681294e+01    0.2043236    0.1864904  82.31 0.0003890171    1.019    0.018
       227  -9.2601    232.5862     13.7683   6.0633068994e+01   2.5379690289e+01    0.1291567     0.089993  51.31 0.0004359422    1.689    0.408
       228 -10.8965    247.4437    173.7708   9.6059268587e+01  -1.3218696528e+00    0.2214695    0.1905695   6.00 0.0002708461    1.037    0.035
       229 -10.4441    234.7742    240.7885   1.1019068159e+02  -7.8138963629e+00    0.1417935     0.121418  27.94 0.0005961561    1.311    0.237
       230  -9.9249     53.7344    177.9899   1.3744600957e+02   3.2303288521e+01    0.1546829   0.09578286 -75.27 0.0003278855    1.460    0.315
       231  -9.4624     56.6350    241.5100   1.4229009155e+02   1.9351043249e+01    0.1098743   0.08045531  68.19 0.0007945041    1.040    0.039
       232 -10.7593    126.9643    238.1566   1.2925665584e+02   9.7463953970e+00    0.2520428    0.1755807  37.03 0.0004823467    1.355    0.262
       233 -10.1143    235.9011    235.1912   1.0911875617e+02  -7.3533491305e+00    0.2220772    0.1284582   2.95  0.001235111    2.083    0.520
       234  -9.9621    217.1447    233.8501   1.1213358388e+02  -4.3373948870e+00    0.1730126    0.1455987  36.14 0.0007031097    1.258    0.205
       235  -9.6608     31.8097    233.3796   1.4604474068e+02   2.3773711272e+01    0.1367905   0.09313269  36.43 0.0009522476    1.761    0.432
       236  -9.4374    167.3270    232.3200   1.2095720063e+02   4.0143355956e+00    0.1228951   0.08818855  16.18 0.0007047189    1.683    0.406
       237 -10.6076    122.8316    230.9047   1.2919969309e+02   1.1606838920e+01     0.181875    0.1480618  56.29 0.0004232816    1.033    0.032
       238  -9.8028    113.8442    230.8872   1.3090674435e+02   1.3041411643e+01    0.1760717    0.1500076  38.68  0.000595351    1.286    0.223
       239 -10.5257    198.3895    229.1726   1.1475527591e+02  -7.2033171832e-01     0.172857     0.153435 -36.16 0.0003474136    1.404    0.288
       240 -10.2677     69.2855    230.1347   1.3917898549e+02   1.9728800497e+01    0.1762738    0.1363711  50.19 0.0003180573    1.248    0.199
       241 -11.1408    204.8736    225.7712   1.1304669727e+02  -1.3312120516e+00    0.3293695    0.1938378  41.71  0.001066494    1.470    0.320
       242 -10.4773    149.8969    226.7199   1.2349153276e+02   7.8193668026e+00    0.2427259     0.194107  22.56 0.0008704517    1.404    0.288
       243 -10.6113    140.8774    172.3545   1.1683603880e+02   1.9423012689e+01    0.3192714    0.2500903  29.21 0.0009071582    1.405    0.288
       244 -10.7956    127.8980    226.4440   1.2769441126e+02   1.1540273174e+01    0.2346546    0.1649768  63.93 0.0008638901    1.401    0.286
