#   1 NUMBER                 Running object number                                     
#   2 MAG_AUTO               Kron-like elliptical aperture magnitude                    [mag]
#   3 X_IMAGE                Object position along x                                    [pixel]
#   4 Y_IMAGE                Object position along y                                    [pixel]
#   5 X_WORLD                Barycenter position along world x axis                     [deg]
#   6 Y_WORLD                Barycenter position along world y axis                     [deg]
#   7 A_WORLD                Profile RMS along major axis (world units)                 [deg]
#   8 B_WORLD                Profile RMS along minor axis (world units)                 [deg]
#   9 THETA_WORLD            Position angle (CCW/world-x)                               [deg]
#  10 FWHM_WORLD             FWHM assuming a gaussian core                              [deg]
#  11 ELONGATION             A_IMAGE/B_IMAGE                                           
#  12 ELLIPTICITY            1 - B_IMAGE/A_IMAGE                                       
         1 -12.1356     41.2279     29.7414   9.2785879236e+01   6.5533324697e+01    0.6817415    0.3849152   5.72  0.003425627    2.441    0.590
         2 -11.9283     77.1870     21.4540   7.5299002244e+01   6.1517508384e+01    0.4248818    0.3877663  13.59  0.002291344    1.158    0.136
         3 -11.3787     42.0696     18.7596   8.7697342255e+01   6.7247205617e+01    0.7214806    0.4027143   6.05   0.00362033    2.428    0.588
         4 -11.7729     34.6486     12.6341   8.8156419703e+01   6.9071754470e+01    0.3708643    0.2463721 -35.30 0.0007914609    1.324    0.245
         5 -11.8820     30.2513      7.2606   8.7583392392e+01   7.0365022248e+01    0.4685954    0.3038078  25.92  0.002911736    1.642    0.391
         6 -10.6482     39.5966     10.5238   8.4878202072e+01   6.8786638845e+01    0.1933873    0.1703376 -10.67 6.136194e-05    1.261    0.207
         7 -11.0747     40.5848      7.5278   8.2933282904e+01   6.9079630477e+01    0.2746813    0.1808628 -17.98 0.0005837433    1.278    0.217
         8 -10.2181     15.0229      8.9164   9.5998707530e+01   7.1597013173e+01    0.2679369     0.130663 -27.30 0.0003714313    1.847    0.459
         9 -10.7242     13.9482     16.0835   9.9699655196e+01   7.0494050734e+01    0.2994953     0.197601  22.45  0.001518884    1.782    0.439
        10 -11.3333    234.5323     14.9456   4.3588842762e+01   2.4292113562e+01    0.2980145     0.203441  86.67 -8.411778e-05    1.441    0.306
        11 -11.0162     89.2505     13.8500   6.8024619017e+01   6.0187915165e+01    0.4001264    0.2997479 -54.87  0.001584873    1.934    0.483
        12  -9.9033     88.5609      7.4445   6.5324762812e+01   6.1034006535e+01    0.2450059     0.176514 -25.65 0.0007082873    1.412    0.292
        13 -11.0411     93.1371      8.5183   6.4503933336e+01   5.9982804867e+01    0.3980349    0.2234048 -13.05  0.001951934    1.858    0.462
        14 -10.2876     91.8537      2.7412   6.2239529091e+01   6.0823118517e+01    0.3878489    0.2156499  39.28  0.001977157    1.617    0.382
        15 -10.0591    203.1915     11.8372   4.5936764340e+01   3.2439258251e+01     0.183906    0.1565788  43.78 0.0003552763    1.298    0.230
        16 -10.0724    117.5633     12.0661   5.9820402285e+01   5.4213846276e+01    0.3148055     0.183749  62.19 0.0009184181    1.743    0.426
        17 -11.9325     57.2025      3.8742   7.4128468329e+01   6.7130620445e+01    0.5935381    0.2865303 -20.04  0.002990237    2.007    0.502
        18 -10.3071     22.3511      9.5248   9.2564999631e+01   7.0845091677e+01    0.2944437    0.1844104  -6.97  0.001486509    1.602    0.376
        19 -10.0820     24.3052      3.6149   8.8640440733e+01   7.1532817452e+01    0.3308704    0.1104923 -36.54  0.001578843    2.454    0.593
        20 -11.5495     17.1043      3.0405   9.2050707552e+01   7.2323054193e+01    0.2919357    0.1831218 -26.02  0.001181808    1.223    0.183
        21 -10.8165     20.3407      2.2980   8.9979066946e+01   7.2124212165e+01    0.2261347    0.1501699 -10.11  0.000798222    1.312    0.238
        22  -9.8420      4.0478     10.0078   1.0224226848e+02   7.2218962966e+01    0.1958805    0.1250378 -46.29 0.0003741947    1.281    0.220
        23 -10.6013     10.3134      1.8340   9.5085998854e+01   7.3090008243e+01    0.1925455    0.1416868  -1.79 0.0008145054    1.291    0.225
        24 -10.4410      2.4651      6.4866   1.0157844226e+02   7.2908979225e+01    0.2171411    0.1151571   5.45 0.0008731255    2.139    0.533
        25 -10.6226     11.0548      6.5535   9.6974801709e+01   7.2294345472e+01    0.2622596    0.1782939 -56.52  0.001361373    1.942    0.485
        26 -12.0015    153.8238      8.2932   5.1435232452e+01   4.5623108739e+01    0.6710947    0.2728134  65.12  0.002150609    2.227    0.551
        27 -10.6544     70.7402      6.1447   7.0344267498e+01   6.4577417156e+01     0.343715    0.2198275 -29.92  0.001952325    1.570    0.363
        28 -10.0745    210.5052      7.5215   4.3978244055e+01   3.1028612769e+01     0.137014    0.1225261 -80.26 0.0001279383    1.006    0.006
        29 -10.3294     65.1897      6.6376   7.2542673022e+01   6.5490773171e+01    0.2603981    0.1729257  -2.65 0.0008785768    1.437    0.304
        30 -11.5542    130.6422      3.8371   5.3854158398e+01   5.1865264318e+01    0.3666535    0.2788956 -53.48  0.001985586    1.583    0.368
        31  -9.8748    235.4079      4.7604   4.1011119548e+01   2.5195390154e+01    0.1677917    0.1262654 -14.32 0.0004869259    1.620    0.383
        32  -9.5541    120.8392      4.1701   5.5929241011e+01   5.4202325604e+01    0.1926252    0.1394872  33.46 0.0003748707    1.297    0.229
        33  -9.5293    104.4498      4.5090   5.9769458431e+01   5.7943685704e+01    0.1867101    0.1601217 -52.70 6.894911e-05    1.478    0.324
        34  -9.7590    100.6556      2.1556   5.9679936741e+01   5.8995304032e+01    0.5830403    0.1050126  52.55  0.001911714    3.774    0.735
        35  -9.7251    173.1831      3.1179   4.6949322739e+01   4.1085209025e+01    0.1906211    0.1533353 -68.08 0.0003994889    1.301    0.231
        36  -9.1108    176.4958      2.4721   4.6329290443e+01   4.0282233294e+01    0.3349097    0.1293132  72.02   0.00123057    2.443    0.591
        37 -11.3498     79.7821      2.0137   6.5394308418e+01   6.3323221515e+01    0.4134896    0.2069761  37.60  0.002053153    1.835    0.455
        38  -9.5949      2.1987      2.7454   1.0003122827e+02   7.3537101060e+01    0.1836907    0.1162005   4.62  0.001297012    1.663    0.399
        39 -10.4729    203.6694      1.6164   4.3058749135e+01   3.3350851484e+01    0.2084015     0.145285  40.63 0.0007120033    1.674    0.403
        40  -9.7404     67.1023      1.6048   6.9336658722e+01   6.5714028403e+01    0.1697854    0.1343235  23.41 0.0004088357    1.121    0.108
        41  -9.9881    187.1164      1.2869   4.4715475077e+01   3.7633701213e+01    0.1908803    0.1138184  83.84 0.0008989905    1.666    0.400
        42  -9.0597     27.9982      1.0000   8.5417783257e+01   7.1495078052e+01    0.2141045    0.1037089  17.90 0.0003405708    2.472    0.595
        43  -9.7633     35.2383    130.8273   1.1895334619e+02   4.4199117592e+01    0.1679414    0.1226606 -56.90 0.0005233632    1.345    0.256
        44 -11.5923     17.9821    249.2306   1.3137037130e+02   2.2250040426e+01    0.1865497    0.1809434  75.26  0.001734712    1.857    0.462
        45 -10.8097     12.2048    249.8840   1.3224084525e+02   2.2736038955e+01    0.1814692    0.1372965  24.74  0.001413256    2.467    0.595
        46 -11.4891      1.8428    248.1925   1.3366467752e+02   2.4030546917e+01    0.3938289    0.1831078  60.39  0.002926673    1.452    0.311
        47 -10.6161      2.0094    239.2979   1.3331477988e+02   2.5483550290e+01    0.2127206   0.09832498  68.08  0.001506715    1.531    0.347
        48 -12.2154      6.2211    241.4058   1.3277683122e+02   2.4725899298e+01     0.478531    0.2591955 -54.27  0.003042429    3.446    0.710
        49 -11.7990     10.7140    244.5607   1.3224240931e+02   2.3758297027e+01    0.2081118    0.1596256  41.84   0.00142069    1.731    0.422
        50  -9.9892     28.8643    129.0121   1.2032646161e+02   4.5218937502e+01    0.3275525    0.1227774 -78.99   0.00118096    2.732    0.634
        51 -10.8360     11.6026    129.2395   1.2461560612e+02   4.6595947387e+01    0.3197039    0.1551036  70.18  0.001654243    2.300    0.565
        52 -10.1415    248.3161    129.6541   7.0205141603e+01   4.6125662648e+00    0.1382031    0.1065004 -58.98 0.0007048119    1.720    0.419
        53  -9.3551     20.4556    125.4222   1.2201018856e+02   4.6766264828e+01    0.1209213   0.09347567 -85.82 -4.639414e-05    1.062    0.059
        54 -11.5971     23.7610    121.4886   1.2068577940e+02   4.7390434191e+01    0.4357343    0.2321326  82.57  0.001338623    2.098    0.523
        55 -11.1024     19.1640    117.6567   1.2140275833e+02   4.8640565682e+01    0.1721041    0.1562648 -14.71 0.0003665723    1.497    0.332
        56 -10.5320     17.9669    122.0142   1.2224104276e+02   4.7741398761e+01    0.1760718    0.1376256 -76.93            0    1.035    0.034
        57  -9.9999      8.1244    121.1385   1.2463535717e+02   4.8664582093e+01    0.1593266    0.1098512  82.51 0.0004102668    1.300    0.231
        58 -10.4545     72.2190    112.9648   1.0604537875e+02   4.4008900000e+01    0.2019055    0.1904355  85.46 0.0003258483    1.105    0.095
        59 -10.8041     65.5957    110.8078   1.0747957553e+02   4.5414361337e+01    0.3095169    0.2136143 -67.45  0.001653164    1.324    0.245
        60 -11.5563      3.6398    108.9197   1.2446581077e+02   5.1698970531e+01    0.3146174    0.2309991   7.97  0.001676876    1.952    0.488
        61 -11.6996     56.5776    108.2551   1.0955605409e+02   4.7147399396e+01    0.3756551    0.2482495  22.65  0.001992397    1.958    0.489
        62  -9.6094     78.4371    107.1668   1.0303409954e+02   4.4462192479e+01    0.2461695    0.1081714  33.23 0.0009774071    2.696    0.629
        63  -9.5573    187.0463    103.2932   7.4706660098e+01   2.2741979710e+01    0.2170739    0.1972342  55.46 0.0005525486    1.135    0.119
        64  -9.8968     66.6706    102.2978   1.0537961334e+02   4.7256355269e+01    0.1362444    0.1015611  80.32  0.000329128    1.638    0.390
        65 -10.9601     13.3230    108.8809   1.2185670416e+02   5.1073682533e+01    0.1853345    0.1494752  60.39  0.001000838    1.384    0.277
        66  -8.8029    194.3298     98.7057   7.2024887558e+01   2.1830100960e+01      0.15706     0.122747 -74.38 0.0004516993    1.632    0.387
        67 -10.0623     62.3617     97.7601   1.0566381855e+02   4.8871241147e+01    0.2066516    0.1057782 -50.68 0.0009530563    1.705    0.414
        68  -9.5602    101.2442     96.9956   9.3990182308e+01   4.3013190986e+01    0.1969927    0.1188612 -49.28 0.0008708772    1.552    0.356
        69 -11.6881     78.8345     95.0571   1.0005415936e+02   4.7189363129e+01    0.2636096    0.2110243 -53.18 0.0002887395    1.120    0.107
        70 -11.7996     11.0920     90.3560   1.1992291913e+02   5.5414586848e+01    0.7556351    0.1488138 -67.19  0.002568143    3.443    0.710
        71 -10.2935      3.4439     95.5284   1.2290613507e+02   5.4711240893e+01    0.1980295    0.1495468 -70.08 0.0002808174    1.034    0.033
        72 -11.0897     18.4264     94.9614   1.1843036257e+02   5.3876912641e+01    0.2077444    0.1530787  56.12 0.0008904354    1.594    0.373
        73  -9.8130     29.2973     91.9912   1.1462612578e+02   5.3703502640e+01     0.184354    0.1808531 -82.69 0.0006947802    1.228    0.186
        74 -10.8774     25.0329     89.8742   1.1556486135e+02   5.4534507151e+01    0.4574196    0.2008571 -70.05  0.002201211    1.978    0.494
        75 -10.1163     39.3772     86.5562   1.1038403509e+02   5.4028868946e+01    0.2561477    0.1515835  81.23 0.0009253875    2.752    0.637
        76 -11.8732     18.6938     88.1366   1.1723322382e+02   5.5404503686e+01    0.4609677    0.2609923 -74.74  0.002179211    1.542    0.351
        77 -10.0588    107.6710     89.3188   9.0042395097e+01   4.3494054805e+01    0.1509925    0.1188553 -87.19 0.0007047312    1.685    0.407
        78 -10.3790     76.8465     89.0316   9.9122142338e+01   4.8851762369e+01     0.263427    0.2008241  34.49  0.001045953    1.472    0.321
        79  -9.9094     64.9244     88.4859   1.0269557035e+02   5.0659954288e+01    0.2229142    0.1609268 -54.18 0.0007068364    1.204    0.169
        80  -9.5806      1.5413     89.1004   1.2261185175e+02   5.6249070508e+01    0.1825686    0.0866035 -70.90   0.00101939    1.560    0.359
        81  -9.3299    150.0419     88.0143   7.8555998011e+01   3.4580168641e+01    0.1856023    0.1832355  31.07  0.000405031    1.025    0.024
        82  -9.4781     33.0412     88.1274   1.1272402044e+02   5.4260200961e+01    0.1579389    0.1061562 -61.85 0.0006174752    1.195    0.163
        83 -10.6420    124.7198     83.8901   8.3732778752e+01   4.1151211721e+01     0.513272     0.198685 -39.07  0.001260008    2.600    0.615
        84 -11.0207     54.9109     84.7128   1.0496217967e+02   5.2772479046e+01    0.2994605    0.2200741 -71.91  0.001030262    1.408    0.290
        85  -9.6792     71.9991     85.5333   9.9715258901e+01   5.0347060868e+01    0.1874271    0.1393104  34.49  0.000425552    1.519    0.342
        86 -11.0595     57.6458     91.8982   1.0578591552e+02   5.0809428363e+01     0.261927    0.1928675 -21.51  0.000840167    1.714    0.416
        87 -10.8705      3.8636     82.1466   1.2090307552e+02   5.7669053340e+01    0.4007955    0.1769432 -75.98  0.001954336    1.931    0.482
        88 -10.5983      6.1700     75.8430   1.1915178555e+02   5.8936418172e+01    0.3629175   0.08816276 -47.22  0.001475287    3.401    0.706
        89 -11.2289     64.3528     79.3273   1.0051656983e+02   5.2785204736e+01    0.4835304    0.2695472 -55.34  0.001584061    1.608    0.378
        90 -10.2601     89.7304     80.7914   9.2872348143e+01   4.8599594835e+01     0.251273    0.2141111 -72.62 0.0003568516    1.339    0.253
        91  -9.9143     10.2985     79.3740   1.1840463364e+02   5.7918501841e+01    0.2464625    0.1193131 -69.42 0.0008740867    1.627    0.385
        92  -9.8464    113.9589     85.6988   8.7217980604e+01   4.3023920241e+01    0.2179088    0.1919011  -5.51  0.001130866    1.254    0.203
        93 -10.8962     27.5332     77.2831   1.1230997648e+02   5.7171509738e+01    0.3169775    0.1966496  -8.06 0.0006017756    2.320    0.569
        94 -10.7494     18.3689     75.3004   1.1498954093e+02   5.8300780854e+01    0.2745455    0.1661484 -55.53  0.001038126    1.275    0.215
        95 -10.4791     15.3137     75.6508   1.1608315423e+02   5.8429090610e+01    0.3681791    0.2035566  68.21  0.001822836    2.880    0.653
        96 -10.3804    176.8588     77.1140   6.9403977077e+01   3.0032400252e+01    0.2484725    0.2208698 -69.50  0.001242732    1.221    0.181
        97  -9.7521     41.9796     74.9801   1.0688488531e+02   5.6369363875e+01    0.1917397     0.151431 -54.76 0.0005132596    1.050    0.048
        98 -11.1238     55.7506     75.3451   1.0230365535e+02   5.4758096614e+01    0.3421262    0.2935175 -17.98  0.001166823    1.264    0.209
        99 -10.6820     72.2133     75.0220   9.6740055302e+01   5.2624372756e+01    0.4190255    0.1405648  31.29  0.001416935    3.991    0.749
       100 -10.9220     36.2401     72.9014   1.0835295264e+02   5.7385530862e+01    0.5149812     0.236614 -52.89  0.001656983    1.703    0.413
       101  -9.9482     32.6506     73.2826   1.0968229296e+02   5.7626534488e+01      0.19131    0.1644941  43.15 0.0006220322    1.434    0.303
       102  -9.4999    136.5168     74.4821   7.7751288668e+01   4.0371874881e+01    0.1542349    0.1493763 -10.41 5.222763e-05    1.015    0.015
       103  -9.9078     92.8883     72.7279   8.9456663367e+01   4.9747910604e+01    0.1951369    0.1926741 -14.92  0.001145394    1.094    0.086
       104 -10.2942    106.0747     71.9907   8.5254130807e+01   4.7418759835e+01    0.2362304    0.2128553  35.96 0.0004598594    1.163    0.140
       105  -9.4187    216.9997     72.0429   6.0786546942e+01   2.0817131827e+01    0.1806411    0.1657161 -38.96  0.000451569    1.038    0.037
       106  -9.0607     99.6018     70.4986   8.6698462916e+01   4.8968866162e+01    0.1461074    0.1337012 -35.73 0.0001142653    1.035    0.034
       107 -10.6956     80.1061     69.1100   9.2375826307e+01   5.2663067245e+01    0.2576886    0.1906014 -41.28 0.0006953376    1.216    0.178
       108  -9.7022    160.6362     75.2378   7.2277154378e+01   3.4428955032e+01    0.2103933    0.1489001 -24.92 0.0002043149    1.522    0.343
       109 -10.4223     47.4214     69.1116   1.0348778388e+02   5.7079667586e+01    0.4087748    0.1979955  13.77  0.001694904    3.452    0.710
       110 -12.4938      9.0426     64.2471   1.1601781581e+02   6.1305369616e+01    0.7266007    0.3531433 -70.09  0.003957726    1.769    0.435
       111 -13.8212     19.9128     57.6066   1.1051805687e+02   6.2031058943e+01    0.4368674    0.2605477 -59.39  0.001312567    1.342    0.255
       112 -10.0889    133.3867     65.7240   7.5718755523e+01   4.2728178347e+01    0.2793005    0.2023934 -23.67  0.001286762    1.470    0.319
       113 -11.6657     14.5532     64.3377   1.1405907419e+02   6.0953187976e+01    0.4036549    0.2558076 -82.50 0.0004892275    1.782    0.439
       114 -10.7544     75.9343     64.8375   9.2395137981e+01   5.4200887594e+01    0.2144628    0.1880383 -29.13 0.0002853515    1.040    0.039
       115 -10.5304     34.9253     64.6327   1.0675070079e+02   5.9307113836e+01    0.2872484     0.206865 -41.43  0.001264594    1.204    0.170
       116 -10.9534     39.1711     62.7962   1.0471430106e+02   5.9294968577e+01    0.7283679    0.2139832 -45.81  0.002859226    2.810    0.644
       117 -10.6279     64.2720     61.6512   9.5362669108e+01   5.6565861319e+01    0.4525291    0.2842601   7.82  0.002139308    2.313    0.568
       118  -9.9034    100.8306     61.4014   8.3304363523e+01   5.0513204309e+01    0.2484586    0.1901343 -48.44 0.0006306709    1.349    0.259
       119 -10.1468     53.0829     61.5163   9.9293825374e+01   5.8041202309e+01    0.2572667    0.1774773  69.30  0.001258647    2.561    0.610
       120 -10.5558     91.6774     55.2664   8.3998157547e+01   5.3396116285e+01    0.2808918    0.2246873  44.02 0.0004137943    1.366    0.268
       121 -11.1407     83.4986     56.8435   8.7200653362e+01   5.4548838907e+01    0.2689147    0.2540154  86.99 0.0003566153    1.331    0.249
       122 -11.6830     87.8328     53.3395   8.4542530774e+01   5.4449813950e+01    0.4538853    0.3466875 -11.11  0.001669226    1.407    0.289
       123  -9.0129     48.3184     58.2639   1.0003745093e+02   5.9273880097e+01    0.1280466   0.08734919 -24.83 0.0002128514    1.550    0.355
       124 -10.1352     33.6595     54.6505   1.0447489139e+02   6.1529694638e+01    0.3610501    0.1139444 -40.05   0.00138151    3.237    0.691
       125  -9.5526    158.1647     56.4033   6.6876318353e+01   3.8285460411e+01    0.2105647    0.1490613  72.43 0.0004988471    1.643    0.391
       126  -8.9863    174.3265     55.3272   6.3288475536e+01   3.4311210179e+01    0.1617067    0.1175054  23.63 0.0007050126    1.699    0.412
       127 -11.5522    114.7360     53.9501   7.6650595505e+01   4.9009463765e+01     0.328222    0.3178538   2.88 0.0008489839    1.055    0.052
       128  -9.8899     96.7954     55.1879   8.2366937790e+01   5.2450326816e+01     0.198979    0.1594654  -9.29 0.0004860664    1.311    0.237
       129  -9.2854     54.3765     55.4761   9.6925250199e+01   5.9120271558e+01    0.1311679    0.1087273 -40.49 1.438569e-05    1.049    0.047
       130 -12.3801     65.9691     52.6904   9.1775384378e+01   5.8111502377e+01    0.4793687    0.2504241  32.97  0.001877644    2.147    0.534
       131 -11.2687     17.3885     33.2773   1.0451384750e+02   6.7120945182e+01    0.7120327    0.3124676 -14.13  0.002958346    4.154    0.759
       132 -10.6604     19.6174     45.1694   1.0728343343e+02   6.4624308593e+01    0.2949387    0.2069818 -53.82  0.001521972    1.171    0.146
       133 -11.0804     13.0218     41.2612   1.0889129011e+02   6.5860521942e+01    0.4235545    0.2889792  65.03  0.001678481    2.544    0.607
       134 -13.4018      5.6590     50.8211   1.1436837897e+02   6.4335936629e+01    0.3499229    0.2158839 -46.43 0.0006307556    1.272    0.214
       135 -11.7033     11.7485     48.2092   1.1131342913e+02   6.4531280035e+01    0.4125613    0.3009376  12.98  0.002004166    1.693    0.409
       136  -9.8775    105.8353     53.2514   7.8947819849e+01   5.1006295691e+01    0.2538893    0.1763607  49.17 0.0009838075    1.536    0.349
       137 -10.1285    122.8518     51.7572   7.3668910157e+01   4.7585966688e+01    0.2947477    0.1924767  78.04  0.001172994    2.569    0.611
       138 -10.5688     76.4990     47.4894   8.6194437408e+01   5.7463334277e+01    0.4448702    0.2448642 -30.26  0.002060257    1.822    0.451
       139  -9.9785     79.2827     45.7076   8.4571796148e+01   5.7319380272e+01    0.1972446     0.166274  47.95 0.0001903779    1.417    0.294
       140  -9.3257     47.4044     50.1648   9.7795202138e+01   6.1016741442e+01    0.1716453    0.1098759 -55.93 0.0005046207    1.565    0.361
       141 -10.3745     57.4560     47.0199   9.2892292106e+01   6.0379654984e+01     0.345295    0.2028802 -57.21 0.0009480711    2.053    0.513
       142  -9.5471     53.5779     48.2036   9.4773819578e+01   6.0655512351e+01    0.1901699    0.1019994 -37.73 0.0008921701    1.645    0.392
       143  -9.3270    154.5935     47.5595   6.4718628895e+01   4.0575309763e+01    0.1476827    0.1461373  16.32 7.811128e-05    1.016    0.016
       144  -9.8849     30.5539     45.5393   1.0293418711e+02   6.3660997633e+01    0.2223773    0.1353948 -58.99 0.0007875416    1.587    0.370
       145 -11.0230     26.1351     43.5185   1.0410184857e+02   6.4444965049e+01     0.308361    0.2566893 -54.93  0.001941962    1.221    0.181
       146 -10.4786     25.9709     29.6194   9.9387450567e+01   6.7108455871e+01    0.2044455    0.1411805 -50.47 0.0004683279    1.360    0.265
       147 -10.3257     22.7469     38.5570   1.0393164441e+02   6.5695162517e+01    0.2034405    0.1761566 -66.78 0.0005988829    1.400    0.286
       148 -11.3187     26.7169     35.0803   1.0104603839e+02   6.6029071551e+01    0.3843923    0.1778172 -34.10  0.001209851    2.013    0.503
       149  -9.3377    159.7345     42.6697   6.2045335355e+01   3.9980880042e+01    0.2465297    0.1099019 -41.10 0.0009069568    2.308    0.567
       150 -10.0186     69.8241     42.3988   8.6621666960e+01   5.9442861391e+01    0.2373631    0.2048375 -59.66   0.00113166    1.486    0.327
       151 -10.7060      3.7899     41.4761   1.1282942405e+02   6.6346878193e+01      0.37075    0.1583802 -32.02  0.001956165    2.402    0.584
       152 -10.3889    181.2593     40.7779   5.7532257353e+01   3.4642381066e+01    0.3190003    0.2385175  88.80  0.001088806    1.515    0.340
       153 -10.9975    139.6426     40.6130   6.5583342616e+01   4.5346968613e+01    0.3752589    0.2611599  79.18  0.001110395    1.880    0.468
       154  -9.5958     42.8217     40.8109   9.6357709476e+01   6.3344511071e+01    0.1473187    0.1387201 -45.16 0.0003977991    1.286    0.222
       155 -10.1009     35.4312     41.4432   9.9589840928e+01   6.4002636433e+01    0.2496931    0.1454702  19.96  0.001398675    2.022    0.506
       156  -9.8373     99.9772     39.3897   7.5493540063e+01   5.4516660666e+01    0.2178334    0.1781952 -24.72 0.0005107677    1.161    0.139
       157  -9.9099     51.8041     39.8709   9.2433665731e+01   6.2447110475e+01    0.1903496     0.146685 -21.79 0.0004365017    1.159    0.137
       158 -12.0811    121.5599     37.3095   6.8719049059e+01   5.0140922992e+01    0.5135729    0.4272292  59.65  0.001413536    1.295    0.228
       159 -10.2210    131.4587     38.5665   6.6746180519e+01   4.7631253889e+01    0.2684146    0.2204602  37.51 5.896869e-05    1.184    0.155
       160 -10.1494    127.7132     38.6828   6.7692920341e+01   4.8505693360e+01    0.2246908    0.1930517  34.42 0.0004680734    1.125    0.111
       161 -11.1603      3.3311     34.8201   1.1121820747e+02   6.7695161871e+01    0.3573157    0.2186556 -41.04  0.002274169    1.275    0.215
       162 -10.6054     38.8558     35.7368   9.6120729846e+01   6.4723502229e+01     0.243973    0.1692393  10.60  0.001284832    1.608    0.378
       163  -9.8887    229.6504    247.9892   9.6068446499e+01  -7.8553944844e+00    0.1495628    0.1193709  13.47 0.0005561346    1.137    0.120
       164 -10.3279     96.7039     33.5617   7.4167003668e+01   5.6070870774e+01    0.3762844    0.1535323 -32.27  0.001494775    2.371    0.578
       165 -10.0585    134.1578     34.2028   6.4523752075e+01   4.7591915012e+01     0.214333    0.1757457  31.74 0.0004384289    1.206    0.171
       166  -9.5917     50.3795     33.3401   9.0457850229e+01   6.3794893164e+01     0.163392    0.1064811 -45.51 0.0003726158    1.485    0.327
       167  -9.7507    205.5167     31.0026   5.1048160998e+01   2.9612958503e+01    0.2202781   0.09517484 -49.69 0.0008099908    2.532    0.605
       168 -10.4020    166.3651     30.9578   5.6948003897e+01   3.9843670880e+01    0.2256369    0.2004848  88.02 0.0003949058    1.169    0.145
       169 -10.0875    128.6749     31.0713   6.4634465656e+01   4.9336843662e+01     0.397363    0.1774175  52.49   0.00133941    2.088    0.521
       170 -10.7489      8.1042     28.5431   1.0714129747e+02   6.8639814551e+01    0.2241424    0.2065631 -87.97  0.001737282    1.527    0.345
       171  -9.2263    187.3000     29.3751   5.3094138854e+01   3.4553235001e+01    0.1539061     0.108184  28.25 0.0005213097    1.754    0.430
       172  -9.5026     70.1448     28.8332   8.1001934173e+01   6.1647541095e+01    0.1823043    0.1361454  -6.89  0.000554519    1.289    0.224
       173  -9.5780    140.0204     26.7335   6.0520420550e+01   4.7119067806e+01    0.2087732    0.1773692  55.83 0.0008021329    1.138    0.121
       174  -9.6944     77.1452     26.5886   7.7565655213e+01   6.0795661714e+01    0.2369309    0.1625648 -11.11  0.001270698    1.468    0.319
       175  -9.7206    224.9674    246.6911   9.6653136720e+01  -7.0216699712e+00    0.1649884    0.1136803  28.32  0.001132337    1.094    0.086
       176  -9.2940     18.3360     26.2716   1.0160575276e+02   6.8355343999e+01    0.1192255   0.06898797 -26.73 0.0006988585    1.599    0.375
       177  -9.5873    153.4958     25.6381   5.7476756755e+01   4.3837933624e+01    0.2482121    0.1337396  62.80  0.001045178    1.787    0.440
       178 -10.5217     59.1303     24.3742   8.3196716002e+01   6.4056492948e+01    0.2619084    0.2095677  13.14 0.0009977843    1.207    0.172
       179  -9.8008    121.6565     24.2469   6.3692023741e+01   5.1874295742e+01    0.4393789    0.1014707  48.30  0.001336198    3.720    0.731
       180  -9.6037    146.9623     26.4640   5.9015572229e+01   4.5406296010e+01    0.2115262    0.1376028  59.52 -4.368336e-05    1.466    0.318
       181 -10.5617      1.9083     21.8435   1.0783054572e+02   7.0243538624e+01    0.2573708    0.1225146 -53.43 0.0008958366    1.573    0.364
       182 -11.4766     30.6442     21.2071   9.3890838040e+01   6.8138120003e+01    0.2448608     0.169412 -33.85   0.00052851    1.149    0.130
       183 -11.0351     14.4308     21.4775   1.0162853221e+02   6.9515110350e+01    0.2544802    0.1958782  31.47  0.001810058    1.735    0.424
       184  -9.7680     84.3880     21.3927   7.2886727695e+01   6.0196444786e+01    0.2365821    0.1159961  42.34 0.0006407377    1.988    0.497
       185  -9.3509    187.3293    246.3250   1.0299742158e+02  -1.1372332167e+00    0.1177718   0.07733707  19.05 0.0004135014    1.701    0.412
       186  -9.5048    136.5673    245.8088   1.1176638919e+02   7.0226081455e+00    0.1364538    0.1045653 -89.66  0.000608627    1.608    0.378
       187  -8.8660     86.6538    245.2937   1.2027450257e+02   1.4535444557e+01    0.1183415   0.06336639  63.68 0.0003518165    1.667    0.400
       188  -9.9844     60.4878    240.9100   1.2428397788e+02   1.8739908938e+01    0.2554556   0.09493466  39.24  0.001334271    2.562    0.610
       189 -10.0365     50.0009    240.8208   1.2598477426e+02   2.0052635524e+01    0.1927608    0.1046485  80.71  0.001265542    1.665    0.399
       190 -10.0413    100.2808     18.9123   6.7044274236e+01   5.7309459805e+01     0.293469    0.1838387 -57.85  0.001281225    2.715    0.632
       191  -9.4981     58.3883     19.2314   8.1165455064e+01   6.4936689438e+01    0.1782476    0.1053489 -41.03 0.0009452521    1.773    0.436
       192  -9.6959    199.5559     17.4818   4.7953685447e+01   3.2760338706e+01    0.1406721    0.1296749 -81.41 0.0001119458    1.014    0.014
       193 -10.8677    108.5074     16.3459   6.3767795932e+01   5.5818296290e+01    0.2182143    0.1934541  14.58 0.0002498566    1.031    0.030
       194 -10.4904    114.2506     24.8964   6.5778903742e+01   5.3500565900e+01     0.345109    0.2322636  34.48  0.001721522    1.464    0.317
       195  -9.7932     26.7096     16.8030   9.3801587834e+01   6.9261555088e+01    0.1424096    0.1215691 -35.34 0.0004343487    1.301    0.232
       196  -9.5761    202.4828    240.4682   9.9558099576e+01  -2.8359423014e+00    0.1191842   0.09143586  30.24 9.029623e-05    1.014    0.014
       197  -9.7500     20.2155     16.9292   9.6974099319e+01   6.9840060570e+01    0.1821345    0.1433478  -2.98 0.0005569964    1.265    0.209
       198  -9.7270    148.6765    238.5441   1.0878549315e+02   6.1557419741e+00    0.1768374    0.1121817 -52.81  0.001082403    1.989    0.497
       199 -11.1871     14.2827    238.7489   1.3146241184e+02   2.4372451733e+01    0.1757103    0.1002419  69.38 0.0004397384    1.221    0.181
       200 -11.9633     26.4415    235.8014   1.2944597188e+02   2.3605262315e+01    0.2869406    0.2101953  87.72  0.001847256    1.252    0.202
       201  -9.1922    210.7468    235.9656   9.7462236898e+01  -3.6120724093e+00    0.1300731   0.09845085 -23.46 0.0004632694    1.524    0.344
       202  -9.2714     42.6505    236.2971   1.2688956112e+02   2.1698823200e+01    0.1152269   0.05520714  64.56 0.0004692615    1.683    0.406
       203  -9.8310     36.4946     18.4863   9.0038982914e+01   6.7952168635e+01    0.2163534    0.1422114 -30.05 0.0006884102    1.231    0.188
       204 -10.1183    175.6720     14.9069   5.0313682784e+01   3.9273161407e+01    0.2450615      0.18026  56.59 0.0002452823    1.279    0.218
       205  -9.7983     63.8342     15.3926   7.7287710750e+01   6.4620285946e+01    0.1820907    0.1051956  29.04 0.0009529984    1.761    0.432
       206 -10.6734    190.4843     13.7899   4.7997590307e+01   3.5518583056e+01     0.260251    0.1857019  70.28 0.0006707061    1.311    0.237
       207 -10.1982    155.9766     14.0104   5.3044418467e+01   4.4499874885e+01    0.2389415    0.1578749  30.85   0.00113282    1.692    0.409
       208 -10.0751    162.0828     13.4694   5.1877363263e+01   4.2973194791e+01    0.2180359    0.1302513  63.64 0.0005675202    1.536    0.349
       209  -9.9961    249.1890    234.0799   9.0687638630e+01  -9.2823654169e+00    0.1731282    0.1180378  14.56 0.0004320788    1.197    0.165
       210  -9.8050     68.8612     13.1225   7.4373056281e+01   6.4076663603e+01    0.1881475     0.164443 -22.17  0.001219612    1.252    0.201
       211 -12.1012      4.2368    232.5501   1.3271865628e+02   2.6419015592e+01    0.2763235    0.1340977  63.61 0.0003377606    1.459    0.314
       212 -12.6266      9.7418    228.5042   1.3170181377e+02   2.6591167585e+01    0.4578904    0.2251295  65.89  0.001531575    1.484    0.326
       213  -9.3720    209.5172    229.5126   9.6686611438e+01  -2.6282957710e+00    0.1220326   0.09591337  27.15  0.000195119    1.008    0.008
       214 -10.6456    140.4455    227.8186   1.0894552139e+02   9.1354482134e+00    0.2480728    0.1825078 -71.81  0.001336079    1.701    0.412
       215  -9.7488     57.0129    229.2419   1.2403049908e+02   2.1191892247e+01    0.1411979   0.07608028  45.70 0.0008809211    1.597    0.374
       216  -8.9812     80.3147    231.6716   1.2020353804e+02   1.7690405865e+01     0.121227   0.06726916  67.20 0.0007044403    1.674    0.403
       217  -9.3332     91.2431    236.7802   1.1875310886e+02   1.5284277919e+01     0.157238   0.08291502 -53.55 0.0008959339    2.498    0.600
       218  -8.9863      9.3523     10.2819   9.9564949952e+01   7.1814381852e+01    0.1166835    0.0634702 -24.30 0.0007015797    1.655    0.396
       219 -11.2255      8.3799    218.3652   1.3145064824e+02   2.8532018967e+01    0.2412082    0.1784077  23.37  0.001804826    2.292    0.564
       220  -9.3537      3.6685    211.7067   1.3190233075e+02   3.0191836310e+01   0.08701498   0.07071778 -69.92 0.0007023601    1.633    0.388
       221 -10.1305     20.1502    209.8110   1.2904941019e+02   2.8956482946e+01    0.1694443    0.1023442  67.94 0.0008618305    1.249    0.199
       222 -10.8727      9.7885    203.6375   1.3047746495e+02   3.1138961982e+01    0.1698132     0.135741  87.24 0.0006732024    1.256    0.204
       223  -9.9504     23.0858    197.2272   1.2775648521e+02   3.1084456479e+01    0.1544976    0.1255631  87.53 0.0005274516    1.218    0.179
       224 -10.6138     14.0360    192.9182   1.2911944033e+02   3.2821301565e+01    0.1683643    0.1138372  75.42 0.0005431244    1.094    0.086
       225  -9.1938     19.3155    192.6481   1.2814305321e+02   3.2367089667e+01    0.1208936   0.05967802  69.55 6.836111e-05    1.734    0.423
       226 -10.4989      6.5265    191.4404   1.3038047759e+02   3.3801646373e+01    0.1833534    0.1269986  78.95 7.385561e-05    1.024    0.024
       227  -9.9402     15.5162    185.5259   1.2837983197e+02   3.4161147286e+01    0.2515282   0.07286048  87.01 0.0008104254    5.862    0.829
       228  -9.1970     22.6683    179.7071   1.2660686933e+02   3.4667673951e+01    0.1008837   0.07928643 -57.10  0.000274113    1.633    0.388
       229 -10.4643      5.4956    167.6878   1.2912349623e+02   3.8714842245e+01    0.2281451    0.1353014  80.22  0.001128563    1.329    0.247
       230  -9.2761    226.6669    163.7252   8.1498718391e+01   3.5669826153e+00    0.1417298    0.0980888  13.32  0.000382743    1.599    0.375
       231  -9.3353    247.4762    155.4926   7.6111308934e+01   8.8626021190e-01    0.1367055    0.1168488  -1.59 9.250198e-05    1.015    0.015
       232 -10.3714      2.9700    153.5061   1.2865112778e+02   4.1915040284e+01    0.1444757    0.1056094  39.92  0.001045029    1.627    0.385
       233 -10.2598     23.9168    150.8460   1.2389362286e+02   4.0744900334e+01     0.169703    0.1372048 -72.69 0.0004705743    1.214    0.176
       234 -10.2317     22.6986    142.9756   1.2338932443e+02   4.2607596195e+01    0.1757385    0.1213739 -79.97 0.0005810359    1.138    0.121
       235 -10.4232     12.0653    141.3491   1.2567293120e+02   4.3861072735e+01    0.1920995    0.1215257 -72.56 0.0006221341    1.264    0.209
       236 -10.6261      8.9960    135.5180   1.2584356160e+02   4.5389100057e+01    0.2097053    0.1237972  88.34 0.0003487665    1.416    0.294
       237 -10.1780    212.6761    133.9259   7.7411769021e+01   1.1318625074e+01    0.2635242    0.2143262  57.66 0.0005816548    1.383    0.277
       238 -10.2909      2.6233    132.9325   1.2709250931e+02   4.6415679304e+01    0.2606175     0.121503  48.58  0.001496184    2.235    0.553
