#   1 NUMBER                 Running object number                                     
#   2 MAG_AUTO               Kron-like elliptical aperture magnitude                    [mag]
#   3 X_IMAGE                Object position along x                                    [pixel]
#   4 Y_IMAGE                Object position along y                                    [pixel]
#   5 X_WORLD                Barycenter position along world x axis                     [deg]
#   6 Y_WORLD                Barycenter position along world y axis                     [deg]
#   7 A_WORLD                Profile RMS along major axis (world units)                 [deg]
#   8 B_WORLD                Profile RMS along minor axis (world units)                 [deg]
#   9 THETA_WORLD            Position angle (CCW/world-x)                               [deg]
#  10 FWHM_WORLD             FWHM assuming a gaussian core                              [deg]
#  11 ELONGATION             A_IMAGE/B_IMAGE                                           
#  12 ELLIPTICITY            1 - B_IMAGE/A_IMAGE                                       
         1 -10.0436     40.8520     33.7126   8.4680617023e+01   6.5286976315e+01    0.5342662    0.2523755 -47.17  0.002557182    2.249    0.555
         2  -9.5915     63.3124     20.2277   6.9272900699e+01   6.3983633595e+01    0.5755304    0.2894271 -49.42  0.002262098    4.042    0.753
         3  -9.7852    119.2250     19.9160   5.2479215633e+01   5.2462399561e+01    0.4566288    0.2374725 -10.76  0.001983684    2.472    0.595
         4 -10.1444    143.0238     18.1656   4.7117596777e+01   4.6910117877e+01    0.5285423    0.3544679  42.28  0.002759335    1.456    0.313
         5 -10.0263    171.8112     13.3545   4.1251148372e+01   4.0274990666e+01      0.37129    0.3151492  79.09  0.001404888    1.060    0.057
         6  -9.1351      5.6835      8.0723   9.1543690435e+01   7.2877403715e+01    0.3156871    0.1578283 -17.40  0.001810969    1.910    0.477
         7 -10.4309    167.5133      6.4997   3.9847705170e+01   4.1981329599e+01     0.375115    0.2907543 -26.46  0.002112462    1.458    0.314
         8 -10.1958    164.1570      6.9729   4.0416608291e+01   4.2763941121e+01    0.4360723     0.304721 -53.05  0.002343831    1.542    0.352
         9  -9.9417    167.8030      2.4027   3.8643182191e+01   4.2270749940e+01    0.4113711    0.2291221  67.41  0.002109562    1.540    0.350
        10  -9.1783     79.2357      5.0943   5.6863229818e+01   6.2650208402e+01    0.2435779    0.2139123  24.36  0.001614867    1.110    0.099
        11  -8.8926    236.0958      1.8114   3.2216319509e+01   2.6471048026e+01     0.306351    0.1364577 -89.97  0.001484984    2.335    0.572
        12  -8.5551    149.8289      1.3556   4.0670528803e+01   4.6762292608e+01    0.2001435   0.09602305  58.62 0.0009432314    1.730    0.422
        13  -8.9548    204.5883    211.6780   8.4189288011e+01  -1.2488386297e-01    0.2460633    0.1189593 -32.83  0.001134625    2.177    0.541
        14  -8.5952     30.4270    250.3098   1.2364446841e+02   1.8670600949e+01    0.1428527   0.08238049  81.69 0.0009383874    1.546    0.353
        15 -10.5763     21.8506    244.5833   1.2481104174e+02   2.0620333899e+01    0.3372499    0.2079458  54.84  0.001552088    1.259    0.206
        16 -11.1224     22.4827    249.9505   1.2498114576e+02   1.9579714167e+01    0.6727265    0.4693492 -14.75   0.00374914    4.034    0.752
        17 -10.8099     18.2017    248.6142   1.2563664480e+02   2.0261034322e+01    0.4619808     0.228848  35.88  0.002918213    1.990    0.497
        18  -9.2591    132.1905    210.8027   9.9280575584e+01   1.2200353748e+01    0.3032765     0.155028  62.60  0.001073734    3.709    0.730
        19  -8.6958    219.5014    196.4856   7.8455576117e+01  -1.4556515052e-01    0.1350527    0.1137186   1.52 5.527445e-05    1.011    0.011
        20  -9.3451    200.4631    193.9870   8.1715544183e+01   3.4624276362e+00    0.3726515    0.1995125 -47.20  0.001678383    2.216    0.549
        21  -9.3120    124.5732    167.2287   9.3644980359e+01   2.2743655524e+01    0.3552707    0.2818034 -49.44  0.001483852    1.287    0.223
        22  -8.4537    198.6021    160.2257   7.5140605675e+01   9.8655485628e+00    0.2100839     0.131144 -27.18 0.0006636858    1.669    0.401
        23  -8.6904    220.4938    154.4911   6.9590080420e+01   6.7476931670e+00    0.1440535     0.126493 -11.84 -2.563698e-05    1.013    0.013
        24  -9.5224     81.1305    144.7219   1.0085563484e+02   3.5373029992e+01    0.3877768    0.2942477 -70.85  0.001518666    1.315    0.239
        25 -10.4279     57.2059    128.7143   1.0481911501e+02   4.2566908541e+01     0.626079    0.3961492 -43.06  0.003077513    1.618    0.382
        26 -10.3772    117.7284    124.4296   8.6147685216e+01   3.3955840195e+01    0.6601614    0.3489545  35.94   0.00238263    2.005    0.501
        27 -11.0046    116.9950    119.5522   8.5138357910e+01   3.5227823204e+01    0.8250937    0.7145036  -0.27   0.00414023    1.289    0.224
        28  -9.8575      2.5417    110.1778   1.1850666019e+02   5.1785635158e+01    0.6476353    0.1314546 -60.77  0.002539078    2.930    0.659
        29 -11.8472    243.9954    105.4334   5.4567964489e+01   1.0644457519e+01     1.137286    0.6683853 -31.14  0.005566843    1.571    0.364
        30  -9.9335    241.1871     88.6357   5.1124857310e+01   1.3904131280e+01    0.3095089    0.2662673 -40.66  0.001477357    1.027    0.027
        31  -9.7645    228.8555    110.6212   5.8086445646e+01   1.2792195690e+01    0.4477304    0.3133072 -39.12  0.002099722    1.285    0.222
        32 -10.4173    160.6631    100.4242   6.8703949119e+01   2.9878020559e+01    0.6745647    0.4575875 -35.62  0.002991105    1.471    0.320
        33  -9.2216    181.2069    101.0392   6.4386204427e+01   2.4986546041e+01    0.4182238     0.209727 -28.38  0.001522569    2.361    0.576
        34  -9.2155     48.3305     99.2360   1.0173527822e+02   5.0775543554e+01    0.3392673     0.207643 -46.53   0.00160509    1.440    0.306
        35 -10.2536     13.9896     95.9774   1.1282165536e+02   5.4487890053e+01    0.6002336    0.2824453 -55.41  0.003016249    1.633    0.388
        36  -9.7899     37.7736     98.3352   1.0515376380e+02   5.2069849117e+01    0.3609516    0.2800401   5.43  0.002102767    1.513    0.339
        37  -8.5542    134.3903     97.8025   7.4473414214e+01   3.6386674618e+01    0.2288151    0.1467716 -30.79 0.0006285693    1.684    0.406
        38  -8.6211    107.2967     95.0184   8.1331938144e+01   4.2653407974e+01    0.2289133    0.1986508 -33.25  0.001170786    1.111    0.100
        39  -9.4671    211.4891     91.4832   5.6287489045e+01   1.9779140294e+01    0.4087068    0.2385994 -45.64  0.001831332    1.649    0.394
        40 -10.2358    211.1760     85.5427   5.4846313367e+01   2.0850990844e+01    0.5681245    0.3958297 -34.23  0.002813154    1.371    0.270
        41  -8.9717     43.2668     88.8508   1.0112234777e+02   5.3758197106e+01    0.2173119    0.1862552  39.40  0.001132597    1.376    0.273
        42  -8.4368     27.5464     88.9598   1.0679531770e+02   5.5173684684e+01    0.2120507    0.1086765 -61.18   0.00104004    1.625    0.385
        43  -9.6234    129.2845     83.6440   7.1649707336e+01   4.0386131848e+01    0.3551317    0.2688681 -17.08    0.0012004    1.499    0.333
        44 -10.4527     83.4957     82.7470   8.5279359482e+01   4.9658871989e+01    0.4970201    0.3330059 -34.59  0.002374743    1.453    0.312
        45 -10.1939     86.4970     82.5043   8.4201196464e+01   4.9198290823e+01    0.4546607    0.2692112 -43.52  0.002044053    1.594    0.373
        46  -8.3486     96.0000     80.9949   8.0632479428e+01   4.7803036349e+01    0.2548096   0.08212299 -44.50 0.0001384409    2.997    0.666
        47 -10.0528    213.9890     70.6588   5.0665835459e+01   2.2615157140e+01    0.5446521    0.3364699 -45.69  0.002617853    1.525    0.344
        48 -11.3260      4.5482     66.9832   1.1091823872e+02   6.1622927315e+01    0.6671923    0.4285376 -74.20  0.003987577    1.553    0.356
        49 -10.2195    184.2269     64.6515   5.3861086810e+01   3.0598006927e+01    0.7633594    0.4754527 -17.21  0.003274104    2.092    0.522
        50 -10.4969    141.0824     65.6061   6.3010996497e+01   4.0954937713e+01     0.595037    0.3754661 -30.83  0.002439834    1.649    0.393
        51  -9.9046    137.5008     63.0134   6.3046766616e+01   4.2240903378e+01    0.4109874    0.3431062  13.78  0.001719224    1.308    0.236
        52 -10.3428     87.1259     64.5942   7.8194722911e+01   5.2702844292e+01      0.50034    0.4162941  23.09  0.002248291    1.185    0.156
        53  -8.1444    115.0452     62.2452   6.8698844694e+01   4.7505103357e+01    0.1948479    0.1226992  45.24 0.0008716532    1.554    0.356
        54  -8.6801    250.6026     60.7690   4.3683217089e+01   1.6180320698e+01    0.1920186   0.09934568 -44.79 0.0009321219    1.648    0.393
        55  -9.1675     19.4973     57.4897   1.0243220909e+02   6.2783804877e+01    0.2130062    0.1578804 -40.18  0.001272624    1.064    0.060
        56  -9.3015     22.2517     54.5413   1.0040253595e+02   6.3192308809e+01    0.2905487    0.2213421   9.20  0.001864144    1.433    0.302
        57  -9.9309     96.0163     53.9933   7.1524552842e+01   5.2907390969e+01    0.5222641    0.3737833   1.75  0.002549741    1.629    0.386
        58 -10.7764    199.5835     45.1095   4.6171820361e+01   2.9733005627e+01    0.7667783    0.4909277 -35.54  0.003849318    1.546    0.353
        59  -8.3918    128.1906     50.3976   6.1159238229e+01   4.6443861237e+01    0.2056562    0.1393872  64.27 0.0009440216    1.663    0.399
        60  -8.8010     13.9712     49.5004   1.0261231102e+02   6.4814784607e+01    0.2278787     0.154787 -66.35  0.001214749    1.630    0.387
        61  -9.4946    235.3348     47.0156   4.2254810868e+01   2.1289469495e+01    0.3368446    0.2584155  -7.14  0.001882312    1.798    0.444
        62 -10.9493     81.9411     43.5420   7.2274745245e+01   5.7330304127e+01    0.6863993    0.4528859 -20.97  0.003488766    1.539    0.350
        63 -10.3635     50.0649     42.4347   8.4124595658e+01   6.2611616822e+01    0.5453363     0.346514 -18.47  0.002909116    1.579    0.367
        64 -10.1288    140.5076     38.5314   5.4336507090e+01   4.5163225479e+01    0.4641401    0.4028629 -52.34  0.002084104    1.276    0.216
        65  -8.7719    108.7101    247.6417   1.0890132629e+02   9.0937522811e+00    0.1113304   0.09239598  -3.06  0.000409817    1.687    0.407
        66  -9.6076    173.0174     36.2087   4.7651556281e+01   3.7405660392e+01    0.3633058    0.3458408 -13.60  0.001990931    1.162    0.139
        67  -9.8281    181.2281     26.2599   4.3615114613e+01   3.6572011973e+01    0.4622399    0.3468755  10.45  0.002317827    1.796    0.443
        68  -9.9746    109.5441     24.6023   5.6551604903e+01   5.4178905161e+01    0.5512525    0.2634385  25.60  0.002048088    3.136    0.681
        69  -8.9054     11.8856    241.5875   1.2636598154e+02   2.2173248584e+01    0.2058319    0.1206011  82.01  0.001042536    1.398    0.285
        70 -10.0802     22.4032    238.8938   1.2440954619e+02   2.1619652852e+01    0.2481849    0.1243684  42.83  0.001553261    1.700    0.412
        71 -10.1209     26.4557    233.8327   1.2339701317e+02   2.2158249122e+01    0.2992747    0.1781224 -51.83  0.001817764    2.397    0.583
        72  -9.6922    203.3548     18.1817   3.8812615768e+01   3.2128794856e+01    0.2950284    0.2671045  47.94  0.001590342    1.282    0.220
        73  -8.3709    236.6478     16.6913   3.5353136675e+01   2.4761324115e+01    0.1160597   0.09101216  42.03 0.0007043591    1.717    0.418
        74  -9.3831     14.0273    232.3325   1.2553701197e+02   2.3704842063e+01    0.3383147    0.1349689  77.69  0.001742544    2.516    0.603
        75 -11.5524     40.1413    223.5583   1.2014855919e+02   2.2684030712e+01    0.6975775    0.4443943  72.52  0.004416788    1.373    0.272
        76 -12.1302     34.3883    215.7964   1.2070386364e+02   2.4898913583e+01    0.7319965    0.6020305 -39.05  0.004993066    1.797    0.444
        77 -11.0974     33.8809    204.8576   1.1997405936e+02   2.7248580278e+01     0.576584    0.3014156  86.41  0.003090302    1.888    0.470
        78 -10.5220     29.5828    202.0008   1.2063835319e+02   2.8311588040e+01    0.3436726     0.241564  39.68  0.001781182    1.471    0.320
        79  -9.9359    219.4862    220.7351   8.2931338795e+01  -3.8115937447e+00    0.3264303    0.1551124  26.76  0.001553367    2.054    0.513
        80  -9.6568    191.3324    217.8408   8.7914897399e+01   1.0480620339e+00    0.3671741      0.33486 -89.35  0.002274579    1.666    0.400
