#   1 NUMBER                 Running object number                                     
#   2 MAG_AUTO               Kron-like elliptical aperture magnitude                    [mag]
#   3 X_IMAGE                Object position along x                                    [pixel]
#   4 Y_IMAGE                Object position along y                                    [pixel]
#   5 X_WORLD                Barycenter position along world x axis                     [deg]
#   6 Y_WORLD                Barycenter position along world y axis                     [deg]
#   7 A_WORLD                Profile RMS along major axis (world units)                 [deg]
#   8 B_WORLD                Profile RMS along minor axis (world units)                 [deg]
#   9 THETA_WORLD            Position angle (CCW/world-x)                               [deg]
#  10 FWHM_WORLD             FWHM assuming a gaussian core                              [deg]
#  11 ELONGATION             A_IMAGE/B_IMAGE                                           
#  12 ELLIPTICITY            1 - B_IMAGE/A_IMAGE                                       
         1  -9.9472     97.4910     12.3701   1.2995960151e+01   5.9059005826e+01    0.4284049    0.2395434  -6.20  0.001906414    2.371    0.578
         2 -10.3525     41.1044     13.8118   3.4339269941e+01   7.1269509626e+01    0.2531245     0.184942  24.94  0.000235761    1.251    0.201
         3  -8.2837     80.3890     12.2069   1.7413776854e+01   6.3239835582e+01    0.1818677    0.1206868 -38.43 0.0004737628    1.696    0.411
         4  -9.1490     63.1648      9.3274   2.1628390516e+01   6.7452429648e+01    0.2924668   0.08908769  49.39  0.001104961    2.690    0.628
         5  -8.8472     97.8055      4.7983   9.5547070004e+00   5.9665285705e+01    0.1796979    0.1505329 -74.31 0.0004303969    1.319    0.242
         6  -8.4852     65.1190      4.8475   1.8398845700e+01   6.7469611922e+01    0.1812747    0.1317214  32.61 0.0002687995    1.269    0.212
         7  -8.3764     51.8842      3.1785   2.2484923928e+01   7.0471606009e+01     0.181513    0.1264861  28.65 0.0003236243    1.317    0.241
         8  -8.2915      2.5461      3.4218   5.5570426772e+01   7.7995747196e+01    0.1192219   0.09209245 -16.82  5.56561e-05    1.023    0.023
         9  -9.5964     67.5509      1.3768   1.5639082454e+01   6.7230817096e+01    0.2340879    0.1123676  60.25  0.000501461    1.867    0.464
        10  -7.9264    100.6789    247.2742   7.0153147894e+01   9.9381436714e+00    0.1243751   0.07560927  51.10 0.0002146882    1.574    0.365
        11  -9.5627    213.7075    250.2403   4.8223710742e+01  -5.1081814796e+00    0.2309848    0.1181574  20.60  0.001321021    1.634    0.388
        12  -9.7986    205.7075    250.1284   4.9623496826e+01  -4.1671893068e+00     0.191129    0.1267255  27.71 0.0007397725    1.361    0.265
        13 -10.0841    161.5104    249.0172   5.7810238406e+01   1.5104422962e+00     0.288666    0.2188742 -50.12  0.001237535    1.792    0.442
        14 -12.2535    167.5777    241.7513   5.5638440459e+01   1.7547972970e+00     1.013072     0.648666   2.47  0.005900521    1.709    0.415
        15 -10.4732    166.6735    248.1277   5.6676811133e+01   9.6015213397e-01    0.4112687    0.2510695  31.75  0.001725555    1.345    0.256
        16 -11.3602    173.4989    245.3255   5.4966049098e+01   4.6322484059e-01    0.6066757    0.4679732 -34.42  0.004176842    1.519    0.342
        17 -11.2371    161.5941    231.5134   5.5411271949e+01   4.1159846744e+00    0.9819534    0.3143834  38.24  0.004066863    2.724    0.633
        18 -11.4242    162.4118    225.7023   5.4400951707e+01   4.9179287668e+00    0.6045142    0.3695796  27.67  0.002639819    1.394    0.283
        19 -10.6898     53.9444    248.9522   8.0126744234e+01   1.5497193907e+01    0.4067363    0.2898252   6.69  0.001722377    2.020    0.505
        20 -11.2783     19.0409    247.7659   8.7149201189e+01   1.9492457044e+01    0.6158341    0.2457273  55.10  0.003390326    1.907    0.476
        21 -10.6330      7.9120    241.2140   8.9118742816e+01   2.1798485901e+01    0.3328566    0.2658086 -62.92  0.002452429    1.672    0.402
        22  -9.8254      4.0182    249.1269   9.0118223791e+01   2.0677107437e+01    0.3083261    0.1340911  57.92 0.0009440565    1.696    0.410
        23  -9.2517      1.9837    244.0235   9.0366185757e+01   2.1810585898e+01    0.2126458    0.1176276  62.90 0.0009388078    1.379    0.275
        24 -10.6850     73.6230    244.5494   7.5668450736e+01   1.3919454244e+01     0.259718     0.211576  39.10 0.0005580822    1.093    0.085
        25  -9.6144     30.6241    244.4531   8.4674444191e+01   1.8924975235e+01    0.2349491   0.09297272  64.29  0.001150191    2.472    0.595
        26  -9.6267    250.5064    241.8954   4.0863973369e+01  -8.1351207518e+00    0.2483367    0.1171102 -29.57  0.001168611    1.896    0.473
        27 -10.1795    249.1523    237.8216   4.0454446051e+01  -7.5450913654e+00     0.247382    0.1675467  -8.63  0.001300379    1.101    0.091
        28 -10.3206    239.8183    242.4077   4.2650652645e+01  -7.0816975395e+00    0.3636407    0.1523262  14.36  0.001815768    2.843    0.648
        29 -10.8878    236.6646    240.0252   4.2804877155e+01  -6.4707070003e+00     0.405134    0.1994517  13.67  0.001798016    1.963    0.491
        30 -10.4940     98.0379    241.6841   7.0164427598e+01   1.1263370956e+01     0.390506    0.2145304  26.12 0.0009446367    1.707    0.414
        31  -8.8473    221.1319    239.9025   4.5405798661e+01  -4.7159176770e+00      0.16067    0.1302358   7.04 0.0006515568    1.240    0.194
        32  -9.3939    154.1619    238.1384   5.7851641064e+01   4.1199958660e+00    0.2565276    0.1522398 -24.25  0.001374349    2.141    0.533
        33  -8.3645    123.9669    237.4611   6.4110825543e+01   8.4404356106e+00    0.1768106   0.08335346  48.75 0.0007940085    2.325    0.570
        34  -8.5727     15.7942    237.4132   8.7394718321e+01   2.1779093061e+01    0.2292039   0.07675833  35.44  0.001142789    2.195    0.545
        35 -10.3581    231.1021    234.4418   4.2870220615e+01  -5.1944262824e+00     0.278107    0.2110815 -10.12 0.0009548365    1.168    0.144
        36 -10.5912    106.1925    224.4518   6.6487995728e+01   1.3294730048e+01    0.5173844     0.377636  -7.75  0.001415895    1.880    0.468
        37 -11.3401     90.5400    232.0163   7.0838283055e+01   1.4040493008e+01     1.313137    0.3175241 -64.95  0.004367266    5.626    0.822
        38 -10.4613     87.3150    227.9382   7.1150281508e+01   1.5255849907e+01    0.2895124    0.2534829 -44.64  0.001012294    1.410    0.291
        39 -11.9239     98.6874    225.6605   6.8329571912e+01   1.4126538371e+01     0.756349    0.5672711 -80.75  0.001734676    1.647    0.393
        40 -11.6022     95.7264    218.0477   6.8148244817e+01   1.6032491973e+01    0.6477389    0.3605773  40.21  0.001559072    1.504    0.335
        41 -10.2488    100.0052    217.4670   6.7083279937e+01   1.5536012484e+01    0.3361068    0.1931299  45.83 0.0007685631    1.560    0.359
        42 -11.8186    126.5573    221.3651   6.1510070987e+01   1.0905743633e+01    0.8700974    0.4976394 -68.35  0.003063856    2.678    0.627
        43  -9.2140    144.8493    227.8154   5.8391761509e+01   7.0993146653e+00    0.1934031    0.1521819  13.22 0.0005261846    1.183    0.154
        44  -9.8965    117.6694    227.5056   6.4279169049e+01   1.1083022880e+01    0.3518564    0.1951058  43.58  0.001048188    1.612    0.380
        45  -9.6005    242.9712    223.9521   3.9254839710e+01  -5.2626961320e+00    0.1751764    0.1262322  -5.70 0.0004820128    1.026    0.026
        46 -10.0320    181.2902    226.0372   5.0643525284e+01   2.2122933695e+00    0.2562451    0.2047268  29.42  0.001103781    1.249    0.200
        47  -9.1092     66.7385    224.0412   7.5467283561e+01   1.8735659905e+01    0.2083979    0.1678051 -52.70  0.001305725    1.535    0.349
        48  -8.4214     73.4328    224.5190   7.3978506285e+01   1.7777108604e+01    0.1284254    0.1062486  48.27 0.0001055322    1.009    0.009
        49  -9.4128    157.5877    221.4497   5.4776876558e+01   6.3080132299e+00    0.2432151     0.189871  11.19 0.0008836526    1.172    0.147
        50  -8.9328    213.6362    220.8637   4.3740250081e+01  -1.3519449942e+00    0.2949355    0.1114472  40.13  0.001339709    2.990    0.666
        51  -9.7076    133.2197    220.9881   5.9977216042e+01   9.9874667863e+00    0.2114281    0.1994816 -86.13  0.001035559    1.329    0.247
        52 -10.4376    131.1820    214.8495   5.9575239238e+01   1.1413062422e+01    0.4207242    0.3048316 -69.05   0.00151954    1.872    0.466
        53  -9.3578    128.0245    211.7218   5.9847544194e+01   1.2480879889e+01    0.2026624    0.1746793  38.42 0.0003787659    1.090    0.082
        54  -9.4501    115.0354    220.7982   6.4033439359e+01   1.2706696282e+01    0.1992688    0.1940428 -18.71 0.0005555414    1.187    0.157
        55  -9.2242    219.2131    219.1124   4.2465885170e+01  -1.8212979610e+00    0.2890553    0.1615992 -21.40  0.001668685    1.702    0.412
        56  -8.4965    149.2309    219.7956   5.6311113395e+01   7.8186031504e+00    0.1894775    0.1770665 -44.63 0.0008027607    1.311    0.237
        57  -9.1902    151.5353    215.9957   5.5249310067e+01   8.1298323616e+00    0.3110936    0.1906683  16.79  0.001267529    1.739    0.425
        58  -9.7420     75.1958    219.3642   7.3081320837e+01   1.8590998189e+01    0.2777899    0.1803553  45.66 0.0009550459    1.291    0.226
        59  -8.2231    226.8463    219.2508   4.1166153856e+01  -2.7850932382e+00    0.1555556    0.1049972  -7.31  0.001011476    1.249    0.199
        60  -9.9651    190.4973    216.2385   4.7297586680e+01   2.4064051694e+00    0.4471954     0.281518 -24.88  0.002565319    1.597    0.374
        61  -9.2038     61.1703    218.4122   7.6264599948e+01   2.0597144804e+01     0.276654    0.1217049 -52.78  0.001243469    2.813    0.645
        62  -9.7742    175.9965    216.2585   5.0172639330e+01   4.4682260673e+00    0.2468096    0.1713455 -26.85  0.001444369    1.480    0.324
        63  -8.4103    143.5868    216.7949   5.7096938327e+01   9.1854332520e+00    0.1616249    0.1308627 -62.80 0.0009524495    1.613    0.380
        64 -10.1855     84.6234    215.3374   7.0452346602e+01   1.8140919161e+01    0.4417021    0.2201521 -59.19  0.002126173    2.241    0.554
        65  -9.2750     21.6081    216.5995   8.5211238483e+01   2.5437880234e+01    0.2830467    0.1239158  11.67  0.001064733    4.568    0.781
        66 -10.2242    170.6916    215.2563   5.1095713483e+01   5.4032900884e+00     0.270205    0.2220716  14.45 0.0007115782    1.020    0.019
        67  -9.9386    121.7440    222.6056   6.2750665452e+01   1.1386951641e+01    0.2990513    0.2327005  42.77  0.001648229    1.179    0.152
        68 -11.4069    239.1157    230.0004   4.0846671220e+01  -5.5607998993e+00    0.4881886    0.2597229  10.11  0.002270896    1.834    0.455
        69  -9.9981    112.9193    213.0303   6.3516333091e+01   1.4515932775e+01    0.6292279    0.3721701   0.36  0.002505059    3.287    0.696
        70  -9.3074    228.7563    213.2274   3.9841532340e+01  -2.2258424932e+00    0.3490782    0.1503159 -25.08   0.00172058    2.378    0.579
        71  -9.4606    202.2789    212.6624   4.4466179364e+01   1.3081795373e+00    0.2494979    0.1517087 -49.97  0.001320875    2.378    0.579
        72  -9.4036     63.9567    213.2345   7.5147926766e+01   2.1338231432e+01    0.3945768    0.1680637  42.29  0.001578405    1.907    0.476
        73 -10.3196     77.7880    211.3449   7.1653504699e+01   1.9913837500e+01    0.3422095    0.2591633  23.77  0.001960527    1.374    0.272
        74 -10.5783    211.7519    208.1459   4.1961360831e+01   6.7780686753e-01    0.5318836    0.3606461  -8.14  0.003242118    1.369    0.269
        75  -9.4487    212.2391    203.5483   4.1081162395e+01   1.2798965646e+00    0.3421418    0.1761752  32.92  0.001493033    1.870    0.465
        76  -9.1527    237.8098    210.6246   3.7893512289e+01  -2.9893950039e+00    0.1483881   0.09861555  34.63 0.0009510526    1.733    0.423
        77  -9.8323     11.6394    206.7961   8.6989954366e+01   2.8506115282e+01    0.2912745    0.2652316 -79.94  0.002027476    1.311    0.237
        78 -11.4765     15.2798    196.2166   8.5611051036e+01   3.0539826188e+01     0.714384    0.3036951 -48.35  0.002799771    3.593    0.722
        79  -8.1822    224.4157    205.4812   3.9266364306e+01  -6.2178003424e-01    0.1206402   0.09431451  -5.56 6.848879e-05    1.019    0.019
        80  -9.4453    130.0935    201.9279   5.7922986594e+01   1.4051903688e+01     0.471545    0.3019109  68.91  0.002061062    2.658    0.624
        81 -10.3505    166.9383    199.1996   4.9237565980e+01   8.6952551407e+00    0.3929524    0.2598837 -22.88  0.001186458    1.678    0.404
        82 -11.5120    176.1795    185.1570   4.4783891995e+01   9.7021532108e+00    0.5817903     0.467702 -37.83  0.002277237    1.297    0.229
        83 -10.0529    171.3623    201.2147   4.8648228632e+01   7.6528723227e+00    0.3063067    0.2578317 -57.86 0.0008493253    1.591    0.371
        84 -11.5109    178.5007    196.5789   4.6365649511e+01   7.3366137046e+00    0.8316773    0.5070878 -24.79   0.00292386    1.788    0.441
        85 -11.3922    172.7796    195.5612   4.7373415639e+01   8.4108188160e+00    0.7002433    0.3153053 -40.82   0.00149229    2.293    0.564
        86  -8.0292    148.6860    198.9799   5.3192857475e+01   1.1644776277e+01    0.1943146    0.1168138 -75.02 0.0006400808    4.081    0.755
        87  -8.3304    144.4673    198.4882   5.4065276095e+01   1.2417050157e+01    0.1388278    0.1219383  15.72 0.0001300423    1.044    0.043
        88  -9.7750    126.8807    196.5785   5.7853563392e+01   1.5634270390e+01    0.4095128    0.2831882  13.45  0.001600154    1.675    0.403
        89  -9.4410    124.6733    193.6488   5.7922196526e+01   1.6590929550e+01    0.3043603    0.2133197 -44.92 0.0009926074    1.564    0.360
        90  -9.1657    112.7158    197.8719   6.1463022418e+01   1.7625207548e+01    0.4478661    0.1869298  54.85  0.001429495    4.046    0.753
        91  -8.8647    113.0293    194.3086   6.0860174656e+01   1.8327065516e+01    0.2127819    0.2039092  -2.62 0.0003253845    1.125    0.111
        92  -9.3622    105.2727    197.5262   6.3238620150e+01   1.8859122753e+01    0.2495583    0.2106141 -30.96 0.0009968759    1.387    0.279
        93  -8.9851    212.8046    198.9089   4.0165258286e+01   1.8863934401e+00     0.190088    0.1391517  -6.58 0.0004531537    1.207    0.171
        94  -9.2828    248.3905    195.7694   3.3641984687e+01  -2.3222423236e+00    0.1694653   0.08684905 -23.83 0.0009509417    1.695    0.410
        95  -8.8184     40.2549    194.1713   7.9301677975e+01   2.8460021723e+01    0.3947065     0.133026 -50.86  0.001393482    4.124    0.757
        96  -8.6340    131.7887    195.0986   5.6455013868e+01   1.5137570597e+01    0.2095678    0.1827225  58.26 0.0008227113    1.277    0.217
        97  -8.4906     66.4045    194.7078   7.2692262172e+01   2.5121937576e+01    0.3003349    0.1505587  66.88  0.001222395    2.586    0.613
        98  -8.6175    161.6859    194.2933   4.9521976803e+01   1.0414338104e+01    0.1278697    0.1068427  61.81 0.0002718994    1.596    0.374
        99 -11.8225     98.0093    188.6830   6.3807030131e+01   2.1921139237e+01    0.6927737    0.4336351  62.71   0.00174122    1.942    0.485
       100  -9.9357    104.1820    189.3563   6.2332346786e+01   2.0803473982e+01    0.3127874    0.2214345  38.67  0.000922364    1.275    0.216
       101 -10.7592     93.8820    181.5073   6.3833481505e+01   2.4199123053e+01    0.4742772     0.355396 -34.60   0.00181281    1.631    0.387
       102  -9.2747    185.4997    189.8400   4.3735163411e+01   7.3872215612e+00    0.2585182    0.2066528  17.35  0.001169931    1.140    0.122
       103  -9.9727    183.5506    185.7547   4.3376753053e+01   8.3990945557e+00     0.262243    0.2284546 -60.19   0.00129349    1.559    0.358
       104  -8.1946    116.9805    190.9801   5.9378914271e+01   1.8399657096e+01    0.1702023     0.152348  34.79 0.0003627781    1.015    0.015
       105  -8.8863    154.9312    188.3372   4.9968884596e+01   1.2637951916e+01    0.2919678    0.1761697 -27.34  0.001338754    1.999    0.500
       106  -8.4833    138.5456    189.5023   5.3937943927e+01   1.5148403498e+01    0.1408011    0.1285067  25.35 0.0001576992    1.020    0.020
       107  -9.4351    204.0642    187.8560   3.9770248099e+01   4.8540794828e+00    0.2711803    0.2181402  41.90  0.001649877    1.511    0.338
       108  -8.4866    128.7017    188.3398   5.6090772576e+01   1.7027748306e+01    0.2241331    0.1641138  65.02   0.00109765    1.763    0.433
       109 -10.4490     11.2918    187.4756   8.6118932835e+01   3.2918433956e+01    0.3697239    0.2701084  28.95  0.001423858    1.460    0.315
       110 -11.2840     20.0324    181.1280   8.3518277209e+01   3.3637480343e+01    0.5659936     0.466975 -74.07   0.00355914    1.258    0.205
       111 -11.8057     12.5946    179.9717   8.5371050656e+01   3.4583480133e+01    0.7191823    0.5890471 -54.51  0.004449462    1.460    0.315
       112 -11.2812      5.6177    176.2434   8.6964784716e+01   3.6055708946e+01    0.6059145    0.3461878 -74.55  0.001725186    1.622    0.383
       113 -11.5908      3.8003    169.4273   8.7084165945e+01   3.7847021254e+01    0.3482674    0.2423543 -71.40 2.009465e-05    1.396    0.283
       114  -8.7834    250.1486    185.8156   3.1599170478e+01  -1.2090655234e+00    0.1688315    0.1127594  -8.97  0.001075998    1.318    0.241
       115  -9.5517    229.4982    184.5103   3.4653824216e+01   1.6932617782e+00    0.3211635    0.2420667  47.71  0.001974858    1.892    0.471
       116  -9.9362    109.5539    184.8923   6.0287230294e+01   2.0928384016e+01    0.4991679    0.3207526  33.91  0.002404084    1.444    0.307
       117  -9.6691    209.8578    185.1538   3.8199925662e+01   4.4153821619e+00     0.186001    0.1720871  -7.74  0.001117078    1.244    0.196
       118  -8.8951    199.3291    185.1735   4.0164614109e+01   6.0083853234e+00    0.2636871    0.1605441  21.95  0.001357438    1.701    0.412
       119  -8.4276    139.3031    185.3351   5.3042755197e+01   1.5863184614e+01    0.1454248    0.1076926  -7.41 0.0002848036    1.663    0.399
       120  -8.5305    217.7115    182.9854   3.6389231836e+01   3.5951490072e+00    0.1824823    0.1443566 -13.82  0.000951256    1.062    0.059
       121 -10.2167     46.2427    179.9243   7.6456233676e+01   3.1165100907e+01    0.8200796    0.1931072 -67.03   0.00272841    3.756    0.734
       122  -9.5800     59.1644    199.5229   7.5020611510e+01   2.4964648090e+01    0.6212404    0.2843312  53.44  0.002728267    2.130    0.531
       123  -9.9037    181.7218    179.9571   4.2659242621e+01   9.7158537544e+00     0.200944    0.1690701 -23.97  0.001173462    1.139    0.122
       124  -9.1249    138.8071    179.7688   5.2174942882e+01   1.7090774076e+01    0.3564515    0.2221399  64.80  0.001435879    2.678    0.627
       125  -8.8655    112.3213    179.5981   5.8727841802e+01   2.1650706235e+01    0.2633752    0.1807955  24.70  0.001255665    1.521    0.342
       126  -8.8528    104.0718    179.6586   6.0874360666e+01   2.2997558451e+01    0.3826317    0.2137901 -43.43  0.001504156    2.075    0.518
       127  -8.5091    100.9314    178.0000   6.1436156852e+01   2.3888268081e+01    0.3508837     0.187446  26.23  0.001442758    2.057    0.514
       128  -8.4934    240.5360    177.9383   3.1642967626e+01   1.1366400976e+00    0.1830001   0.09953059 -30.87  0.001012856    1.549    0.354
       129  -8.3081    219.3857    178.1627   3.5186332348e+01   4.0929723677e+00    0.1686819    0.1083258 -42.00 0.0005665738    1.638    0.390
       130  -9.4499    158.0870    177.0314   4.7185280443e+01   1.4286434478e+01    0.3513705    0.2476647 -31.18  0.001776458    1.486    0.327
       131 -10.7964    152.0300    174.5012   4.8085931773e+01   1.5851428683e+01    0.5080595    0.4564609 -20.22  0.002726632    1.114    0.102
       132  -9.9162    148.6911    174.6730   4.8894237984e+01   1.6406888439e+01    0.3054484    0.2162671 -26.93  0.000812231    1.583    0.368
       133  -8.9547     88.7545    177.0646   6.4543258215e+01   2.6036696331e+01    0.3375294    0.1931608  56.92  0.001441626    1.976    0.494
       134 -10.4210    204.0543    175.4783   3.7428623561e+01   6.8654534654e+00    0.4530511    0.3158478  21.23   0.00252945    1.442    0.306
       135 -11.2334    207.6683    168.7473   3.5443419218e+01   7.4038471334e+00    0.6180826    0.3458996 -41.95  0.003079566    1.765    0.433
       136  -9.7946    104.9875    174.4845   5.9795578393e+01   2.4035001960e+01    0.6764615    0.3553007 -86.00  0.001911977    5.354    0.813
       137  -8.6188     77.1748    175.7924   6.7511970275e+01   2.8084205667e+01    0.2255264    0.1730969  62.64  0.001169857    1.295    0.228
       138  -9.6504     29.1605    174.7719   8.0620206331e+01   3.4299750441e+01    0.3536394    0.1925453 -81.23  0.001584089    1.743    0.426
       139 -10.0544     28.7163    169.9951   8.0343236150e+01   3.5529759543e+01    0.3991998    0.2591194  35.84  0.002135081    1.488    0.328
       140  -9.8954     24.2591    174.4107   8.1919521693e+01   3.4871746049e+01    0.2703795    0.1509317  58.34 0.0007872832    1.642    0.391
       141  -8.2937    223.6641    172.2752   3.3323638230e+01   4.3696147661e+00    0.1096248    0.1022418 -66.21 0.0002373858    1.606    0.377
       142  -8.4258    193.3105    172.5669   3.8907303710e+01   9.0955852329e+00    0.1796581    0.1210962  22.52 0.0009272934    1.532    0.347
       143 -10.0554    177.6667    168.4012   4.1240418340e+01   1.2508688135e+01    0.3992065    0.3304348 -89.92  0.002085476    1.893    0.472
       144  -8.5261    135.1764    171.4022   5.1518300128e+01   1.9494186294e+01    0.2120035    0.1303433  45.93 0.0009436947    1.642    0.391
       145  -9.0628    121.4520    169.6040   5.4640458222e+01   2.2326369819e+01    0.3099842    0.2276832  82.99   0.00103562    1.932    0.482
       146  -9.6567     90.6994    172.3377   6.3296894255e+01   2.6858382256e+01    0.5604736    0.2375629  28.57  0.002042175    2.566    0.610
       147  -9.4018     19.3404    166.6925   8.2684593604e+01   3.7244089511e+01    0.1969905    0.1150217  77.53 0.0003022806    1.610    0.379
       148  -9.6372    199.9457    166.9688   3.6520910306e+01   8.9619450718e+00    0.3006473    0.1960752 -16.99 0.0004069408    1.658    0.397
       149  -8.2129     55.0189    169.5107   7.2890002454e+01   3.2668669398e+01    0.2148476    0.0888905  50.39 0.0008094696    2.459    0.593
       150 -10.9402    217.8013    165.3754   3.2975624076e+01   6.3494260542e+00     0.550873    0.3382832  26.73    0.0027855    1.763    0.433
       151  -8.3078    161.2977    167.6986   4.4647356658e+01   1.5555094355e+01    0.2304172    0.1408792  41.33  0.000620304    1.625    0.385
       152  -8.9439    159.3666    164.6815   4.4476292095e+01   1.6507141872e+01    0.2583599    0.1456604 -56.00  0.001068912    2.235    0.553
       153 -10.5982    149.9934    163.6972   4.6443900745e+01   1.8430809754e+01     0.518884    0.4142269 -28.05  0.001726167    1.305    0.234
       154  -9.1753    139.2349    165.2246   4.9334728165e+01   2.0087487248e+01    0.3587243    0.2461299  84.91   0.00143413    2.705    0.630
       155  -9.3205     98.0050    165.1395   6.0111357900e+01   2.7400907929e+01    0.4248256    0.2498769  68.24  0.001609094    2.576    0.612
       156  -8.3946     31.5175    166.4420   7.9243587425e+01   3.6138666553e+01    0.1342086    0.1208308  80.65 -0.0001328491    1.063    0.059
       157  -8.4482     80.8153    164.8499   6.4891805771e+01   3.0221026029e+01    0.3439083    0.1761791  85.21  0.001054186    4.132    0.758
       158  -8.6337     36.9953    164.0453   7.7446201843e+01   3.6170316316e+01    0.2406769    0.1394878  62.28  0.001131964    1.725    0.420
       159  -8.3364    165.5084    186.9824   4.7391369920e+01   1.1131422388e+01    0.1728511    0.1261377 -74.27 0.0008075715    2.383    0.580
       160 -10.8480    248.3025    160.7600   2.7202450065e+01   2.5449319150e+00     0.447542    0.2277656 -21.99  0.002275281    1.976    0.494
       161  -9.8327     99.8779    159.4986   5.8598928599e+01   2.8447322246e+01    0.3740763    0.3164398 -50.41  0.001187221    1.235    0.190
       162 -10.2245     23.0760    160.4919   8.1132194441e+01   3.8469058096e+01    0.4870934    0.2762801  10.58    0.0022808    2.342    0.573
       163  -8.7488     92.6609    160.2939   6.0774130361e+01   2.9464017847e+01    0.2444446    0.1658543  68.14  0.001073658    1.807    0.447
       164  -8.2839    177.3286    160.6541   3.9730724704e+01   1.4022521048e+01    0.1384323    0.1164469 -87.09 0.0007050192    1.753    0.429
       165 -10.2189    219.4260    159.0884   3.1437767762e+01   7.1049212973e+00    0.3260205    0.1673189  50.59  0.001496737    2.647    0.622
       166  -9.5339    167.0727    157.7696   4.1328759766e+01   1.6462370765e+01    0.3308688    0.2967862 -80.68  0.001806463    1.427    0.299
       167 -10.2843    142.8315    158.5771   4.7118701575e+01   2.0849706065e+01    0.7237418    0.2436846  43.73  0.002368574    2.986    0.665
       168  -8.6997    127.6963    157.0174   5.0606842010e+01   2.4035461503e+01    0.2871959    0.1856718 -47.74  0.001286246    1.589    0.371
       169  -9.1645    105.1533    157.5659   5.6772182493e+01   2.8001286236e+01    0.3058586    0.2270476  82.42 0.0009125518    1.728    0.421
       170  -9.0716    224.9816    157.4827   3.0184533861e+01   6.4850858944e+00    0.1771119    0.1246486  34.93 0.0005453138    1.551    0.355
       171  -9.6671    206.5132    142.3750   3.0181791819e+01   1.2079568358e+01    0.3320138    0.2188875 -11.49  0.001216464    1.863    0.463
       172  -9.7655    208.1726    156.4590   3.2864958811e+01   9.3793704539e+00    0.3687528    0.2026256  44.26  0.001779957    2.028    0.507
       173 -11.9900    206.5121    150.4226   3.1902270827e+01   1.0691495696e+01    0.8554554    0.6735388 -85.03  0.004413597    2.194    0.544
       174  -9.4356    157.8024    155.6336   4.2959365256e+01   1.8635543930e+01    0.2444461    0.1774669 -48.26 0.0009911414    1.432    0.302
       175  -8.8745     49.7763    155.2053   7.2653237860e+01   3.6974987891e+01    0.4019887    0.1368499  56.09  0.001135946    4.595    0.782
       176  -9.7140    135.5296    154.2839   4.8042074399e+01   2.3171353947e+01    0.3520141    0.2643722  41.81 0.0009142476    1.306    0.234
       177  -8.6627    131.7008    151.3688   4.8407161047e+01   2.4555321882e+01    0.2685392    0.1962461 -65.06  0.000778611    1.618    0.382
       178  -9.5606     81.9594    154.5079   6.2880287427e+01   3.2633931211e+01    0.2813906    0.2051096  86.24 0.0007045673    1.598    0.374
       179  -8.2814      1.3446    162.2967   8.7368283456e+01   3.9777827396e+01    0.1241086   0.08871351 -48.34 0.0002606474    1.670    0.401
       180  -8.7727    233.8440    154.6201   2.8187577526e+01   5.5646615364e+00    0.1616941     0.121836  51.71 0.0009593311    1.792    0.442
       181  -8.6580    195.3038    154.3075   3.4798573012e+01   1.1971591325e+01    0.1414476    0.1019018  -3.37 0.0003605066    1.604    0.377
       182  -9.0050     99.5570    153.0421   5.7497369880e+01   3.0077658420e+01    0.4276814    0.2600271 -75.69  0.001450472    2.201    0.546
       183  -9.3483      4.6022    152.5854   8.5889493232e+01   4.1980262685e+01    0.4097463    0.1424837  63.94  0.001543647    3.096    0.677
       184 -10.5660    223.4253    148.4456   2.8594159169e+01   8.1794617181e+00    0.4338389    0.3632186   0.19  0.001864828    1.175    0.149
       185  -9.3738    190.0538    150.7668   3.5060437194e+01   1.3553187138e+01    0.2866398    0.2339672  62.69  0.001149484    1.611    0.379
       186  -8.3202     89.1545    151.1835   6.0170890613e+01   3.2307773585e+01     0.338309    0.1244182  27.78  0.001022863    3.467    0.712
       187  -9.0782     28.2466    149.4184   7.8558014201e+01   4.0838464724e+01    0.4579129    0.1753997  70.01  0.001445141    4.045    0.753
       188  -9.8323    124.8305    144.5006   4.8739591023e+01   2.7453496204e+01    0.9305258    0.5380713 -28.78   0.00346746    2.496    0.599
       189  -9.7373    116.7566    144.3601   5.0903641359e+01   2.9040180044e+01     1.009162     0.357858  53.82  0.002288138    6.282    0.841
       190  -9.0859    107.4224    138.6904   5.2321441955e+01   3.2174889598e+01    0.4635153    0.2932297  65.49  0.001810748    2.209    0.547
       191  -9.5982     68.6812    154.3129   6.6811181377e+01   3.4687806170e+01    0.3585944    0.2359848  63.67  0.001069006    1.678    0.404
       192  -9.5301     39.6034    147.2763   7.4789146176e+01   4.0230665516e+01    0.5272921    0.2324398  67.83  0.001818343    3.275    0.695
       193  -9.6432     68.3440    146.8019   6.5713106656e+01   3.6680002281e+01    0.4081056    0.1968065 -48.95  0.001592204    2.212    0.548
       194 -10.3518     70.5394    141.7564   6.4165478471e+01   3.7671838617e+01    0.5962687    0.3181194  71.34  0.002028613    3.152    0.683
       195  -9.3292    158.0550    146.4112   4.0901921622e+01   2.0489752518e+01    0.3067209    0.1820137 -11.05  0.001030166    3.408    0.707
       196  -8.9081    142.6822    146.6808   4.4625617579e+01   2.3461847474e+01    0.2836799    0.1878188  25.89  0.001231811    1.725    0.420
       197  -8.9111    133.7769    147.1962   4.6980983920e+01   2.5094331483e+01    0.2195307    0.1830681  -8.88  0.001072597    1.387    0.279
       198  -9.8508    195.5432    145.7365   3.2917605754e+01   1.3465321903e+01    0.3576298    0.1561227 -45.10  0.001431781    2.299    0.565
       199  -9.8446     56.2797    145.4435   6.9280976912e+01   3.8704624131e+01    0.5375351    0.2554469  53.73  0.001801591    2.399    0.583
       200  -8.3210    244.2930    146.3660   2.4961510758e+01   5.2429285174e+00    0.1297032    0.0844849  -9.70 0.0007028106    1.713    0.416
       201 -10.0386    148.6391    144.4458   4.2677822561e+01   2.2767089208e+01    0.5590222    0.3562422 -70.90  0.001924937    2.603    0.616
       202  -9.5273    106.9553    144.8099   5.3751953162e+01   3.0768300130e+01    0.5259329    0.3062985  73.66  0.001691827    3.537    0.717
       203  -8.2472     13.4291    146.2084   8.2804073744e+01   4.2962255620e+01    0.1898934    0.1100407  83.06 0.0004081283    1.614    0.380
       204  -9.2359    190.7445    145.4296   3.3768991176e+01   1.4404097768e+01     0.190245    0.1315555  28.08 0.0008046196    1.584    0.369
       205  -8.3560    165.4754    143.9710   3.8684208910e+01   1.9529159403e+01    0.2013295    0.1304812 -66.21 0.0006772358    2.381    0.580
       206  -8.7743     87.8810    143.7087   5.9151263168e+01   3.4409467439e+01    0.2965135    0.1973553  81.18  0.001179397    2.074    0.518
       207  -9.1382      2.4868    142.5549   8.5867235488e+01   4.4680766881e+01    0.2744644    0.1473242  46.35  0.001389182    1.783    0.439
       208  -9.0536     47.5300    138.9600   7.1130374557e+01   4.1520675409e+01    0.4133023    0.2420078  88.59  0.001364015    1.972    0.493
       209  -9.9297     41.0411    135.5384   7.2779944189e+01   4.3184594501e+01    0.6212949    0.3493076 -53.17   0.00238829    1.762    0.432
       210  -9.0330     38.5124    127.5258   7.2481647245e+01   4.5606287886e+01     0.282474    0.2160899  55.88 0.0008776228    1.329    0.248
       211  -9.7201     46.0000    133.9979   7.0897766406e+01   4.3025995451e+01    0.3861187    0.2022525 -73.98  0.001311131    1.891    0.471
       212 -10.2522     43.0046    129.0139   7.1153917637e+01   4.4708336791e+01    0.3820271     0.311896  52.68  0.001485915    1.235    0.190
       213 -10.2682    192.7800    133.6240   3.0746066034e+01   1.6184578251e+01     0.371324    0.2380455  58.12  0.001465049    1.996    0.499
       214 -11.1715    197.9229    136.4246   3.0421349169e+01   1.4699538319e+01    0.5921093    0.4040401   7.59  0.002778718    2.016    0.504
       215  -9.9016    202.9803    136.2236   2.9461642078e+01   1.3794419358e+01    0.3106236    0.2184401  34.54 0.0003842269    1.555    0.357
       216  -9.5853     23.0451    135.6002   7.8750606060e+01   4.4952923461e+01    0.9697946    0.3440392 -85.30  0.003301037    3.277    0.695
       217 -10.0870    246.1454    138.1826   2.3049810224e+01   6.1908319481e+00    0.1925478    0.1467417 -16.47 0.0005648868    1.207    0.172
       218  -8.1457    172.6154    138.3243   3.5856102979e+01   1.9244184302e+01    0.1508981    0.1193974 -87.64  9.83904e-05    1.852    0.460
       219  -9.6052    234.3104    136.4361   2.4398145398e+01   8.3203909762e+00     0.270426    0.2121903 -10.39 0.0007279103    1.268    0.211
       220  -8.8934    161.8200    136.3347   3.7755858766e+01   2.1817521295e+01    0.2653282    0.1988143  31.41   0.00115595    1.410    0.291
       221  -8.8300     81.8055    136.3796   5.9598513020e+01   3.7298580550e+01    0.2099184    0.1492254  21.70 0.0005529373    1.617    0.381
       222 -10.7037    107.8343    113.3689   4.6173898520e+01   3.8250897611e+01     1.102941    0.6489685 -51.99  0.004477596    1.710    0.415
       223  -9.8674    118.0414    118.2265   4.4427738743e+01   3.4985634567e+01    0.6292758    0.2494641 -47.82  0.002090256    2.510    0.602
       224  -9.1891    110.2101    125.4213   4.8478671105e+01   3.4866707782e+01    0.4156115    0.2855034  44.63   0.00102785    1.454    0.312
       225  -9.8467    110.4014    131.2452   4.9792872546e+01   3.3417727532e+01    0.8241663    0.4124161  34.55  0.002695469    2.120    0.528
       226 -10.2849    116.4145    125.5976   4.6725408973e+01   3.3578424380e+01     1.281541    0.8150439   9.17  0.004513014    2.891    0.654
       227  -9.3118    105.0323    123.5221   4.9563054938e+01   3.6349979829e+01    0.3133687    0.2326244  27.90  0.001057684    1.476    0.322
       228  -9.8937    109.0055    121.2690   4.7824244643e+01   3.6111481109e+01    0.3491431    0.3246368  21.89 0.0007855806    1.132    0.116
       229  -8.5948      4.1172    134.3414   8.4777964174e+01   4.6698773368e+01    0.2301522    0.1256527  -0.20  0.001079035    2.526    0.604
       230  -9.8781    132.2323    131.2688   4.3759736614e+01   2.9014841847e+01     0.456873    0.2756401 -64.25  0.001214022    2.215    0.549
       231  -9.5713     83.6615    131.8815   5.8097044091e+01   3.8148849339e+01    0.4323313    0.2799261  72.14  0.001377672    2.145    0.534
       232  -9.0696    209.0852    131.8845   2.7434896102e+01   1.3427439451e+01    0.3051461    0.1971613  58.19  0.001499569    2.018    0.504
       233  -8.1295    143.2979    131.6437   4.1024777688e+01   2.6635356132e+01    0.1580935    0.1248275 -86.10 0.0007035131    1.701    0.412
       234  -9.5572    247.2969    130.3348   2.1292593481e+01   7.1915362428e+00    0.1833541   0.09671702 -39.90 0.0004117867    1.588    0.370
       235  -9.8309     99.2517    128.1163   5.2397632583e+01   3.6322064265e+01    0.5475351     0.349983  87.14  0.001765838    2.697    0.629
       236  -8.8477     73.2879    129.3152   6.0940571526e+01   4.0507474588e+01    0.3160391    0.2032835  69.65  0.001065789    2.041    0.510
       237  -9.4558     12.8345    129.1700   8.1479676831e+01   4.7466712219e+01    0.4564806    0.1933289  66.07  0.001764457    2.813    0.645
       238  -9.3099    152.9104    127.5099   3.7704766768e+01   2.5507951483e+01    0.7337098    0.2228072 -45.79  0.002211702    3.283    0.695
       239  -9.1927    227.5405    126.2497   2.3246715081e+01   1.1074764390e+01    0.2493415    0.1101267 -39.46 0.0006662722    1.928    0.481
       240  -9.7333     59.7482    124.2926   6.4542437182e+01   4.3845161693e+01    0.6146415    0.3205926  74.91  0.001959533    3.654    0.726
       241 -10.0495     44.2403    123.0149   6.9760836029e+01   4.6174415853e+01    0.6668537    0.3398863  70.18  0.002395361    2.965    0.663
       242 -10.2038    180.9015    121.1336   3.0107131390e+01   2.0896409568e+01    0.6701893    0.3324053 -26.80  0.002444522    2.667    0.625
       243 -10.6390    184.8176    113.8587   2.7579861363e+01   2.1446555852e+01    0.5148314    0.3918814 -71.56  0.001871586    1.691    0.409
       244  -8.9272    135.8405    124.1827   4.1094873180e+01   2.9858120448e+01    0.2194618    0.1893802   0.79 0.0008193015    1.338    0.253
       245 -10.1624     28.6396    121.2794   7.5065309087e+01   4.8272204993e+01    0.8150408    0.3609024 -74.54  0.003308308    2.117    0.528
       246  -7.9884     84.3117    122.3010   5.5807615464e+01   4.0500898835e+01    0.1569434    0.1227119 -20.11 0.0004498127    1.607    0.378
       247  -8.5860    188.8263    121.3861   2.8643477001e+01   1.9220907909e+01    0.2008571    0.1341935  35.15 0.0009430142    1.700    0.412
       248  -9.5491    172.5598    119.1027   3.1295375219e+01   2.3042239918e+01    0.4709018    0.2136605 -36.34  0.001764754    2.222    0.550
       249 -10.5427     21.9004     92.3594   7.3156281338e+01   5.6544676786e+01    0.6510912    0.2779357 -44.84  0.002648806    2.312    0.567
       250 -10.8717     15.1864    114.4716   7.9068665256e+01   5.1195544042e+01    0.8277839    0.3457516 -70.05  0.003407578    2.010    0.503
       251 -10.2241     22.5376    109.9209   7.5713094301e+01   5.1844542544e+01    0.4391507    0.2590144 -79.78  0.001283535    1.602    0.376
       252 -11.1575     16.7281    104.8761   7.7244900515e+01   5.3633849186e+01    0.6229423      0.39042 -42.69  0.003129824    1.641    0.391
       253 -10.8020     23.6527    102.5251   7.4151499395e+01   5.3720903197e+01    0.8176751    0.3313772  60.13  0.002618936    4.171    0.760
       254  -9.5170    141.9322    119.0600   3.8257181861e+01   2.9679420864e+01     0.472464     0.299476 -70.48  0.001567349    2.489    0.598
       255  -8.6777     98.9758    119.5270   5.0453059345e+01   3.8509195825e+01    0.3281866     0.192797 -21.12  0.001041682    3.422    0.708
       256  -8.3114     71.4690    119.9972   5.9615537190e+01   4.3233927889e+01    0.2171679    0.1336298  89.16 0.0008078082    2.438    0.590
       257  -8.9268    131.1615    118.6074   4.0913365850e+01   3.2111424108e+01     0.369961    0.2311943  89.01  0.001133474    3.855    0.741
       258  -9.4257      2.7101    116.8893   8.3822678732e+01   5.1341061867e+01      0.45129    0.2046937  67.02  0.001917897    2.442    0.590
       259  -9.4090     79.1537    112.5144   5.5256536407e+01   4.3903063529e+01    0.4116914    0.2663225 -89.63  0.001300881    2.366    0.577
       260  -9.1395    121.7737    112.0353   4.1759102777e+01   3.5630432744e+01    0.4289117    0.2887206 -85.78  0.001398618    2.531    0.605
       261  -8.7929    158.4220    121.2256   3.4883590331e+01   2.5645393819e+01    0.2226512    0.1414316 -53.25 0.0009434326    1.701    0.412
       262  -8.3388    159.4312    111.9273   3.2293999874e+01   2.7327230381e+01    0.2187966    0.1280624 -62.05 0.0006019695    2.429    0.588
       263  -9.2524     66.3690    110.2728   5.9251171419e+01   4.6570850318e+01    0.3432966    0.2030315  64.47  0.001196492    2.443    0.591
       264  -9.7089    133.6091    108.5148   3.7609298997e+01   3.3820830401e+01    0.5239164    0.2715199 -51.63  0.001960929    2.055    0.513
       265  -9.5702     92.9350    112.7412   5.0691807611e+01   4.1347995644e+01    0.4549508    0.3151274 -85.73  0.001211735    2.064    0.516
       266  -8.1763     39.6334    108.3150   6.8878530758e+01   5.0632318108e+01    0.1564396    0.1033208  63.07 0.0007038493    1.772    0.436
       267  -8.6087    196.8293    106.6038   2.3650402669e+01   2.0247418235e+01     0.194194    0.1395876  69.15 0.0009523707    1.735    0.424
       268  -8.1259     77.3411    106.3017   5.4356137853e+01   4.5799432938e+01    0.1598688    0.1217957 -17.68 0.0002731002    1.674    0.403
       269  -9.4007     61.3166    105.9609   6.0117336368e+01   4.8457258291e+01    0.2663262    0.2193124  31.35 0.0008354163    1.273    0.214
       270  -8.5260    205.3291    105.6647   2.2020226867e+01   1.8669310599e+01    0.1455648    0.1035881 -64.89 0.0007052005    1.726    0.421
       271  -8.8347    139.9981    104.5996   3.4911365795e+01   3.3225732307e+01    0.4004036    0.2518826 -70.03   0.00147819    2.486    0.598
       272  -8.4806     66.3441    105.3163   5.8093620116e+01   4.7861025174e+01    0.1604568    0.1168122 -23.71 0.0007048374    1.716    0.417
       273 -10.1564     45.6742    102.0033   6.5261565158e+01   5.1605255655e+01    0.8337199    0.3860405  62.66  0.002479186    4.476    0.777
       274  -8.9561    150.5051    103.6456   3.2123020239e+01   3.1026373344e+01    0.3820263    0.1793072 -50.70  0.001182204    2.334    0.572
       275  -9.4485     34.6860    103.3384   6.9889584329e+01   5.2482463248e+01    0.2797257    0.1971568  83.37 0.0007911948    1.593    0.372
       276 -10.2588     29.4603    101.1490   7.1584703655e+01   5.3573987066e+01    0.5496406    0.2201768  41.73   0.00190753    2.700    0.630
       277 -10.7867    130.5418    101.5665   3.6497810781e+01   3.6027059321e+01    0.6666848      0.36934  32.87  0.002238511    2.301    0.565
       278  -8.8223    250.0000    101.9778   1.5048091819e+01   1.0983875461e+01    0.2164086   0.05852861 -35.54 0.0008040411    2.954    0.661
       279 -10.0021    108.6478     98.3906   4.1817813468e+01   4.1598164589e+01    0.5958446    0.3930262  75.83  0.001925006    2.452    0.592
       280  -8.4442     82.4906     99.9830   5.0875583681e+01   4.6465269779e+01    0.2161699    0.1400201 -81.60 0.0008037916    2.392    0.582
       281  -9.6201      7.0331    103.0586   8.0805358497e+01   5.4735650527e+01    0.2214543    0.1396839  62.35 0.0006316847    1.709    0.415
       282  -8.3185    129.3139     97.3064   3.5610677354e+01   3.7226314306e+01    0.1593176    0.1279479   4.30  0.000403484    1.623    0.384
       283  -8.4384     95.1773     97.1103   4.5730764151e+01   4.4712051665e+01    0.2190755    0.1864214 -81.99 0.0006261503    1.346    0.257
       284  -9.5525     63.9284     95.8740   5.6635833852e+01   5.0656069467e+01    0.4890479    0.3043603  77.31  0.001811039    2.793    0.642
       285  -9.3184     44.1593     91.9144   6.3615978037e+01   5.4422368734e+01    0.3729249    0.2437948   2.63  0.001441512    1.985    0.496
       286  -8.6572    138.8000     91.9652   3.1633806460e+01   3.6135592482e+01    0.2661581    0.1786101 -67.84 0.0007763045    1.992    0.498
       287  -8.7525    108.4196     91.5378   3.9864760837e+01   4.3198883247e+01    0.3692974    0.2255018  17.72  0.001255705    2.964    0.663
       288 -10.3742      4.9779     91.0260   8.0154306179e+01   5.7989642379e+01    0.4903986    0.2223638  82.61  0.001986439    2.666    0.625
       289  -9.0951    124.7787     90.9145   3.4953616879e+01   3.9634886940e+01    0.3363416    0.2519128  89.85  0.001165612    1.818    0.450
       290  -9.5872     34.5291     88.7948   6.7003045552e+01   5.6315206424e+01     0.464234    0.2507434 -82.64  0.001867824    2.391    0.582
       291  -9.4739     36.4930     81.1390   6.4331478929e+01   5.8063536991e+01    0.4699001    0.2397537 -23.26  0.001729933    3.056    0.673
       292  -9.3039     86.6103     86.5462   4.5513838356e+01   4.8905150144e+01    0.3796073    0.2497183  75.25  0.001205139    2.593    0.614
       293  -8.4175     65.3377     86.3395   5.3454034450e+01   5.2807578813e+01    0.1615767    0.1153012 -20.68 0.0007050812    1.760    0.432
       294  -8.7293    125.8442     84.5493   3.2731239484e+01   4.0711539809e+01    0.4451285    0.2673691  11.28  0.001235063    4.792    0.791
       295  -9.2035     48.3565     83.9916   5.9836365555e+01   5.5906833516e+01    0.3619085     0.239654  83.89  0.001384871    2.276    0.561
       296 -10.2520      7.8498     84.4885   7.7983031162e+01   5.9530988217e+01    0.6342534    0.3110032  -5.00  0.002815816    2.626    0.619
       297  -9.2394      8.4766     80.5360   7.7073685239e+01   6.0511641451e+01    0.2219826    0.1253274  21.73 0.0007330623    1.975    0.494
       298  -8.9336    140.5432     83.0190   2.8561368976e+01   3.7500493812e+01    0.2253864    0.1272543 -60.65 0.0005309558    2.432    0.589
       299  -8.6483    116.7471     83.0864   3.4788328912e+01   4.3143895582e+01    0.2143087    0.2006518 -30.59 0.0002468903    1.102    0.092
       300  -8.9970    104.5765     82.5987   3.8275061100e+01   4.6011633639e+01    0.3490137    0.2413545 -85.48  0.001351418    2.369    0.578
       301  -9.8160     24.5525     80.5094   6.9644548617e+01   5.9391281693e+01    0.3859785    0.2438624  76.54  0.001237626    2.119    0.528
       302 -10.4756    188.3785     79.8311   1.8277601784e+01   2.6705548649e+01    0.5132479    0.2994789  24.95  0.001845894    3.528    0.717
       303  -9.0506    184.4989     77.9588   1.8409700030e+01   2.7907596577e+01    0.2258164    0.1346134 -38.38  0.000562043    1.558    0.358
       304  -9.1283     49.8436     76.6481   5.7115000850e+01   5.7517840037e+01    0.3370789    0.2247017  10.52 0.0009270243    1.827    0.453
       305  -9.0972    127.5644     75.2221   2.9343058544e+01   4.2154060175e+01    0.3312599    0.2809997 -75.94  0.001623983    1.311    0.237
       306  -9.0760     82.3184     72.3945   4.2448824247e+01   5.2944181203e+01    0.3098719    0.2439117 -77.10  0.001107541    1.655    0.396
       307 -10.1778     28.5666     70.2651   6.5269508912e+01   6.1593740901e+01    0.8308789    0.3428044 -23.44  0.002336658    5.568    0.820
       308  -9.0906     51.5377     69.5510   5.4153238467e+01   5.8967586118e+01    0.4314847    0.2600544 -79.19  0.001635219    2.949    0.661
       309 -11.0336      5.8946     69.0357   7.6311114429e+01   6.3551731945e+01    0.6269424    0.2553971 -44.21  0.002757638    2.178    0.541
       310  -9.0686     16.3679     69.3059   7.1104617370e+01   6.2854099523e+01    0.3381298    0.1283018 -79.59   0.00111162    3.864    0.741
       311  -9.1312      1.4145     69.1847   7.8573799090e+01   6.3717100803e+01    0.2524072    0.1012011 -67.59 0.0009779878    1.993    0.498
       312  -8.1464    146.7242     68.3340   2.2672313007e+01   3.8692159102e+01    0.1578363    0.1145094 -67.94 0.0003680123    1.603    0.376
       313  -8.2109    106.6359     66.6966   3.2302538215e+01   4.8801053250e+01    0.1615713    0.1215395  15.95 0.0006435839    1.734    0.423
       314  -8.7254     95.3357     70.8711   3.7347450728e+01   5.0530517164e+01    0.3111914    0.1372857 -50.73  0.001071706    2.573    0.611
       315 -10.0274     10.6197     74.2843   7.4965415683e+01   6.1979221365e+01    0.3363347    0.2118714  13.39  0.001349842    1.791    0.442
       316  -8.2960    109.8999     63.2903   3.0138010390e+01   4.8675794327e+01    0.2580179    0.1669593 -79.64 0.0009375992    2.772    0.639
       317  -9.8149     18.1946     61.6404   6.8299474516e+01   6.4596449565e+01      0.32496    0.1920438 -37.43   0.00109941    1.605    0.377
       318  -9.8635      7.2017     57.2611   7.3189050829e+01   6.6369267577e+01    0.2368296    0.1553333  76.37  0.001178756    2.008    0.502
       319 -10.5564      2.3414     56.1577   7.5645719986e+01   6.6869760923e+01    0.4444489    0.2276206 -78.39  0.001824273    1.985    0.496
       320  -8.2106    170.2597     60.3953   1.5871556546e+01   3.4159659173e+01    0.1439623    0.1153404   9.87 0.0006967919    1.705    0.414
       321  -8.7830    164.6162     59.7737   1.6641102136e+01   3.5651240863e+01    0.2112398    0.1274133 -45.47 0.0006889103    1.595    0.373
       322  -8.6148    100.1861     59.9947   3.1871236352e+01   5.1574252700e+01     0.253709    0.1744625 -66.66  0.001070457    2.010    0.503
       323  -9.2238     73.3492     59.4940   4.1207373303e+01   5.7435521143e+01     0.341292    0.2410553 -70.81 0.0009740453    2.100    0.524
       324  -8.1909    111.3114     58.3221   2.7957633244e+01   4.9239163548e+01    0.1561532    0.1198699  17.01 0.0003005694    1.652    0.395
       325  -9.4026     39.2375     57.7619   5.6084967920e+01   6.3360291607e+01    0.2640231    0.2049934 -24.50  0.001428557    1.279    0.218
       326  -7.9329    119.3094     55.6680   2.4858337817e+01   4.7734305155e+01    0.1576932    0.1177316 -73.66 0.0007041942    1.670    0.401
       327 -11.2891     45.4801     49.1799   4.9683493066e+01   6.4365764439e+01    0.4161766    0.2480529 -37.88  0.001981299    1.633    0.388
       328  -8.3126    100.5033     54.4583   2.9698578315e+01   5.2505947636e+01    0.1516515    0.1435279  30.10 9.531794e-05    1.051    0.048
       329  -9.2874     26.4329     54.5328   6.1762285278e+01   6.5547965174e+01    0.2434355    0.1270439   3.92  0.001033216    2.521    0.603
       330  -8.8517     20.4833     52.9619   6.4572768827e+01   6.6461445656e+01    0.1737829    0.1143429  84.99   0.00080721    2.366    0.577
       331  -8.7980     92.4594     50.2232   3.0605950625e+01   5.5116292438e+01    0.3415857    0.1276206 -46.22  0.001127215    3.105    0.678
       332  -8.7124     30.8553     51.2613   5.8219442972e+01   6.5820508889e+01    0.2136116    0.1391202  65.76 0.0008604871    2.721    0.632
       333  -9.8232      7.7413     50.1928   7.1136479481e+01   6.8015652374e+01    0.3813379    0.1214139 -38.99   0.00145981    2.985    0.665
       334  -8.4769     82.0173     46.6700   3.2755072809e+01   5.8068999338e+01       0.2466    0.1531138 -37.27 0.0005889825    1.654    0.395
       335  -8.9898     64.4492     46.6534   3.9707078277e+01   6.1657192971e+01    0.2597082    0.1678494  21.74   0.00117649    1.837    0.456
       336  -9.1219     54.2354     46.1839   4.4135611205e+01   6.3579750123e+01    0.2431068    0.1471086  -6.17 0.0009494522    2.776    0.640
       337  -8.8699      1.6143     46.0066   7.3739138562e+01   6.9298424210e+01    0.1804773    0.1344516 -56.40 0.0004226738    1.133    0.117
       338  -9.1060    150.1190     44.4091   1.4433022221e+01   4.1631698163e+01    0.2601914    0.1601868 -38.15   0.00119208    1.611    0.379
       339  -8.4368    130.6566     45.7047   1.8658789303e+01   4.6448395155e+01    0.1540522    0.1117087  31.90 0.0007031756    1.664    0.399
       340  -9.4004     16.3440     42.7905   6.3677687514e+01   6.9108390378e+01    0.4767855    0.1195382 -61.93  0.001560882    4.036    0.752
       341 -10.1087      4.6278     40.3832   7.0308843217e+01   7.0437418537e+01    0.5125893    0.2316713 -81.26  0.002048164    3.385    0.705
       342  -9.8997      6.5987     33.8115   6.6869007631e+01   7.1773652365e+01    0.3519973    0.1830204 -27.91   0.00168873    1.876    0.467
       343  -9.0688    113.9532     41.2216   2.0892642564e+01   5.1364865912e+01    0.2385713    0.2149426  14.75 0.0002922762    1.228    0.186
       344  -8.1513     58.3019     42.6217   4.0682690095e+01   6.3544378252e+01    0.1378175    0.1149055 -83.89 0.0007025879    1.768    0.434
       345  -8.9894    123.4649     40.0984   1.8229962610e+01   4.9110019988e+01    0.2461001    0.1878681  51.64 0.0003254597    1.263    0.208
       346  -9.2389     22.7317     46.7172   6.1212772530e+01   6.7672846513e+01    0.3249973    0.1759266  11.24  0.001539297    2.093    0.522
       347  -8.4822     84.2565     39.5888   2.8949910063e+01   5.8751717921e+01    0.2108124    0.1265391  40.52 0.0009406026    1.641    0.391
       348  -8.8795    106.0380     36.9490   2.1254111830e+01   5.3963926024e+01    0.2383509    0.1677621  28.46 0.0005887137    1.674    0.402
       349  -8.7525     26.0873     36.1150   5.5042437562e+01   6.9581285117e+01    0.1896632    0.1638522  76.83  0.001040736    1.692    0.409
       350  -9.3847    218.5825     36.2032   3.5410470962e+00   2.6308228887e+01    0.1707813     0.117523 -24.87 0.0005218585    1.624    0.384
       351  -8.2366     37.8565     35.3609   4.7757921081e+01   6.8224191868e+01    0.1851671    0.1184084  17.76 0.0004299459    1.670    0.401
       352  -8.6870    119.3853     33.1896   1.6562645217e+01   5.1103041453e+01    0.2063226    0.1278097 -43.55 0.0008859315    1.703    0.413
       353  -9.0852    222.3971     32.1699   2.2674838830e+00   2.5991940298e+01    0.1879581   0.09123819 -44.15  0.000627207    1.667    0.400
       354  -8.7691     12.7033     31.1755   6.1672726914e+01   7.1894807466e+01    0.1867708    0.1567037 -67.26 0.0009489515    1.418    0.295
       355  -9.5910    148.1531     28.5552   9.6091891999e+00   4.4228363325e+01    0.2327885    0.1839831 -21.44  0.001110582    1.448    0.309
       356  -8.8531    101.3783     28.6175   1.9062469047e+01   5.6250412447e+01    0.2742277    0.1005664 -43.21 0.0009487432    3.147    0.682
       357  -8.8550      1.3619     27.8493   6.8462882532e+01   7.3350145817e+01    0.1723852   0.08797663 -49.90 9.246536e-05    1.560    0.359
       358  -8.7332     81.0586     27.0450   2.4380277048e+01   6.1321225636e+01    0.2220822    0.1741368 -76.12  0.001130538    1.755    0.430
       359  -8.4248     28.0000     26.9970   4.9575340510e+01   7.1120237962e+01     0.209531   0.06865434 -47.68  0.000509474    2.943    0.660
       360  -8.7039    110.6171     24.4312   1.5093568432e+01   5.4440531538e+01    0.2153427    0.1645621  16.64 0.0005853329    1.578    0.366
       361  -8.2639     61.3489     27.3316   3.2030167574e+01   6.5526871920e+01    0.1480187   0.09980891  14.40 0.0007048515    1.769    0.435
       362  -9.7323     44.4490     25.1040   3.8979052897e+01   6.9000760851e+01    0.2298161    0.1779055  28.92 0.0003455759    1.219    0.180
       363  -7.8675    118.6698     24.6660   1.3458388917e+01   5.2347322662e+01     0.152018    0.1014778  34.81 0.0007052101    1.726    0.421
       364  -9.3629     66.9978     23.7254   2.7863247133e+01   6.4878642529e+01    0.1909642    0.1683482  30.12 0.0003108921    1.028    0.027
       365  -8.2747     58.9695     22.0279   3.0309079533e+01   6.6770799675e+01    0.1611151     0.144412   7.92            0    1.047    0.045
       366  -9.9249     13.0808     21.1230   5.6858764061e+01   7.3866278221e+01    0.2632772    0.1903473   4.85 0.0006991292    1.328    0.247
       367  -9.5270    188.9448     20.5158   2.2931533822e+00   3.4937779073e+01     0.201781     0.168404 -51.79  0.001229732    1.125    0.111
       368  -8.5301     84.9336     21.3211   2.0455757036e+01   6.1148227349e+01    0.1967264    0.1631882  51.61 0.0003299501    1.106    0.096
       369  -8.0101     48.3397     21.7051   3.5117752688e+01   6.8847665626e+01    0.1220609     0.108802  84.80 0.0003397623    1.655    0.396
       370  -8.7923     40.9615     21.0669   3.8658023821e+01   7.0225456027e+01     0.200431    0.1402935   3.81 0.0002852197    1.550    0.355
       371  -8.1126    137.5206     22.5037   9.2410742515e+00   4.7696790227e+01    0.1427711    0.1277613 -89.49 6.025631e-05    1.037    0.035
       372  -8.1761     73.6711     19.3656   2.3171804381e+01   6.3984507476e+01    0.1378356    0.1069485 -69.54 0.0007036722    1.809    0.447
       373  -8.1448      1.5116     19.5045   6.5049717712e+01   7.5065973914e+01    0.1231404   0.09802847 -30.86 0.0008105651    1.003    0.003
       374 -10.4104    247.0702    248.2024   4.2353769232e+01  -8.4719315109e+00    0.2719711    0.1814871   7.64 0.0009033725    1.115    0.104
       375  -8.7595     50.5616     15.3031   3.0405785382e+01   6.9332590727e+01    0.2307403    0.1366182  28.63 0.0006291468    1.733    0.423
       376 -10.1107    196.1631    248.5269   5.1126098729e+01  -2.8251791617e+00    0.2403514    0.1697576  14.90 0.0008529755    1.083    0.077
       377  -8.4953     27.3736     13.3039   4.2297185298e+01   7.3533664585e+01    0.1351344   0.08648305   0.48 0.0007030549    1.761    0.432
       378  -9.0048    148.1248    248.7504   6.0453222296e+01   3.3250605240e+00     0.178884    0.1717953  54.87  0.001325098    1.396    0.284
       379  -9.9673    107.3432    246.9542   6.8710385361e+01   9.1053045804e+00    0.3812085    0.2336391 -79.20  0.002087257    2.513    0.602
       380 -10.5565    107.6205    238.1360   6.7719513297e+01   1.0590899292e+01    0.3954983    0.2976197 -68.76  0.002480684    1.678    0.404
       381 -10.3357     13.0828    250.0977   8.8402554590e+01   1.9645596073e+01    0.2986497    0.1436866  42.00  0.001666995    1.498    0.333
       382 -10.6774    169.8341    224.9916   5.2774982445e+01   3.9735132313e+00    0.5762911     0.516201 -32.63  0.003486545    1.347    0.258
       383  -9.5947     36.3719    248.1011   8.3685651181e+01   1.7629198228e+01    0.1800524    0.1395674  35.01  0.001266644    1.266    0.210
