#   1 NUMBER                 Running object number                                     
#   2 MAG_AUTO               Kron-like elliptical aperture magnitude                    [mag]
#   3 X_IMAGE                Object position along x                                    [pixel]
#   4 Y_IMAGE                Object position along y                                    [pixel]
#   5 X_WORLD                Barycenter position along world x axis                     [deg]
#   6 Y_WORLD                Barycenter position along world y axis                     [deg]
#   7 A_WORLD                Profile RMS along major axis (world units)                 [deg]
#   8 B_WORLD                Profile RMS along minor axis (world units)                 [deg]
#   9 THETA_WORLD            Position angle (CCW/world-x)                               [deg]
#  10 FWHM_WORLD             FWHM assuming a gaussian core                              [deg]
#  11 ELONGATION             A_IMAGE/B_IMAGE                                           
#  12 ELLIPTICITY            1 - B_IMAGE/A_IMAGE                                       
         1  -8.0716      7.6061     15.7818   8.4721287525e+01   7.1984267458e+01    0.1443575   0.09940387 -45.90 0.0006897048    1.696    0.410
         2  -7.4985    164.2030     11.0043   3.5128303104e+01   4.2331946749e+01    0.1420707   0.09876928 -31.54 0.0003194091    1.628    0.386
         3  -8.4374     55.7798     10.0367   5.8413255022e+01   6.6155459242e+01     0.165438    0.1558015  15.98  0.000578778    1.304    0.233
         4  -8.0172     47.5495     10.0520   6.1653947207e+01   6.7570406442e+01    0.1433183   0.09959125 -48.65 0.0007500852    2.380    0.580
         5  -8.2389     28.1670      9.9353   7.0486309063e+01   7.0502361581e+01    0.1548778    0.1314861 -46.29 0.0006858567    1.927    0.481
         6  -8.2057     90.8213      8.7036   4.7114121732e+01   5.9336621953e+01    0.2213589    0.1491727 -54.27 0.0008251233    2.103    0.525
         7  -7.6536    101.3216      8.2646   4.4508214646e+01   5.7081598784e+01    0.1305837   0.07844906  39.38 0.0002632209    1.558    0.358
         8  -8.0512     97.2910     14.8770   4.7874808419e+01   5.7379763721e+01    0.2266848    0.1013635 -33.26 0.0008253854    2.486    0.598
         9  -8.5217     33.6713      5.4183   6.5480834101e+01   7.0244340560e+01     0.238875    0.1647373 -51.60  0.001328644    2.936    0.659
        10  -8.4411     79.2033      4.2539   4.8344474763e+01   6.2151861667e+01    0.2115083    0.1577418 -32.09  0.001098818    1.607    0.378
        11  -7.6335     44.6623      3.3027   5.9541342803e+01   6.8728304883e+01   0.09966901   0.09487783  72.43 0.0002485331    1.668    0.400
        12  -7.8063     15.7073      3.3105   7.3746762259e+01   7.2866073209e+01   0.09351099   0.08567432   5.83 0.0002558999    1.588    0.370
        13  -8.2210     62.4491      1.4411   5.2109898561e+01   6.5706129958e+01    0.1859287     0.108181  62.87 0.0004674915    2.043    0.510
        14  -9.3978    120.1229    245.4594   9.8442148959e+01   6.1753752919e+00    0.3200229    0.2323874  82.20  0.001747368    1.954    0.488
        15 -10.1272    248.6815    243.6429   7.2490870573e+01  -1.0889722433e+01     0.677846     0.186149 -40.97  0.002826185    3.769    0.735
        16  -9.0136    247.8793    234.9358   7.1175519835e+01  -9.6148319156e+00    0.2062423    0.1772368  12.65  0.001236423    1.421    0.296
        17  -8.3709     94.1153    249.6976   1.0453649287e+02   9.0703689929e+00    0.2620744    0.1548637  60.47  0.001017479    1.914    0.478
        18  -9.2271    146.7957    245.7798   9.2741379375e+01   2.2109320794e+00    0.2199143    0.1863786 -73.45  0.001038196    1.597    0.374
        19  -8.4400     67.4790    245.0417   1.0972178156e+02   1.3553347987e+01    0.1743212    0.1185554 -72.97 0.0008098744    1.571    0.363
        20  -7.8981     50.2327    244.4480   1.1326629596e+02   1.5816634965e+01    0.2486652   0.09178517 -86.37 0.0008826679    4.518    0.779
        21  -9.0033      9.8337    244.6321   1.2126446992e+02   2.0159693017e+01    0.2533908   0.08880371  75.13  0.001072434    3.358    0.702
        22  -8.7125    201.8696    243.2724   8.1036963997e+01  -5.1464169150e+00    0.1937155    0.1588015 -35.73 0.0007249493    1.429    0.300
        23  -8.6826    169.0065    243.2802   8.7684736717e+01  -5.8768201182e-01      0.19844    0.1792938  66.47 0.0006612692    1.558    0.358
        24  -8.8547     78.0703    243.3522   1.0730591719e+02   1.2505148985e+01    0.3366825    0.1773007  64.49  0.001573864    2.344    0.573
        25  -7.9762     58.3436    244.6536   1.1160274027e+02   1.4785911619e+01    0.1371441   0.07556149  61.28 -0.0002366502    1.796    0.443
        26  -8.4497     88.0578    242.3838   1.0504893709e+02   1.1342548891e+01     0.189527    0.1586128 -79.58 0.0007987373    1.302    0.232
        27  -9.1535    194.3076    240.5147   8.2084006904e+01  -3.6976154560e+00    0.3334949    0.1882449 -50.33  0.001152429    2.346    0.574
        28  -9.4653    183.2332    240.2937   8.4283116752e+01  -2.1211891248e+00    0.3638715    0.2715168  63.88  0.001785582    2.437    0.590
        29  -9.4582    159.9474    240.2455   8.9130584355e+01   1.2512455169e+00    0.3286713    0.2571231 -86.25  0.001415653    2.175    0.540
        30  -8.1327    153.4151    242.1863   9.0810976306e+01   1.8724513479e+00    0.1611915    0.1286481 -63.95 0.0009419684    1.674    0.403
        31  -8.2036    240.5036    240.0672   7.3320380065e+01  -9.4828778227e+00    0.2252766   0.09506217 -32.94  0.001158297    2.111    0.526
        32  -8.8220    242.9445    236.0258   7.2214716083e+01  -9.2014662177e+00    0.2736768    0.1259053 -18.71  0.001302873    2.521    0.603
        33  -9.5780    135.9702    239.2734   9.4161697343e+01   4.9926971363e+00    0.3737576    0.1776551  50.04   0.00157438    2.579    0.612
        34  -8.7059    146.0204    239.2969   9.1978116799e+01   3.4865940945e+00    0.1838463    0.1574436  27.26 0.0005106576    1.043    0.041
        35  -8.0630    129.0583    238.8324   9.5615604305e+01   6.1082254431e+00    0.2190848    0.1349998  55.42 0.0007992783    1.974    0.494
        36  -8.8871    230.8332    237.0575   7.4545303791e+01  -7.9113188838e+00    0.2247218    0.2039427 -72.87   0.00110593    2.166    0.538
        37  -7.7594    208.6716    238.3145   7.8905405204e+01  -5.2872056010e+00    0.1508394     0.115216 -63.48 0.0005754147    2.459    0.593
        38  -8.0290    209.3359    235.2983   7.8275082597e+01  -4.9102942616e+00    0.2050613    0.1062367 -33.28 0.0003028537    1.855    0.461
        39  -8.0180     13.6541    238.3043   1.2019409590e+02   2.1079163674e+01    0.1276658   0.06433416  60.59 0.0006772408    1.691    0.409
        40  -8.0034     57.9521    237.2039   1.1103416895e+02   1.6372244859e+01    0.1710019   0.08846718  35.63 0.0008552694    1.752    0.429
        41  -8.0442     25.3003    236.9357   1.1780443901e+02   2.0180337878e+01    0.1986904   0.07106867  79.09 0.0007034435    4.315    0.768
        42  -9.9451    214.6260    233.1030   7.6891206260e+01  -5.2705492802e+00    0.4583032    0.3654407 -86.74  0.002356015    3.285    0.696
        43  -9.0187    203.2082    234.8861   7.9398531505e+01  -4.0218991052e+00    0.2614341    0.1941787 -58.36  0.001179703    2.174    0.540
        44 -10.1150    175.5866    233.1487   8.4717845807e+01   1.8245339337e-01    0.4920455    0.2679192 -57.05  0.002227491    2.777    0.640
        45  -8.2173    170.5238    235.7927   8.6203914065e+01   4.6948660239e-01    0.1604233    0.1289472 -58.79 0.0008240005    1.672    0.402
        46  -9.2751    108.5146    234.3739   9.9585882631e+01   1.0033627751e+01    0.3264892    0.2267344  64.01  0.001009073    1.694    0.410
        47  -8.4338     99.6597    234.2282   1.0155097644e+02   1.1355119575e+01    0.2742369    0.1696497  68.25  0.001314286    2.135    0.532
        48  -9.0181     78.6258    234.1321   1.0622856007e+02   1.4326530118e+01    0.2888697    0.1840075 -88.48   0.00111159    1.876    0.467
        49  -8.3459    122.9046    234.1550   9.6337342317e+01   7.9337144367e+00    0.2111244    0.1651095  58.39 0.0009216614    1.410    0.291
        50  -8.7344     92.5255    232.0146   1.0288566717e+02   1.2835959839e+01    0.3630635    0.2346973  88.10    0.0015061    2.043    0.511
        51  -9.1230     68.6193    232.6225   1.0828301346e+02   1.5978971152e+01    0.4618729    0.1947451  62.30  0.001714737    3.539    0.717
        52  -8.3334    194.2921    232.6076   8.0788950372e+01  -2.4212513526e+00    0.2029272    0.1497069 -47.69 0.0005545152    1.672    0.402
        53  -8.6183    132.8168    233.0913   9.3978507530e+01   6.6415498284e+00    0.2075646    0.1732935  59.31  0.001214917    1.363    0.266
        54  -9.3374    186.3317    230.5015   8.2054946208e+01  -9.3323938913e-01    0.3152995    0.2350786 -63.51  0.001414664    2.144    0.534
        55  -8.3064    157.6469    231.8249   8.8329446601e+01   3.0997543714e+00    0.1694339    0.1276575 -57.03 0.0005082007    1.653    0.395
        56  -9.0675    236.0262    230.6224   7.2518307863e+01  -7.6078074123e+00    0.2408951     0.168338 -35.92 0.0007723414    1.481    0.325
        57  -9.5294    246.5295    228.7276   7.0350372200e+01  -8.5853938435e+00     0.383673    0.1743382 -32.99  0.001566766    1.892    0.471
        58 -10.0755    149.5391    225.9102   8.9177625120e+01   5.4506342335e+00    0.6434627    0.4041757 -81.77  0.002477096    3.899    0.744
        59  -8.9710    139.9892    230.0641   9.1938390527e+01   6.1291681405e+00    0.2572823    0.1930949  59.53 0.0009917975    1.655    0.396
        60  -8.0337    229.7792    228.9565   7.3358637295e+01  -6.5892872599e+00     0.169111     0.141131 -53.97  0.001067632    1.923    0.480
        61  -8.7534    162.2695    227.7622   8.6682891602e+01   3.1400558697e+00    0.2909138    0.2152076  58.45   0.00147463    1.875    0.467
        62  -8.9826    127.8140    227.2303   9.4254441387e+01   8.5602744372e+00     0.333366    0.2231827  62.47  0.001239376    1.987    0.497
        63  -8.3037    119.9017    227.5847   9.6102167954e+01   9.7016542634e+00    0.2568917     0.183238 -85.72  0.001222517    1.969    0.492
        64  -8.7658    205.8970    225.3745   7.7254438795e+01  -2.8634131583e+00    0.3660138    0.1696298 -43.11  0.001310757    2.228    0.551
        65  -8.4660    200.3295    225.6572   7.8402739934e+01  -2.1277941881e+00    0.3107966    0.1467616 -34.38  0.001310299    2.099    0.524
        66  -9.3198    179.6158    224.7345   8.2481684799e+01   1.0556681093e+00     0.409929    0.2492881  13.97  0.001074567    1.823    0.451
        67  -8.8320    104.7532    223.6734   9.9042020252e+01   1.2805942348e+01    0.3451222    0.2311235  80.68  0.001661138    2.086    0.521
        68  -8.9927     94.1592    224.2365   1.0156303333e+02   1.4247830196e+01    0.4516409      0.22521  58.41  0.001851312    2.618    0.618
        69  -8.8117    216.3786    223.3803   7.4883779261e+01  -3.9803201119e+00    0.2180424    0.2135798 -64.94 0.0009503059    1.598    0.374
        70  -8.5622    173.0160    223.2772   8.3632745072e+01   2.3161028103e+00    0.2138027    0.1935433 -85.00 0.0006570598    1.589    0.371
        71  -8.1518    113.7558    224.1520   9.7028982821e+01   1.1345578940e+01    0.2057191    0.1688398  82.82 0.0007795152    1.447    0.309
        72  -8.1914     59.9528    223.9328   1.0934531263e+02   1.8979149437e+01    0.2207928    0.1303853  61.85   0.00112067    1.719    0.418
        73  -7.8816     38.2848    224.6284   1.1419640650e+02   2.1414810133e+01    0.1360271   0.07756649  66.43 0.0007017559    1.707    0.414
        74  -9.8587      8.6301    229.3263   1.2068235645e+02   2.3445639931e+01    0.4327648    0.1364839  80.41   0.00152364    4.611    0.783
        75  -9.1404    160.4593    221.3423   8.6028273650e+01   4.6172766973e+00    0.5451657    0.2790982  55.93  0.001754811    3.847    0.740
        76  -8.6957    140.4983    222.6952   9.0697933543e+01   7.4902108236e+00    0.2510733    0.1842748  79.27  0.001039444    2.158    0.537
        77  -9.2365    238.9489    221.4103   7.0400899355e+01  -6.6018661974e+00    0.2425019    0.1970453 -31.39  0.001020808    1.357    0.263
        78  -9.2453    225.5116    221.8220   7.2898996988e+01  -4.9507011556e+00    0.2262626    0.1993358  43.71  0.001313389    1.672    0.402
        79  -8.9005      1.7532    230.8707   1.2211458573e+02   2.3748924766e+01    0.2287459    0.1199133  74.31 0.0009772961    1.645    0.392
        80  -8.7937     82.8743    220.5657   1.0372598405e+02   1.6660761407e+01    0.3526388    0.1862242  58.02  0.001149361    2.182    0.542
        81  -8.1687     27.5802    220.7980   1.1620953920e+02   2.3425125407e+01     0.232933    0.1021479 -69.85  0.001137449    2.116    0.527
        82  -8.2084    202.6787    220.1404   7.6975221595e+01  -1.5412286303e+00    0.1872592    0.1573028 -43.57 0.0007598204    1.443    0.307
        83  -9.1931    120.3664    219.1829   9.4784676520e+01   1.1367114751e+01    0.4210945    0.2502702  61.11  0.001825754    2.361    0.577
        84  -8.7017    248.7354    218.2877   6.8156121656e+01  -7.3301257617e+00    0.3004781     0.240078  64.81  0.001725031    2.914    0.657
        85  -9.2200    192.3069    221.1106   7.9232076831e+01  -1.9851877004e-01    0.3093629    0.2447128 -55.31 0.0009447211    1.706    0.414
        86  -8.3110    210.0301    218.8553   7.5305737829e+01  -2.3706835568e+00    0.2126567    0.1549398 -46.33 0.0006396847    1.638    0.390
        87  -9.0071    143.2145    217.0133   8.9178167884e+01   8.1956684754e+00    0.3356347    0.2419397 -80.54  0.001615546    2.165    0.538
        88  -9.4307    132.7009    215.8038   9.1402066338e+01   1.0124532043e+01    0.4677387    0.3064544  81.08  0.001937828    2.916    0.657
        89  -8.6077     62.1978    217.4039   1.0816533633e+02   2.0152782180e+01    0.3073762    0.1660516  60.28    0.0014388    1.992    0.498
        90  -9.0867     51.5076    217.3156   1.1060922635e+02   2.1506749314e+01    0.3011585    0.1815041  82.12 0.0008466418    1.795    0.443
        91  -7.6624    179.3252    217.6631   8.1330667357e+01   2.3695796794e+00    0.1270474     0.109482  69.40 0.0007051387    1.720    0.419
        92  -8.7619    169.2596    215.9469   8.3192427708e+01   4.2556760218e+00    0.2793544    0.2159029 -70.86 0.0009275591    1.949    0.487
        93  -8.4015    111.8062    217.0038   9.6469680977e+01   1.3159877310e+01    0.2258012    0.1562222  77.34  0.001071171    2.010    0.502
        94  -8.9471    232.2859    214.5387   7.0368362535e+01  -4.6981490063e+00    0.2866476    0.1951944 -47.54  0.001144118    1.844    0.458
        95  -8.0603     18.4853    215.4906   1.1778368783e+02   2.5531549371e+01    0.2284658    0.0993067  88.00  0.001039335    2.399    0.583
        96  -8.1057    154.2983    214.9900   8.6335396204e+01   6.8223891389e+00    0.1870767    0.1778593 -25.52 0.0006492645    1.131    0.116
        97  -7.8217     41.5213    215.4983   1.1270495124e+02   2.3094096526e+01    0.1313535    0.1072447  69.90 0.0001297399    1.062    0.058
        98  -9.4576    213.8717    212.1860   7.3367786245e+01  -1.8038372099e+00    0.3110577    0.2966818  87.43   0.00145514    1.643    0.391
        99  -8.2785    185.6862    214.2130   7.9385863082e+01   2.0183077054e+00    0.1934832    0.1712746 -51.97 0.0007426903    1.419    0.295
       100  -9.1751     92.8005    213.6380   1.0050901559e+02   1.6773801995e+01    0.3216789    0.2201841  77.84  0.001100205    1.824    0.452
       101  -9.5788     73.3105    212.0707   1.0496005522e+02   1.9897848103e+01    0.7682637    0.2778837  54.48  0.002513895    3.917    0.745
       102  -8.6772    161.8789    212.4939   8.4216368304e+01   6.0938529997e+00    0.2383382    0.2009813 -70.80 0.0008729722    1.586    0.370
       103  -7.8897    106.5656    212.8021   9.7105896642e+01   1.4884047950e+01    0.1841881    0.1350536 -79.77  0.000720703    1.641    0.391
       104  -7.9059    224.9988    212.5033   7.1330510700e+01  -3.4022038473e+00    0.1477204    0.1116278  55.84 0.0004010012    2.282    0.562
       105  -8.9665    204.2547    210.8880   7.5006626379e+01  -1.9080066237e-01    0.2561771    0.1979311 -39.60 0.0006550857    1.362    0.266
       106  -9.3907    175.4249    209.9417   8.0802044106e+01   4.4149220778e+00    0.3750946    0.2849802  85.03  0.001434642    2.523    0.604
       107  -8.5057    192.2909    210.6197   7.7372092655e+01   1.6542958837e+00    0.2307784    0.1585665 -50.30 0.0007819394    1.725    0.420
       108  -8.8334    147.8080    210.2870   8.7012567906e+01   8.8179775376e+00    0.3241867    0.2467919  79.45  0.001356163    2.031    0.508
       109  -9.0116    116.3594    210.3120   9.4396011891e+01   1.3900778212e+01    0.3678944    0.2402136  69.07    0.0011981    2.204    0.546
       110  -9.2114    236.6201    208.5535   6.8513468039e+01  -4.3230760250e+00    0.2953942    0.2356422 -57.72  0.001239692    1.988    0.497
       111  -8.5457     85.4967    209.2416   1.0168120203e+02   1.8836943073e+01    0.3352421    0.2110908  82.25  0.001526528    2.115    0.527
       112  -8.2338     46.4755    209.5700   1.1101706900e+02   2.3885389765e+01    0.2857166    0.1491232  71.10  0.001227959    2.249    0.555
       113  -8.1715     32.2435    210.2197   1.1434411718e+02   2.5328720130e+01     0.204921   0.09263747 -89.79 0.0008819012    2.486    0.598
       114  -8.9002      6.1198    208.2736   1.1996276016e+02   2.8302833458e+01      0.25264    0.1152135  71.33  0.001129157    2.156    0.536
       115  -9.3299    246.3109    207.1799   6.6583979877e+01  -5.3556806586e+00    0.2604224    0.1659161 -33.42 0.0006742415    1.346    0.257
       116  -7.8556    156.5548    207.8150   8.4594453124e+01   7.8866723280e+00    0.1839505    0.1384129 -62.46 0.0009317067    1.675    0.403
       117  -8.3341    139.0983    207.9175   8.8628492795e+01   1.0736360442e+01    0.2146996    0.1879028  65.53 0.0006266716    1.343    0.255
       118 -10.1295    124.2516    206.2157   9.1862961823e+01   1.3530296828e+01    0.3197815    0.2256886  63.91  0.001524806    1.809    0.447
       119  -9.2843     99.4203    206.3506   9.7897810295e+01   1.7428208398e+01     0.386995    0.2551223  77.69  0.001332521    2.093    0.522
       120  -8.5050     11.8229    207.1261   1.1865425725e+02   2.8057182268e+01    0.1627468    0.1311882 -65.41   0.00041314    1.335    0.251
       121  -9.4475    194.7409    203.2324   7.5511954716e+01   2.6154237879e+00     0.414449    0.2903996 -44.43  0.001581583    1.497    0.332
       122  -9.2804    192.4814    197.5638   7.4909656388e+01   4.0216423094e+00    0.3473565    0.2586309 -63.96  0.001046136    1.990    0.497
       123  -8.6230    131.3925    204.1352   8.9813693123e+01   1.2813630063e+01    0.2963425    0.2031944  62.96  0.001028407    1.952    0.488
       124  -8.2555    108.8887    205.1021   9.5402483166e+01   1.6240804384e+01    0.2227484    0.1855794  69.53 0.0007399239    1.319    0.242
       125  -8.4196     56.2158    205.1668   1.0825881201e+02   2.3738886529e+01    0.2557016    0.1411141  57.52 0.0006730051    1.879    0.468
       126  -7.5929     25.2914    205.6016   1.1553961433e+02   2.7120276808e+01    0.1407039   0.07743934  67.60 0.0006999301    1.793    0.442
       127  -9.5422    250.1275    201.7855   6.4960266011e+01  -5.0034741753e+00    0.4638165    0.1675477 -40.99  0.001844001    2.464    0.594
       128  -9.7436    245.6380    192.8545   6.4060284719e+01  -3.0096127393e+00    0.4413119    0.2446219 -37.97  0.001661951    1.550    0.355
       129  -8.8672    183.6707    203.7902   7.7920502474e+01   4.2618716343e+00    0.2652353    0.2358697  62.00 0.0008929378    1.523    0.343
       130  -9.6250    163.9483    202.8718   8.2048867945e+01   7.6599656817e+00    0.4584193    0.3431685  59.44  0.001367731    1.809    0.447
       131  -7.8354    227.3990    202.7723   6.9105692952e+01  -2.1403321000e+00    0.1893518    0.1029616 -28.75 0.0009481626    1.691    0.409
       132  -8.3848    211.0393    202.2806   7.2088379764e+01   3.0063696637e-01    0.2207637    0.1838635 -58.87 0.0007039903    1.691    0.409
       133  -8.4115     48.4922    202.5143   1.0982939980e+02   2.5306416597e+01    0.2397867    0.1188061 -86.72  0.001021314    2.369    0.578
       134  -7.6637     34.3234    203.6446   1.1329342643e+02   2.6639373020e+01    0.1433071   0.08174275  65.42 0.0007046107    1.764    0.433
       135  -9.2152    242.9472    201.0583   6.6039643399e+01  -3.9653664187e+00    0.3060015    0.1555053 -39.26 0.0006676464    1.747    0.427
       136  -9.0426    140.3068    200.9083   8.7144028898e+01   1.2025376494e+01     0.334976    0.2433275 -89.02  0.001089622    2.188    0.543
       137  -8.5961     79.9521    201.2575   1.0198008960e+02   2.1492879665e+01    0.3526204    0.2035648  78.17  0.001444896    2.542    0.607
       138  -7.7268     72.9755    202.4610   1.0386117296e+02   2.2183662274e+01    0.1970713     0.096219  53.86 0.0005395046    2.267    0.559
       139  -7.9384     41.2902    202.6659   1.1156303972e+02   2.6103637715e+01    0.1397203   0.08620645  67.22 0.0002977698    1.632    0.387
       140  -8.3790     10.4807    202.6572   1.1864485892e+02   2.9206495312e+01    0.1931834     0.109174  31.00 0.0009774857    1.883    0.469
       141  -9.5508    149.4725    198.4467   8.4553950547e+01   1.1002241218e+01    0.4600294    0.3091995 -73.04  0.001290042    2.331    0.571
       142  -8.8606    123.9867    199.3428   9.0795634696e+01   1.5093794391e+01    0.3260382    0.2324389 -88.01  0.001166746    2.042    0.510
       143  -9.3526    112.6411    198.4180   9.3430181461e+01   1.7161574961e+01    0.4841155    0.2935078  61.60  0.001805004    2.235    0.553
       144  -9.0446    237.0642    198.6005   6.6602691246e+01  -2.7856544306e+00    0.2357327    0.1586559 -45.64 0.0008518516    1.652    0.395
       145  -8.2984    177.0782    199.0841   7.8456683907e+01   6.2367867539e+00    0.2021052    0.1764793  78.81 0.0005212163    1.644    0.392
       146  -8.4031    133.1584    196.1452   8.8019056642e+01   1.4269420567e+01    0.2551022    0.1939833 -67.84 0.0005222315    1.567    0.362
       147  -9.3079     88.5480    198.0603   9.9390607983e+01   2.0998411111e+01    0.4632471     0.272011 -85.37  0.001577718    2.400    0.583
       148  -9.1896     28.8226    198.5457   1.1412748655e+02   2.8423987731e+01    0.2678626      0.19125 -67.45 0.0003766112    1.338    0.253
       149  -8.3427    202.2635    197.6015   7.2930581092e+01   2.4692770469e+00    0.2335649    0.1548793 -48.37  0.000615912    1.678    0.404
       150  -9.0585     61.1333    196.8849   1.0610401160e+02   2.5094084475e+01    0.4643708     0.240754  65.59   0.00191048    2.496    0.599
       151  -8.8000     12.6395    197.6146   1.1780168340e+02   3.0190986570e+01    0.2647227     0.116559  77.84  0.001162653    2.490    0.598
       152  -7.9118     36.4726    196.9868   1.1216219227e+02   2.7992127613e+01    0.1909272   0.09533882  77.11 0.0008032457    2.421    0.587
       153  -8.6278    215.9285    195.6003   6.9889090336e+01   7.3880056396e-01    0.2349084    0.1730381 -49.35 0.0007761554    1.601    0.375
       154  -7.8865     53.3070    196.5940   1.0801216170e+02   2.6146489550e+01    0.1514425   0.09052789  68.55 0.0006986689    1.863    0.463
       155  -8.8318    224.3085    193.6644   6.7956988966e+01  -1.6441365894e-01    0.3114409    0.1761607 -48.92  0.001249803    2.048    0.512
       156  -8.8515    185.3376    194.8531   7.5885861164e+01   5.6969907643e+00    0.2363845     0.221411  88.44 0.0006361837    1.445    0.308
       157  -8.9210    161.0406    194.5249   8.1164616816e+01   9.8515310380e+00    0.2811276    0.2282461 -85.70   0.00105463    1.803    0.445
       158  -9.2159     43.8088    193.4704   1.1001585466e+02   2.8027296549e+01    0.4559117     0.249115  67.81  0.002083251    2.086    0.521
       159  -8.1488    230.8863    194.1471   6.6858310533e+01  -1.1924898387e+00    0.1881041    0.1634155 -34.69 0.0005934131    1.278    0.218
       160  -8.8338     77.0673    193.9431   1.0171018755e+02   2.3652919998e+01    0.2565993    0.2120373  74.53 0.0006702257    1.224    0.183
       161  -8.1410    221.8748    201.5366   6.9892665609e+01  -1.1531833160e+00    0.2079971     0.142785 -39.25 0.0006668812    1.412    0.292
       162  -8.0845    205.2468    191.9453   7.1253235902e+01   3.0330862292e+00    0.1776085    0.1073304 -40.06 0.0005700439    1.552    0.356
       163  -8.2765    198.8497    191.7722   7.2496621771e+01   4.0824934249e+00    0.2288537    0.1776425 -65.14 0.0006982505    1.893    0.472
       164  -8.1879    178.9821    191.7230   7.6643765199e+01   7.3679451578e+00    0.2425053    0.1815865 -56.61 0.0005499036    1.614    0.381
       165  -8.3946    172.4425    191.6049   7.8050786258e+01   8.5007134569e+00    0.2561626    0.1991272 -81.42 0.0009850622    2.062    0.515
       166  -8.9642    139.4980    190.7470   8.5516543288e+01   1.4378917432e+01    0.3623446    0.2570691  72.14  0.001225683    2.154    0.536
       167 -10.5578     92.3467    188.7537   9.7026152739e+01   2.2653574001e+01     1.051104    0.3122876  46.02  0.003168721    3.825    0.739
       168  -8.9432      6.4389    190.7146   1.1872328873e+02   3.2351533524e+01     0.243227    0.1046839 -84.03  0.001132906    2.088    0.521
       169  -8.1841    148.6178    189.4415   8.3093089847e+01   1.3078772963e+01    0.2406952    0.1835343 -75.82 0.0009739471    1.810    0.447
       170  -8.4916    237.2108    188.5621   6.4685290324e+01  -1.1511984875e+00    0.2373813    0.1518893 -35.44 0.0006317997    1.339    0.253
       171  -8.8497    216.6275    188.2091   6.8333760205e+01   1.9382033146e+00     0.243859    0.2162188 -68.16 0.0007692411    1.621    0.383
       172  -8.9852    191.8004    187.5843   7.3120608226e+01   6.0288286674e+00    0.3704669    0.2699878 -75.91  0.001344757    2.541    0.607
       173  -9.2607    155.9980    187.6742   8.1024060724e+01   1.2167398192e+01    0.3728194    0.2338954 -58.52 0.0008553358    1.921    0.479
       174  -8.9364    129.1380    188.6008   8.7657043184e+01   1.6650277622e+01    0.2946881    0.2289338  87.93 0.0009456181    1.737    0.424
       175  -9.7534    120.8373    186.4877   8.9350948866e+01   1.8558477718e+01    0.5585918    0.3277086 -77.06  0.002071402    2.886    0.654
       176  -9.0462     34.1466    187.8785   1.1182955191e+02   3.0452800735e+01    0.3268885    0.1718399  78.25  0.001125154    2.207    0.547
       177  -9.1455     54.7028    186.8269   1.0650441359e+02   2.8367574387e+01    0.4413836    0.2371054  71.51  0.001457234    2.463    0.594
       178  -8.0408    230.5109    187.1427   6.5587465699e+01   4.8013151159e-02    0.2006804    0.1129802 -38.81  0.001021036    1.566    0.361
       179  -8.7384    164.9110    186.7312   7.8792758218e+01   1.0804255647e+01      0.26961    0.2133804 -55.57 0.0006725173    1.424    0.298
       180  -9.3584    109.5094    186.0828   9.2163063289e+01   2.0555062597e+01    0.4045862     0.296871  80.41  0.001122382    1.795    0.443
       181  -8.9839    249.3488    185.3275   6.2031472507e+01  -2.2911907047e+00    0.2938345    0.1812475 -41.78 0.0008912508    1.506    0.336
       182  -9.1581    244.5848    184.5735   6.2673980803e+01  -1.5182720529e+00    0.3627014    0.2681187  88.29  0.001645961    3.880    0.742
       183  -8.6707    182.9363    184.7536   7.4427377937e+01   8.0804624643e+00    0.2706441    0.2006066 -48.27 0.0006692673    1.423    0.297
       184  -9.1840     66.5058    184.4510   1.0312835389e+02   2.7440219415e+01    0.3902262     0.239328  66.94  0.001010903    1.953    0.488
       185  -8.6380    224.0098    183.5028   6.6049311350e+01   1.6452389981e+00    0.2378438    0.1686167 -46.28 0.0004870647    1.492    0.330
       186  -8.1893    197.1531    183.5190   7.1217976055e+01   5.9187397223e+00    0.2418794    0.1635621 -62.55  0.000793844    2.230    0.552
       187  -8.7322    174.3488    183.6222   7.6068013666e+01   9.7961608433e+00    0.2749785    0.2326934 -86.17 0.0008731961    1.685    0.406
       188  -8.8372     44.2153    182.3140   1.0866930265e+02   3.0732441772e+01    0.3409239    0.2038433  78.74 0.0009743583    1.894    0.472
       189  -8.8134     31.4810    183.2274   1.1202466403e+02   3.1874417258e+01    0.2102457    0.1792422  38.54 0.0003453046    1.274    0.215
       190  -7.8810      1.8025    183.6147   1.1929861675e+02   3.4409841504e+01     0.168555   0.09767859  44.29 0.0009416746    1.705    0.414
       191  -9.1242    147.3688    180.5437   8.1679638719e+01   1.5253976182e+01    0.3012612    0.2542759  87.28  0.000947354    1.547    0.354
       192  -8.2478     90.7683    181.4081   9.6267015610e+01   2.4690928088e+01    0.2047476     0.143387  19.10 0.0008748073    1.678    0.404
       193  -9.4957     25.5527    178.9806   1.1309897909e+02   3.3511310557e+01    0.6262032    0.2541653  78.18  0.002106755    4.018    0.751
       194  -9.1184    210.2594    184.1269   6.8746539391e+01   3.6708449991e+00    0.3347711    0.1678412 -35.26  0.001258211    1.852    0.460
       195  -8.8188    137.7588    179.3973   8.3797619827e+01   1.7235142499e+01    0.3425168    0.2506559  73.28  0.001237767    1.987    0.497
       196  -8.6381    244.4114    169.2734   5.9749770087e+01   1.0630656351e+00    0.2920152    0.2136425  72.81  0.001099906    2.736    0.635
       197  -8.6530    250.4992    172.7250   5.9443409467e+01  -3.8542329588e-01     0.233934    0.1534109 -32.71 0.0004003981    1.236    0.191
       198  -9.3376    248.9881    177.5051   6.0602644132e+01  -9.6360965505e-01    0.2901386    0.2154926 -43.63  0.001121276    1.371    0.271
       199  -8.5391    247.3136    173.7026   6.0141374289e+01  -9.8570906428e-02    0.2309135    0.1267335 -39.86 0.0004787776    1.541    0.351
       200  -9.3642    191.4908    178.3547   7.1340458086e+01   7.8773517278e+00    0.2808632    0.2626919  89.27  0.000826127    1.405    0.288
       201  -7.9634    169.4525    178.9125   7.6213605427e+01   1.1638017847e+01    0.1966046    0.1322996 -70.57 0.0008058371    2.427    0.588
       202  -8.3487     37.3206    178.6622   1.1003986291e+02   3.2403972389e+01     0.346433     0.166897  65.92  0.001392911    2.675    0.626
       203  -8.2854     34.6915    174.3718   1.1024495702e+02   3.3757959972e+01    0.2931774    0.1570392  79.98  0.001140606    2.238    0.553
       204  -8.8080    231.1373    176.9955   6.3501353255e+01   1.7067725618e+00    0.2628227    0.1651449 -43.50 0.0007188992    1.508    0.337
       205  -8.5643    217.6539    177.4354   6.6017812295e+01   3.7154860828e+00    0.2479237    0.1925017 -58.45 0.0008263956    1.679    0.405
       206  -8.7272    205.0179    177.5074   6.8442748805e+01   5.7542548824e+00    0.2589423    0.1865418 -51.68 0.0006987962    1.568    0.362
       207  -8.7282    129.4585    177.4704   8.5498792563e+01   1.9159717746e+01    0.3236387    0.2243911  77.70 0.0009165278    2.302    0.566
       208  -8.3940    121.1107    178.3469   8.7791984519e+01   2.0422905760e+01    0.3002157    0.1438534  27.50   0.00108498    2.478    0.596
       209  -9.1036    183.2940    176.3601   7.2658675480e+01   9.7028638619e+00    0.3023832    0.2438614 -63.29 0.0007048044    1.565    0.361
       210  -8.3551     98.0462    177.2018   9.3627171595e+01   2.4578434093e+01     0.225155    0.2023568 -16.35 0.0006288429    1.246    0.197
       211  -8.8893     88.9551    176.9735   9.6021141389e+01   2.6069131220e+01    0.3013843    0.2116642  69.91 0.0008026093    1.739    0.425
       212  -9.9899     57.2493    173.1216   1.0403194501e+02   3.1496213027e+01    0.8676803    0.4150534  80.97  0.002690512    4.319    0.768
       213  -8.5956     12.5461    176.5205   1.1614510827e+02   3.5278077464e+01    0.3032762    0.1420728  64.53 0.0009398401    2.365    0.577
       214  -8.6518    202.7603    184.5275   7.0292772531e+01   4.8047237695e+00    0.2590569    0.1729347 -54.49 0.0006966832    1.856    0.461
       215  -9.3232    158.9242    175.2032   7.7871418190e+01   1.4333777618e+01    0.4017083    0.2923159  77.32  0.001176029    2.281    0.562
       216  -9.8643    104.2235    174.3612   9.1477283343e+01   2.4264843045e+01    0.5783733    0.3885643  74.27  0.001703106    2.139    0.533
       217 -10.8215     75.9118    170.1895   9.8462362905e+01   2.9725302815e+01     1.386588    0.5369837 -73.79  0.003915946    4.527    0.779
       218  -8.3829     79.2541    158.5259   9.5530084456e+01   3.2214465423e+01    0.3091025    0.2325096  13.79  0.001226192    1.592    0.372
       219  -9.5815     81.5344    154.6311   9.4158335994e+01   3.2868416475e+01    0.5045313    0.3390556  77.49  0.001488871    2.064    0.516
       220  -8.2930    224.3855    174.2150   6.4145775125e+01   3.2342172103e+00     0.189821    0.1142241 -46.42 0.0005807987    1.661    0.398
       221  -9.4190    175.7404    172.2258   7.3444172800e+01   1.1902368898e+01    0.3641889    0.2369724 -45.20 0.0008072064    1.502    0.334
       222  -8.4979    143.0177    172.9445   8.1222818586e+01   1.7751398795e+01    0.2389567    0.1901806  80.28 0.0007037332    1.719    0.418
       223  -8.8095    134.8520    171.6334   8.2989803840e+01   1.9546470195e+01    0.2969662    0.2092648 -72.82   0.00124612    1.897    0.473
       224  -9.4392    121.3552    170.4055   8.6206525640e+01   2.2270462208e+01    0.4139177    0.2887735 -80.14  0.001080212    2.007    0.502
       225  -9.1406     45.0379    171.0257   1.0707250324e+02   3.3487877892e+01    0.4049901    0.2272312  81.19  0.001433538    2.237    0.553
       226  -8.9005    230.7578    170.2176   6.2224205021e+01   2.9524427991e+00    0.2347613    0.1591861 -43.11 0.0009763076    1.381    0.276
       227  -8.4292    237.1395    169.6427   6.1021854992e+01   2.0786837931e+00    0.2190591    0.1586282 -42.07 0.0005866312    1.293    0.226
       228  -8.4861    205.7294    169.9078   6.6753435586e+01   7.0763178173e+00    0.2514042    0.1796318 -52.58  0.000697728    1.572    0.364
       229  -8.4768    198.4742    170.1413   6.8232069567e+01   8.2779629906e+00    0.2123157    0.1980267 -75.93 0.0006865383    1.365    0.267
       230  -8.6240    149.8391    169.5349   7.8862424885e+01   1.7261372576e+01    0.2893017    0.2066566 -70.15 0.0007800207    1.889    0.471
       231  -7.7009     68.3115    170.6481   1.0063474339e+02   3.0675912158e+01    0.1550768    0.1060346  70.82 0.0007045073    1.724    0.420
       232  -8.4253    218.8377    168.3762   6.3972050615e+01   5.1778883299e+00    0.2329217    0.1679119 -43.86  0.000704488    1.333    0.250
       233  -9.1872    167.0641    168.5661   7.4619741754e+01   1.4267755162e+01    0.3593751    0.2545483  65.15  0.001114826    2.070    0.517
       234  -8.8019    111.8460    167.6405   8.8180110949e+01   2.4613596688e+01    0.4083454    0.2610901  72.54  0.001512595    2.551    0.608
       235  -8.3736     88.6631    168.6376   9.4676969660e+01   2.8202935095e+01    0.2500582    0.1777431 -85.53  0.000632782    1.707    0.414
       236  -8.0362    211.4418    167.9816   6.5263685668e+01   6.4755095119e+00    0.2161753    0.1241367 -41.63 0.0005274387    1.581    0.368
       237  -8.9943     13.4057    168.1341   1.1517346562e+02   3.7284373196e+01    0.1931744    0.1063892 -89.69 0.0009478753    1.723    0.420
       238  -9.0050    191.8722    166.6284   6.8838087764e+01   1.0134432258e+01    0.2794198    0.1975573 -47.82 0.0006498196    1.427    0.299
       239  -9.0176    184.9617    166.3928   7.0229963875e+01   1.1428606284e+01    0.3209687    0.2000218 -56.83 0.0008436418    1.970    0.492
       240  -9.7896    137.0510    164.5653   8.0987000630e+01   2.0784199417e+01    0.7012106    0.3496161  56.65  0.002308185    3.220    0.689
       241  -9.0041     20.6715    166.3841   1.1309265786e+02   3.7110454192e+01    0.3894975    0.1718977  57.57  0.001492993    2.680    0.627
       242 -10.1287     94.9832    162.7564   9.1855097221e+01   2.8675332036e+01    0.9127916    0.5266315  78.18  0.002946875    3.705    0.730
       243  -8.5800    233.9877    164.8346   6.0594964788e+01   3.3993465765e+00    0.2400011    0.1628814 -37.92  0.000635902    1.261    0.207
       244  -8.5833    159.5267    164.3658   7.5469138908e+01   1.6591965451e+01    0.2818433    0.2465015 -74.74 0.0008272394    1.380    0.275
       245  -9.4939     33.6569    163.5061   1.0924741080e+02   3.6622878778e+01    0.5936449    0.2366323  52.28  0.002239967    3.062    0.673
       246  -9.4449    246.0827    163.1768   5.8286050667e+01   1.8508293209e+00    0.5366783    0.1550182 -43.34  0.001990989    3.036    0.671
       247  -9.5617    243.0942    149.7158   5.6075993721e+01   4.6141451534e+00    0.2912194    0.1920872 -41.97  0.001002643    1.294    0.227
       248  -9.5893    242.9700    154.9816   5.7152524799e+01   3.7239944361e+00    0.3316249    0.2259927 -62.75  0.001556228    2.124    0.529
       249  -9.5900    237.8349    150.0075   5.6964650430e+01   5.3983441824e+00    0.3824417    0.2044065  30.21  0.001500467    2.547    0.607
       250  -9.2259    233.4965    147.5910   5.7169426509e+01   6.5314390954e+00    0.3382377    0.1718372 -42.18 0.0009924367    1.685    0.407
       251  -9.1770    243.5013    139.5566   5.3957829356e+01   6.3059733558e+00    0.2982186    0.2320634  82.87   0.00169049    1.955    0.489
       252  -9.5943    240.4102    145.2628   5.5592188241e+01   5.8143906654e+00    0.2566379    0.1744507 -44.29 0.0005728754    1.297    0.229
       253  -9.8184    250.1530    157.8295   5.6599777862e+01   2.1530033489e+00    0.3462856    0.1639958 -41.57  0.000800201    1.755    0.430
       254  -8.6828    246.7174    155.6704   5.6703356506e+01   3.0330193739e+00     0.222208    0.1545407 -29.46 0.0005110046    1.236    0.191
       255  -8.0179    239.8392    163.9080   5.9436901650e+01   2.6617987643e+00    0.1742811    0.1403635 -47.21 0.0005358301    1.314    0.239
       256  -8.6160    213.0272    163.7426   6.4090597509e+01   7.0036344612e+00    0.2490334    0.1789404 -39.71 0.0005553452    1.257    0.204
       257  -8.4635     56.7983    163.8827   1.0282410347e+02   3.3919179914e+01    0.3518091    0.2005881   1.31  0.001339439    3.127    0.680
       258  -8.4642    204.9269    162.6939   6.5407765070e+01   8.5966883543e+00    0.2734267    0.1760683 -55.35 0.0007457981    1.857    0.462
       259  -8.8449    151.7649    161.1258   7.6619350654e+01   1.8788178445e+01    0.3280563    0.2360235 -69.71 0.0007629781    1.852    0.460
       260  -7.9244    221.7137    161.3769   6.2019990418e+01   5.9880109808e+00    0.1349175    0.1038368 -63.13 0.0007016532    1.724    0.420
       261  -9.0919    177.3793    160.5470   7.0608511931e+01   1.4039771782e+01    0.2933007    0.2443447 -67.96 0.0007608288    1.477    0.323
       262  -8.9145     60.9059    160.3755   1.0111646194e+02   3.4300592165e+01    0.3807578    0.2343048  66.01  0.001288852    2.056    0.514
       263  -7.6834    242.2409    159.9799   5.8266205371e+01   2.9741683576e+00     0.170223   0.09368784 -38.89 0.0003422085    1.513    0.339
       264  -8.6965    227.4588    159.2857   6.0584392700e+01   5.4253479089e+00    0.2703791    0.1940738 -62.18  0.001043721    1.904    0.475
       265  -8.6131    237.0324    159.0096   5.8917399614e+01   3.9465777519e+00    0.2000267    0.1546264 -61.70 0.0008648008    1.688    0.408
       266  -8.4852    128.1918    158.9088   8.2073469184e+01   2.3771968735e+01    0.3026955     0.234317  87.41 0.0009138863    1.760    0.432
       267  -9.7119    105.6835    157.7032   8.7892741445e+01   2.8136349693e+01    0.5074799    0.3631484  80.33   0.00107394    1.969    0.492
       268  -8.3902    196.2349    157.7183   6.6058016364e+01   1.1120501169e+01    0.2456352    0.1850584 -49.39 0.0006436715    1.352    0.260
       269  -8.4748    188.0212    157.8130   6.7751606838e+01   1.2613429227e+01    0.2633712    0.1815456 -54.75 0.0005366867    1.618    0.382
       270  -9.0970    167.5197    157.2050   7.2073589106e+01   1.6627098225e+01    0.3363302    0.2721297 -87.73  0.001071521    1.730    0.422
       271  -8.5305    217.8951    156.5173   6.1694616368e+01   7.5258251260e+00    0.2843537      0.16216 -52.83 0.0009578202    2.010    0.502
       272  -8.7926    157.7495    156.0244   7.4076862816e+01   1.8774887415e+01    0.3568613    0.2372508 -61.74   0.00114539    1.855    0.461
       273  -9.2933    119.5158    155.2667   8.3603102691e+01   2.6257496395e+01    0.4728676    0.3157367 -83.51  0.001397746    2.403    0.584
       274  -9.6612     49.6968    155.0793   1.0353895289e+02   3.7055102612e+01    0.4658475    0.2780694  69.97   0.00201105    2.181    0.541
       275  -9.3038      3.2859    162.2749   1.1727451770e+02   3.9503865584e+01    0.4275258    0.1937897  57.78  0.001710762    2.430    0.588
       276  -8.8552    144.6732    154.6015   7.6932823037e+01   2.1636870139e+01    0.3500495    0.2505782 -43.49  0.001043487    1.365    0.267
       277  -9.5658     68.1857    154.0482   9.7952961490e+01   3.4961512156e+01    0.4416458    0.2737011  61.55  0.001273513    2.039    0.509
       278  -8.1133    232.8088    153.9865   5.8595297184e+01   5.5056544421e+00     0.209726    0.1397765 -57.15 0.0005157081    1.851    0.460
       279  -9.6693    132.8764    152.8980   7.9554215812e+01   2.4311018940e+01    0.4627106    0.3360691  74.65  0.001242588    2.006    0.501
       280  -9.5482    133.8086    148.1747   7.8259811106e+01   2.5243628576e+01    0.4741177    0.2291889 -40.32  0.001730927    2.184    0.542
       281  -9.0073    175.1384    151.5629   6.9124558886e+01   1.6359452268e+01    0.2503266    0.2017283 -42.96  0.000310553    1.186    0.157
       282  -9.8557     29.2719    150.4559   1.0884410199e+02   4.0396463260e+01    0.5300428    0.2621072  72.74  0.002048586    2.970    0.663
       283  -9.6659    248.7852    149.3901   5.5139131621e+01   3.7878262573e+00    0.3444062    0.1751755 -39.17 0.0008040881    1.605    0.377
       284  -9.1031    247.0332    143.6598   5.4256884428e+01   5.0371550775e+00     0.278468    0.1609113 -42.44 0.0005040765    1.445    0.308
       285  -8.8507    189.3844    150.1668   6.5797478489e+01   1.3910392177e+01    0.3051374    0.2280252 -61.11 0.0006208793    1.600    0.375
       286  -8.6106    181.7455    150.4618   6.7454563243e+01   1.5311657711e+01    0.3720535    0.2281969 -65.78  0.001375341    2.622    0.619
       287  -9.1313     98.3250    150.5639   8.8509489577e+01   3.1188404932e+01     0.319801    0.2543833  89.60 0.0008974744    1.522    0.343
       288  -8.2341    212.7500    149.8932   6.1224975534e+01   9.6637102224e+00    0.1996407    0.1650209 -37.69 0.0004482403    1.083    0.076
       289  -8.2269    162.4055    150.3100   7.1712288244e+01   1.9123201786e+01    0.2138907    0.1435279 -54.19 0.0009382462    1.589    0.371
       290  -9.8368     39.6707    147.3386   1.0534110205e+02   4.0174141955e+01    0.6734337    0.3704865 -89.60  0.002570262    2.285    0.562
       291  -8.8001      3.3664    150.2263   1.1616537967e+02   4.2499071695e+01    0.1925168    0.1027639 -87.53 0.0009481614    1.730    0.422
       292  -8.3719    198.7920    149.0067   6.3663243809e+01   1.2373535043e+01    0.2184312    0.1865004 -58.86 0.0006474984    1.304    0.233
       293 -10.3282    106.6112    143.9871   8.4738919074e+01   3.1378640223e+01    0.8366811    0.5479992 -88.07  0.002266068    2.609    0.617
       294 -10.0489     89.3157    146.3197   9.0253369141e+01   3.3763146497e+01    0.7389181    0.4323063 -88.24  0.002455594    3.395    0.705
       295 -10.3544    148.9640    144.6425   7.3622955226e+01   2.3061024613e+01    0.6769732    0.4441982 -72.02  0.001475257    2.364    0.577
       296  -9.0099    151.1866    135.6074   7.0957560665e+01   2.4638518672e+01    0.3674663    0.2249036  24.56  0.001435272    2.190    0.543
       297  -8.7410    119.1429    148.0688   8.2144231940e+01   2.8073710560e+01    0.2923099    0.2254902  46.67 0.0008551173    1.351    0.260
       298  -9.0960     78.2904    147.2777   9.3714484007e+01   3.5248140593e+01    0.3033219     0.204728  72.46 0.0007778201    2.029    0.507
       299 -10.6699     54.9856    144.5810   1.0026747382e+02   3.9144889142e+01    0.9091139    0.5051537  78.30  0.002969179    3.052    0.672
       300  -8.7785     57.1651    135.1071   9.7886714286e+01   4.1325913664e+01    0.2920581    0.2118662   4.62  0.001414861    1.714    0.417
       301  -8.1299    223.4739    146.9048   5.8698115004e+01   8.3447468950e+00    0.2059774    0.1199475 -40.68 0.0003754401    1.489    0.329
       302 -10.1310    138.9512    144.6107   7.6122423622e+01   2.5065471100e+01    0.6332757    0.3519544 -64.26  0.001588373    2.627    0.619
       303  -9.5328     13.4709    146.4134   1.1292671893e+02   4.2753692480e+01     0.361473    0.2006975  55.39  0.001275134    2.034    0.508
       304  -7.9903    206.7787    146.5443   6.1603266007e+01   1.1379420244e+01      0.17687    0.1404746  60.85 0.0005775134    1.585    0.369
       305  -8.1656    175.6222    146.3315   6.7842536217e+01   1.7369210341e+01    0.2200424    0.1789828 -80.64 0.0007002373    1.637    0.389
       306  -9.8167    125.0388    142.6554   7.9324865189e+01   2.8254209479e+01    0.5913539    0.3895357 -77.47   0.00175163    2.405    0.584
       307  -7.8030    194.4693    143.9748   6.3400299750e+01   1.4187115798e+01    0.1951316    0.1227735 -62.99 0.0004388175    2.247    0.555
       308  -8.8204    165.5102    143.9940   6.9559721855e+01   1.9880948914e+01    0.2666834    0.2171937  64.98 0.0006520132    1.486    0.327
       309 -10.8226     69.5440    141.1093   9.5168554679e+01   3.8115563075e+01    0.6399962     0.432711 -84.06  0.002291005    1.840    0.456
       310  -9.8484     69.1729    134.8138   9.4036625642e+01   3.9787130534e+01    0.4607674    0.2835377  -3.71   0.00177986    2.659    0.624
       311  -9.2156      2.8724    142.0967   1.1550436260e+02   4.4566967908e+01      0.34009    0.1817604  70.27  0.001447477    2.142    0.533
       312  -8.8382    242.6994    143.3112   5.4842147096e+01   5.7854988293e+00    0.2033379     0.159968 -43.92 0.0005957119    1.149    0.130
       313  -8.6552    182.0146    141.5557   6.5390134246e+01   1.7102598706e+01    0.2801307    0.2023239 -57.47 0.0005335336    1.541    0.351
       314  -8.4275    250.4830    140.5176   5.3118617670e+01   5.0317136757e+00    0.2268776    0.1000357 -47.43 0.0007806915    2.109    0.526
       315  -8.8795    172.5351    138.6115   6.6743430744e+01   1.9616202796e+01    0.3904134    0.2439881 -64.05  0.001165572    2.250    0.555
       316  -9.9789     23.4502    138.2198   1.0894855498e+02   4.4056421536e+01    0.5358618    0.2708116  62.49  0.002229966    2.706    0.630
       317  -8.3648    207.3507    137.9884   5.9624332473e+01   1.2917235210e+01    0.2355572    0.1976896 -81.30 0.0006727133    1.532    0.347
       318  -8.7415    197.5412    137.6083   6.1376073541e+01   1.4858673461e+01    0.2805557    0.2208251 -58.58 0.0008329417    1.388    0.280
       319 -10.5223     83.2398    133.3981   8.9350057166e+01   3.8021399174e+01    0.7322865    0.4218044 -56.93  0.001811409    1.677    0.404
       320  -8.4468    162.8507    136.5285   6.8425657945e+01   2.2037111372e+01    0.2979734    0.2016898 -63.40 0.0009114374    1.861    0.463
       321  -9.1854     39.0088    135.8552   1.0376331993e+02   4.3214973381e+01    0.3487392     0.215504  88.68 0.0008918065    1.980    0.495
       322  -8.5985    246.9169    130.1706   5.1549252011e+01   7.3611319833e+00    0.2521403    0.1574961 -46.80 0.0006229566    1.395    0.283
       323  -9.0986    248.2649    135.3900   5.2411287265e+01   6.2535916205e+00    0.2893381    0.1739677 -40.59 0.0006781754    1.358    0.263
       324  -9.0599    250.7328    130.0822   5.0991615684e+01   6.7567419353e+00    0.4365555    0.1022352 -40.22   0.00148466    3.462    0.711
       325  -7.9656    188.0000    135.9612   6.2879041717e+01   1.7057639137e+01    0.2428863   0.07971415 -42.52 0.0003705897    2.823    0.646
       326  -8.6202    140.4917    136.5424   7.3838145537e+01   2.6615537020e+01    0.1563476    0.1517424 -27.05 7.883458e-05    1.004    0.004
       327  -9.4011    112.4144    133.5484   8.0699503934e+01   3.2863203896e+01    0.4830821    0.3366142 -43.05  0.001621136    1.414    0.293
       328  -8.4822    237.6644    133.5776   5.3614615353e+01   8.3119221098e+00    0.2262572    0.1368269 -52.97 0.0008083111    1.711    0.416
       329  -8.3333    231.4668    134.0365   5.4672247732e+01   9.2916064094e+00    0.2068958    0.1158022 -40.83 0.0003358525    1.517    0.341
       330  -8.5704    179.4058    133.8385   6.4155411640e+01   1.9218683741e+01    0.2784155    0.2318116 -78.67 0.0007627296    1.490    0.329
       331 -10.0154    132.0854    131.0374   7.4688969800e+01   2.9589616664e+01    0.6637706     0.361405 -57.60  0.001607611    2.150    0.535
       332 -10.7202    131.5111    119.3858   7.1922608146e+01   3.2365857970e+01    0.9026545     0.545668 -75.37  0.002921895    3.495    0.714
       333 -10.3656    133.6240    109.3383   6.8734553757e+01   3.4133768639e+01     1.303156    0.4185013 -50.58  0.003717777    3.689    0.729
       334  -9.6722    128.3381    102.0942   6.8160370831e+01   3.6816990715e+01    0.4294063    0.2801943 -47.93  0.001826447    1.545    0.353
       335 -10.4220     98.1086    130.2208   8.4097776704e+01   3.6303359638e+01    0.7378064    0.3581167 -54.18   0.00178316    2.037    0.509
       336  -9.0633    143.0954    131.6239   7.1993794635e+01   2.7200011525e+01    0.3154385    0.2383725 -74.48 0.0007807945    1.736    0.424
       337 -10.4622     60.2871    125.3880   9.4956765513e+01   4.3414064311e+01    0.8438907    0.4973873  79.65  0.003033831    3.248    0.692
       338 -10.1805     13.0652    128.8680   1.1091052692e+02   4.7235265781e+01    0.6317498    0.3541713  83.52  0.002805296    2.106    0.525
       339  -7.9297    220.6125    129.8083   5.5525455241e+01   1.1990593750e+01    0.1967054    0.1153482 -47.99 0.0005098633    1.585    0.369
       340  -7.9892    204.6647    130.3224   5.8406355549e+01   1.4897001725e+01    0.2177606    0.1621924 -70.45 0.0008032505    1.744    0.427
       341  -9.4596    168.4228    129.6433   6.5528807789e+01   2.2355635410e+01    0.3359166     0.257008  89.27 0.0008374454    1.859    0.462
       342  -9.3096    152.9333    128.6366   6.8849682956e+01   2.5815228036e+01    0.5382727    0.2507584 -50.48  0.001103809    2.239    0.553
       343  -9.9384     73.2862    129.0208   9.1520715150e+01   4.0666179783e+01    0.4736044    0.2956437 -75.18  0.001430911    2.037    0.509
       344  -7.9801      1.7810    130.5436   1.1459540464e+02   4.7525957706e+01    0.1651714    0.1128624  41.01 0.0009451187    1.679    0.404
       345  -8.1650    211.4427    129.2082   5.6951974211e+01   1.3810924746e+01     0.202907    0.1209817 -50.37 0.0005949597    1.649    0.394
       346  -9.9102    117.7497    125.0749   7.7128095190e+01   3.3853322920e+01    0.5537747    0.4025712 -84.79  0.001377123    2.052    0.513
       347  -7.9928    228.4960    125.5093   5.3331405763e+01   1.1337288360e+01    0.1381135    0.1170355 -47.06 0.0008094552    1.076    0.071
       348  -8.7163    179.3887    124.8224   6.2028165655e+01   2.1067893639e+01    0.2717673    0.2276462 -86.18 0.0007656792    1.467    0.318
       349 -10.1961     28.6755    122.4827   1.0490694918e+02   4.7631095359e+01    0.7346504    0.3690516  69.33  0.002647706    3.673    0.728
       350  -9.2069    234.2926    124.3769   5.2202769893e+01   1.0506944854e+01    0.2081515    0.1570404  -6.11  0.001121546    1.754    0.430
       351  -7.8376    188.5126    123.9996   5.9998138311e+01   1.9347359267e+01    0.2233919    0.1369771 -44.07 0.0004684077    1.514    0.340
       352  -8.9904     85.0387    122.7019   8.6350168292e+01   4.0402576635e+01    0.5027413    0.2924297   7.45  0.001760326    3.062    0.673
       353 -10.7204     44.8855    123.5710   9.9696408412e+01   4.5744694001e+01     1.097376    0.5961543  75.59  0.003814438    3.698    0.730
       354  -9.2495    158.8888    121.6920   6.5735948749e+01   2.6051728845e+01    0.3937362    0.2702105 -67.19  0.001004763    1.928    0.481
       355  -8.1604    192.8558    130.1323   6.0579028101e+01   1.7254955191e+01    0.2237442    0.1894704 -61.72 0.0004783217    1.270    0.213
       356  -7.6883    194.7872    122.0131   5.8329984315e+01   1.8456381482e+01    0.1957092     0.110252 -41.64 0.0003154802    1.627    0.385
       357  -8.6616    172.0954    121.8028   6.2832370594e+01   2.3216490457e+01    0.2268013    0.2003685 -74.71   0.00055923    1.261    0.207
       358 -10.1390     66.2862    109.8144   8.9435940458e+01   4.6472257966e+01    0.6932313    0.3272949 -61.24  0.001948802    2.300    0.565
       359  -9.6711     71.2655    120.0404   9.0174959943e+01   4.3224570969e+01    0.4648106    0.3163861 -75.90  0.001676155    1.839    0.456
       360  -9.2636     67.8839    115.5119   9.0250614273e+01   4.4843876673e+01      0.36587    0.2134479  41.21  0.001087797    1.863    0.463
       361 -10.0080    141.5147    117.8768   6.8951783185e+01   3.0589633396e+01    0.6987237    0.3148612 -49.64  0.001143355    2.295    0.564
       362  -9.6664      3.1035    117.3697   1.1259705389e+02   5.0735164497e+01    0.5562849     0.262992  69.36  0.002269847    3.216    0.689
       363  -7.8580    231.5870    117.7648   5.1207231828e+01   1.2148053034e+01    0.1916755    0.1089645 -48.46  0.000392839    1.589    0.371
       364  -8.2943    193.0442    115.4421   5.7115065678e+01   2.0081424024e+01    0.2305248    0.1813263 -44.11 0.0004386406    1.171    0.146
       365  -8.0515    185.9065    115.9818   5.8602362270e+01   2.1466230536e+01    0.2321346     0.173947 -71.32 0.0006128362    1.657    0.396
       366  -9.9188    109.3690    114.2126   7.6763873959e+01   3.8033854538e+01    0.5367976    0.3719187 -75.07  0.001347504    2.113    0.527
       367  -8.6124     58.6531    115.6343   9.3404970989e+01   4.6086601638e+01     0.245648    0.1620003 -28.20  0.001119916    1.740    0.425
       368  -9.1123    250.0462    114.7704   4.7995129420e+01   9.4355060808e+00    0.1720698    0.1557444 -53.45   0.00114674    1.129    0.114
       369 -10.4104    247.9155    107.6817   4.6833587987e+01   1.0972632017e+01    0.4027284    0.2810335 -71.19  0.001891433    1.757    0.431
       370 -10.6578    248.5072    103.0238   4.5809553350e+01   1.1634554371e+01    0.4095714    0.3004224 -62.86  0.002456911    1.387    0.279
       371  -7.6882    153.3193    115.6632   6.5511715441e+01   2.8526853850e+01    0.1591513    0.1235685 -81.80 0.0005837661    1.705    0.414
       372 -10.2303     92.6018    112.1090   8.1326701615e+01   4.1665378435e+01     0.665302    0.3629276 -62.50  0.001445513    2.329    0.571
       373  -8.8788     94.7321    103.9219   7.8472584712e+01   4.3181379698e+01    0.4723975    0.2492686  20.13  0.001607756    3.059    0.673
       374 -10.0097     78.8106    112.2719   8.5823501133e+01   4.3967690371e+01    0.5938731    0.4066547 -85.37  0.001762474    2.307    0.567
       375  -9.0032     78.7256    105.0008   8.3987225732e+01   4.5716032459e+01    0.3264319    0.2440314   8.25  0.001015779    1.571    0.364
       376  -8.0542    167.2147    114.2301   6.2011491636e+01   2.5811397386e+01    0.2087273    0.1759598 -71.37 0.0005143575    1.334    0.250
       377  -9.8850    121.8661    112.5348   7.2748988063e+01   3.5904872455e+01    0.3495232    0.2916131  89.64 0.0005842822    1.511    0.338
       378  -9.9322     14.2337    111.4074   1.0799996717e+02   5.1538120730e+01    0.3851074    0.2363633  66.84  0.001481187    2.172    0.540
       379  -8.5930    174.7843    111.8638   5.9823574405e+01   2.4649028047e+01    0.2812035    0.1944528 -59.18 0.0006827693    1.616    0.381
       380  -8.7131    159.1723    111.9165   6.3204533074e+01   2.8035071513e+01     0.236429     0.201627 -70.72 0.0006125559    1.306    0.234
       381  -7.7032    183.2746    109.6626   5.7584628019e+01   2.3252978487e+01    0.1503691    0.1119777 -69.03 0.0004140066    1.608    0.378
       382  -8.5080     42.8951    109.3339   9.7519809815e+01   4.9544326957e+01    0.3418508    0.1386627  11.21   0.00109393    4.291    0.767
       383  -8.2749    189.1338    107.6791   5.5989788926e+01   2.2382008011e+01    0.2631434    0.1798885 -49.81  0.000648749    1.404    0.288
       384 -10.0437    119.0879    105.6816   7.1678669768e+01   3.7998368566e+01     0.374593    0.2720977 -33.54  0.001343708    1.433    0.302
       385 -10.5684    108.6770     98.7001   7.2738801333e+01   4.1649142677e+01    0.7847511    0.4841789  68.48  0.000948124    2.906    0.656
       386  -9.0603    107.6364     92.6901   7.1320186334e+01   4.3141582992e+01    0.6895201    0.3099616  28.55  0.002128433    3.610    0.723
       387  -9.4062    110.4035    106.6852   7.4448240488e+01   3.9543455702e+01    0.3829607    0.2401372  20.02  0.001505871    2.202    0.546
       388  -8.8094    181.9199    105.7108   5.6877931908e+01   2.4304037476e+01    0.2576572    0.1995788 -30.27 0.0007777875    1.344    0.256
       389 -10.5103     45.4948    102.1195   9.4982828844e+01   5.1022665983e+01    0.7845606    0.4731595  72.49  0.003020994    3.280    0.695
       390 -10.6096     22.9332    102.6694   1.0338067938e+02   5.3057692967e+01    0.7420636    0.4283093  69.42  0.002618088    2.854    0.650
       391  -8.5047    166.8162    104.3062   5.9581768605e+01   2.7885421156e+01    0.2631071    0.1919509 -53.06 0.0005897737    1.390    0.281
       392  -9.4504    150.4020    102.8878   6.2864086564e+01   3.1813434362e+01    0.4150013    0.2575341 -55.85   0.00104873    1.826    0.452
       393  -9.5281      6.7107    102.2559   1.0919397673e+02   5.4251536414e+01     0.546028    0.1906982 -73.42  0.002129237    2.791    0.642
       394  -7.9126    175.4395    102.2248   5.7281178088e+01   2.6385666676e+01    0.2111774    0.1328937 -52.34 0.0006703067    1.630    0.387
       395  -8.1378    159.7686    100.8369   6.0200722196e+01   3.0134971820e+01    0.2097697    0.1721573 -67.32 0.0004357507    1.347    0.257
       396  -9.2689     82.0803     99.8322   8.1471581684e+01   4.6357732375e+01    0.4030215    0.2556174 -64.05 0.0008684217    1.976    0.494
       397 -10.1906     63.9967     95.9333   8.6699455540e+01   5.0102131599e+01    0.6957523    0.4134124 -69.22  0.001778301    2.363    0.577
       398  -9.5620     64.2964     88.0088   8.4398097506e+01   5.1858017467e+01    0.9265398    0.3449887  19.94  0.002302383    6.544    0.847
       399  -9.2631     95.0376     97.0350   7.6453937151e+01   4.4669594816e+01    0.3205529    0.2420552 -61.15  0.000664548    1.526    0.345
       400  -8.4728    150.8862     95.4463   6.0753087823e+01   3.3185692426e+01    0.2882587    0.2022103   1.31  0.001091337    2.304    0.566
       401  -8.0618    164.9415     94.2909   5.7377605095e+01   3.0235525067e+01    0.2050594    0.1926799  77.75 0.0004371477    1.086    0.079
       402  -9.2041    139.0640     92.3628   6.2704241684e+01   3.6447533330e+01    0.3774447    0.2755756 -76.36 0.0006841336    1.907    0.476
       403  -9.8815    248.1313     92.7200   4.3760719446e+01   1.3362999569e+01    0.2414469    0.1636858 -16.46   0.00125582    2.209    0.547
       404  -9.1480    139.8526    104.6722   6.5892725491e+01   3.3774892787e+01    0.3607315    0.2805008 -88.78 0.0009114904    1.735    0.424
       405  -8.1395    176.5996     93.3184   5.4798913906e+01   2.7799409484e+01    0.2288194    0.1653656 -70.66 0.0006073063    1.676    0.403
       406 -10.1931    123.8798     91.2417   6.6292028298e+01   4.0022156143e+01     0.552685    0.4281452  30.98  0.001207142    1.374    0.272
       407  -9.3931      4.8093     91.8462   1.0816741892e+02   5.6854957023e+01     0.316901    0.2107772  60.18  0.001445185    2.023    0.506
       408  -7.9538    157.6199     91.7517   5.8256515102e+01   3.2372311803e+01    0.2060004    0.1361654 -49.92 0.0003462374    1.539    0.350
       409  -9.4306     34.8456     89.9628   9.6135715546e+01   5.5047780767e+01     0.464747    0.2868919 -82.44  0.001776663    2.459    0.593
       410  -9.1352     23.0485     90.0728   1.0077206501e+02   5.6074843764e+01    0.3195354    0.2336397 -12.16  0.001117758    1.463    0.317
       411  -8.1654    150.9854     89.0018   5.8971696518e+01   3.4400356521e+01    0.2354945    0.1796825 -74.82 0.0004486174    1.636    0.389
       412 -10.1303     86.3230     86.6393   7.6253784754e+01   4.8523553291e+01    0.4732633    0.3640172  82.91  0.001225896    2.049    0.512
       413  -7.7126    164.0062     87.0071   5.5645158137e+01   3.1798888986e+01    0.1756389     0.170094 -78.07 0.0004024852    1.010    0.010
       414  -9.7636     48.5210     83.8555   8.9205561259e+01   5.4927454915e+01    0.5897738    0.4169185 -84.26    0.0020845    2.278    0.561
       415  -9.8979    104.9310     82.4337   6.9064147708e+01   4.5786929378e+01    0.7177187    0.3864803 -41.36  0.001964485    1.863    0.463
       416  -8.2465    158.0413     84.0226   5.6076540001e+01   3.3706096717e+01    0.2293776    0.1731261 -72.00 0.0004062845    1.593    0.372
       417  -8.6267     46.0375     92.4122   9.2431081092e+01   5.3269206871e+01    0.3911266     0.227069  -0.24  0.001687398    2.373    0.579
       418  -9.5001     10.0459     81.5230   1.0414256135e+02   5.8974638782e+01    0.4218038     0.264382  83.71  0.001546537    2.404    0.584
       419  -8.9455    140.9513     82.5291   5.9465218051e+01   3.7896664789e+01    0.3669856    0.2329484 -51.43  0.001056395    1.704    0.413
       420  -8.3177     64.1236     82.6877   8.2912446939e+01   5.3051072264e+01    0.2428594      0.18697 -56.15 0.0005948585    1.410    0.291
       421  -8.2061     35.3167     82.3200   9.4037067384e+01   5.6758429390e+01    0.1459721   0.08890757 -29.20 0.0002700961    1.659    0.397
       422  -9.5755     24.4622     80.4602   9.7992111793e+01   5.8184213463e+01    0.4284195    0.2799629  88.13  0.001424254    2.512    0.602
       423  -8.9948    249.7588     81.0144   4.1207999521e+01   1.4902428981e+01    0.1707498   0.08804632 -41.44  0.000507577    1.605    0.377
       424  -8.4233    150.2996     80.5939   5.6791872545e+01   3.6105007471e+01    0.2741975    0.1674402 -49.51  0.000764172    1.716    0.417
       425  -8.6499    119.5904     80.3224   6.4228549819e+01   4.3090596694e+01    0.3354322    0.2201491 -58.57  0.001153168    1.921    0.480
       426  -8.8372     74.5382     80.2912   7.8388349055e+01   5.1909254545e+01    0.3506555    0.2263651 -63.59  0.001119899    2.166    0.538
       427  -8.0458    166.8303     79.5666   5.3102220883e+01   3.2475421270e+01    0.2333157    0.1604165 -45.37 0.0005114176    1.425    0.298
       428  -8.6396    184.1544     78.3217   4.9632740703e+01   2.8743274817e+01    0.1988705    0.1738734 -36.42 0.0006833582    1.184    0.155
       429  -9.2442    127.9888     75.1510   6.0464882523e+01   4.2181129798e+01    0.4014551    0.2391935 -55.30 0.0007451875    2.082    0.520
       430  -7.9914    157.3446     76.2712   5.4098351410e+01   3.5236704799e+01    0.2068633    0.1281511 -48.10 0.0003408914    1.648    0.393
       431  -8.5964    140.4839     75.4653   5.7537600992e+01   3.9278040835e+01    0.2515866    0.1327497 -49.16 0.0006433292    2.084    0.520
       432 -10.0052     63.1290     73.3681   8.0422241333e+01   5.5160355906e+01    0.5139425    0.2872321 -54.84  0.001137753    2.061    0.515
       433  -9.7138     82.4217     72.6844   7.3211839287e+01   5.2064219597e+01    0.4230877    0.3056863 -68.44 0.0009184056    2.105    0.525
       434  -8.3206    163.5277     73.2801   5.2052293574e+01   3.4311049214e+01    0.2615291    0.1326266 -43.52 0.0009489552    1.946    0.486
       435  -8.0351    175.4087     72.7220   4.9714078423e+01   3.1661221975e+01    0.1855876      0.13676 -28.17  0.000490257    1.518    0.341
       436  -8.8939    115.7425     72.4318   6.2855484213e+01   4.5387377997e+01    0.4227422      0.19844 -42.31  0.001344096    2.190    0.543
       437  -8.2120     42.4960     72.5343   8.8370608203e+01   5.8121703800e+01    0.2330217    0.1304446 -63.95 0.0009724766    2.345    0.574
       438  -8.9529    105.9392     71.7025   6.5407073040e+01   4.7620063416e+01     0.265246    0.2104843 -49.43 0.0005187168    1.376    0.273
       439  -9.1955     95.1645     71.1289   6.8504899099e+01   4.9930483389e+01    0.3707666    0.2430879 -56.44 0.0009831513    1.956    0.489
       440  -8.7246     95.5040     64.6388   6.6257000925e+01   5.1036698509e+01    0.4345793    0.2474831  18.34  0.001630341    2.892    0.654
       441  -9.0381     97.4802     60.5202   6.4260803834e+01   5.1343048345e+01    0.2996946    0.2466031  62.09 0.0009855338    1.417    0.294
       442  -7.7127    170.6517     71.3074   5.0192488354e+01   3.2988456656e+01    0.1503145    0.1068259 -75.79  0.000493847    1.704    0.413
       443  -9.3529     51.4873     69.6513   8.3806634370e+01   5.7590232701e+01    0.4137449    0.2701336 -69.88  0.001505709    2.506    0.601
       444  -8.7844     28.8445     70.4585   9.3530149014e+01   6.0009046715e+01    0.2674825    0.1280808 -30.32  0.001175203    2.245    0.555
       445  -8.9017     16.6907     70.1799   9.8725085227e+01   6.1082768994e+01    0.2506524    0.2010126  88.45 0.0008764525    1.718    0.418
       446  -8.8492    138.7269     66.1591   5.5204024611e+01   4.1268829903e+01    0.2885697    0.1825425 -48.24 0.0007394932    1.693    0.409
       447  -8.7196    121.6802     66.0440   5.9277989831e+01   4.5185894424e+01    0.2933216    0.2285878 -76.35  0.000754473    1.709    0.415
       448  -9.0124     37.1763     64.0258   8.8014749694e+01   6.0501182695e+01    0.3213659    0.2322592 -76.35   0.00123584    2.217    0.549
       449  -8.8658    110.2142     63.7596   6.1621188882e+01   4.8102972412e+01    0.2776329    0.2421789 -73.75 0.0006936855    1.407    0.289
       450  -8.7573    147.0277     67.7570   5.3852564579e+01   3.9073908251e+01     0.308077    0.1975808 -40.08 0.0009050685    1.585    0.369
       451  -8.5648     65.2331     62.8040   7.6125055344e+01   5.6900031751e+01     0.390523    0.1818951  19.89  0.001352918    3.536    0.717
       452  -7.9175    158.1536     61.7937   4.9925084485e+01   3.7420902522e+01    0.1814313    0.1651846  24.27 0.0003502285    1.260    0.207
       453  -8.1336     51.3414     62.3240   8.1469662205e+01   5.9070579570e+01    0.1454214   0.09502727 -13.08 0.0007050916    1.729    0.422
       454  -9.6939     73.3633     59.3712   7.1904303318e+01   5.6158288415e+01    0.4417761    0.2421915 -48.08 0.0009682651    2.077    0.519
       455  -7.8881     88.8605     59.5871   6.6654782760e+01   5.3235302913e+01    0.1895201    0.1318231  53.39 0.0005908883    1.610    0.379
       456  -9.8425     23.3621     56.3742   9.1806544965e+01   6.3439988460e+01    0.4061947    0.2958899  87.40  0.002091564    2.645    0.622
       457  -8.3110    130.6508     57.5905   5.4451600592e+01   4.4505607807e+01    0.2275998     0.162461 -56.69 0.0004394852    1.644    0.392
       458  -9.5669      7.4185     57.0558   9.9491879663e+01   6.4498452425e+01    0.2983158    0.2133052 -76.57  0.001271121    1.815    0.449
       459  -8.4346    140.0009     56.0275   5.1901954573e+01   4.2566854310e+01    0.2230334     0.165333 -69.62 0.0005282041    1.651    0.394
       460  -8.8364    119.2859     55.7558   5.6615877471e+01   4.7386354098e+01    0.2809118    0.2205527 -74.61 0.0007938037    1.669    0.401
       461  -9.4448     62.9407     53.7372   7.3798039092e+01   5.8909828612e+01    0.6398637    0.2080423 -40.08  0.002362407    3.047    0.672
       462  -8.6443     43.9963     55.5094   8.2227268912e+01   6.1351037225e+01    0.2337418    0.1818873 -56.01 0.0009735197    1.595    0.373
       463  -8.9960     54.1514     53.9574   7.7390258864e+01   6.0233139685e+01     0.358023    0.2089688 -56.78  0.001346246    2.497    0.599
       464  -8.7489    105.7617     52.9782   5.9281656390e+01   5.0807448242e+01    0.2502365    0.1907728 -54.71 0.0008610305    1.599    0.375
       465  -9.6035     92.4557     50.3802   6.2284519351e+01   5.4009982014e+01    0.4209377    0.2347329 -46.07  0.001298614    2.121    0.528
       466  -8.5913    158.4876     50.8839   4.6822369177e+01   3.8962657411e+01    0.1991089     0.136054 -35.81 0.0008630299    1.534    0.348
       467  -8.4789     75.8491     50.9770   6.7995160074e+01   5.7140868997e+01    0.3537136    0.1527834  33.85   0.00140554    2.481    0.597
       468  -7.7607    150.4575     49.4701   4.7884043795e+01   4.1058156970e+01    0.1384734    0.1279038  83.83 0.0002387037    1.040    0.038
       469  -8.0242    144.5542     49.0473   4.8893720779e+01   4.2511295143e+01    0.2004165    0.1379004 -33.18 0.0005076543    1.558    0.358
       470  -8.2358    129.5757     48.9997   5.2018524561e+01   4.6028157182e+01    0.2013014    0.1372577 -34.33 0.0004272145    1.562    0.360
       471  -8.6260    120.8800     47.3564   5.3501179008e+01   4.8264481420e+01    0.2165894    0.1884926 -49.58 0.0004790644    1.265    0.210
       472  -8.5501    112.1480     46.7871   5.5475904227e+01   5.0317861168e+01    0.2294704    0.1842678 -47.27 0.0005875234    1.403    0.287
       473  -8.7765     82.0161     46.4525   6.4207816269e+01   5.6689349530e+01    0.2361205    0.1875704 -49.91 0.0006372416    1.560    0.359
       474  -8.5738     45.1280     44.7057   7.7771150108e+01   6.3135452485e+01    0.2048998    0.1678582 -39.34 0.0005532648    1.347    0.258
       475  -9.0656     16.6694     44.7865   9.1242653565e+01   6.6272322815e+01    0.1973307    0.1813385 -83.93 0.0007259311    1.639    0.390
       476  -8.3429    132.5523     43.0622   4.9516234813e+01   4.6151863859e+01    0.1954793    0.1365883 -32.57   0.00047754    1.547    0.354
       477  -8.6917     92.6972     42.6356   5.9423822128e+01   5.5103255220e+01    0.2190851    0.1490139  18.74  0.001040609    1.700    0.412
       478  -9.1372     69.5854     41.4014   6.6627740176e+01   5.9769951018e+01    0.3192474    0.2260432 -55.05  0.001185331    2.080    0.519
       479  -8.9265     58.0188     42.3513   7.1434408825e+01   6.1595071416e+01    0.2745338    0.1831193 -51.83  0.001414966    2.065    0.516
       480  -9.2378      5.1325     42.0913   9.6227897479e+01   6.7627021212e+01    0.2537479    0.1838599 -67.33  0.001308724    1.760    0.432
       481  -8.6977    105.9709     41.2876   5.5203045782e+01   5.2448337446e+01     0.275819    0.1834599 -42.45 0.0007248061    1.692    0.409
       482  -8.2587     36.7689     40.8506   8.0051090056e+01   6.4885124485e+01    0.2069153    0.1698316 -51.73 0.0007398798    1.604    0.377
       483  -7.7666    224.5049     40.5400   3.5513968641e+01   2.5598273724e+01    0.1227469    0.1026618 -69.72  4.17568e-05    1.031    0.031
       484  -8.8725     95.5909     38.1631   5.6945696687e+01   5.5108399093e+01    0.2771117    0.1942624 -43.08 0.0008995775    1.653    0.395
       485  -8.2318     80.7037     36.6086   6.0919029227e+01   5.8360115097e+01    0.2052888    0.1563581 -49.75 0.0006621492    1.702    0.413
       486  -9.4207     26.1223     35.3387   8.3005492435e+01   6.7055166815e+01    0.2684763    0.2099417 -43.17 0.0008914704    1.439    0.305
       487  -8.3331    125.9183     35.3400   4.8471504985e+01   4.8687023894e+01    0.1909297    0.1599147  55.21 0.0004687785    1.079    0.073
       488  -8.7406    111.9382     34.5576   5.1370057975e+01   5.1986179761e+01    0.2447984    0.1792145 -49.61 0.0007724996    1.620    0.383
       489  -7.9612     88.5238     34.5071   5.7663448445e+01   5.7063171816e+01    0.1334537    0.1187885  29.83 4.488102e-05    1.028    0.027
       490  -8.8225     48.5866     33.3967   7.1723485996e+01   6.4437099788e+01    0.2098498    0.1992033   3.93 0.0007848566    1.332    0.249
       491  -8.5422    119.3664     33.2241   4.9202230173e+01   5.0457366404e+01    0.1804577    0.1207132 -42.30 0.0005607335    1.671    0.402
       492  -8.6939     60.5268     32.4936   6.6463085950e+01   6.2640074692e+01    0.2189728    0.1764665 -31.46 0.0006236908    1.362    0.266
       493  -9.0667     72.2646     31.1131   6.1588892538e+01   6.0712934565e+01    0.2398586     0.199768 -41.36 0.0007338412    1.475    0.322
       494  -7.7159    139.2853     31.6436   4.4686233314e+01   4.5998383600e+01    0.1364031   0.09709767 -68.34 0.0007021125    1.672    0.402
       495  -8.9697     12.8843     29.9577   8.7763537445e+01   6.9249559184e+01    0.2850108    0.1626306 -56.63  0.001378922    2.282    0.562
       496  -8.2729     41.8465     29.8049   7.3175690044e+01   6.5954965551e+01    0.1535581    0.1426968  -0.22 0.0004409401    1.323    0.244
       497  -8.1141    101.4070     29.2535   5.2125084305e+01   5.4963303857e+01     0.172928    0.1221536 -40.59 0.0006101729    1.628    0.386
       498  -8.9436     81.5520     27.4450   5.7068707097e+01   5.9358526925e+01    0.2511078    0.1971858 -67.80 0.0008191705    1.988    0.497
       499  -8.9261      3.7247     27.6716   9.1957587632e+01   7.0350494435e+01    0.2106375     0.143565 -53.36 0.0007458745    1.632    0.387
       500  -7.7474    110.2523     27.6389   4.9382245293e+01   5.3181322957e+01    0.1265196   0.09948938 -64.81 0.0003363195    1.615    0.381
       501  -8.6800     91.8386     26.5377   5.3685433684e+01   5.7338935681e+01    0.2336195    0.1821854 -34.94 0.0006801088    1.457    0.313
       502  -8.2839    104.5095     23.0230   4.9112076407e+01   5.4971770811e+01    0.1705538    0.1026302 -53.80 0.0005947456    2.349    0.574
       503  -7.8667     34.4062     23.1667   7.3723542183e+01   6.7934243823e+01    0.1525385    0.1082605 -40.56 0.0004673356    1.678    0.404
       504  -8.8280     48.3128     21.4980   6.6664101416e+01   6.6115645985e+01    0.2077838    0.1854338 -21.67 0.0007277592    1.352    0.260
       505  -7.6846    120.7302     21.3334   4.4975776021e+01   5.1466839304e+01    0.1259581   0.09642971 -69.09 0.0004801877    1.590    0.371
       506  -8.9792     63.4415     20.6569   6.0345172786e+01   6.3629821813e+01    0.2513421     0.203566 -46.88  0.001152877    1.706    0.414
       507  -7.9756     19.5263     21.5086   8.0579349102e+01   6.9965717383e+01    0.1187586   0.09324386  -7.75 1.437315e-05    1.049    0.046
       508  -8.9969     74.1322     19.5650   5.6224123225e+01   6.1728815956e+01    0.2246213    0.1858676 -51.56 0.0006960447    1.662    0.398
       509  -8.1033     87.8342     17.7820   5.1425152452e+01   5.9126370660e+01    0.1569118    0.1483294  86.47 0.0004725672    1.308    0.235
       510  -8.2433     38.7277     18.2199   6.9401114863e+01   6.7994324532e+01    0.1660993    0.1406909 -27.42 0.0006429412    1.420    0.296
       511  -8.1373    112.5466     16.9667   4.5182887378e+01   5.3776232042e+01     0.166346    0.1283983 -21.45 0.0003411335    1.481    0.325
       512  -8.1340     30.3747     16.2513   7.2479874536e+01   6.9410482762e+01    0.1502885    0.1030849 -36.73  0.000626654    1.659    0.397
       513  -8.0614    191.5052    249.5166   8.4067110695e+01  -4.7193921725e+00    0.1230428    0.1029481  12.58 0.0002500614    1.107    0.097
       514  -8.1133     17.1990     14.1747   7.8440177129e+01   7.1280188806e+01     0.142046    0.1224478  -2.26 0.0003914198    1.307    0.235
       515  -7.8272    185.0246    250.0000   8.5434762806e+01  -3.9186909982e+00    0.2067222   0.06167084  33.18 0.0008044336    2.956    0.662
       516  -7.6366    119.7273     11.3515   4.1876146257e+01   5.2652728982e+01    0.1237509   0.09185253 -67.45 0.0006999814    1.634    0.388
       517  -7.6965     83.6687     11.2838   4.9992549347e+01   6.0622441420e+01    0.1148717   0.09671925 -86.73 0.0005980801    1.613    0.380
       518  -9.1218    175.5231    247.5550   8.6988476688e+01  -2.2180929707e+00    0.2829311     0.238849  72.56  0.001143918    1.944    0.486
       519  -8.8850    132.2471    247.9244   9.6147756924e+01   3.9543438249e+00    0.2813911    0.2046361  77.08 0.0007706525    2.091    0.522
       520  -8.4787    113.1297    248.6633   1.0034825877e+02   6.5856683498e+00    0.2093385    0.1697584 -82.13  0.001064995    1.508    0.337
       521  -9.3355    103.7887    246.8580   1.0214591667e+02   8.2604039263e+00    0.4402626     0.251875 -81.92  0.002054147    2.748    0.636
       522  -9.1207    243.0244    246.1911   7.3889729128e+01  -1.0604171606e+01    0.3792032     0.145844 -28.95  0.001854987    2.475    0.596
       523  -9.2308    233.1124    246.4293   7.5686039785e+01  -9.5046936103e+00    0.3962594    0.1578192 -31.72  0.001970242    2.351    0.575
       524  -8.9583    218.6501    246.6762   7.8379146105e+01  -7.8015266009e+00    0.3732566    0.1207247 -35.76  0.001618744    3.032    0.670
       525  -8.7026    156.2659    248.3320   9.1100525254e+01   3.9385483537e-01    0.2191726    0.1466919  38.76 0.0005535226    1.398    0.285
       526  -9.9504    223.8713    243.9963   7.6972129085e+01  -8.0597090686e+00    0.4667127    0.2167301 -45.98  0.002290012    2.769    0.639
       527  -9.0858    210.9379    246.4892   7.9805226371e+01  -6.8068918240e+00    0.1985789    0.1643401 -42.17 0.0007321711    1.619    0.382
