#   1 NUMBER                 Running object number                                     
#   2 MAG_AUTO               Kron-like elliptical aperture magnitude                    [mag]
#   3 X_IMAGE                Object position along x                                    [pixel]
#   4 Y_IMAGE                Object position along y                                    [pixel]
#   5 X_WORLD                Barycenter position along world x axis                     [deg]
#   6 Y_WORLD                Barycenter position along world y axis                     [deg]
#   7 A_WORLD                Profile RMS along major axis (world units)                 [deg]
#   8 B_WORLD                Profile RMS along minor axis (world units)                 [deg]
#   9 THETA_WORLD            Position angle (CCW/world-x)                               [deg]
#  10 FWHM_WORLD             FWHM assuming a gaussian core                              [deg]
#  11 ELONGATION             A_IMAGE/B_IMAGE                                           
#  12 ELLIPTICITY            1 - B_IMAGE/A_IMAGE                                       
         1 -11.8013      2.7269     20.7319   9.0442635743e+01   7.1711200322e+01    0.4019488    0.2451614   0.63  0.001315403    1.494    0.331
         2 -11.3408     45.8412     22.1316   6.8446785670e+01   6.6609677636e+01    0.4305338    0.2182065 -41.23  0.001442162    2.363    0.577
         3  -9.8272     14.7381      8.6627   7.7698644517e+01   7.2455265148e+01    0.4308032    0.2260744  29.86  0.002456492    1.857    0.461
         4 -12.0085     13.6470     15.2682   8.1579667560e+01   7.1643213227e+01    0.6292531    0.3753761 -56.30   0.00330278    3.124    0.680
         5 -11.8498    234.9600     15.0876   2.9543639363e+01   2.6660059792e+01     0.270149    0.1733321 -68.17 0.0003766563    1.282    0.220
         6 -11.4944     83.7831     14.8191   5.1625956767e+01   6.0479328294e+01    0.4569944    0.2390227  18.96 0.0007356568    2.667    0.625
         7 -11.8560     35.1370     12.5131   6.8817470100e+01   6.9406182942e+01    0.2831506    0.2528684  10.47 0.0007569829    1.334    0.251
         8 -11.8929     30.2174      7.3105   6.8608365408e+01   7.0713960002e+01    0.4257893    0.3435185   2.00   0.00306705    1.127    0.113
         9 -10.8365    172.2242     11.9877   3.4537501341e+01   4.0545566560e+01    0.1906649    0.1569914  88.83  0.000360245    1.033    0.032
        10 -11.1251    192.8912     11.6403   3.2299213274e+01   3.5896617092e+01    0.1850933    0.1692964 -33.33 0.0007959965    1.363    0.266
        11 -10.3322    134.8487     11.4889   3.9454049346e+01   4.9327013361e+01    0.1881815     0.180369 -26.13 0.0002654064    1.222    0.182
        12 -11.7408    129.1791     10.7017   4.0140944229e+01   5.0722534202e+01    0.4284527    0.2064341  57.03  0.002119377    1.715    0.417
        13  -9.7516     70.0837     10.8838   5.4126552578e+01   6.3614657831e+01    0.2863846    0.1130065  33.08  0.001183521    2.849    0.649
        14 -11.9905    216.8025      8.5231   2.9576305960e+01   3.1066382003e+01     0.332502    0.1787717 -38.32  0.001944871    1.815    0.449
        15 -10.9157     45.3467      9.8773   6.2885988479e+01   6.8148837527e+01    0.2102543    0.1624414  18.37 0.0002179906    1.027    0.026
        16 -10.7495     22.5242      9.3159   7.3656395746e+01   7.1476153975e+01    0.2762836    0.1531378  14.08  0.001014851    1.736    0.424
        17 -10.8369      2.7922      6.7812   8.4038970248e+01   7.3856249095e+01    0.2441938    0.1757685  10.59  0.001016015    1.296    0.229
        18 -11.0650    224.2975      8.4258   2.8999437284e+01   2.9531363998e+01    0.3276045    0.1026704 -58.97  0.001342639    3.441    0.709
        19  -9.8691    246.1826      7.5599   2.7376992518e+01   2.5320466388e+01    0.2315241    0.1773299   5.42  0.001466354    2.708    0.631
        20  -9.8949     40.5616      7.5591   6.3832080244e+01   6.9159207767e+01    0.2431626    0.1252062  31.61  0.001088405    1.682    0.405
        21 -10.2432     37.2774      5.8591   6.4463314937e+01   6.9847067656e+01    0.2001282    0.1936499  42.07  0.001028534    1.646    0.393
        22 -10.1560    165.4693      7.4967   3.4158566409e+01   4.2535836900e+01    0.1241586    0.1047234  80.81 8.409962e-05    1.034    0.033
        23  -9.7509     98.1383      7.1731   4.4995088886e+01   5.8089217168e+01    0.1863731    0.1385062  42.76 0.0003373176    1.166    0.142
        24  -9.6732     92.9027      6.7445   4.6052302983e+01   5.9267721407e+01    0.1672954    0.1349569  54.05 0.0003314369    1.093    0.085
        25 -10.1245    188.3359      6.3363   3.1502241026e+01   3.7442158371e+01    0.1185147   0.08410691  46.57 0.0007051832    1.747    0.428
        26 -11.0064    150.7271      5.7546   3.5488282257e+01   4.6119873545e+01    0.2578811      0.17229 -73.87 0.0007131912    1.593    0.372
        27  -9.6413     70.2000      6.0065   5.1957279344e+01   6.4035767489e+01    0.2075137    0.1160136  20.67  0.001079855    1.987    0.497
        28 -10.4288    104.4490      4.1916   4.2541270900e+01   5.6928182970e+01    0.2106554    0.1893917  84.66 0.0008923555    1.228    0.186
        29  -9.6337    120.3301      4.3097   3.9594227109e+01   5.3311061619e+01    0.1326033   0.07892389  41.46 0.0007041317    1.666    0.400
        30  -9.7424     75.1754      3.7278   4.9481200624e+01   6.3233640968e+01    0.1751378    0.1114703  36.27 0.0005701411    1.341    0.254
        31 -10.5075    199.8555      2.8824   2.9716969232e+01   3.5242962057e+01    0.1662523    0.1449933  79.04 0.0003562206    1.222    0.182
        32 -10.0924     59.0883      3.1818   5.4339121508e+01   6.6403666319e+01    0.2554125    0.1617179  74.68  0.001243063    3.085    0.676
        33 -11.8178     20.5459      2.1244   7.0942590365e+01   7.2589953190e+01    0.2650648    0.1544622  23.15 0.0004505265    1.456    0.313
        34 -10.4253    237.8744      2.1419   2.6883230842e+01   2.7489538519e+01    0.1369106    0.1158801  85.55 0.0003697069    1.303    0.233
        35 -11.5262    117.3287      8.7462   4.1605103580e+01   5.3635755212e+01    0.3789353    0.2749233 -87.88  0.000992237    1.589    0.371
        36 -10.2005    162.9874      2.4935   3.3139034925e+01   4.3557903809e+01    0.1793092   0.08772398 -80.44 0.0008097623    2.474    0.596
        37 -10.6410     80.1227      1.6237   4.7226810470e+01   6.2385102454e+01    0.2477248    0.1173659  50.60  0.001171683    1.663    0.399
        38  -9.6566      1.2935      1.7303   8.2405629297e+01   7.4685253539e+01    0.1483369   0.07620604 -31.53 0.0009200294    1.632    0.387
        39 -10.4675    204.3913      1.4437   2.9044880238e+01   3.4405146662e+01    0.2276815   0.09784508  77.20 0.0005225039    2.044    0.511
        40  -9.5818    132.1633     20.7943   4.2793869375e+01   4.9056865832e+01    0.1777393    0.1383711  41.94 0.0005035381    1.295    0.228
        41 -10.7834     26.8986    250.2468   1.1863322079e+02   1.7236021593e+01    0.3549386   0.08299179  41.16  0.001540721    2.898    0.655
        42 -11.8059     18.0700    249.0304   1.2024771967e+02   1.8403503409e+01    0.3044171      0.25708 -34.24  0.002156992    1.834    0.455
        43 -12.5241      4.2369    232.8431   1.2204677422e+02   2.3063613646e+01    0.3861333    0.2517479  81.61  0.002542431    1.257    0.205
        44 -11.9388      1.8413    247.3657   1.2318188378e+02   2.0319408652e+01    0.9253918    0.1517995 -79.95  0.003081047    6.059    0.835
        45 -13.0738     10.7774    243.5130   1.2133670294e+02   2.0242271505e+01    0.7860646    0.3390896 -88.75  0.004157832    2.203    0.546
        46  -9.9230     29.0502    163.3390   1.1088756399e+02   3.7118655815e+01     0.176249    0.1603607  70.91 0.0003432124    1.118    0.106
        47 -10.4318      4.0738    153.7501   1.1670268646e+02   4.1570629758e+01    0.3481253    0.1074675  35.50  0.001442699    3.172    0.685
        48  -9.3840     27.3691    147.1969   1.0938776323e+02   4.1426912129e+01    0.1877477    0.1165478 -81.24  0.000361345    1.530    0.346
        49  -9.7971    236.1164    138.6902   5.5097653393e+01   7.6169409170e+00    0.1807747    0.1642324 -21.29 0.0007689953    1.119    0.106
        50 -10.1263    212.5081    133.9344   5.8013986047e+01   1.2696027241e+01    0.2385338    0.2007599  77.94 0.0005802168    1.513    0.339
        51 -10.0251     96.0266    133.7214   8.5904310552e+01   3.5866697509e+01    0.2148038    0.2088562  11.39 0.0006114512    1.062    0.059
        52  -9.7981      4.3210    134.3418   1.1468260715e+02   4.6438492939e+01    0.1398916   0.07784238 -47.50 0.0007050193    1.722    0.419
        53 -10.4817     12.5689    129.7183   1.1161439010e+02   4.7078803367e+01    0.2640073    0.1031441 -66.74  0.001130216    2.017    0.504
        54 -10.7998     28.4835    128.0878   1.0631759761e+02   4.6257770953e+01    0.2191702    0.2041457   7.96 0.0003304541    1.238    0.192
        55  -9.9243     47.2976    127.0951   9.9995602988e+01   4.4627760762e+01    0.2195008    0.1930309  -8.77 0.0002937314    1.266    0.210
        56  -9.9180     38.0018    127.2157   1.0307196909e+02   4.5587984095e+01    0.1671561    0.1168922  22.44 0.0003481808    1.620    0.383
        57 -11.0746     24.1866    122.0029   1.0676851501e+02   4.8176455090e+01    0.2119398    0.2029776   7.53  0.001342603    1.208    0.172
        58 -11.4300     10.3822    121.1920   1.1118655208e+02   4.9378765074e+01      0.34504    0.2225109 -24.09  0.001850697    1.829    0.453
        59  -9.6142     75.9103    120.9390   8.9268908531e+01   4.2379391121e+01    0.2186534    0.1881373 -30.45            0    1.171    0.146
        60 -10.3238     69.4655    116.7041   9.0416057558e+01   4.4403012498e+01    0.3433783    0.2404443 -13.33  0.001113553    1.837    0.456
        61 -11.1867      1.9636    113.8252   1.1297136851e+02   5.1701642770e+01    0.2678497    0.1468252 -66.63            0    1.440    0.305
        62 -10.6789     45.4199    110.8455   9.7400041661e+01   4.8965263378e+01    0.2302234    0.2251677  -1.44 0.0003062551    1.125    0.111
        63  -9.9279     22.2345    109.6471   1.0538110113e+02   5.1445967171e+01    0.1641161    0.1245571  -7.31 0.0002683146    1.515    0.340
        64 -10.8014     13.1352    108.8963   1.0845336652e+02   5.2277239817e+01    0.1966192    0.1677094 -85.27  0.000616482    1.212    0.175
        65 -10.5926      1.4292    104.2786   1.1185280103e+02   5.4074811244e+01    0.2515498   0.09344067 -65.01 0.0008730976    2.013    0.503
        66 -11.3027     17.8063    104.3393   1.0603121031e+02   5.3088443081e+01    0.3501793    0.1601572 -11.73  0.001182275    3.389    0.705
        67  -9.7207     94.6613    102.5340   7.8485219898e+01   4.3627266382e+01     0.200725    0.1475567  47.96 0.0009304737    1.478    0.323
        68  -9.9274    246.5362    101.5380   4.5897367101e+01   1.2203902686e+01    0.1296817    0.1073775 -45.89 0.0003156241    1.037    0.036
        69  -9.6723    159.7042    100.9957   6.0499045812e+01   3.0203817546e+01    0.2099766    0.1847368 -45.49 0.0002206217    1.105    0.095
        70  -9.0253     91.7445     99.7586   7.8651577574e+01   4.4793426482e+01    0.1421521    0.1141066 -10.06            0    1.411    0.291
        71 -10.1862     62.5168     98.4694   8.8338131484e+01   4.9830391687e+01    0.1482242    0.1321559 -30.28 -2.494514e-05    1.038    0.037
        72 -12.1704     19.8131     93.4099   1.0322508580e+02   5.5600979063e+01    0.5764737    0.3066643 -26.26 0.0008335708    2.125    0.529
        73  -9.3405      3.6841     96.3213   1.0983766328e+02   5.5891561211e+01    0.1233275    0.0914163  70.38 0.0003049268    1.660    0.398
        74  -9.7099     67.2138     94.9657   8.5711557071e+01   4.9968226495e+01    0.1999966    0.1761387 -34.48 0.0002392281    1.046    0.044
        75 -11.9351    125.2196     93.3121   6.6824486620e+01   3.9439279700e+01    0.2759233    0.2655024  45.52 0.0002183353    1.051    0.049
        76 -11.5548      7.6994     91.5168   1.0751455258e+02   5.6830125730e+01    0.3654362    0.2567344  30.18 0.0005351254    1.704    0.413
        77 -11.3574     57.9146     91.4890   8.8171149497e+01   5.2093379006e+01    0.3633171    0.2176246 -26.27 0.0009013106    1.968    0.492
        78  -9.7873     28.9010     91.9010   9.9390166938e+01   5.5230801458e+01    0.2296301    0.1706804  22.19  0.001005946    1.501    0.334
        79 -10.7472     65.1286     89.6794   8.5000527455e+01   5.1484490735e+01    0.3821755    0.2397063 -68.24  0.001639416    2.210    0.548
        80 -10.1004     24.0299     87.4786   1.0031579964e+02   5.6683860055e+01    0.3389243    0.1318124 -46.10   0.00144061    2.125    0.529
        81 -11.4446     10.6550     86.2351   1.0537245195e+02   5.7909089533e+01    0.4421151    0.2478879 -77.65  0.001366554    1.986    0.496
        82 -10.9050      7.0292     85.3503   1.0663985260e+02   5.8322080893e+01    0.3113295    0.1870127 -49.96 0.0008851283    1.320    0.242
        83  -9.3575    124.4529     86.4774   6.5042730284e+01   4.0980374278e+01     0.150071    0.1470407   5.76 0.0001499655    1.009    0.009
        84 -10.0971     69.5646     83.2330   8.1496223195e+01   5.2231944328e+01     0.246944    0.1881916  27.05 3.222806e-05    1.339    0.253
        85  -9.9040     89.8151     80.8535   7.3694978736e+01   4.9227279019e+01    0.2405349    0.2063443  69.40 0.0002552194    1.483    0.326
        86  -9.6007     86.1463     78.8379   7.4290886723e+01   5.0318533850e+01    0.2472128    0.1881384  42.42 0.0004508938    1.362    0.266
        87  -9.4635    250.3308     80.7108   4.1203598799e+01   1.4849123265e+01    0.1282826   0.08147458 -65.51 0.0006004732    1.623    0.384
        88  -9.3831    124.3818     79.2053   6.2893615589e+01   4.2394221150e+01    0.1937142    0.1398457 -50.53 0.0002844028    1.486    0.327
        89  -9.4768     80.3731     79.2235   7.6396339484e+01   5.1277308265e+01    0.1981879    0.1359051 -53.21 0.0009325584    1.610    0.379
        90 -11.1921     48.9105     78.6850   8.8056265236e+01   5.6141725039e+01    0.4480708    0.2349598  12.51  0.001010992    2.487    0.598
        91 -12.0017     55.1633     74.9748   8.4462713009e+01   5.6120280687e+01    0.3713959    0.2833586  31.37  0.002030234    1.387    0.279
        92  -9.6017     31.1948     79.1331   9.5393196483e+01   5.7980835742e+01    0.1593201    0.1546298  40.32 0.0005200719    1.270    0.213
        93 -11.9235      5.4652     75.8820   1.0539694170e+02   6.0586450117e+01    0.3416235    0.3153168  43.04  0.002353551    1.379    0.275
        94 -10.1607    176.8298     76.8304   5.0711533455e+01   3.0752786921e+01    0.2123262    0.2030855  23.42  0.001068428    1.202    0.168
        95  -9.7157    159.5837     77.1525   5.4095409143e+01   3.4686334013e+01    0.2332796    0.1738604  49.81 0.0006171988    1.354    0.261
        96 -10.1761     22.0557     76.0570   9.8432403055e+01   5.9463163665e+01    0.1923154    0.1566773  77.35  0.001121364    1.706    0.414
        97  -9.4999     32.9366     73.4726   9.3142665271e+01   5.9069068575e+01    0.1807332    0.1275667  16.43 0.0004807215    1.498    0.332
        98 -10.4714     36.8062     73.8394   9.1615938133e+01   5.8593838389e+01     0.347285    0.1978717 -60.56   0.00166298    1.885    0.469
        99 -11.0674     15.9274     75.2436   1.0083295884e+02   6.0099303452e+01    0.3648705    0.1648464  20.12  0.001737556    2.424    0.588
       100  -9.6232    174.9918     72.4820   4.9906020984e+01   3.1904169676e+01    0.2047128    0.1385421  62.56 0.0004197709    1.493    0.330
       101 -12.4475    105.8649     71.1357   6.5560809927e+01   4.7903935404e+01    0.3256531    0.2841155  71.41 0.0004921278    1.362    0.266
       102  -9.3766    129.4508     70.4586   5.8938605539e+01   4.2832947874e+01    0.1470699       0.1392  26.17 0.0008062203    1.068    0.064
       103  -9.3499    100.2714     70.6003   6.7075310373e+01   4.9163303611e+01    0.1457208    0.1165221 -74.31 0.0006981829    1.744    0.426
       104 -10.1260     45.4238     69.5705   8.6742650067e+01   5.8520991164e+01    0.2417473    0.1872983  12.94 0.0008894666    1.300    0.231
       105 -10.1664     80.9271     67.6648   7.2448929740e+01   5.3457962033e+01    0.2797739    0.1779636 -40.97  0.001043904    1.571    0.364
       106 -12.1611      6.2429     66.1477   1.0290303570e+02   6.2711716706e+01    0.8887165    0.3259676 -40.92  0.004064284    2.209    0.547
       107 -13.2530     20.8060     58.3090   9.4140768244e+01   6.3380777116e+01    0.4242739    0.2776646 -37.37 0.0006542576    1.262    0.208
       108 -10.4244     15.0618     63.3107   9.8206275350e+01   6.2773837945e+01    0.2933296    0.1958455   5.14  0.001621478    1.579    0.367
       109 -11.0886     12.0490     59.6433   9.8600282123e+01   6.3755388754e+01    0.3035559      0.17957  18.82 0.0009832184    1.839    0.456
       110 -10.2653     51.2670     66.4688   8.3340770473e+01   5.8405717383e+01    0.2892884    0.1739241 -23.89 0.0009023783    1.830    0.454
       111  -9.6788     16.3158     67.6620   9.8790061326e+01   6.1748739391e+01    0.1177328   0.09833959  71.05 0.0007047972    1.700    0.412
       112  -9.4997    168.0285     65.7487   4.9365794665e+01   3.4616631413e+01    0.1907665    0.1730009  71.54  0.001085122    1.073    0.068
       113 -11.6557     97.1661     63.7579   6.5772000910e+01   5.1027777418e+01    0.4069581    0.2572613  28.35  0.000385092    1.758    0.431
       114 -10.3692     62.6223     62.3608   7.7406520537e+01   5.7557667454e+01    0.3508232    0.1558556 -45.12  0.001471114    2.224    0.550
       115  -9.6340    138.6962     63.0481   5.4509392153e+01   4.1938958971e+01    0.1921673    0.1833789 -27.48 0.0002232471    1.105    0.095
       116  -9.8260     38.9135     61.6667   8.7012235906e+01   6.0911497356e+01     0.184293    0.1553879  -1.01 0.0006399847    1.125    0.111
       117  -9.3891     65.7894     63.6595   7.6627702096e+01   5.6809866883e+01    0.2632546    0.1559551  40.10 0.0002639108    1.762    0.432
       118  -9.4207    145.2139     59.4035   5.2013374305e+01   4.0986177601e+01    0.1935112    0.1334271  70.23 0.0001212344    1.560    0.359
       119  -9.7902     48.7705     58.6424   8.1755726626e+01   6.0277930822e+01    0.1938855    0.1554869 -27.99  0.001135441    1.119    0.107
       120 -13.8470    114.5476     53.1096   5.7221894816e+01   4.9037682274e+01    0.4318985    0.3947148  39.43 0.0008084502    1.022    0.022
       121 -11.6726    119.0974     48.0079   5.4380590431e+01   4.8764138622e+01    0.5342854    0.3447722 -52.99  0.002530362    1.910    0.476
       122 -10.1765     71.7705     56.5949   7.1893132851e+01   5.7098894910e+01    0.2251043     0.170847 -34.12 0.0004948735    1.308    0.235
       123 -11.0981     32.8078     55.9388   8.7855569158e+01   6.2722945144e+01    0.2714504     0.171005 -29.73  0.000482091    1.435    0.303
       124 -10.3331      6.1656     56.7546   1.0058807179e+02   6.4722044089e+01    0.3008707    0.1495595 -19.99 0.0008927433    2.093    0.522
       125  -9.8481     96.5078     55.4736   6.3141840043e+01   5.2559004537e+01    0.1427696    0.1291389  19.16 3.423438e-05    1.031    0.030
       126 -11.9727     86.8459     54.1460   6.5743871630e+01   5.4721509196e+01    0.4216985    0.2878685  27.24 0.0008324568    1.499    0.333
       127 -12.0403     66.8363     52.7984   7.2366383609e+01   5.8600847442e+01    0.3996344    0.2094546  33.81  0.001418028    1.870    0.465
       128 -10.1391    149.0730     52.2205   4.9129190357e+01   4.1152413633e+01    0.2462218     0.180526  65.86 0.0005235996    1.320    0.243
       129 -12.0014    106.0421     50.5058   5.8637610323e+01   5.1309738732e+01    0.2653906    0.2348482   0.73 0.0003152918    1.170    0.145
       130 -10.1423     37.7850     49.3958   8.3308865669e+01   6.3403839334e+01    0.3747513    0.2133199  -8.37  0.001767957    2.220    0.550
       131 -10.3595     16.3039     49.9911   9.3719240147e+01   6.5413954307e+01    0.2270908    0.1727131  14.66   0.00101731    1.395    0.283
       132  -9.5129      4.0000     51.0198   1.0007594225e+02   6.6024689834e+01     0.191243    0.1257342 -48.31 0.0005586504    1.232    0.188
       133 -10.8442      9.4392     47.8732   9.6454446715e+01   6.6326765406e+01    0.3977494    0.2537811   5.97  0.002407444    1.596    0.374
       134  -9.5957     76.1977     49.4208   6.7664839614e+01   5.7512209443e+01    0.1819673    0.1262409  50.62 0.0009293993    1.626    0.385
       135  -8.8598     58.0000     48.9855   7.4423713120e+01   6.0685193320e+01    0.2117022   0.07195951 -41.76  0.000798317    2.914    0.657
       136 -10.9159    137.6642     46.9018   4.9832378176e+01   4.4606476174e+01    0.3485665     0.239366  51.49  0.001197932    1.361    0.265
       137  -9.9845     52.9219     48.0591   7.6169629363e+01   6.1615263947e+01    0.2508041    0.1676925  21.62  0.001360062    1.452    0.311
       138  -9.1554    154.7293     47.3595   4.6669070353e+01   4.0499650416e+01    0.1427167    0.1001232 -66.99 0.0006998017    1.647    0.393
       139 -10.5495     68.9520     46.8554   6.9341640010e+01   5.9224040748e+01    0.2391184    0.1640374  34.18 0.0003308365    1.374    0.272
       140  -9.3590    241.6972     45.2944   3.4957363067e+01   2.1603701051e+01    0.1256597   0.07385856 -65.08 0.0001997259    1.576    0.365
       141 -11.1452     24.2275     42.5226   8.7252533405e+01   6.6132840325e+01    0.5614365    0.2942741  43.29  0.002662591    2.969    0.663
       142 -10.5058     22.1409     38.0557   8.6634583955e+01   6.7135843648e+01    0.2112524      0.16495 -17.65 0.0008612334    1.015    0.015
       143 -10.3964     19.2420     44.9697   9.0601964928e+01   6.6139435066e+01    0.2960908    0.1715628  -1.31  0.001190369    1.822    0.451
       144 -10.9470     15.5863     42.7786   9.1687303098e+01   6.6857120539e+01    0.2657383     0.186761 -45.71 0.0009113023    1.320    0.242
       145 -10.4856     94.2210     43.4184   5.9546579200e+01   5.4870979596e+01    0.3082373    0.1952062  24.74 0.0008249044    1.817    0.450
       146 -10.5246      2.9978     42.8791   9.8203961771e+01   6.7700122016e+01    0.3276147    0.1624692 -33.98  0.001642799    1.646    0.393
       147 -10.0910    184.0719     41.4514   4.0497928199e+01   3.4410040042e+01    0.2917097    0.1847661 -72.61  0.001002554    1.752    0.429
       148 -10.2087     38.7672     35.4141   7.7443185974e+01   6.5685042258e+01    0.3114933    0.1531905  20.46 0.0008893638    2.215    0.548
       149 -11.1249     39.5532     31.9041   7.5608459639e+01   6.6130171642e+01    0.3058074    0.2426338  17.66 0.0008401251    1.178    0.151
       150 -10.1585    170.7500     40.4763   4.2141737103e+01   3.7635400252e+01    0.2382765    0.1908408  71.35 0.0006967994    1.156    0.135
       151 -10.1631     79.1022     45.8004   6.5295408960e+01   5.7537608139e+01    0.1876767    0.1781757  35.86 0.0003237162    1.200    0.167
       152 -10.1695     58.6520     41.5344   7.1277783295e+01   6.1801120545e+01    0.3091744    0.1203921  41.23  0.001287297    2.544    0.607
       153  -9.4950    204.8470     39.8057   3.7527996102e+01   2.9954169799e+01    0.1761347    0.1269055 -69.45 0.0003023574    1.284    0.221
       154 -10.3466    137.7934     40.0215   4.7696778161e+01   4.5499030769e+01    0.3531228    0.1918275  73.81  0.001515751    2.208    0.547
       155  -8.9753     99.3393     40.2768   5.6919397517e+01   5.4224195263e+01    0.1422876   0.09622968  25.91 0.0003934653    1.616    0.381
       156  -9.0175     89.6802     40.7102   5.9932245755e+01   5.6192641942e+01    0.1403302   0.09657915  20.28 0.0007008145    1.601    0.375
       157 -10.0981     43.6939     40.5373   7.7259178295e+01   6.4193912909e+01    0.2351322    0.1164232  30.89 0.0008683416    1.965    0.491
       158  -9.5593     11.7703     40.1798   9.2755005736e+01   6.7639688578e+01    0.1710082    0.1103861 -23.87 0.0004959769    1.308    0.236
       159  -9.8914    128.1517     38.7149   4.9275388810e+01   4.7932962186e+01    0.1919626     0.173155  81.59 0.0004215125    1.147    0.128
       160 -11.7095    121.2795     37.1784   5.0289118574e+01   4.9724039888e+01    0.3553783    0.3404656   2.27 0.0009499399    1.125    0.111
       161  -9.5178    212.6014     37.7726   3.6222266970e+01   2.8537676139e+01    0.1664948    0.1008269 -49.96 0.0002271941    1.474    0.321
       162  -8.8083    239.2894     37.3447   3.3584440521e+01   2.3118389742e+01    0.1022392   0.09479867  15.73 0.0007024692    1.654    0.396
       163 -10.7959     36.4224     41.2413   8.0876242655e+01   6.5016110013e+01    0.3595743    0.1822431 -41.61  0.001423715    1.849    0.459
       164 -11.2716     27.3335     34.6502   8.2674467906e+01   6.7185702313e+01    0.2888218    0.1718527 -15.17 0.0008817896    1.696    0.410
       165 -10.9765      3.2058     35.4196   9.5684946215e+01   6.9104353746e+01    0.2793434    0.2351542  86.54  0.001865187    1.982    0.496
       166 -10.6818      6.7278     33.9959   9.3267736210e+01   6.9137199978e+01      0.32109    0.2309684  22.09  0.002129224    1.579    0.367
       167 -10.0320    133.3590     34.8403   4.6971568699e+01   4.7196572373e+01    0.2416829    0.1422488  38.37 0.0007563117    1.903    0.474
       168 -10.7988     90.3756     32.0339   5.6458101143e+01   5.7195961913e+01    0.4896683     0.370885 -63.23   0.00196381    1.949    0.487
       169 -10.5061     45.8739     33.3393   7.3338768402e+01   6.5025428202e+01    0.2494743    0.1913214  38.72    0.0015224    1.495    0.331
       170 -10.5719    127.2396     31.2643   4.7072404751e+01   4.9060034083e+01    0.3003149    0.2706861 -21.52  0.001743935    1.241    0.194
       171 -12.1205     73.0155     31.6915   6.1899902438e+01   6.0695878245e+01     0.303164    0.2757418  70.72 0.0003868674    1.488    0.328
       172 -10.0774     68.9282     25.9456   6.0970485798e+01   6.2191903700e+01    0.2347914    0.1764988  12.68 0.0008274611    1.270    0.212
       173  -8.9629     55.3314     33.3526   6.9299991291e+01   6.3571322428e+01     0.138632   0.08859012   4.12 0.0007046522    1.779    0.438
       174 -10.9669    144.0944     31.2080   4.3854751562e+01   4.5093297154e+01    0.2572546    0.1929137 -48.36 0.0006738825    1.431    0.301
       175  -9.0428    140.4730     27.1728   4.3280283027e+01   4.6413569697e+01    0.3326379    0.2064735 -81.64  0.001571128    2.152    0.535
       176 -10.1298     18.3897     32.0407   8.6240870958e+01   6.8534473844e+01    0.3359514    0.1448651   5.02  0.001382797    3.463    0.711
       177 -11.7808      9.9102     29.8910   8.9987478634e+01   6.9630957557e+01    0.3713799    0.2575622  41.12  0.001540741    2.172    0.540
       178 -10.5552      3.0809     26.7828   9.2641849886e+01   7.0662155890e+01    0.2228005     0.151991 -22.01 0.0003647617    1.145    0.126
       179  -9.5977    229.9469    247.7278   7.6717444762e+01  -9.4625068249e+00    0.1622881    0.1238568   3.60  0.000487014    1.067    0.063
       180  -9.3365     33.0542     31.1835   7.8405052772e+01   6.7081716604e+01    0.2104468    0.1186314   1.40  0.001046715    2.129    0.530
       181 -10.5360    135.6881     29.3433   4.4810497919e+01   4.7298372246e+01    0.2296782    0.1950621  49.44  0.000456842    1.129    0.115
       182 -10.1752    164.9874     28.4903   3.9779775326e+01   4.0464342801e+01    0.1986977     0.117102  67.98 0.0004279189    1.533    0.348
       183 -10.2343     94.0939     27.2985   5.3601368640e+01   5.6979311027e+01    0.1796203    0.1584598  40.59 0.0004981892    1.046    0.044
       184  -9.6172     59.5122     25.4236   6.4248163183e+01   6.3949521220e+01    0.2212905    0.1786177 -65.04 0.0007466145    2.173    0.540
       185 -10.1266    225.0379    247.2159   7.7534088448e+01  -8.8045525940e+00    0.2118491    0.1463212 -22.94   0.00137188    1.292    0.226
       186  -9.1845    124.3044     23.2993   4.5080535542e+01   5.0633206303e+01    0.1345744   0.09042786  35.95  0.000386426    1.589    0.370
       187  -9.5489    120.1920     22.7831   4.5741232141e+01   5.1641381849e+01    0.1744079    0.1374756  35.61 0.0003258091    1.282    0.220
       188 -10.2435     77.5302     22.5520   5.6662119616e+01   6.0936952600e+01    0.2101421    0.1583173  52.99 5.234295e-05    1.354    0.261
       189 -10.5517     74.3510     21.6618   5.7325177296e+01   6.1662567931e+01    0.2182042    0.1840456 -88.26  0.001261979    1.828    0.453
       190 -10.4672     74.7040     18.6521   5.5953499403e+01   6.1924209285e+01    0.2431656    0.1655031   6.71 0.0006111458    1.606    0.377
       191 -10.7293    228.4866     21.7093   3.1349949976e+01   2.7196356141e+01     0.355054    0.2039671  71.69  0.001769136    1.681    0.405
       192 -10.1828     98.7048     21.6188   5.0249451990e+01   5.6609001018e+01    0.5046782    0.1371421  48.79   0.00153604    2.948    0.661
       193  -9.4063     54.7607     21.9869   6.4620671954e+01   6.5192140307e+01    0.1717041    0.1361532  17.56 0.0006686774    1.046    0.044
       194  -9.1951     35.3078     22.2980   7.3389231455e+01   6.8108008295e+01    0.1254112   0.07933239   0.08 0.0001992476    1.593    0.372
       195  -9.6673    170.8438    246.8950   8.8139683939e+01  -1.5690764258e+00    0.2010311    0.1513857   2.40 0.0008683309    1.291    0.225
       196 -11.1738     14.2178     21.2233   8.3978738572e+01   7.0688204142e+01    0.3754643    0.2425629  25.04  0.001636019    1.606    0.377
       197 -10.8540     20.0523     18.1915   7.9351452323e+01   7.0553337889e+01    0.2779111    0.1430148 -26.91  0.001393663    1.789    0.441
       198  -9.5049    116.1330    246.7705   9.9783591520e+01   6.4210449374e+00    0.1668125    0.1448397   1.85  0.001043164    1.294    0.227
       199  -9.9630     84.5036     20.5405   5.3712890045e+01   5.9745824714e+01    0.2058884    0.1205154  -7.46  0.000753261    2.152    0.535
       200 -10.0805     30.6053     20.7823   7.5011702536e+01   6.8936439885e+01    0.2501853     0.155016  -2.42 0.0009882385    1.622    0.384
       201  -9.8962     39.2124     19.4972   7.0237428989e+01   6.7941440791e+01    0.2958864    0.2022591  55.78  0.001588246    2.627    0.619
       202 -10.0917     60.8896     18.7074   6.0778454037e+01   6.4517763660e+01    0.3258605    0.1322386  40.23  0.001489711    2.153    0.535
       203  -9.6662     33.5429    247.4283   1.1716292554e+02   1.7076918142e+01    0.1184003   0.09356127  63.65  6.09029e-05    1.007    0.007
       204 -11.3878    202.8682     16.3720   3.2432382145e+01   3.3197546386e+01     0.259363    0.1591799 -74.40 0.0009609009    1.537    0.349
       205  -9.9194    125.0818     17.2638   4.2966401117e+01   5.1065696478e+01    0.1777708    0.1477595  65.70  0.000283657    1.070    0.066
       206  -9.7842     26.8427     16.8578   7.5090412756e+01   6.9952227972e+01     0.182713    0.1265125   2.20 0.0004975297    1.231    0.188
       207  -9.0094     86.6408    245.2791   1.0598406936e+02   1.0887872327e+01    0.1358777   0.08194479  56.99 0.0007012298    1.665    0.399
       208  -9.8340    168.7349     14.9797   3.5714509742e+01   4.1053262655e+01    0.1666321    0.1500569 -83.37 0.0003735626    1.084    0.077
       209  -9.6880    154.9693     15.4907   3.7630329188e+01   4.4219443299e+01    0.1885508   0.09774131 -83.98 0.0008101555    2.575    0.612
       210  -9.5298     39.6349    243.3279   1.1566430917e+02   1.7227001911e+01    0.1358216   0.06927129  60.37 0.0007037609    1.805    0.446
       211  -9.1516     60.9264    241.0000   1.1106309422e+02   1.5149760951e+01    0.1945208   0.06351206  32.79 0.0005201821    2.798    0.643
       212  -9.3778      6.8615     14.7379   8.5337163679e+01   7.2342660029e+01     0.199521   0.08922821 -14.95 0.0009365104    2.778    0.640
       213 -11.1260    208.0128     13.0190   3.1238204885e+01   3.2448136615e+01    0.1836122    0.1459855 -75.78 0.0003851694    1.023    0.022
       214  -9.7111    149.0000    238.0334   9.1450517034e+01   3.1714179831e+00    0.1994747   0.07582965 -50.33 0.0008037286    2.951    0.661
       215  -9.4189     89.5186     13.4471   4.9509689631e+01   5.9404508695e+01    0.1269748    0.1080524  42.77  0.000273367    1.032    0.031
       216  -9.5165     72.3586     13.3200   5.4447667550e+01   6.2933773373e+01    0.1373456   0.07908018  26.78 0.0005989809    1.764    0.433
       217 -11.0215     24.9161    236.1391   1.1814928085e+02   2.0337095489e+01     0.193307    0.1260844  61.31 0.0003364968    1.275    0.216
       218  -9.3449     49.5412    235.5377   1.1300772561e+02   1.7695086710e+01    0.1246535    0.1043061  64.48 0.0002378249    1.009    0.009
       219  -9.5222    249.4766    233.5367   7.0894676677e+01  -9.7534307571e+00    0.1190027   0.08880419  -9.26 0.0001526774    1.009    0.009
       220 -11.5141     10.7327    231.8143   1.2072191866e+02   2.2672699802e+01    0.2788071    0.1339583  51.49 0.0008087133    1.725    0.420
       221 -11.7142     10.1579    227.2079   1.2057836417e+02   2.3710505868e+01    0.2399626    0.2112499  46.01  0.001749742    1.301    0.231
       222  -9.1797     97.3245     10.6714   4.6494549519e+01   5.7969193788e+01    0.1215034    0.0956247 -75.06 0.0007049832    1.698    0.411
       223 -10.1164     56.8845    229.8226   1.1092330053e+02   1.8023751497e+01    0.1736956    0.1670695  80.18 0.0004675283    1.192    0.161
       224  -9.3750     47.8151    229.8575   1.1289991033e+02   1.9120061705e+01    0.1730063     0.120099  62.77  0.001016871    1.283    0.221
       225  -8.9636    243.0264    230.0000   7.1409577425e+01  -8.5039704389e+00    0.1743901   0.06154905  32.07 0.0007914813    2.867    0.651
       226  -9.8424    209.4940    229.5285   7.7528711375e+01  -4.1569508464e+00    0.1285198    0.1047381  -1.61 2.167629e-05    1.011    0.010
       227 -10.7956    140.1245    228.0422   9.1914360883e+01   6.4125402210e+00    0.3099901    0.2057048 -67.33  0.001533793    2.066    0.516
       228  -9.9034    223.1768    226.8263   7.4454249745e+01  -5.5580545336e+00    0.1749655    0.1214596  -6.67 0.0003520061    1.302    0.232
       229 -11.0482      2.6503    220.2942   1.2170927727e+02   2.5892831769e+01    0.2350441    0.1428912  89.45    0.0014434    1.381    0.276
       230 -11.6882      6.1206    250.1413   1.2252582780e+02   1.9366213989e+01     0.372085    0.1964053 -73.51  0.002300564    1.846    0.458
       231 -10.9492      1.4987    224.4840   1.2215895511e+02   2.5086039405e+01    0.1993475   0.09629206 -83.05  1.37169e-05    1.794    0.443
       232  -9.1855    167.3024    221.6649   8.4883182972e+01   3.3926501183e+00    0.1281568    0.1085042  67.62 0.0007036664    1.661    0.398
       233  -9.0756    114.4547    221.5012   9.6820635892e+01   1.1727692965e+01    0.1363639    0.1266541  28.90 0.0001960372    1.050    0.048
       234  -9.5900    233.1434    218.8696   7.1224056158e+01  -5.6195364064e+00     0.173996    0.1205848  -9.12 0.0003961624    1.286    0.222
       235 -10.5821      8.2937    218.0807   1.2043111150e+02   2.5874884664e+01    0.2103633    0.1890719  86.02  0.001272882    1.211    0.174
       236  -8.7993     85.6918    215.2887   1.0275388453e+02   1.7387251224e+01    0.1413147   0.09578089  62.62 0.0002145024    1.575    0.365
       237  -9.7921     15.9179    213.2977   1.1852111135e+02   2.6235474901e+01    0.1710921    0.1391632  59.44  0.001141216    1.134    0.118
       238  -9.6352    205.4963    212.1483   7.5249605309e+01  -7.0607229631e-01    0.1927715    0.1198133 -36.68 0.0007959377    1.525    0.344
       239  -9.8181    193.7192    202.7297   7.5895323768e+01   2.7681871907e+00    0.1683153    0.1668111  80.79 0.0008284943    1.345    0.257
       240 -10.9388      3.8371    201.4930   1.2037373638e+02   3.0016055675e+01    0.1928737    0.1464254 -68.46  0.000871449    1.326    0.246
       241  -9.1609     24.5044    195.5398   1.1523977559e+02   2.9548296191e+01    0.1307007    0.1075805  79.02 0.0002461319    1.035    0.034
       242  -9.4577     13.9139    192.6245   1.1748734163e+02   3.1234342641e+01    0.1713883   0.09662058  46.16 0.0009195955    1.690    0.408
       243  -9.7066      5.9279    192.0730   1.1928939444e+02   3.2046567890e+01    0.1985917    0.1396616  73.44  0.001178075    1.228    0.186
       244  -9.6455      1.2445    191.4611   1.2031269339e+02   3.2566233426e+01    0.2052955   0.08771586 -80.49 0.0006256307    1.974    0.494
       245  -9.1784     14.7067    188.6767   1.1699326984e+02   3.2112528592e+01    0.1243446   0.08669186 -51.03 0.0003625961    1.616    0.381
       246  -9.4553      7.4471    188.4013   1.1867956240e+02   3.2796245456e+01    0.1237909    0.1021739  86.56  0.000125278    1.027    0.026
       247  -9.3973    226.3565    163.8554   6.1922645751e+01   4.7002779305e+00    0.2019891    0.1096432 -31.47 0.0009341383    1.735    0.424
