#   1 NUMBER                 Running object number                                     
#   2 MAG_AUTO               Kron-like elliptical aperture magnitude                    [mag]
#   3 X_IMAGE                Object position along x                                    [pixel]
#   4 Y_IMAGE                Object position along y                                    [pixel]
#   5 X_WORLD                Barycenter position along world x axis                     [deg]
#   6 Y_WORLD                Barycenter position along world y axis                     [deg]
#   7 A_WORLD                Profile RMS along major axis (world units)                 [deg]
#   8 B_WORLD                Profile RMS along minor axis (world units)                 [deg]
#   9 THETA_WORLD            Position angle (CCW/world-x)                               [deg]
#  10 FWHM_WORLD             FWHM assuming a gaussian core                              [deg]
#  11 ELONGATION             A_IMAGE/B_IMAGE                                           
#  12 ELLIPTICITY            1 - B_IMAGE/A_IMAGE                                       
         1 -15.1477      9.6360    148.2144   1.4261324911e+02   4.3376730831e+01     9.298788     3.352567 -88.38   0.03452071    3.924    0.745
         2 -13.2216    196.9683     30.7314   6.7800220225e+01   3.2606859758e+01     1.363696     1.032604  63.44  0.006875643    1.245    0.197
         3 -13.5027    211.7561     11.3736   6.1420544527e+01   3.1326558200e+01     1.393747    0.9221417  44.07  0.007595958    1.963    0.491
         4 -12.5921      2.0000      9.5428   1.1527118454e+02   7.1415028458e+01     1.599388    0.2183723 -48.45  0.004516347    9.789    0.898
         5 -10.5448    105.9291    246.3348   1.3334444114e+02   9.6273240258e+00    0.1834349    0.1368725  53.03 0.0007512027    1.122    0.109
         6 -12.1025    247.2796    246.6111   1.0684149623e+02  -1.3703438602e+01    0.5660567    0.4462128  -0.26  0.003976273    1.104    0.094
         7  -9.2673     66.3629    249.9389   1.4088956513e+02   1.4938373651e+01    0.2043156    0.1224372  58.89 0.0004622141    1.317    0.240
         8 -10.2892     46.5710    249.2451   1.4423850700e+02   1.7732749070e+01    0.2969851    0.1316893  68.70  0.001553453    2.163    0.538
         9 -10.4518     28.7693    249.2170   1.4718222012e+02   1.9933068158e+01    0.2494202    0.1928602 -78.25  0.001192475    1.447    0.309
        10 -11.3977     35.3907    245.4762   1.4584714228e+02   1.9847465825e+01     0.540618    0.2891842 -53.52  0.003022335    2.875    0.652
        11  -9.1971     30.9847    242.5039   1.4638077495e+02   2.0946132843e+01     0.262868     0.114922  59.93  0.001210995    1.868    0.465
        12 -11.0837     14.9209    249.7501   1.4941902407e+02   2.1409232088e+01    0.4458532    0.1840277  39.28  0.002574364    2.519    0.603
        13 -11.4775      3.3127    247.1996   1.5108079717e+02   2.3114202309e+01    0.7867922    0.3031235  87.07  0.004403785    2.264    0.558
        14 -10.5914    126.1327    245.3219   1.2939392761e+02   6.4746788694e+00    0.2627383    0.1051472  37.05  0.001094585    2.583    0.613
        15 -11.7406     10.6732    239.3353   1.4951020305e+02   2.3831096031e+01    0.4643755    0.1759088  61.37  0.002480164    2.164    0.538
        16  -9.6072     82.4893    243.5178   1.3740600290e+02   1.3810989815e+01    0.1239465   0.09756466  67.70 0.0004345816    1.027    0.026
        17 -10.3853     18.9273    242.1331   1.4834158741e+02   2.2401981031e+01    0.2259497    0.1266617  75.89 0.0008206755    1.368    0.269
        18 -10.6099    138.7655    249.9729   1.2756984181e+02   3.5240616565e+00    0.2797719    0.1357146  43.52  0.001388281    1.703    0.413
        19 -10.4728    228.6462    228.3365   1.0704385406e+02  -8.4099212049e+00    0.3057085    0.2138396 -61.27  0.001371959    2.541    0.606
        20 -10.9632     50.4789    235.0382   1.4245103274e+02   1.9977399304e+01    0.3353354    0.2011331  80.96  0.001530629    1.456    0.313
        21 -12.1694    238.2587    247.4312   1.0856900980e+02  -1.2495633649e+01    0.4575174    0.3766981 -46.64  0.003098257    1.737    0.424
        22 -14.2814    102.3846    228.8015   1.3199292041e+02   1.3562013500e+01     7.959426          nan  45.85   0.01348447   14.712    0.932
        23 -10.4660     79.3271    218.8184   1.3541065028e+02   1.9244455086e+01    0.2938782    0.1602146  64.48  0.001465746    1.823    0.451
        24 -10.1473      6.9507    215.0712   1.4867941971e+02   2.9018463825e+01    0.1717034     0.123445  83.87 0.0004825576    1.041    0.039
        25  -8.5303    152.5437    212.9501   1.1944356863e+02   7.8242261602e+00     0.181731    0.1389264 -53.89 0.0003005256    1.443    0.307
        26 -12.4755      9.7571    206.9090   1.4764153990e+02   3.0433304829e+01    0.6432211    0.4417446  37.08   0.00286762    1.805    0.446
        27  -9.3880     34.6604    202.4988   1.4260237177e+02   2.8730908280e+01      0.20346    0.1551513  82.29 0.0001796692    1.013    0.013
        28 -11.4353     59.7304    197.7569   1.3703692668e+02   2.6641352024e+01    0.2892723    0.2345254 -59.98  0.000537884    1.413    0.292
        29  -9.4020    192.0381    193.0679   1.0763150316e+02   4.0219830441e+00    0.3566461      0.18241 -63.76  0.001129646    4.393    0.772
        30 -11.7112     66.1408    189.5485   1.3468647676e+02   2.7616101625e+01    0.2863567    0.2338682 -62.26 0.0004258028    1.317    0.241
        31 -12.6152     32.6934    231.3846   1.4531042820e+02   2.2923968596e+01    0.3041563    0.2314671 -75.08 0.0007860846    1.399    0.285
        32 -10.6953     76.5018    176.9055   1.3063974892e+02   2.9049784802e+01    0.2501975     0.213535 -79.71   0.00043986    1.071    0.067
        33 -13.0829     63.1741    174.8020   1.3342393498e+02   3.1448222489e+01    0.5184196    0.2866895 -46.37  0.001839878    2.243    0.554
        34 -13.6653     38.0792    224.0038   1.4378638878e+02   2.3773597326e+01    0.7508982    0.5787984  73.64  0.002595819    1.080    0.074
        35  -9.8312     96.4417    173.0948   1.2535782486e+02   2.6776803003e+01    0.2601331    0.2183108  63.71 0.0006103691    1.138    0.121
        36 -11.6604     84.0732    167.5818   1.2741059289e+02   3.0097106454e+01    0.6808548    0.5852196 -67.83  0.003922504    1.125    0.111
        37 -10.6999    121.0223    249.9978   1.3092811985e+02   6.4987801141e+00    0.2700552    0.1841881  55.71  0.001298737    1.218    0.179
        38  -9.1684     55.0773    229.5735   1.4114740353e+02   2.0467118489e+01    0.2369334    0.1228924  69.02  0.001260475    1.825    0.452
        39  -9.6489     97.1951    151.9789   1.2139223894e+02   3.1679605755e+01    0.2555105    0.2232341  34.11 0.0006745579    1.299    0.230
        40 -11.9002     85.5882    151.0291   1.2417387541e+02   3.3826649837e+01    0.3022739    0.2511113 -45.32 0.0007642796    1.310    0.237
        41  -8.8495    100.1577    147.8206   1.1982093640e+02   3.2162834682e+01    0.1934877    0.1713779 -35.67 0.0003059447    1.294    0.227
        42 -12.1538     67.5031    143.6401   1.2752407475e+02   3.8292930635e+01    0.6832157     0.459057  70.67  0.002436309    1.761    0.432
        43 -10.2571     96.1914    134.3060   1.1806480069e+02   3.6082639874e+01    0.2652948     0.225124 -40.00 0.0004802837    1.257    0.204
        44  -9.5501    108.9680    137.2061   1.1530776925e+02   3.3100634341e+01    0.3759303    0.2641569 -14.80  0.001414844    2.379    0.580
        45 -10.7657     30.4028    131.0646   1.3525807936e+02   4.5559712583e+01    0.2553719    0.1978139  61.78 0.0004512588    1.429    0.300
        46  -9.9186     78.0340    130.6154   1.2222255165e+02   3.9895377025e+01    0.2695236    0.2130164  74.98 0.0007156197    1.426    0.299
        47 -11.9630     22.0923    126.5510   1.3679891317e+02   4.7336673218e+01     0.402518    0.2599357  52.80  0.001284086    1.806    0.446
        48  -8.6400    106.4715    123.8638   1.1293294322e+02   3.6699089385e+01    0.2063193    0.1428354 -52.34  0.000249136    1.379    0.275
        49 -10.8171      5.4383    228.1557   1.4972503597e+02   2.6541352359e+01    0.2487544     0.139493 -60.19  0.001582047    2.168    0.539
        50 -10.2227    167.9186    112.9697   9.4814481731e+01   2.5853464166e+01    0.3359994    0.2762251 -81.87 0.0006099027    1.390    0.281
        51  -8.8444    203.4832    111.4968   8.7139658357e+01   1.7727716715e+01    0.1513606    0.1470943 -52.15 0.0002629341    1.056    0.053
        52 -10.2090    242.4967     93.5022   7.6429758672e+01   1.2178533684e+01    0.1425856     0.125951 -59.13 0.0008106861    1.000    0.000
        53  -9.2594    172.3187    222.3407   1.1692217232e+02   2.3944941588e+00    0.1362475    0.1036924   6.59 0.0007049478    1.714    0.416
        54  -9.4776    158.3788     77.2089   8.7235911050e+01   3.5126330327e+01    0.2169954    0.1381004 -48.84 0.0005625079    1.646    0.393
        55  -8.7768     46.1052     69.1422   1.1733244553e+02   5.7586001950e+01    0.1501657    0.1436792 -64.84 0.0003593241    1.287    0.223
        56  -8.4663     31.9650     62.2118   1.2044632262e+02   6.0353969860e+01      0.13925   0.09426063  20.26 0.0004360149    1.658    0.397
        57 -11.7568     11.5441     53.8472   1.2582546074e+02   6.3523976836e+01    0.3903084    0.2232579  38.40  0.001538363    2.423    0.587
        58 -11.4007      2.3293     50.5220   1.2852090530e+02   6.4683826679e+01    0.3603901    0.1239145 -52.56   0.00190453    2.023    0.506
        59 -11.1884     97.4936    247.0060   1.3499098822e+02   1.0846531847e+01    0.4153921    0.2496989 -84.55  0.002084701    1.904    0.475
        60 -10.3500     81.5696    248.8392   1.3808792473e+02   1.2944002426e+01    0.2280095    0.1476718  39.62  0.001359493    1.639    0.390
