#   1 NUMBER                 Running object number                                     
#   2 MAG_AUTO               Kron-like elliptical aperture magnitude                    [mag]
#   3 X_IMAGE                Object position along x                                    [pixel]
#   4 Y_IMAGE                Object position along y                                    [pixel]
#   5 X_WORLD                Barycenter position along world x axis                     [deg]
#   6 Y_WORLD                Barycenter position along world y axis                     [deg]
#   7 A_WORLD                Profile RMS along major axis (world units)                 [deg]
#   8 B_WORLD                Profile RMS along minor axis (world units)                 [deg]
#   9 THETA_WORLD            Position angle (CCW/world-x)                               [deg]
#  10 FWHM_WORLD             FWHM assuming a gaussian core                              [deg]
#  11 ELONGATION             A_IMAGE/B_IMAGE                                           
#  12 ELLIPTICITY            1 - B_IMAGE/A_IMAGE                                       
         1 -11.1120    143.6403     41.3235   2.9045562246e+02   6.4314826028e+00   0.03792498   0.01601237  43.62  0.003064027    2.488    0.598
         2  -9.9837    213.3838      5.8466   2.8941528095e+02   6.4093474966e+00   0.02902907   0.01624772  78.34  0.001782257    3.365    0.703
         3 -11.5849    228.1759     48.3100   2.8950081658e+02   5.8325062128e+00   0.08870395   0.04618588  84.91  0.005879202    4.515    0.779
         4 -10.1881    221.0777     13.2630   2.8936996345e+02   6.2771919086e+00   0.03530923   0.01881505  67.41   0.00263809    3.435    0.709
         5 -11.3616    202.0441     15.6812   2.8960927493e+02   6.3665643504e+00    0.1158169   0.04359587  55.97  0.005279601    8.770    0.886
         6 -12.6603    218.7217     28.3361   2.8949003364e+02   6.1192320625e+00   0.06353258   0.05433756 -51.41  0.004201987    1.183    0.154
         7 -11.1539    229.4792     17.9271   2.8929946995e+02   6.1721525434e+00   0.02602165   0.01652082 -35.60  0.001313692    1.807    0.447
         8 -11.7500    176.0956     67.3949   2.9023175507e+02   5.9338335656e+00   0.08280317   0.04447236  89.12  0.006146656    3.547    0.718
         9 -10.4136    145.0040     22.3833   2.9032372657e+02   6.6400106097e+00   0.01505671   0.01109293 -66.31  0.001627445    1.421    0.296
        10  -8.7711    172.6662     18.9742   2.8997616471e+02   6.5093390453e+00   0.01792894   0.01106143  79.89  0.001311034    2.489    0.598
        11 -11.2033    119.2240      9.6717   2.9055067048e+02   6.9434895578e+00   0.02992428   0.02396922 -17.76  0.002348681    1.401    0.286
        12 -10.3095      6.4564      8.6547   2.9187894558e+02   7.6433657749e+00    0.0178128  0.009703521 -56.22   0.00167876    1.811    0.448
        13  -8.9623    224.6295      7.5878   2.8929332361e+02   6.3202525475e+00   0.01453268   0.01008538  61.14  0.001472368    1.722    0.419
        14  -9.0229    172.0938      2.9216   2.8988467737e+02   6.6965510757e+00   0.01982872   0.01236718  78.22  0.001763922    2.419    0.587
        15 -11.3212    233.5435      5.9672   2.8917830232e+02   6.2839289432e+00   0.04458245   0.02246002  65.61  0.003076527    4.021    0.751
        16  -9.7899    108.5396      4.1181   2.9064304557e+02   7.0724708814e+00   0.01663423  0.009534983   6.05  0.001433715    2.396    0.583
        17  -8.4564    203.1594      3.1404   2.8951932450e+02   6.5031742596e+00   0.01075839  0.007655519  62.54  0.001099239    1.674    0.403
        18 -11.3414    246.4814     99.5032   2.8959818980e+02   5.1338279370e+00   0.05087181   0.01898334 -48.15   0.00377499    2.751    0.636
        19  -8.5882    197.9576    126.4777   2.9033465320e+02   5.1226713344e+00  0.009295613  0.009048277 -60.37 1.579746e-05    1.051    0.048
        20  -8.6472     54.2356    124.4952   2.9201901083e+02   6.0244051039e+00   0.02028194  0.009985674  67.35  0.001270343    4.831    0.793
        21  -8.0787     50.4506    119.9834   2.9203630368e+02   6.0992403038e+00  0.009288763   0.00845094 -78.26 0.0005787594    1.159    0.137
        22  -8.3798    130.3073    122.7381   2.9110988279e+02   5.5799770707e+00   0.01036511  0.009189405  14.99 0.0003164658    1.133    0.117
        23 -11.8848    243.6678    117.5811   2.8974177113e+02   4.9440466021e+00   0.05232931    0.0288747 -72.73 0.0005351729    2.178    0.541
        24  -8.9650    167.5710    113.4014   2.9061321817e+02   5.4588610475e+00    0.0134111   0.01126103  58.84 0.0007236117    1.278    0.218
        25  -8.5523    205.5660    109.7327   2.9014276247e+02   5.2679057669e+00   0.01474566  0.008606234   8.94  0.001310994    2.200    0.545
        26 -10.0040    189.1167    104.0199   2.9030183167e+02   5.4342964131e+00   0.01519693   0.01095883 -57.06  0.000749359    1.395    0.283
        27 -10.4533    188.5074     99.9930   2.9028443270e+02   5.4841833194e+00   0.02245297   0.01509154  44.47  0.002321322    1.514    0.340
        28 -10.3322    240.1597     99.3941   2.8967197860e+02   5.1739240021e+00   0.01990999   0.01437162 -13.30  0.002052896    1.696    0.410
        29  -7.4325     63.9867    105.7701   2.9178988443e+02   6.1797634859e+00  0.008513636  0.005466966  26.71 0.0003301663    1.530    0.346
        30  -7.3881    229.6508     98.6623   2.8979130579e+02   5.2468679907e+00  0.007270791  0.004974228 -24.62   0.00029929    1.787    0.440
        31  -9.1942    149.7467     92.7901   2.9069780646e+02   5.8043455002e+00   0.02204404   0.01096782 -35.18  0.001781099    2.690    0.628
        32  -8.1277    135.2531     91.2532   2.9085953929e+02   5.9107196400e+00  0.008981527  0.007491769  66.15 0.0003044476    1.329    0.248
        33 -11.2456    239.5191    127.1169   2.8984886101e+02   4.8602801483e+00   0.04318832    0.0251538  54.28  0.003971914    2.071    0.517
        34 -11.0130    153.4836     45.7714   2.9036654932e+02   6.3202023206e+00   0.03888176   0.01443762  46.13  0.002805216    3.185    0.686
        35  -9.5481     68.8636    244.4297   2.9257401884e+02   4.5587376093e+00   0.01166293   0.01071323 -56.46  9.71011e-05    1.106    0.096
        36 -10.8597    162.2929     51.1116   2.9029516877e+02   6.2050190122e+00   0.02985902   0.01681754  43.21  0.002824998    1.804    0.446
        37  -9.1726    158.7778     84.2368   2.9053900205e+02   5.8470440010e+00   0.01301953   0.01112974 -26.86  0.000898853    1.243    0.196
        38  -9.6821    161.8537     81.4874   2.9048591065e+02   5.8596992672e+00   0.01628875   0.01469177  56.79  0.001193261    1.153    0.133
        39 -11.2612    133.0810     38.0941   2.9056063198e+02   6.5331675805e+00   0.03869116   0.01400284  41.25  0.002941475    2.764    0.638
        40  -9.3280    143.4398     81.3374   2.9070237128e+02   5.9742487872e+00   0.01488511   0.01174323 -80.89 0.0007836888    1.423    0.297
        41  -7.3157    213.3374     77.3031   2.8985304037e+02   5.5917261166e+00  0.007031062  0.005039963 -22.60 0.0007038224    1.668    0.400
        42 -10.7905    158.7159     70.3765   2.9045509829e+02   6.0062519808e+00   0.01707625   0.01249059 -49.63  0.000931731    1.380    0.276
        43  -8.3654    214.9633     67.9137   2.8977647322e+02   5.6892711393e+00    0.0101109  0.009671037  41.39 0.0004575046    1.042    0.040
        44  -8.6488    206.7453     65.3067   2.8985743126e+02   5.7696071130e+00   0.01662873  0.007990823  61.04  0.001136617    3.895    0.743
        45 -10.7659    194.5012     49.6501   2.8990611400e+02   6.0240942691e+00   0.03150984   0.02060185  54.91  0.001008732    1.760    0.432
        46 -10.0831    200.6527     45.0832   2.8980561538e+02   6.0386009103e+00   0.01929017   0.01300471 -22.02  0.001221453    1.869    0.465
        47  -9.8658    206.9828     60.4734   2.8982507875e+02   5.8234983932e+00   0.04314518   0.02010045  64.26  0.002504199    5.660    0.823
        48 -11.9576      4.7159    231.1285   2.9325005453e+02   5.1017556981e+00   0.04713896    0.0313866 -61.90  0.004556351    1.531    0.347
        49  -7.7438    135.5138    230.4620   2.9170365576e+02   4.3123250840e+00  0.006646804  0.006439507  38.22 0.0001055242    1.027    0.026
        50  -8.6949     46.3901    223.2879   2.9271104081e+02   4.9383049061e+00   0.01093239  0.009388969 -26.48  0.000589621    1.236    0.191
        51 -12.5657     28.5027    207.9892   2.9282945197e+02   5.2227959241e+00   0.04409855   0.04091456 -79.73  0.002697106    1.131    0.116
        52 -12.9605     45.0351    192.8155   2.9254241946e+02   5.2963585988e+00   0.08143435   0.05248329 -22.20  0.007750337    2.029    0.507
        53  -9.7167    184.2311     60.2024   2.9009179993e+02   5.9663006867e+00    0.0129008   0.01105977  17.21 0.0003450002    1.173    0.147
        54  -8.2442    159.5612     61.2039   2.9038908817e+02   6.1061623039e+00   0.01726639   0.00668609  40.14  0.001238076    2.519    0.603
        55  -7.4883    201.6324     60.3299   2.8988730014e+02   5.8580045053e+00  0.007345385  0.004884212  59.69 0.0007034193    1.818    0.450
        56  -8.7045    196.0687     55.9761   2.8992630529e+02   5.9420294430e+00  0.009686167  0.009331666 -13.41 -0.001320134    1.048    0.046
        57 -11.5552    177.0888     48.2442   2.9010298345e+02   6.1470882557e+00   0.03093873   0.01422298 -45.00  0.002605165    2.345    0.574
        58  -8.9696    136.0028     46.4019   2.9057687373e+02   6.4201093741e+00   0.01011977  0.009145521  87.26 0.0004064502    1.195    0.163
        59  -9.6018    132.3501     46.4897   2.9062056249e+02   6.4414770533e+00   0.01817745  0.008016002 -52.41  0.001545245    2.212    0.548
        60  -9.1150    250.4904     41.5254   2.8919635399e+02   5.7728843689e+00   0.01073266  0.008087238 -59.79  0.001170819    1.347    0.258
        61  -7.4516     65.2992    200.2736   2.9234850088e+02   5.0872945017e+00  0.006693836   0.00504624 -22.30 0.0001721238    1.531    0.347
        62  -8.1017    250.7221     34.4508   2.8915031350e+02   5.8523996176e+00   0.01040689  0.005870811 -60.42 0.0004841108    1.790    0.441
        63  -9.6102      4.3979    181.4098   2.9295304516e+02   5.6744958355e+00   0.02882159   0.01034756 -40.22  0.001869332    4.081    0.755
        64  -7.3033    189.3197    175.7166   2.9073662820e+02   4.6110989858e+00  0.006903883  0.004959568  58.13 0.0003040681    1.588    0.370
        65  -8.0898    191.2067     22.0153   2.8977592415e+02   6.3606776759e+00   0.01151489  0.007466919  72.41  0.001064916    2.153    0.535
        66  -8.4244    127.6704     22.3446   2.9052831001e+02   6.7466705451e+00  0.007198897  0.004971074  62.05 0.0007050561    1.752    0.429
        67 -10.0219    189.0718    190.2738   2.9082819113e+02   4.4456837960e+00   0.01104202   0.01056951 -71.36 0.0002460863    1.078    0.073
        68  -9.6759    137.5784     20.1412   2.9039775077e+02   6.7111944858e+00    0.0171486  0.007186349  32.65  0.001426044    2.219    0.549
        69  -8.3728    125.4907     14.0914   2.9050361484e+02   6.8545152103e+00   0.01017847  0.006570368 -60.29  0.001024568    1.569    0.363
        70  -7.5726    212.3519    166.6701   2.9041014295e+02   4.5736664669e+00  0.007269673  0.004925991  60.20 0.0007047262    1.773    0.436
        71  -7.1989    177.2944     11.6142   2.8987648060e+02   6.5651546996e+00  0.007139808  0.005010449  66.45 0.0007015379    1.768    0.434
        72  -8.0973     59.3333     10.6696   2.9126520765e+02   7.2981803768e+00  0.007159892  0.004962293  60.95 0.0007052093    1.724    0.420
        73  -8.7148     17.0027    151.4604   2.9262266299e+02   5.9416578614e+00   0.01013733  0.006429717  28.22 0.0004203081    1.535    0.349
        74  -7.5078    174.6969    150.3357   2.9075436497e+02   4.9917242299e+00  0.007015638  0.005028647  63.34 0.0007037641    1.664    0.399
        75 -10.2733     67.5917    144.0390   2.9198003585e+02   5.7187205626e+00   0.03000801   0.02030479  52.80  0.002077104    1.637    0.389
        76  -8.2362    235.6624    143.6731   2.8999533739e+02   4.6942527651e+00  0.007166479  0.005001619 -24.53 0.0007051696    1.726    0.421
        77  -9.0202    133.1537    137.5605   2.9116658322e+02   5.3925631816e+00      0.01143    0.0102087 -49.59 0.0004351469    1.134    0.118
