#   1 NUMBER                 Running object number                                     
#   2 MAG_AUTO               Kron-like elliptical aperture magnitude                    [mag]
#   3 X_IMAGE                Object position along x                                    [pixel]
#   4 Y_IMAGE                Object position along y                                    [pixel]
#   5 X_WORLD                Barycenter position along world x axis                     [deg]
#   6 Y_WORLD                Barycenter position along world y axis                     [deg]
#   7 A_WORLD                Profile RMS along major axis (world units)                 [deg]
#   8 B_WORLD                Profile RMS along minor axis (world units)                 [deg]
#   9 THETA_WORLD            Position angle (CCW/world-x)                               [deg]
#  10 FWHM_WORLD             FWHM assuming a gaussian core                              [deg]
#  11 ELONGATION             A_IMAGE/B_IMAGE                                           
#  12 ELLIPTICITY            1 - B_IMAGE/A_IMAGE                                       
         1 -12.3366     14.8174     17.9704   7.6165880969e+01   7.0263035574e+01    0.3018424    0.1813219 -32.46 0.0005275881    1.508    0.337
         2  -9.7502     29.5887      7.3741   6.3565900780e+01   6.9865311860e+01    0.1970452    0.1012666 -32.89  0.001134363    2.098    0.523
         3 -11.4849     21.9511      6.3582   6.6942450205e+01   7.0976159439e+01    0.3651658    0.1891368  15.30 0.0008673977    1.851    0.460
         4 -10.4686     89.4066      6.6300   4.1906963974e+01   5.9263500708e+01     0.233123    0.1080671  71.90 0.0009527446    3.237    0.691
         5 -11.5203    161.4202    240.4774   8.2617058359e+01   7.2531636488e-01    0.3538206    0.2408145 -58.20  0.001674897    1.964    0.491
         6 -11.0039    169.9389    248.6252   8.2031338828e+01  -1.9306723347e+00    0.3846682    0.2481365   6.39  0.002036754    1.647    0.393
         7  -9.8536    134.5492    250.3969   9.0015011412e+01   2.8234406754e+00     0.380064    0.1116165  33.00   0.00138507    2.940    0.660
         8  -9.9411     95.1003    249.8706   9.8717724073e+01   8.5490425894e+00    0.1925752    0.1742318  39.55 0.0008312133    1.046    0.044
         9 -15.5241     86.9121    242.7708   9.9745791311e+01   1.1118212726e+01     7.775555     3.576972 -37.11   0.02897269    3.992    0.749
        10 -13.0945     99.2928    230.7212   9.5440292163e+01   1.1911190801e+01     1.886142     1.404561  81.14   0.00696821    1.665    0.399
        11 -16.5204     58.7635    210.4260   1.0270310046e+02   2.2056181415e+01     9.661766     5.134469 -33.42   0.02194802    3.193    0.687
        12 -10.2705    231.5387    237.8249   6.7871496780e+01  -8.2457774248e+00    0.2354126    0.1887262  22.71 0.0007299177    1.406    0.289
        13 -11.5960    227.5464    234.5729   6.8063216057e+01  -7.2677620284e+00     0.477289    0.2141827 -32.85  0.001489117    2.019    0.505
        14 -11.5150    188.6098    235.2744   7.5928134003e+01  -2.2585611434e+00    0.3859676        0.272  51.15  0.002035529    2.093    0.522
        15 -11.0757    167.0087    234.7249   8.0475092163e+01   9.5364688779e-01    0.5153593    0.2211226  45.17  0.001971609    2.921    0.658
        16  -9.9377    168.4234    230.7812   7.9519084279e+01   1.4709431072e+00    0.2915905    0.1439501 -26.96  0.001173671    2.732    0.634
        17 -10.7901    123.9043    233.6485   9.0084367916e+01   7.6485525157e+00    0.5669008    0.3343208 -75.70  0.002417571    2.851    0.649
        18 -10.4648    113.2928    235.9024   9.2858712718e+01   8.7706018205e+00    0.2410564    0.1688725  42.01 0.0007468699    1.316    0.240
        19 -10.9929    177.2691    233.6483   7.8066907734e+01  -3.5364806014e-01    0.4472554    0.2911073  22.51  0.002387788    1.411    0.291
        20 -10.3847    206.8011    231.8015   7.1611076785e+01  -4.1671345321e+00    0.2439603    0.2088282 -28.36 0.0007908051    1.284    0.221
        21 -15.2392     11.1280    206.6392   1.1357697941e+02   2.8018485081e+01     3.341377     1.988404 -22.86   0.01628936    2.964    0.663
        22 -10.6313    237.9534    231.1725   6.5560242774e+01  -7.9930143888e+00    0.3408335    0.1748213  44.60   0.00161095    3.266    0.694
        23 -10.0059    149.8142    232.2037   8.3911401113e+01   4.0057239842e+00    0.2296142    0.1465287  64.29 0.0009615085    2.919    0.657
        24  -9.3299    110.0500    231.9352   9.3076674894e+01   1.0074902585e+01    0.2115258    0.1602888 -18.91   0.00111432    1.646    0.392
        25 -10.2229    247.5051    231.0800   6.3842247605e+01  -9.0791227295e+00    0.1782482     0.097306 -34.04  0.000765434    1.557    0.358
        26 -11.0535    197.6889    218.7241   7.1174518245e+01  -6.4300554725e-01     0.801214    0.3300744 -29.06  0.002997403    3.132    0.681
        27 -11.1487    192.0826    229.9962   7.4309539587e+01  -1.8325612384e+00    0.3641985    0.1971932 -45.00 0.0003256342    1.966    0.491
        28 -10.2677    196.1502    227.2789   7.2997137004e+01  -1.9335057841e+00    0.3652932    0.2956963  63.66   0.00198636    2.127    0.530
        29 -10.1836    118.6377    229.4689   9.0716164043e+01   9.3056953335e+00    0.2379345    0.1763524 -62.03 0.0005359391    1.546    0.353
        30 -11.6595    239.4247    227.3934   6.4642000663e+01  -7.5877997708e+00    0.3874352    0.3189701  55.47  0.002390866    2.288    0.563
        31 -10.3355    245.0241    236.4859   6.5199452726e+01  -9.5989494292e+00    0.2309654    0.1301003 -21.82  0.000686309    1.537    0.349
        32  -9.4178    150.1839    228.3958   8.3222475640e+01   4.6912293737e+00    0.1992859    0.1165224  41.33 0.0004911611    1.704    0.413
        33 -15.8274     14.8221    174.0255   1.0997540175e+02   3.5596976517e+01     6.172492     3.074011 -14.39  0.006079955    3.900    0.744
        34  -9.4708    208.8959    227.1001   7.0379462906e+01  -3.6634319952e+00    0.1831479     0.163122  -6.77   0.00047877    1.198    0.165
        35 -10.1645    186.2140    225.2319   7.4725611915e+01  -1.4320748910e-01    0.2303041    0.1878975 -28.00 0.0008157938    1.199    0.166
        36 -10.1891    169.4939    225.5596   7.8410107113e+01   2.2874506109e+00    0.3878025    0.1246496  33.41  0.001282085    2.916    0.657
        37 -11.2482     62.8075    222.9480   1.0311097473e+02   1.8637569509e+01    0.4419433    0.2814823  51.87   0.00231994    1.490    0.329
        38 -10.5943    243.3009    223.6544   6.3299610912e+01  -7.4699995773e+00    0.2184499    0.1324776  22.43   0.00128666    1.660    0.397
        39 -10.7857    107.3619    223.4062   9.2534019488e+01   1.2302351542e+01    0.3397937    0.2558044 -47.05 0.0009709282    1.435    0.303
        40 -10.5652     75.2783    223.0005   1.0016962941e+02   1.6989494798e+01    0.2279144    0.1932604  43.21 0.0002830943    1.097    0.089
        41  -9.9436     78.2762    221.3256   9.9254273657e+01   1.6961169611e+01     0.205939    0.1900567 -40.41 0.0002761349    1.225    0.184
        42  -9.8088    122.9321    223.0016   8.8747774398e+01   1.0013137665e+01    0.2118748    0.1918694  22.57 0.0004169224    1.025    0.025
        43  -9.8708     75.9162    250.3379   1.0297957800e+02   1.1045535771e+01    0.1730616    0.1367692  38.53 0.0002072803    1.133    0.118
        44  -9.4341    102.7676    220.1986   9.3191357427e+01   1.3697283976e+01    0.1811386    0.1568271 -22.31 0.0003210507    1.308    0.236
        45 -10.7529     70.9971    219.2074   1.0074877446e+02   1.8427229480e+01    0.2495359    0.2165988 -74.55 0.0005147471    1.174    0.148
        46 -10.5504     69.6624    213.5986   1.0040911024e+02   1.9904883753e+01    0.2634672    0.2592353 -81.13 0.0008070053    1.107    0.097
        47  -9.3114    123.0074    218.6614   8.8066621671e+01   1.0931986896e+01    0.1977463    0.1731239  26.39  0.001111724    1.061    0.058
        48  -9.3532    140.3172    217.1615   8.3689467240e+01   8.5149905084e+00    0.3698897    0.2118746  61.91  0.001350343    3.384    0.705
        49  -9.6314    249.7278    217.0056   6.1012897168e+01  -7.1977762182e+00    0.1557663   0.08786949 -34.77 0.0007104042    1.480    0.324
        50 -10.3592    222.4591    216.4882   6.5856127733e+01  -3.7007698520e+00    0.4193797    0.2098652  17.34  0.001914335    2.438    0.590
        51  -9.7066    116.7001    216.5739   8.9273311411e+01   1.2371857999e+01    0.2770997    0.1347284  28.96  0.001133119    2.048    0.512
        52  -9.5813     88.4331    215.5980   9.6059990753e+01   1.6842836589e+01    0.2876257    0.1691796  24.63  0.001316618    1.818    0.450
        53 -10.5858     79.6760    214.7750   9.8102275869e+01   1.8271239472e+01    0.5193747    0.2698286  37.19  0.002361866    1.773    0.436
        54 -11.4177    234.1108    212.6547   6.2998478459e+01  -4.5879053791e+00    0.5421244    0.3650542 -43.78  0.002016463    1.595    0.373
        55  -9.9297    166.3085    214.2865   7.7174918586e+01   4.9628982967e+00    0.3316329    0.2089384 -48.59  0.001444507    1.707    0.414
        56  -9.9292     95.6255    215.0169   9.4211605083e+01   1.5926886340e+01    0.3484809     0.199701  25.95  0.001185952    1.819    0.450
        57 -10.1275    178.5305    214.2625   7.4452071873e+01   3.0547078041e+00    0.4327075    0.1515321  31.84  0.001389835    2.872    0.652
        58  -9.8525    104.6892    213.4786   9.1754797032e+01   1.4915973214e+01    0.3338555    0.1803862  36.77  0.001213395    1.712    0.416
        59 -10.0533    196.3841    213.3485   7.0476924178e+01   5.1988113681e-01    0.2137106    0.1436086  -7.33 0.0006247828    1.610    0.379
        60  -8.5807    216.2803    212.3032   6.6286881166e+01  -2.1487475517e+00    0.1338589   0.08802845 -11.18 0.0003192197    1.550    0.355
        61  -9.8588    185.8194    212.8688   7.2621048348e+01   2.1989316920e+00    0.3140408    0.1946176   1.70  0.001389071    2.041    0.510
        62  -8.6806    125.3007    211.2668   8.6338824929e+01   1.2184091347e+01    0.1415521     0.109263  -6.85 0.0001789487    1.522    0.343
        63  -9.4130    207.5784    209.7054   6.7527332893e+01  -4.5983483898e-01    0.2692944    0.1123395 -36.84  0.001135068    2.259    0.557
        64  -9.9497     86.4256    209.6819   9.5757695277e+01   1.8504708187e+01    0.2628638    0.2340482 -57.48   0.00150537    1.171    0.146
        65 -10.6451     91.7827    208.0271   9.4182538209e+01   1.8111992566e+01    0.6567541    0.2439131  33.03  0.002432491    2.534    0.605
        66  -9.4326    221.8074    209.4373   6.4701689997e+01  -2.4162531142e+00    0.1804257    0.1135904  15.38 0.0008664795    1.674    0.403
        67  -9.9750    100.8994    207.8626   9.1865532075e+01   1.6782561987e+01    0.2253329    0.2054012 -69.01 0.0004999579    1.154    0.133
        68  -9.9629    128.9894    206.8835   8.4710911805e+01   1.2558997575e+01    0.3880657    0.2345033  35.85  0.001061782    1.563    0.360
        69 -10.3885    241.3677    203.9796   6.0130820899e+01  -4.0920442118e+00    0.3046484     0.187971 -27.61 0.0007046878    1.369    0.269
        70  -9.6853    241.0174    199.3301   5.9341115219e+01  -3.2763961445e+00    0.1922395    0.1578999 -38.40   0.00038763    1.316    0.240
        71 -10.9294    235.0205    203.0298   6.1082791458e+01  -3.1074334262e+00    0.3241536    0.2021703 -22.89 0.0007732478    1.459    0.315
        72  -9.0089    190.2554    203.7780   6.9999788631e+01   3.2422665578e+00    0.2185942    0.1061795  23.85 0.0008804951    2.410    0.585
        73 -10.0425    161.1902    200.3428   7.5824044866e+01   8.6390351638e+00    0.3186543    0.2346043  54.00  0.001241877    1.717    0.418
        74 -11.3822    121.5369    199.4260   8.5304148525e+01   1.5463634231e+01    0.7157471    0.2897121  47.11   0.00245446    2.916    0.657
        75  -9.2593    184.1306    198.1002   7.0242635372e+01   5.3198905951e+00    0.1708834    0.1652146 -35.91            0    1.236    0.191
        76  -9.8010    215.1732    196.5208   6.3566759226e+01   8.0630042649e-01    0.3511351    0.1601873 -27.32  0.001401217    2.621    0.619
        77  -9.2868    225.1283    195.8340   6.1549872244e+01  -5.1197315786e-01    0.1856327    0.1352757  -9.83 0.0007127558    1.329    0.247
        78  -9.8578    210.4956    195.4645   6.4278617898e+01   1.6963922278e+00    0.3173824    0.1934597 -30.46  0.001055678    1.520    0.342
        79  -9.9768    211.1283    190.6888   6.3237280603e+01   2.4835370408e+00    0.3933259    0.2457286  49.21  0.001902533    2.179    0.541
        80  -9.5429    230.9866    195.3006   6.0375425936e+01  -1.2410504062e+00    0.1820373    0.1494681  -6.70 0.0005320463    1.105    0.095
        81  -9.7181    190.7412    194.6777   6.8168049794e+01   4.9266128228e+00    0.2934962     0.181168 -49.38  0.001389083    1.748    0.428
        82  -8.9190    248.2912    194.3442   5.7179986592e+01  -3.3909323227e+00    0.1312058   0.08125591 -16.00 0.0007026867    1.657    0.396
        83  -9.6380    164.5744    194.0699   7.3857423070e+01   9.3887805031e+00     0.375782    0.1808132  52.30   0.00129301    3.326    0.699
        84 -11.0812    242.4935    190.7276   5.7493555281e+01  -2.0263109998e+00       0.4449    0.2346005 -26.32  0.001250472    1.858    0.462
        85 -10.7589    247.1038    190.4911   5.6668703955e+01  -2.5970886406e+00     0.215363     0.194029   2.45 0.0007523001    1.249    0.199
        86 -10.9267    142.5161    192.4705   7.8821975626e+01   1.3512959683e+01    0.3416117    0.2343322 -23.06  0.001536996    1.733    0.423
        87 -10.9287    139.3051    193.3301   7.9773391999e+01   1.3870355109e+01     0.235528    0.1897486  29.71 0.0005357795    1.202    0.168
        88 -12.7136    139.4027    184.0495   7.7996490603e+01   1.5961517466e+01    0.7297067    0.3570234 -33.20  0.002588573    2.701    0.630
        89 -10.9891     49.1820    180.1546   1.0151781328e+02   3.0670238631e+01    0.4101283    0.2797286  26.66  0.001643994    1.582    0.368
        90 -10.1965     45.4988    183.5301   1.0292880928e+02   3.0235958465e+01    0.2998258    0.2230603 -44.42   0.00160234    1.459    0.315
        91 -10.3708     44.7576    179.5069   1.0263109050e+02   3.1336764528e+01    0.4557803    0.1718547 -55.34  0.001784842    2.413    0.586
        92  -9.9427     42.3879    178.1399   1.0310130902e+02   3.1944602885e+01    0.2451285    0.2084525 -80.77 0.0004295432    1.084    0.078
        93 -10.1367    214.8550    182.1337   6.0849685983e+01   3.5014069191e+00    0.2567092    0.1800469 -44.02 0.0005217112    1.384    0.278
        94  -9.6202    211.9606    178.9975   6.0786488677e+01   4.5454030634e+00    0.2122724    0.1906189 -23.39 0.0007034033    1.081    0.075
        95  -9.7961    203.4688    183.5106   6.3353115323e+01   5.0440178069e+00    0.2703444    0.1362272  37.13   0.00119336    2.107    0.525
        96 -10.2165    191.0386    183.0770   6.5828959352e+01   7.1727368763e+00    0.2446327    0.2054195  36.14 0.0003262526    1.294    0.227
        97  -9.3209    248.4060    181.4708   5.4773635873e+01  -1.2539359375e+00    0.1276317    0.1012371 -28.87 -1.364841e-05    1.040    0.039
        98  -9.2883     24.2939    181.5747   1.0826585084e+02   3.2893431576e+01    0.1569168    0.1312835   2.94 0.0009301944    1.488    0.328
        99  -9.2356    193.9644    179.6890   6.4535724994e+01   7.3576863312e+00    0.1909387     0.172454 -18.04  0.001090882    1.031    0.030
       100  -8.7959    181.2367    179.9685   6.7314998057e+01   9.4752555713e+00    0.1725734    0.1170669 -42.59 0.0008197479    1.415    0.294
       101  -9.4121    201.9135    178.7696   6.2721793760e+01   6.2156081782e+00    0.1922183    0.1745505 -14.68 0.0006813468    1.053    0.050
       102  -9.9585    206.7422    176.4050   6.1285895017e+01   5.8813522488e+00    0.2943206    0.2211547  -1.16 0.0002710972    1.466    0.318
       103 -12.2077    146.5251    185.3498   7.6480655262e+01   1.4413713258e+01     0.432925    0.3759726 -56.12  0.002268204    1.255    0.203
       104  -9.6239    232.9399    177.8592   5.6706193260e+01   1.5465109197e+00     0.204409    0.1548494 -15.42 0.0003572137    1.263    0.208
       105  -9.8649    124.9602    170.4497   7.9044204322e+01   2.1720417776e+01    0.2328396    0.1510091  34.45 0.0003293781    1.539    0.350
       106 -13.5880    124.5724    160.3728   7.7075219522e+01   2.4217485219e+01    0.8836231    0.5639703 -38.30   0.00377502    1.640    0.390
       107 -12.1741    132.0057    175.0232   7.8111903990e+01   1.9372633543e+01    0.4409623    0.3658513  66.63  0.002159034    1.468    0.319
       108 -11.9060    133.9276    171.3414   7.6874740556e+01   1.9894396963e+01    0.4000743    0.3203111 -76.48  0.001166637    1.575    0.365
       109 -12.3601    134.8829    166.6546   7.5664204961e+01   2.0824631489e+01    0.4750284    0.3485114  32.24  0.001411799    1.372    0.271
       110 -11.5773    238.7932    173.6363   5.4885784622e+01   1.4400070385e+00    0.3857125     0.255105  -4.86   0.00166389    1.904    0.475
       111 -10.6483    170.5130    169.1538   6.7487677304e+01   1.3669127520e+01    0.2826293    0.2407287  19.74 0.0005443092    1.191    0.160
       112  -9.3505    158.6864    170.3139   7.0494484636e+01   1.5587903334e+01    0.1485189    0.1240139  82.30 0.0003325722    1.639    0.390
       113 -13.6618      4.2419    196.1325   1.1439143260e+02   3.1061377097e+01    0.8525164    0.3954093 -80.88  0.004228792    1.889    0.471
       114 -15.2082     43.4091    245.9812   1.0954021029e+02   1.5959983551e+01     2.983054     1.250057  33.24   0.01443325    2.161    0.537
       115  -9.8723    193.6707    175.0107   6.3649348189e+01   8.3425190544e+00    0.2768301    0.1944071  33.76  0.001178757    1.493    0.330
       116 -11.7884    145.2948    167.2936   7.3141197492e+01   1.8750303339e+01     0.524758    0.1706839 -46.91  0.001649333    2.993    0.666
       117  -9.1621    207.4872    167.9452   5.9427287047e+01   7.3929982754e+00    0.2017051    0.1267352 -41.26 0.0003552952    1.441    0.306
       118 -11.2617    153.8093    167.8250   7.1148823243e+01   1.7046997531e+01     0.262301    0.2202831 -44.71 0.0002921572    1.183    0.154
       119 -11.5607    117.5163    167.5282   8.0455952082e+01   2.3748903992e+01    0.3012682    0.2340235 -62.40 0.0008996022    1.386    0.279
       120 -10.2988    233.9104    166.1307   5.4255180101e+01   3.4986583495e+00    0.2191184    0.1764353  22.60 0.0007139335    1.389    0.280
       121  -9.4592    215.6923    165.9271   5.7457567772e+01   6.4177018469e+00    0.2057504    0.1583189 -33.86  0.001138606    1.138    0.122
       122  -9.2631    201.4963    165.9464   6.0193786902e+01   8.8031487359e+00    0.2061034    0.1296915 -40.74 0.0003660044    1.448    0.309
       123 -11.0700    238.2218    163.6979   5.3055246662e+01   3.2809098507e+00    0.2876239    0.1604834 -44.94  0.000721759    1.601    0.375
       124 -11.2124    151.9290    163.6053   7.0713509861e+01   1.8352263035e+01    0.3560262    0.2179436 -41.97  0.001283953    1.603    0.376
       125  -9.8121     71.9296    250.3679   1.0384668952e+02   1.1559096994e+01    0.1743707    0.1452924  41.94 0.0005582712    1.084    0.077
       126 -13.5783     22.8568    219.1746   1.1189077749e+02   2.4033821575e+01     1.221466    0.5502274 -68.33   0.00518777    2.039    0.510
       127  -9.9677    226.0114    161.9290   5.4787101931e+01   5.4940174353e+00    0.2023866    0.1898615   8.22 0.0003279657    1.178    0.151
       128  -9.2964    229.4795    161.5124   5.4101079891e+01   5.0204093478e+00    0.1357889    0.1146723 -30.55 8.192771e-05    1.006    0.006
       129 -12.2723    128.6836    168.9917   7.7765560993e+01   2.1400668929e+01     0.554566      0.33981 -39.77  0.002344037    1.693    0.409
       130 -11.5406    133.1072    153.5027   7.3314229830e+01   2.4265492054e+01    0.6490805    0.2699574 -32.59  0.001746793    4.369    0.771
       131  -9.8249    207.1283    158.3768   5.7522683726e+01   9.3142567598e+00    0.2322894    0.1712486 -32.51 0.0003616901    1.240    0.194
       132  -8.9389    187.3233    158.6419   6.1560168323e+01   1.2801245383e+01    0.1472428    0.1185079 -81.02 0.0007044486    1.772    0.436
       133 -10.0637    156.9958    158.1922   6.8311426574e+01   1.8610324287e+01    0.2468108    0.1772211  65.19  0.001041162    1.952    0.488
       134 -11.8192    118.1254    152.8759   7.7236586999e+01   2.7217039669e+01    0.3187593    0.2743093  16.96  0.001578873    1.215    0.177
       135 -11.0357    248.5105    157.5016   5.0207635181e+01   2.8396080973e+00    0.2058596    0.1664867 -33.80 0.0006357174    1.007    0.007
       136  -9.7370    220.4811    156.8275   5.4734506296e+01   7.3426245346e+00    0.3402204    0.1489954  47.09  0.001413729    2.755    0.637
       137 -10.2729    173.1626    155.8513   6.4037280153e+01   1.6035782183e+01    0.2139187    0.1736666 -14.34 0.0005161649    1.327    0.246
       138 -11.4913    138.4475    155.3306   7.2319493959e+01   2.2818091464e+01    0.2973241    0.2270247 -24.89   0.00137063    1.443    0.307
       139 -14.9504     32.1403    211.4099   1.0915462009e+02   2.4881310794e+01     2.577267     1.401762  75.61   0.01247487    2.019    0.505
       140  -9.0978    240.3165    154.6517   5.0943777930e+01   4.5675354370e+00     0.163353    0.1394796  68.95 0.0007908573    1.618    0.382
       141 -10.7774    237.6236    152.0784   5.0869579780e+01   5.4431128149e+00    0.3111957    0.1880928  29.88  0.001587443    2.111    0.526
       142  -9.2016    165.3041    154.3273   6.5496945316e+01   1.7870278692e+01    0.1578226    0.1177311 -10.05 0.0002453093    1.647    0.393
       143  -9.6669    156.6221    153.6869   6.7410034149e+01   1.9690536495e+01    0.1645204    0.1199982  -4.20 0.0007027723    1.798    0.444
       144 -12.0517     12.9023    145.5101   1.0747213435e+02   4.2933266376e+01     1.027264    0.6650353 -55.24  0.005614395    1.356    0.262
       145  -9.9378      1.8375    139.5418   1.1005889806e+02   4.5139311287e+01     1.993996    0.2091989 -74.00  0.003961732   10.382    0.904
       146 -10.7767      5.3376    135.4779   1.0855297148e+02   4.5951404823e+01    0.6090351    0.2425772 -67.08  0.002715426    1.976    0.494
       147 -10.8383      4.2744    130.6013   1.0829741938e+02   4.7230803351e+01    0.4168286    0.3479067 -48.57   0.00264947    1.142    0.124
       148 -11.9799      6.2447    148.6006   1.0975082755e+02   4.2603083966e+01    0.6377843    0.3963118  29.52  0.003161116    1.820    0.451
       149  -9.2797    250.6551    152.7234   4.8962871794e+01   3.3490854508e+00    0.1242603    0.0900698 -11.16 0.0001759823    1.628    0.386
       150 -10.0378    229.4664    152.4911   5.2296870288e+01   6.6700134492e+00    0.2164974     0.126141  28.84 0.0008615374    2.236    0.553
       151 -10.4572    210.9359    150.8638   5.5235912867e+01   1.0105544587e+01    0.3737727    0.1998786  43.31  0.001675751    2.089    0.521
       152  -9.1129    187.3026    151.2915   5.9977939843e+01   1.4319754893e+01     0.147194    0.1123377  -7.38 0.0002514591    1.570    0.363
       153 -11.5380      7.1917    145.3805   1.0912970621e+02   4.3351427107e+01    0.4422802    0.2524452  62.95  0.001936684    2.079    0.519
       154  -9.8636    142.5117    248.6919   8.8015300013e+01   1.9837209474e+00    0.2923499    0.1931417 -12.58  0.001478527    1.954    0.488
       155  -8.9828    226.5776    149.5329   5.2187113714e+01   7.6865826694e+00     0.136384    0.1160348 -37.07 6.970981e-05    1.030    0.029
       156 -10.5138    149.6761    148.8655   6.8029411952e+01   2.2132363058e+01    0.2546212    0.1898705 -29.89 0.0003370135    1.412    0.292
       157  -9.9213    244.0481    148.1754   4.9089079147e+01   5.1346241986e+00    0.1916212    0.1529333 -21.95 0.0003286885    1.234    0.190
       158 -10.4858     77.8052    147.8793   8.7998689531e+01   3.5231606300e+01    0.2905354    0.2180601 -85.80  0.001346409    1.638    0.389
       159 -10.4734    115.1628    242.3292   9.3285425889e+01   7.1953527287e+00    0.5071652    0.3202903 -18.31  0.002332776    2.456    0.593
       160 -11.8653    118.5344    146.8966   7.5808043243e+01   2.8594258392e+01    0.3977172    0.2701752  26.69  0.001234014    1.592    0.372
       161 -12.2582     51.1991    143.6871   9.5476268160e+01   3.9844923119e+01    0.6457765      0.38061 -40.69   0.00290461    1.756    0.431
       162 -10.1126     20.8563    140.3516   1.0442194052e+02   4.3652521253e+01    0.3325544     0.149991 -23.24  0.001211355    3.669    0.727
       163 -11.7169     28.0443    137.4802   1.0177277603e+02   4.3793303255e+01    0.4101892    0.3291036  21.55  0.002175303    1.405    0.288
       164 -13.9077     26.6286    233.4633   1.1212860597e+02   2.0470731270e+01    0.7691857    0.4612145 -57.34  0.003392448    1.850    0.460
       165 -10.8759     23.0205    144.5234   1.0432245529e+02   4.2414262972e+01    0.3872944    0.2180257  26.36  0.001902862    1.964    0.491
       166 -11.6959     28.6820    145.2192   1.0269721088e+02   4.1753707697e+01    0.3559415    0.3238593  87.77  0.002160082    1.123    0.109
       167 -10.8904    100.2557    245.5623   9.7065841237e+01   8.6891724967e+00    0.4388434    0.3398978 -37.25  0.002555645    1.537    0.349
       168  -9.4279    208.9998    144.4660   5.4243548656e+01   1.1683100489e+01    0.1954411    0.1415145  45.47 0.0005846148    1.550    0.355
       169  -9.6867     99.2624    240.6444   9.6696374398e+01   9.8303812607e+00    0.2123478    0.1790125  87.86 0.0006811126    1.351    0.260
       170 -11.0859    154.6601    142.5156   6.5357176914e+01   2.2570828478e+01    0.4314318    0.3023753   4.44  0.001799519    2.050    0.512
       171 -10.9708    133.9720    142.8766   7.0688524484e+01   2.6597210924e+01     0.300052    0.2150658 -78.84   0.00116226    2.079    0.519
       172 -14.7167      5.3200    227.7675   1.1618169315e+02   2.3769376254e+01    0.9916936    0.7339773 -34.98  0.005684665    1.980    0.495
       173 -10.5075    246.2869    141.9931   4.7541796502e+01   5.8672880360e+00     0.188939    0.1423757 -40.22 0.0004805644    1.091    0.084
       174 -11.5673     41.3943    140.4189   9.8013428460e+01   4.1768259347e+01    0.3251178    0.2425033 -78.14  0.001689928    1.367    0.268
       175 -10.6375    249.5669    140.2582   4.6720883864e+01   5.6598870453e+00    0.2601613    0.1022965 -44.86  0.001141941    2.130    0.531
       176  -9.1848    177.6526    248.2987   8.0341524135e+01  -2.9495819774e+00    0.1214951   0.09776417  49.74 0.0007036148    1.681    0.405
       177  -9.3635    212.0893    138.5302   5.2421386298e+01   1.2262701485e+01    0.1831973    0.1405611  44.49 -6.562863e-05    1.463    0.316
       178 -10.8778    143.6580    137.9514   6.7023725681e+01   2.5805695008e+01    0.3086614    0.2663092   9.33  0.001530033    1.261    0.207
       179  -8.6676    183.2792    247.3673   7.9012550516e+01  -3.5672716002e+00    0.1347983   0.08680095  -9.19 0.0007011653    1.683    0.406
       180 -12.6866    127.7512    127.7632   6.8763750220e+01   3.1332173743e+01    0.6731263    0.5090948 -16.93   0.00303955    1.597    0.374
       181 -11.5275     66.5885    134.2498   8.8790905661e+01   4.0319848380e+01    0.4977368     0.297198  31.36  0.002213259    1.744    0.427
       182 -10.5911     43.1405    131.1919   9.5863445968e+01   4.3951982895e+01    0.2517578    0.1709804 -50.91 0.0005946765    1.315    0.240
       183  -9.5273    232.8727    133.8685   4.7974531468e+01   9.4793008539e+00    0.2005304    0.1637564 -23.85  0.000592182    1.252    0.201
       184 -11.2455    133.6931    133.6861   6.8600489755e+01   2.8781820883e+01    0.2848115    0.2422114  -5.74  0.001080941    1.310    0.237
       185 -12.0662     33.7886    146.2424   1.0128469878e+02   4.1022014442e+01    0.4758871    0.2523761 -86.79  0.001959466    2.391    0.582
       186  -9.7862     75.3028    133.6997   8.5876624522e+01   3.9214114691e+01    0.1494858    0.1187552  71.57  0.000197436    1.587    0.370
       187 -12.1539     97.5396    129.5500   7.7964607634e+01   3.6630962442e+01     0.466079    0.3595034 -51.15  0.002206446    1.279    0.218
       188 -11.2467    101.1824    128.3973   7.6581495235e+01   3.6262561518e+01    0.3765357    0.2356769  54.45  0.001315532    2.009    0.502
       189  -9.9822    120.1951    130.4756   7.1520831232e+01   3.2197441070e+01    0.3510608    0.2145934  57.45  0.001269189    2.166    0.538
       190 -10.4047    112.5348    131.5313   7.3964968774e+01   3.3417125683e+01    0.2802402    0.1421321  48.02 0.0009346336    2.229    0.551
       191 -11.9251     83.4381    130.5785   8.2600040540e+01   3.8743294922e+01    0.3880274    0.3292207  88.70   0.00193545    1.434    0.303
       192 -11.0555     34.5156    130.5215   9.8583539917e+01   4.4985285099e+01    0.2498877    0.1829894 -53.91 0.0006960963    1.197    0.165
       193 -11.9478     29.0318    128.9318   1.0012300073e+02   4.5885304042e+01    0.6963362    0.2938399  14.55  0.002778852    2.946    0.661
       194 -10.9840     40.0984    134.2922   9.7401344583e+01   4.3475364508e+01    0.3361584    0.2383482  61.16  0.001336156    1.730    0.422
       195 -15.4933     12.4882    239.3924   1.1541410479e+02   2.0614315543e+01     1.414972    0.7047431  89.39   0.00772115    1.914    0.478
       196 -10.1548    108.3849    125.6524   7.3757815137e+01   3.5593976036e+01    0.5966917    0.2726354 -31.90  0.001813868    3.453    0.710
       197 -10.1418     11.5946    126.7468   1.0548203010e+02   4.7750567683e+01     0.276655    0.2185052 -50.94  0.001538567    1.121    0.108
       198 -10.9685     21.0710    127.5219   1.0251409337e+02   4.6890486212e+01    0.4614807    0.2263295 -27.06  0.001694028    2.630    0.620
       199 -11.7074     92.4486    123.2189   7.8031530623e+01   3.9050324325e+01    0.4974395    0.3618646   4.95  0.002231645    1.697    0.411
       200 -10.8463     42.0409    123.7506   9.4857121014e+01   4.5954472446e+01    0.2926928    0.1770716  84.38  0.001188261    2.643    0.622
       201 -10.1060    249.3047    122.0834   4.3227051048e+01   8.8068410670e+00    0.2574673    0.1821088  27.40  0.001460129    2.034    0.508
       202 -10.9970    138.3118    121.8705   6.4493714032e+01   3.0497930800e+01     0.273708    0.2199374  56.46 0.0008715777    1.365    0.267
       203 -10.6690     18.8540    120.7561   1.0220341449e+02   4.8752028536e+01    0.3546779    0.1694015 -58.87 0.0003870013    1.692    0.409
       204  -9.2798      1.4151    122.4969   1.0819973914e+02   4.9393770888e+01    0.1330615    0.1026024 -57.33 6.037354e-05    1.079    0.074
       205  -8.9941    229.4661    121.5472   4.5980875067e+01   1.2267484098e+01    0.1340369    0.1148693 -47.85 0.0002420434    1.029    0.028
       206  -9.9652     61.7679    121.3947   8.7665981536e+01   4.4204552045e+01    0.1969189     0.141294   9.14 0.0005805271    1.583    0.368
       207  -9.1580     50.6603    121.7178   9.1517238649e+01   4.5511456323e+01     0.151311    0.1019199 -27.14 0.0003684456    1.628    0.386
       208 -10.5843     25.9491    121.1325   9.9862063327e+01   4.8110766932e+01    0.2304706     0.141408  54.05  0.001090344    2.116    0.527
       209  -9.4512    179.2701    118.4034   5.4178085572e+01   2.2608352365e+01    0.1883133    0.1432753  59.77 0.0002899861    1.460    0.315
       210 -10.4512    139.6983    117.9401   6.3148641684e+01   3.1066108385e+01    0.2220162    0.2022995 -38.45 0.0007443331    1.084    0.078
       211  -9.7822     54.5488    118.5072   8.9506995319e+01   4.5844629517e+01    0.2661685     0.120028  38.95  0.001042149    2.428    0.588
       212  -9.2495     10.3116    117.3070   1.0455868143e+02   5.0176438964e+01    0.1407523   0.08003718 -41.65 0.0002051957    1.619    0.382
       213  -9.2186      6.4989    116.4850   1.0572365947e+02   5.0601285488e+01    0.1304595    0.1105867 -63.50 0.0008099737    1.051    0.049
       214 -10.3208    195.3613    114.5245   5.0164163909e+01   2.0051491140e+01    0.2902897    0.1661477 -63.62  0.001156715    2.504    0.601
       215 -10.6037    113.6132    247.0760   9.4249181032e+01   6.4828264544e+00    0.4447894     0.239745  48.44  0.001445517    1.911    0.477
       216  -9.0368    229.4592    246.4075   6.9693848647e+01  -9.2818091492e+00    0.1205757   0.09302563  -3.90 7.545923e-05    1.042    0.040
       217  -9.0571     45.3388    114.6522   9.1900366435e+01   4.7869869883e+01    0.1447918    0.1089617  68.76 0.0007046691    1.786    0.440
       218  -9.3580    210.6693    113.2997   4.7222451394e+01   1.7241672529e+01    0.1394643    0.1033801 -73.75 0.0005808512    1.645    0.392
       219 -10.1152    219.5380    244.5724   7.1268202413e+01  -7.8267172212e+00    0.2626747    0.2132884 -61.38 0.0007470038    2.265    0.558
       220 -11.8574     67.6145    111.7437   8.3442022438e+01   4.5753904491e+01    0.4693977    0.3481763  70.91  0.001550445    1.978    0.494
       221 -10.8196     39.0002    112.7776   9.3758585333e+01   4.8998316345e+01    0.2585311    0.1872301 -54.59 0.0007773905    1.229    0.186
       222  -9.7258     20.1644    112.9041   1.0045855416e+02   5.0601937117e+01    0.1948949    0.1769558  84.47 0.0005759338    1.256    0.204
       223 -11.4268    175.6182    111.0260   5.3167704111e+01   2.4829564822e+01    0.4289416    0.2489341  60.38  0.001805755    2.071    0.517
       224 -10.5163    180.1730    109.1597   5.1804410777e+01   2.4224433244e+01    0.2172606    0.2012818  -2.58 0.0004760218    1.207    0.172
       225  -9.1478     49.4246    112.5465   9.0004603676e+01   4.7924680429e+01    0.1457363    0.1268006 -36.66 2.875974e-06    1.041    0.039
       226  -9.5895     88.9000    110.1805   7.5900124488e+01   4.2744358885e+01    0.3139402    0.1868964 -26.80  0.001241224    2.143    0.533
       227  -8.6952      7.3774    111.2739   1.0465912522e+02   5.1827112655e+01    0.1399834   0.07826778 -37.65 0.0005206332    1.695    0.410
       228 -10.4100    163.9745    110.0100   5.5386369801e+01   2.7524727986e+01    0.1869243    0.1756815 -45.13 0.0005464157    1.039    0.037
       229  -9.8732    134.0000    109.9476   6.2569537648e+01   3.3981788059e+01    0.2541376   0.08739808 -44.38 0.0004796554    2.903    0.656
       230 -10.0161     77.4296    114.7791   8.0845369931e+01   4.3552998619e+01     0.221767     0.132093 -41.83 0.0006935606    1.633    0.388
       231  -9.1877     99.3675    109.7235   7.2448712184e+01   4.0971631456e+01    0.1538117    0.1222319  70.08 0.0003877887    1.678    0.404
       232  -9.2623    192.1733    245.6623   7.6894610033e+01  -4.4905752140e+00    0.1705644     0.150211  -4.51  0.001118068    1.175    0.149
       233 -10.1018    105.0334    107.9572   7.0236088747e+01   4.0299126753e+01    0.2231604    0.2130912  -1.07  0.001191809    1.008    0.008
       234 -10.2379     72.5312    107.9547   8.0810084039e+01   4.5926818937e+01    0.3128693    0.2007632 -70.41  0.001316967    2.151    0.535
       235 -10.5480      9.6465    104.8165   1.0283480296e+02   5.3261661276e+01    0.3818211    0.2270845 -50.07  0.001943493    1.368    0.269
       236  -9.9454    187.5437    105.9711   4.9633566703e+01   2.3273754391e+01    0.1925164    0.1262185 -16.55 0.0005003404    2.336    0.572
       237 -10.9165    139.9426    105.8281   5.9966344141e+01   3.3573209671e+01     0.249022    0.2136742   9.15  0.001248436    1.320    0.242
       238 -10.1566     34.0738    105.7234   9.4086312649e+01   5.1195423080e+01     0.188035     0.169805 -28.96 0.0004472233    1.066    0.062
       239  -9.1015    229.1793    104.8704   4.2578615242e+01   1.5225959791e+01    0.1645613    0.1458307 -23.22 0.0003525907    1.287    0.223
       240 -11.6158     28.4810    114.1416   9.7751511420e+01   4.9638219147e+01    0.3273338    0.2516467  -9.65 0.0008494213    1.414    0.293
       241 -11.2510    113.5735    104.2183   6.6686628710e+01   3.9437315399e+01    0.4092515    0.2440998  35.04  0.001236503    1.727    0.421
       242 -10.0350    132.7872    104.1846   6.1366892489e+01   3.5447903926e+01    0.2629123    0.1766376 -87.82 0.0009606907    2.888    0.654
       243  -9.9755     81.0249    102.8715   7.6587936259e+01   4.5752207557e+01     0.218905    0.2061407 -16.30  0.000293824    1.025    0.024
       244  -8.7171    250.7290    102.7151   3.9286056552e+01   1.1784343721e+01    0.1112836   0.09145398 -20.34            0    1.501    0.334
       245  -9.3570    184.8595    102.3857   4.9290484524e+01   2.4508142211e+01    0.1987187    0.1326364  40.57 0.0006749625    1.694    0.410
       246  -8.8221     90.6728    102.3337   7.3239812273e+01   4.4213413073e+01    0.1507462    0.1229294  79.11 0.0007051627    1.717    0.418
       247  -9.8115    233.1208    101.0359   4.1240560136e+01   1.5151925375e+01     0.191437    0.1626696 -50.76 0.0004140648    1.023    0.023
       248  -9.4551    121.7047    100.5348   6.3368995867e+01   3.8547721184e+01     0.283685    0.1466209  38.05 0.0007041929    1.994    0.499
       249  -9.9895     23.5987     99.7744   9.6762008014e+01   5.3521152846e+01    0.1823239    0.1211709 -73.15 0.0003202712    1.631    0.387
       250 -14.4513      8.6138    246.8641   1.1658902804e+02   1.9433213143e+01    0.8586286    0.3341273  87.34  0.004071284    2.727    0.633
       251  -9.1405     52.3140     99.6864   8.5963491347e+01   5.0651031291e+01    0.1364311    0.1129286  69.65 0.0002569957    1.639    0.390
       252  -9.8955    134.4293    245.8312   8.9410044054e+01   3.6939347069e+00    0.2207032      0.14239  26.03 0.0004825919    1.406    0.289
       253  -9.8663    195.3420     96.7092   4.6083574623e+01   2.3325319466e+01    0.1432001    0.1049166 -77.40 0.0004961388    1.651    0.394
       254 -10.0231    172.3185    243.8203   8.0774812058e+01  -1.4380023540e+00    0.3017732    0.1415939  12.97   0.00110353    3.429    0.708
       255 -10.1007    114.2894     94.0096   6.3653731801e+01   4.1427498765e+01    0.2119899    0.1960036 -31.49 0.0006525722    1.090    0.083
       256  -9.3141     42.4877     93.9923   8.8263245842e+01   5.3111787113e+01     0.214087    0.1291706 -57.07  0.001027285    1.602    0.376
       257 -10.8092     92.5740     91.0499   6.9457963327e+01   4.6299443019e+01    0.5616131    0.3587057  57.03  0.002394528    2.121    0.528
       258 -10.0310     50.1595     90.7931   8.4509204334e+01   5.2949784556e+01    0.3397531     0.190676 -18.16  0.001014327    2.363    0.577
       259 -10.8878    164.1328     90.9122   5.0548493085e+01   3.1140331625e+01    0.2305186    0.1968366 -71.10 0.0007901205    1.254    0.202
       260 -10.0413     56.7433     89.2670   8.1595583949e+01   5.2444485498e+01    0.2500204    0.1703428  28.03  0.001258792    1.500    0.333
       261 -11.4076    152.4662     85.6864   5.1674178966e+01   3.4699288960e+01    0.3681364    0.2515103 -49.52  0.001243443    1.522    0.343
       262 -10.9185    122.3525    247.6865   9.2367746473e+01   5.1015313111e+00    0.5539055    0.2417021  48.23  0.002185386    2.630    0.620
       263 -10.3683     17.7772     85.0553   9.5931728019e+01   5.7371422687e+01    0.2985441    0.1613404  28.23  0.001510049    2.071    0.517
       264 -10.8676    137.3268     83.1012   5.4465806703e+01   3.8560601896e+01    0.3663034    0.2341802 -26.22  0.001616303    1.891    0.471
       265  -9.8507    106.2417     84.0280   6.3133066487e+01   4.5054091695e+01     0.198496    0.1905362 -19.08  0.001106446    1.070    0.066
       266 -10.3108    204.8896     82.6739   4.1361509498e+01   2.3730240699e+01    0.2363846    0.1760543 -50.43 0.0002830713    1.232    0.189
       267  -9.8610     39.0182     83.4872   8.6955818496e+01   5.5848036464e+01    0.1993016    0.1060102  -9.23 0.0008105332    2.613    0.617
       268  -9.7208    198.2842     82.2758   4.2284531922e+01   2.5180867544e+01    0.1836753    0.1451263 -73.50 0.0004881273    1.300    0.231
       269 -10.7516    119.4588     81.6770   5.8660702501e+01   4.2738033643e+01    0.3425266    0.2141848  16.07  0.001333999    2.562    0.610
       270 -10.4595     45.5904     80.3696   8.3472095023e+01   5.5785494498e+01     0.300763     0.167905 -22.11 0.0009838538    2.123    0.529
       271 -10.2236     54.5623     78.7351   7.9450277117e+01   5.4995087185e+01    0.1865946    0.1328401 -58.15 0.0009461367    1.650    0.394
       272 -10.1553     17.1472     78.8556   9.4783758848e+01   5.8802241354e+01    0.1868584    0.1712819 -55.03 0.0008281723    1.226    0.184
       273 -10.0214     10.8735     77.4132   9.7081090468e+01   5.9532187517e+01    0.2987419    0.1833802  45.70  0.001303002    2.315    0.568
       274 -11.0192    155.5369     76.9833   4.8704697412e+01   3.5527584560e+01    0.2687653    0.1991534  74.91 0.0007404185    1.531    0.347
       275 -10.8876    140.0577     90.3719   5.5804729277e+01   3.6605024589e+01    0.3619587    0.2345236  68.09  0.001532776    2.037    0.509
       276  -9.3649     68.3225     76.3088   7.3470879702e+01   5.3475997448e+01    0.1481624    0.1029542  -8.42 0.0002688538    1.647    0.393
       277 -10.9597     55.7289     73.3347   7.7371061922e+01   5.5939529841e+01     0.463039    0.2491244 -69.48  0.001387805    5.785    0.827
       278 -10.3256     38.0104     74.5033   8.4913458193e+01   5.7885958583e+01    0.1912374    0.1259771  20.06 0.0005374712    1.540    0.351
       279 -10.0561    178.2855     72.9948   4.3371390542e+01   3.1051957013e+01    0.1922594    0.1733916 -54.35 0.0003155929    1.096    0.088
       280 -11.0687    147.7960     70.5198   4.8592470850e+01   3.8366770062e+01    0.2647709    0.2448112 -10.15  0.000249188    1.210    0.173
       281  -9.9709     34.0834     70.8515   8.5525404196e+01   5.9058792550e+01    0.1897737    0.1766389  18.91 0.0006770174    1.283    0.221
       282  -9.2208     88.3329     70.2962   6.4545404608e+01   5.1140406970e+01    0.1482304    0.1064596   6.18 0.0003137974    1.642    0.391
       283 -10.7263    172.2693     66.7914   4.2873314094e+01   3.3384218858e+01    0.2941184    0.1807366  47.86 0.0005801156    1.697    0.411
       284 -10.3609     27.0030     64.7469   8.6836453622e+01   6.0995468061e+01    0.1943188    0.1339597 -22.12 0.0006524604    1.296    0.229
       285 -10.3248    217.1209    238.6252   7.0740284632e+01  -6.6084211764e+00     0.191748    0.1604203 -27.65 0.0006993676    1.319    0.242
       286  -8.7843     22.6828     61.2618   8.7754943558e+01   6.2080397535e+01    0.1101445   0.09812596  43.92 0.0003318186    1.544    0.353
       287  -9.8250    104.0238     59.6553   5.6261471014e+01   4.9817125660e+01    0.2107106    0.1910532 -42.68  0.000347011    1.238    0.192
       288  -9.0420     76.0918     58.0082   6.4680241597e+01   5.5528910714e+01    0.1678183    0.1412457  21.98 0.0005259789    1.075    0.069
       289 -10.1372    119.1196     56.8287   5.1285310218e+01   4.6997603125e+01    0.2038718    0.1869128  80.37 0.0004054726    1.218    0.179
       290 -10.1331    163.5023     56.5242   4.1786846750e+01   3.6922234202e+01    0.1358278    0.1248895  79.37 8.279928e-05    1.004    0.004
       291  -9.7513    200.5433     55.5118   3.5895639438e+01   2.8813792407e+01    0.1287693    0.1125878 -77.04 9.684043e-05    1.005    0.005
       292 -10.1504    150.9251     54.9679   4.3691244331e+01   4.0038754384e+01    0.2213078    0.1607697 -75.36 0.0008448207    1.682    0.405
       293 -10.4612     35.8285     53.8807   7.9481772750e+01   6.2185046731e+01    0.2075823    0.1505611 -15.85  0.000665287    1.221    0.181
       294  -8.9727    125.3063     53.7061   4.8815738959e+01   4.6078697481e+01    0.1349676    0.1080517 -84.60 0.0002372628    1.582    0.368
       295  -9.9378     88.4750     48.0936   5.7101577386e+01   5.4752704807e+01    0.2357527    0.2146122  77.33  0.001036603    1.437    0.304
       296 -10.7921     42.9705     47.9917   7.4258217281e+01   6.2353581739e+01    0.3133676    0.1772531 -51.54  0.001242864    2.261    0.558
       297  -9.4238    165.1674     46.8290   3.8998987828e+01   3.7890793688e+01    0.1719927    0.1526739  39.64 0.0003720875    1.283    0.220
       298  -9.4951    156.3456     45.6620   4.0181989444e+01   4.0073680890e+01    0.1421374   0.09737609 -75.61 0.0007048287    1.778    0.437
       299 -10.0371    110.5915     44.2392   4.9485421926e+01   5.0668107422e+01    0.2475703    0.1293929 -36.60  0.001143266    2.099    0.524
       300 -10.3708    100.8123     42.8738   5.1650869468e+01   5.2955209147e+01    0.2262627    0.2073063  85.53 0.0006683398    1.344    0.256
       301  -9.4207      8.8363     43.5002   8.8955360661e+01   6.6559864417e+01    0.1567486    0.1048942   7.66 0.0004256365    1.437    0.304
       302  -9.0252     44.3162     42.3191   7.1580617314e+01   6.3110405165e+01    0.1346398   0.08594028  -4.96 0.0005752338    1.656    0.396
       303  -9.2823     27.6636     42.6822   7.9366940744e+01   6.5065816856e+01    0.1342403   0.07914609 -14.56 0.0004362219    1.700    0.412
       304  -9.0086     90.4839     39.5038   5.3481231103e+01   5.5545047897e+01    0.1359652    0.1156157  28.59  3.49229e-05    1.030    0.029
       305  -9.8708     68.1580     36.8088   5.9894155427e+01   6.0166949058e+01     0.318153    0.0924896 -32.87  0.001135616    3.866    0.741
       306 -10.6621    158.5414     37.0030   3.7522031512e+01   4.0670163003e+01    0.2470101    0.1762977  65.56 0.0003291451    1.251    0.201
       307  -9.5271     60.6467     36.2738   6.2508173961e+01   6.1534486823e+01    0.1161706    0.1015381  58.76 0.0006424269    1.640    0.390
       308  -9.1769     11.3511     35.9043   8.5107559525e+01   6.7731737766e+01    0.1690736   0.08301152 -37.46 0.0003841475    1.675    0.403
       309  -9.3606     56.5217     35.5650   6.3856099175e+01   6.2310335697e+01    0.1295811    0.1061904  12.32 0.0001110065    1.011    0.011
       310  -9.4805    109.1519     33.2210   4.6250116520e+01   5.2371873180e+01    0.1738935    0.1501974  80.90 0.0005591207    1.342    0.255
       311  -9.3074     35.5745     31.4765   7.1315682260e+01   6.5937592775e+01    0.1242348   0.09846105  -0.73  0.000174324    1.019    0.019
       312  -9.5324    199.1819     28.8016   3.0172579500e+01   3.2573853587e+01    0.1531189    0.1327752  61.93 0.0003247139    1.310    0.236
       313  -9.2869    100.6716     29.3214   4.7079889920e+01   5.4663020180e+01    0.1251406    0.1015477 -84.07 0.0007048448    1.690    0.408
       314  -9.3894    158.8878     27.8806   3.5086585586e+01   4.1658742049e+01    0.1723602    0.1348886 -82.14  0.001036553    1.279    0.218
       315  -9.5911     46.3132     28.6655   6.5332337379e+01   6.4847861362e+01    0.1067723    0.1016164  60.17 0.0004674965    1.685    0.406
       316 -14.6260      2.4435    245.7991   1.1771028610e+02   2.0225577896e+01    0.7433387    0.2634518 -84.37  0.003562522    2.713    0.631
       317  -9.7009     63.2164     26.4392   5.7660701250e+01   6.2380562244e+01    0.1763182    0.1115832  51.03  0.000950269    1.771    0.435
       318  -9.7886     67.8618     24.8936   5.5373111943e+01   6.1731151373e+01    0.1899088    0.1643415  29.92  0.001248719    1.140    0.123
       319 -10.2915    189.2810     23.8812   3.0178767701e+01   3.5282122335e+01    0.2062875    0.1505551  72.95 0.0002516235    1.219    0.180
       320 -10.0189    222.9097    234.2861   6.8891007614e+01  -6.6512918567e+00    0.2472308    0.1511197  18.95 0.0006963618    1.542    0.352
       321  -9.9265     45.6187     23.8481   6.3623730113e+01   6.5588080992e+01     0.156374    0.1096989 -36.84 0.0009447275    1.701    0.412
       322  -9.7563     24.9243     22.3644   7.2723857766e+01   6.8553842147e+01    0.1875231    0.1441049 -27.55 0.0008349459    1.348    0.258
       323  -9.0965    115.0247     21.0101   4.0936153636e+01   5.2400483637e+01    0.1485343    0.1315335  49.65            0    1.051    0.048
       324  -9.7725     76.9950     21.5024   5.1008085479e+01   6.0383742599e+01    0.1976855   0.07977566  34.54 0.0008106708    2.640    0.621
       325  -9.4842     35.3212     20.5743   6.6854279906e+01   6.7489333101e+01     0.213215    0.1229997 -12.12   0.00107326    1.831    0.454
       326  -8.9828    206.4722    249.4491   7.4618284717e+01  -6.9527401495e+00    0.1254757   0.09983309   1.41 4.192231e-05    1.032    0.031
       327  -8.9991    185.7024     18.2891   2.9317834788e+01   3.6676230180e+01    0.1232272   0.07855558 -72.60 0.0002143839    1.556    0.357
       328  -9.4546     41.3361     18.1666   6.3048872660e+01   6.6937208411e+01    0.1460219     0.103702 -32.17 0.0002087462    1.611    0.379
       329  -9.1640     55.3251     14.3429   5.5607117501e+01   6.5127021449e+01    0.1310795   0.07721182  17.99 0.0007050868    1.736    0.424
       330  -9.1598     24.7808     14.3588   6.9250243188e+01   6.9650156621e+01     0.168768   0.08852126  20.84  0.000951982    1.697    0.411
       331  -8.8629     28.6608     19.3156   6.9519150242e+01   6.8523973782e+01    0.1022061   0.09273712  36.05 0.0007047998    1.702    0.413
       332  -9.2857     38.9448     13.2721   6.1931918393e+01   6.7868042667e+01    0.1673719     0.123887  21.12 0.0005306644    1.095    0.087
       333 -11.7402    157.6597    246.1464   8.4310106092e+01   2.5086705319e-01    0.5481985    0.3619964  -5.87  0.002752034    1.813    0.449
       334 -10.9822    153.2113    243.2758   8.4855654260e+01   1.4158895082e+00    0.5225469    0.3287986 -23.42   0.00262682    1.907    0.476
