#   1 NUMBER                 Running object number                                     
#   2 MAG_AUTO               Kron-like elliptical aperture magnitude                    [mag]
#   3 X_IMAGE                Object position along x                                    [pixel]
#   4 Y_IMAGE                Object position along y                                    [pixel]
#   5 X_WORLD                Barycenter position along world x axis                     [deg]
#   6 Y_WORLD                Barycenter position along world y axis                     [deg]
#   7 A_WORLD                Profile RMS along major axis (world units)                 [deg]
#   8 B_WORLD                Profile RMS along minor axis (world units)                 [deg]
#   9 THETA_WORLD            Position angle (CCW/world-x)                               [deg]
#  10 FWHM_WORLD             FWHM assuming a gaussian core                              [deg]
#  11 ELONGATION             A_IMAGE/B_IMAGE                                           
#  12 ELLIPTICITY            1 - B_IMAGE/A_IMAGE                                       
         1 -13.6697    245.0186    110.3478   3.1244192410e+01   1.0863416121e+01     2.136011       0.9175 -41.15   0.01018822    1.951    0.487
         2 -11.8773    214.8318     52.5643   2.1903342203e+01   2.5038436763e+01    0.5969341    0.3349406 -21.36  0.002805114    2.248    0.555
         3 -11.8034     81.6887     39.6930   4.3993462628e+01   5.8816259052e+01    0.6912298    0.4522189 -41.55  0.003382436    1.639    0.390
         4 -12.9808     44.7623     23.6317   5.1961683162e+01   6.8468658156e+01     1.038396    0.8252416 -51.72  0.006078876    1.630    0.386
         5 -10.7874     39.7565      7.8767   4.5741461195e+01   7.1527920605e+01    0.5447422    0.2226293 -35.53  0.002493674    2.564    0.610
         6 -11.3343     75.5872     25.5533   3.9888293197e+01   6.2198068851e+01    0.3691614    0.2722679   1.35  0.001813786    1.566    0.362
         7 -12.4392    178.3292     23.7682   1.8542069268e+01   3.7067725948e+01    0.6456341    0.4268379 -50.38  0.003479575    1.420    0.296
         8 -11.8523    173.6596     20.5943   1.8177072352e+01   3.8562545042e+01    0.4718633    0.3120845  44.17  0.002378274    1.830    0.454
         9 -10.2878    116.4530     16.8024   2.5369963111e+01   5.3450097656e+01    0.3723523    0.2069875 -50.07  0.001692811    2.095    0.523
        10 -11.0736    227.1090     15.8912   1.2378193838e+01   2.6876846475e+01    0.4197534    0.2893008 -79.49  0.002659574    1.316    0.240
        11 -12.0321     78.0782     13.9144   3.3572513638e+01   6.3048138406e+01    0.4198205    0.3265053   6.45  0.002396528    1.399    0.285
        12 -13.4433    166.9140     10.7617   1.6105468998e+01   4.1247764583e+01     1.430506    0.5050747  64.33   0.00590586    2.445    0.591
        13 -12.7337    169.8499      2.5570   1.3484264715e+01   4.1292053125e+01     1.613055    0.5122061  88.22  0.005260575    4.191    0.761
        14 -12.3919    156.1863     12.2050   1.7729133708e+01   4.3789203114e+01    0.5957462    0.4135135 -86.25  0.003013585    1.370    0.270
        15 -12.5859    158.2154      4.1037   1.5055121983e+01   4.4036427620e+01     1.030725    0.4287545  68.69  0.004589499    2.062    0.515
        16  -9.7549    129.6740     13.3120   2.1751924371e+01   5.0434183551e+01    0.2907089     0.166301  38.79  0.001339025    2.042    0.510
        17 -10.6790    231.8867      9.2443   1.0631853557e+01   2.6594603504e+01    0.4051295    0.2291698 -62.36  0.002401756    1.494    0.331
        18 -11.3873    146.3370      4.6854   1.6548391517e+01   4.6978196234e+01    0.4225423    0.2573905 -59.38  0.002156966    1.701    0.412
        19 -11.5113    141.3338      1.6759   1.6168607169e+01   4.8503009184e+01    0.6230351    0.2785345 -36.25  0.002863486    2.247    0.555
        20 -10.5858    106.7701      5.4710   2.2784579438e+01   5.6952559791e+01    0.4071197    0.2190398 -81.29  0.001688822    2.699    0.630
        21 -11.2835     71.1402      5.7266   3.1675042854e+01   6.5439104671e+01    0.4265492    0.2309351  62.22  0.002082638    1.796    0.443
        22 -11.3547    205.9686      4.2662   1.1128133477e+01   3.2642906220e+01    0.5940813    0.1939985  79.89  0.002474113    2.990    0.666
        23 -10.5434    129.3391      4.3093   1.8625319671e+01   5.1336850572e+01    0.3316062    0.2270725  64.09  0.001238671    1.278    0.218
        24 -10.1753    134.3269      2.3524   1.7267733187e+01   5.0228861508e+01    0.4035281    0.2190809  41.50  0.001901683    2.106    0.525
        25 -11.0250    121.1711      4.1112   1.9770637440e+01   5.3432581361e+01    0.4854153    0.3805239  70.13  0.002831184    1.111    0.100
        26 -11.8967     83.7299      3.7294   2.7108872936e+01   6.2718970897e+01     0.836612     0.321584  63.97  0.003458429    2.347    0.574
        27 -10.4600     61.4048      2.0428   3.2952359854e+01   6.7912161961e+01    0.4344911    0.1433231  47.10  0.001787039    2.472    0.595
        28  -9.3640    217.8542      1.8713   9.8334679815e+00   3.0273446810e+01    0.1744871     0.111129 -63.81 0.0007575613    1.300    0.231
        29 -10.6538     25.4764     64.9608   7.8184208680e+01   6.2723310633e+01    0.3638782    0.2391776 -64.89  0.001907653    1.504    0.335
        30 -13.4395    240.8598    125.2466   3.4891405739e+01   9.3399261256e+00     1.151216    0.9731677  64.85    0.0075002    1.542    0.352
        31 -11.0793    159.8281    231.8835   6.9266167676e+01   5.0933807489e+00    0.1974958    0.1505059   9.42  0.001244322    1.228    0.186
        32 -11.2538      4.1934    124.4814   9.6648232679e+01   4.9409343135e+01      0.30061    0.2211152  45.82   0.00177492    1.404    0.288
        33 -11.5772     10.5695    121.4629   9.4206320831e+01   4.9765075943e+01    0.3908777    0.2390482  34.09  0.002072348    1.715    0.417
        34  -9.9621    154.6637    120.6802   4.9299378745e+01   2.6882050451e+01     0.156481     0.120249   3.93 0.0007049624    1.705    0.414
        35 -11.5112    190.4405    113.5443   4.0254855783e+01   2.0649753143e+01     0.975939    0.4811738 -22.11  0.003383729    3.332    0.700
        36 -10.1755      2.9456    116.1913   9.6307481837e+01   5.1582224478e+01    0.2137805    0.1266773 -35.38  0.001090896    1.957    0.489
        37 -10.9066    212.8626    112.8312   3.6316007849e+01   1.6290674017e+01    0.4926141    0.2387288 -38.83  0.002220676    1.832    0.454
        38 -10.4644    224.3175    111.2999   3.4250900900e+01   1.4377025956e+01    0.4732002     0.246788 -52.88  0.002126826    2.270    0.560
        39 -10.6147    220.4944    107.5113   3.3964569272e+01   1.5691487482e+01    0.3140417    0.2164035 -30.13  0.001514751    1.348    0.258
        40 -10.8616    223.9932    106.5007   3.3235332045e+01   1.5191673293e+01    0.2707036    0.1835552  37.32  0.001456411    1.778    0.438
        41 -10.0301    148.4360    110.8325   4.8258834288e+01   3.0237074217e+01    0.2981656    0.1455392 -46.90  0.001130664    2.082    0.520
        42 -10.7067     16.8519    104.0252   8.9775782886e+01   5.3780997719e+01    0.3910897    0.2132375  30.13  0.001913373    1.944    0.486
        43 -10.0385     30.5523    101.9909   8.4136699373e+01   5.3139500175e+01    0.3373074    0.1815743 -42.57  0.001513956    1.936    0.484
        44  -9.4142    208.6411     94.2091   3.2650889211e+01   2.0158669507e+01    0.1971733    0.1213545 -28.34 0.0008501848    1.660    0.398
        45  -9.9093    178.7525     92.5490   3.7169322027e+01   2.6883653318e+01      0.30193    0.2302458 -54.97  0.001528682    1.338    0.253
        46 -10.5967     12.8326     89.8715   8.9235767313e+01   5.7648056735e+01    0.2127719     0.163942 -48.08  0.001020213    1.207    0.172
        47 -12.8911     15.1039     73.2702   8.5178727848e+01   6.1594100191e+01     0.832267    0.6369956  34.79  0.004784411    1.469    0.319
        48 -12.4367      4.5456     75.3740   9.0493595646e+01   6.1721397931e+01    0.7791929    0.4819682  83.47  0.004045382    1.865    0.464
        49 -11.0844      2.7200     88.4823   9.3259564209e+01   5.8577658587e+01     0.441234    0.2603965  89.63  0.002269472    1.723    0.420
        50 -10.3923      2.8011     83.2067   9.2491103814e+01   5.9883465157e+01    0.3183806    0.2083674 -69.52  0.001091769    1.303    0.233
        51  -9.6052     20.2915     88.6547   8.5881303740e+01   5.7413313129e+01    0.1369979   0.09729688  68.69 0.0004086475    1.660    0.398
        52 -10.1104    193.6567     86.9306   3.3191557147e+01   2.4522632916e+01    0.3465433     0.214785  67.71  0.001313853    1.887    0.470
        53 -12.0331     41.6361     82.2171   7.5317122034e+01   5.6892343324e+01    0.8838454    0.4697796  24.09  0.003932412    2.042    0.510
        54 -10.5819     47.5053     76.0409   7.1114731129e+01   5.7621060614e+01    0.3282672    0.2978342 -63.05  0.001889555    1.140    0.123
        55  -8.9502    145.3114     81.6773   4.0956039641e+01   3.6638824417e+01    0.1571609    0.1184126 -76.12 0.0007038496    1.653    0.395
        56  -9.7605    215.1468     79.7116   2.8312984751e+01   2.1079025829e+01    0.2520166    0.1607012 -46.17  0.001314724    1.404    0.288
        57 -10.0588    220.8667     77.9919   2.7177268270e+01   2.0166574991e+01     0.294737    0.1857035 -69.42  0.001459695    1.995    0.499
        58  -9.7573    169.6276     76.4817   3.4546241384e+01   3.1750214098e+01    0.2987442    0.2500007 -81.31  0.001571223    1.281    0.219
        59 -10.5524     18.1793    127.8304   9.2326094027e+01   4.7572223789e+01    0.1898011    0.1450632 -52.38  0.001010246    1.322    0.244
        60  -9.1032    100.6700     83.6877   5.3547510844e+01   4.6486234589e+01    0.1572799    0.1227982   2.52 0.0007043381    1.672    0.402
        61 -10.0999     74.5349     69.5145   5.7989433055e+01   5.4733204031e+01     0.283036    0.2112622  39.07  0.001080983    1.337    0.252
        62  -9.4201     83.4021     69.2102   5.4621231067e+01   5.3081725812e+01    0.2135925     0.141716 -54.51 0.0009562501    1.680    0.405
        63 -11.6179    214.3721     67.1478   2.5433861027e+01   2.3098801948e+01    0.3261992    0.2570972   1.30  0.001725506    1.756    0.431
        64  -9.4118    179.1951     66.3864   3.0152979824e+01   3.1115286265e+01    0.2041049    0.1342464  77.25  0.000953662    1.721    0.419
        65 -10.7204    233.0464     64.4870   2.2710099509e+01   1.9660913087e+01    0.2930317    0.1750119  58.07  0.001605348    1.906    0.475
        66 -11.7374    240.4448    228.7739   5.3988523686e+01  -4.9720740789e+00    0.4288251    0.2244519  35.46  0.002629467    2.028    0.507
        67 -11.2403    199.1428     52.4970   2.3700086390e+01   2.8517243052e+01    0.4265031    0.2647947 -31.69  0.002161379    1.608    0.378
        68  -9.7174    164.9810     53.7735   2.8922441288e+01   3.6459452801e+01     0.253885    0.1947906 -12.32  0.001274764    1.644    0.392
        69  -8.8991    132.3227     63.6711   3.8424507223e+01   4.2985287614e+01    0.1573227    0.1163348 -75.33 0.0007049217    1.694    0.410
        70  -9.8744     34.9113     52.8263   6.9680437391e+01   6.4435506173e+01     0.239099    0.1802272  26.10 0.0009137694    1.369    0.270
        71 -10.9299     85.2261     48.1307   4.6205415945e+01   5.6668456378e+01    0.4925227    0.3782297  47.52   0.00255275    1.259    0.206
        72 -11.4001    248.4435    224.6986   5.2065694284e+01  -5.3940040482e+00     0.483369    0.2490112 -24.24  0.003016114    1.688    0.408
        73 -10.8111      5.8803     35.3764   8.0270882481e+01   7.0831373378e+01     0.612705    0.1864038  21.18  0.002567897    3.270    0.694
        74 -11.6313     40.1617     29.6549   5.7343345656e+01   6.8221312873e+01    0.4936553    0.2975244 -39.45  0.002361887    1.632    0.387
        75 -10.2999      4.0120    230.3761   1.0262247958e+02   2.5083723694e+01    0.2489408   0.09151795  28.49  0.001261891    2.499    0.600
        76 -11.2786    191.1761     37.4135   2.0759430122e+01   3.2356287177e+01    0.4532996    0.1386442 -46.06  0.001651469    3.020    0.669
        77 -11.3890      3.3470     41.4077   8.3706338299e+01   6.9683868056e+01    0.4199677    0.4144429  53.04  0.002815941    1.253    0.202
        78  -9.5580     31.6736    227.3124   9.6685000745e+01   2.2992187449e+01     0.130551   0.06602088  56.52 0.0004747286    1.664    0.399
        79 -10.1316    145.1252     28.0157   2.4251378970e+01   4.4894354607e+01    0.4465887    0.2207878 -69.81  0.001610797    3.195    0.687
        80  -9.8298     90.2850     28.6876   3.6555584709e+01   5.8469375753e+01    0.2424744    0.1755172 -31.93  0.001264894    1.478    0.323
        81 -10.2023     67.3939     28.7801   4.4418770129e+01   6.3475970857e+01     0.189797    0.1275468 -18.56  0.000953259    1.658    0.397
        82 -11.2218    158.4012    225.1808   6.8598976092e+01   6.3563859035e+00    0.2263119    0.1908636  59.94  0.001426131    1.601    0.376
        83 -12.3640    210.1035    215.2293   5.6991682411e+01   5.4162150985e-01    0.5142072    0.2937322  19.46   0.00289967    1.673    0.402
        84 -10.8028     50.6850    217.9318   9.1817702922e+01   2.2770959050e+01    0.2422933    0.2057593  34.81  0.001602086    1.212    0.175
        85  -9.2038    102.6663     25.7139   3.1936084499e+01   5.5887761941e+01    0.1473311   0.09836323  34.29 0.0004431217    1.623    0.384
        86  -9.7332    246.5157     24.0002   1.2843282931e+01   2.2095004097e+01    0.1461012    0.1004672  -1.85 0.0008100048    2.537    0.606
        87  -9.8670    224.7309     23.2164   1.4179816852e+01   2.6564841330e+01    0.2223958     0.129208 -40.20   0.00111585    1.479    0.324
        88  -9.9003    187.3514     19.4992   1.6454249437e+01   3.5371212617e+01    0.2477056    0.1768006  81.05  0.001106803    1.302    0.232
        89 -10.2040    128.5249     18.3648   2.3733142659e+01   5.0216766832e+01    0.2725894    0.2021564  72.23  0.001310664    1.229    0.187
        90  -9.5758     67.6720    217.6648   8.7883621002e+01   2.0727046474e+01    0.1205956   0.09794901 -17.69 0.0007051867    1.723    0.420
        91 -12.5697    182.9223    216.3220   6.2292932822e+01   4.1809517745e+00    0.5931008    0.3405502  -0.20  0.002809343    2.461    0.594
        92  -9.8250     94.1014     16.9212   3.0424950849e+01   5.8971679181e+01     0.289366    0.1924896  85.44  0.001216594    1.923    0.480
        93  -9.8158    141.1431    206.5619   6.9518650070e+01   1.2174794590e+01    0.2148629    0.1588822 -39.99  0.001207805    1.500    0.333
        94  -9.3671     64.6520     16.3225   3.9379375459e+01   6.5704770788e+01    0.1277194    0.1058095 -78.29 0.0007049307    1.742    0.426
        95  -9.7103     20.5022     15.2479   6.1624468987e+01   7.3329342595e+01    0.2922913    0.1543313  -2.92  0.001033705    2.972    0.664
        96  -9.6275    247.3294     15.6609   1.1080490982e+01   2.2858145615e+01    0.1288146    0.0621094 -57.99 0.0007051794    1.737    0.424
        97 -12.3383    248.2228    185.1432   4.5398810402e+01  -3.7261294127e-01     1.079647    0.3793164 -41.31  0.004853306    2.971    0.663
        98 -12.1870    244.2746    200.8263   4.8767514075e+01  -1.9467374279e+00    0.7055632    0.5095974 -29.51  0.004665302    1.350    0.259
        99 -11.4449    247.3246    192.6219   4.6863921190e+01  -1.2538399156e+00    0.3796319    0.3157752 -15.97  0.002775374    1.208    0.172
       100  -9.8728    202.6862    197.0037   5.5246939916e+01   4.2537371147e+00    0.1799913    0.1486087 -13.06  0.001154954    1.101    0.092
       101 -10.3756    204.2608    192.5868   5.4168560504e+01   4.6991523925e+00    0.3436628    0.1666329  24.47   0.00157517    2.331    0.571
       102  -8.6237    220.3172     11.3013   1.1803937039e+01   2.8796134091e+01    0.1085113   0.09101589  44.58 0.0003905016    1.619    0.382
       103 -11.1687    195.9502    185.3452   5.4415271051e+01   7.1229543378e+00    0.3505639    0.3228986  51.97  0.002235142    1.444    0.307
       104  -9.8777     37.2405    185.5838   9.2415842670e+01   3.1436918348e+01     0.173831    0.1247303  14.12 0.0009523709    1.720    0.418
       105  -9.8312     26.4994    180.4997   9.4777817838e+01   3.3744988468e+01    0.1309931    0.1090055  67.92 0.0008105977    1.022    0.022
       106 -10.2462    173.5020    158.5204   5.3689245489e+01   1.5669151032e+01    0.1422601    0.1309047  -0.04 0.0008103027    1.013    0.013
       107 -10.4500    215.3765    156.5460   4.5282252308e+01   8.6666157173e+00    0.3433579     0.157805 -31.45  0.001530124    2.114    0.527
       108 -10.5194    220.1586    155.8932   4.4339597313e+01   7.9889930703e+00    0.1930501    0.1751178 -39.73  0.001005175    1.263    0.208
       109  -9.8771     20.7551    155.4146   9.4275612515e+01   4.0369379617e+01    0.1662489    0.1290105   4.54  0.000833543    1.628    0.386
       110 -10.3649    162.7117    152.2771   5.4715191344e+01   1.8895359880e+01    0.2559734    0.2398267  76.05  0.001437556    1.259    0.206
       111 -12.7001     11.3860    140.6746   9.5777397663e+01   4.4828497088e+01    0.7429079    0.3324386  78.95  0.003135327    2.477    0.596
       112  -9.7169     53.8380    143.6651   8.2859144623e+01   3.9789012866e+01    0.2591903     0.182812 -59.06  0.001305618    1.389    0.280
       113  -8.9077     23.6669    141.3117   9.2027103175e+01   4.3661077666e+01    0.1453229   0.08823156  61.40 0.0004812975    1.678    0.404
       114 -10.8988      3.2050    138.7493   9.8130261837e+01   4.5880630320e+01    0.2159868     0.157574  31.74  0.001279353    1.472    0.321
