#   1 NUMBER                 Running object number                                     
#   2 MAG_AUTO               Kron-like elliptical aperture magnitude                    [mag]
#   3 X_IMAGE                Object position along x                                    [pixel]
#   4 Y_IMAGE                Object position along y                                    [pixel]
#   5 X_WORLD                Barycenter position along world x axis                     [deg]
#   6 Y_WORLD                Barycenter position along world y axis                     [deg]
#   7 A_WORLD                Profile RMS along major axis (world units)                 [deg]
#   8 B_WORLD                Profile RMS along minor axis (world units)                 [deg]
#   9 THETA_WORLD            Position angle (CCW/world-x)                               [deg]
#  10 FWHM_WORLD             FWHM assuming a gaussian core                              [deg]
#  11 ELONGATION             A_IMAGE/B_IMAGE                                           
#  12 ELLIPTICITY            1 - B_IMAGE/A_IMAGE                                       
         1 -14.5642    147.8436     62.0576   8.8319358260e+01   4.0042148655e+01     1.248755     1.128573  -5.48    0.0011003    1.166    0.142
         2 -14.8532    158.2857     47.3327   8.1366644076e+01   3.9737482744e+01     1.349736     1.076972 -27.75  0.003847179    1.294    0.227
         3 -14.9211    170.5883     16.3703   6.9375686188e+01   4.0444973246e+01     1.331466     1.168733  74.63  0.005574938    1.064    0.060
         4 -14.0705    188.5234     13.5642   6.6172426989e+01   3.6128116279e+01    0.9767429    0.5474213 -71.33  0.004157196    2.186    0.543
         5 -13.1291    198.1918      7.5507   6.3389108571e+01   3.4282184135e+01    0.3811723    0.2990775 -47.05  0.002155909    1.264    0.209
         6 -13.2546    204.4083    175.3633   1.0526104780e+02   6.6307242469e+00    0.5451577    0.5019905  18.22  0.001547018    1.047    0.045
         7 -19.9822     89.8368    221.5991   1.3512200213e+02   1.8516174506e+01     8.108362     6.148306  62.76   0.04711368    1.071    0.066
         8 -12.3346    196.9331    176.4580   1.0691264581e+02   7.8828439407e+00    0.3759826    0.2977827  38.75 0.0008914274    1.180    0.152
         9 -13.9414    192.4238    163.8066   1.0523835189e+02   1.0921662453e+01      1.37281    0.5624807 -49.69  0.002204396    3.212    0.689
        10 -12.4175    200.6390    167.7083   1.0443616244e+02   8.6223682520e+00    0.5972227    0.3624781  39.58  0.001903642    1.567    0.362
        11 -11.0798    203.5927    163.7595   1.0304961431e+02   8.7028838330e+00    0.2979687    0.2428114 -53.20 0.0008307446    1.472    0.321
        12 -12.0857    163.9612    169.8037   1.1228845118e+02   1.5517672093e+01    0.2405329    0.2141312 -46.08 0.0009437688    1.204    0.169
        13 -12.6402    230.5320    167.7584   9.8932065765e+01   2.9102103570e+00    0.4136665    0.2188926 -46.35  0.001862681    2.345    0.574
        14 -10.0854      8.4552    169.5471   1.4658922403e+02   3.8585214515e+01    0.1114193   0.08524009 -89.40 9.504006e-05    1.079    0.073
        15 -12.5786    116.1608    247.3200   1.3295396161e+02   1.0288680504e+01    0.3865077    0.2399732 -36.52  0.002195391    2.865    0.651
        16 -10.1066     30.3160    224.2801   1.4608338118e+02   2.5604595426e+01   0.08729836   0.08005419 -74.01 0.0005303255    1.575    0.365
        17 -19.1580     76.2279     99.1932   1.1899761011e+02   4.7047354754e+01      18.2815    0.7947729 -54.01   0.02472027   19.410    0.948
        18 -10.3440     23.0705    156.1149   1.4234998656e+02   4.0192010417e+01    0.1676215    0.1371454 -70.85 0.0004585203    1.236    0.191
        19 -10.7783    176.9445    154.9668   1.0652654316e+02   1.5683068249e+01    0.2145038    0.2072286  62.44 0.0005095552    1.101    0.092
        20 -13.7998    161.1878    152.8669   1.0944809907e+02   1.9348678582e+01    0.5270272    0.4692799  73.42  0.002056356    1.230    0.187
        21 -11.2669     18.1302    152.1565   1.4309599899e+02   4.1508573869e+01    0.4169835    0.1487566 -72.95  0.001902447    2.248    0.555
        22 -12.5414    174.1062    148.5718   1.0573709730e+02   1.7487776762e+01    0.4289881    0.3321952 -53.87  0.001181365    1.425    0.298
        23 -10.3360      7.9662    149.4659   1.4515397260e+02   4.2937992059e+01    0.1854087    0.1176672 -79.92 0.0007659529    1.226    0.184
        24 -11.5397    171.9990    138.1161   1.0382961826e+02   1.9958277734e+01    0.2306245    0.2245137  38.03 0.0006253201    1.019    0.019
        25 -11.8549    151.7531    249.2885   1.2690122683e+02   4.5194850376e+00    0.3054099    0.1651301  34.87  0.001315297    1.669    0.401
        26 -13.1945    160.7372    128.0479   1.0392936159e+02   2.4419065285e+01    0.5014592    0.4257432 -74.04  0.001688509    1.365    0.267
        27 -11.6200     24.5869    215.5810   1.4654743039e+02   2.7829733276e+01    0.1532407    0.1149739  61.39 0.0003531762    1.177    0.150
        28 -12.3658    127.5443    246.2235   1.3083038861e+02   8.7287283964e+00    0.3436371    0.2694412 -32.95  0.001793473    1.891    0.471
        29 -11.2091    167.4319    112.6719   9.8589458873e+01   2.5975334775e+01    0.3337719    0.2554435 -81.94  0.001269149    1.773    0.436
        30 -11.0177      3.6446    112.3951   1.4263653401e+02   5.1476108760e+01    0.2744323    0.1757751   2.77  0.001707205    2.329    0.571
        31 -10.8903    205.3593    110.2326   9.0326197491e+01   1.7650069293e+01    0.3089921    0.2084739  45.79 0.0009933462    1.521    0.343
        32 -12.0239     31.1951    104.5365   1.3370646271e+02   5.1183413021e+01    0.3330669    0.2240387   2.19  0.001453481    2.166    0.538
        33 -11.1681    124.6740     95.4499   1.0421876891e+02   3.9043659911e+01    0.2567047    0.1872992 -21.00 0.0009226334    1.684    0.406
        34 -12.3105    114.5316     94.8784   1.0678361220e+02   4.1255808914e+01    0.4542314    0.3242834 -12.65   0.00199805    1.992    0.498
        35 -12.5667     51.3807     91.7963   1.2497054337e+02   5.2028026372e+01    0.3156146    0.2774149  -0.63 0.0006869581    1.349    0.259
        36 -13.1780     11.6354    205.7534   1.4825325438e+02   3.0991446781e+01    0.3721603    0.2920226  25.38  0.002671092    1.910    0.477
        37 -10.6531     24.7665    202.7805   1.4570351252e+02   3.0269300770e+01    0.1469434    0.1109052  85.37 0.0003214866    1.103    0.093
        38 -11.0692    142.8004     81.5136   9.5559306114e+01   3.7778388963e+01    0.2872324    0.2135308 -38.23 0.0005942908    1.333    0.250
        39 -10.0063    104.3642     82.0330   1.0593464429e+02   4.5948336692e+01    0.2014041    0.1799287 -41.34  0.001092847    1.069    0.064
        40 -10.8104     21.2662    194.4812   1.4579858970e+02   3.2269884796e+01    0.1260533   0.09451904  56.38 0.0004349594    1.264    0.209
        41 -11.6417    163.5028    243.5582   1.2411065385e+02   3.4579610194e+00    0.2415963    0.1767746  28.33 0.0009189202    1.318    0.241
        42 -13.4239    162.5097     38.6011   7.7753408223e+01   3.9878947240e+01    0.4806869    0.4781783 -87.84 0.0008407955    1.034    0.033
        43  -9.8289     21.9426     59.9844   1.2762846668e+02   6.1821541484e+01    0.1400508    0.1172137 -43.82 0.0004002615    1.070    0.065
        44 -11.1970     13.4626     59.9438   1.3086431000e+02   6.2432556710e+01    0.1764248    0.1597985  60.80  0.000436389    1.414    0.293
        45 -10.8230     14.0613    241.4661   1.4963624588e+02   2.4276141846e+01    0.3051345   0.09859197  87.32  0.001525377    3.331    0.700
        46 -10.3679     28.2902    233.4186   1.4695504991e+02   2.4183061392e+01    0.1007657    0.0712195  77.19 8.395418e-05    1.090    0.082
