#   1 NUMBER                 Running object number                                     
#   2 MAG_AUTO               Kron-like elliptical aperture magnitude                    [mag]
#   3 X_IMAGE                Object position along x                                    [pixel]
#   4 Y_IMAGE                Object position along y                                    [pixel]
#   5 X_WORLD                Barycenter position along world x axis                     [deg]
#   6 Y_WORLD                Barycenter position along world y axis                     [deg]
#   7 A_WORLD                Profile RMS along major axis (world units)                 [deg]
#   8 B_WORLD                Profile RMS along minor axis (world units)                 [deg]
#   9 THETA_WORLD            Position angle (CCW/world-x)                               [deg]
#  10 FWHM_WORLD             FWHM assuming a gaussian core                              [deg]
#  11 ELONGATION             A_IMAGE/B_IMAGE                                           
#  12 ELLIPTICITY            1 - B_IMAGE/A_IMAGE                                       
         1 -13.5390     80.1496     58.2084   3.2279747271e+01   5.6338793493e+01     1.933986     1.386014  13.32  0.008328147    2.146    0.534
         2 -14.4930    101.0017     49.8613   2.2422202384e+01   5.2966713004e+01     1.292197     1.060445  28.57  0.004977248    1.494    0.331
         3 -15.0527      6.5240     71.4128   7.4264952051e+01   6.4022707950e+01     1.312522    0.9614486 -69.82  0.005123901    1.288    0.224
         4 -13.0029    120.4884     26.1403   9.2913469993e+00   5.1528891985e+01    0.9372161    0.6768991  43.62  0.004876846    1.631    0.387
         5 -13.1752    136.0394     50.7713   1.4779213254e+01   4.4193113189e+01     1.171364    0.4821521 -36.63    0.0045844    2.403    0.584
         6 -14.7025    166.9019     29.2717   3.9988685743e+00   3.9794823913e+01     1.050377    0.7969565 -85.37  0.003980145    1.200    0.167
         7 -14.8336    147.4887     29.6028   6.3768193306e+00   4.4354372676e+01     1.488942     0.779452  68.31  0.007092897    1.806    0.446
         8 -13.0244    140.4824     21.4906   4.7334222127e+00   4.7048710861e+01    0.6883073      0.33276  70.46  0.001546378    1.897    0.473
         9 -14.6988    124.4914     35.9001   1.2017553158e+01   4.9237289696e+01     1.572017    0.6187937  50.81  0.004987121    2.728    0.633
        10 -13.3122      6.2891     43.1640   6.8565858601e+01   7.1288158550e+01     1.466119    0.6824664  -3.09  0.004203894    2.431    0.589
        11 -14.1941     41.5519      5.0746   2.2136393403e+01   7.3435349304e+01     1.127185    0.7178987  21.70  0.005684634    1.945    0.486
        12 -13.0451      7.8863      2.4824   4.7303970953e+01   7.9796340803e+01    0.5697238    0.5093518  26.50  0.002763962    1.220    0.180
        13 -15.9943     11.9986     22.3466   5.5785986157e+01   7.5556823941e+01     2.132146     1.285946 -28.60  0.009108605    1.755    0.430
        14 -14.0883     26.3852     13.2950   3.7831008585e+01   7.5261250553e+01    0.8221047    0.5186383  15.57  0.003964185    1.960    0.490
        15 -15.1271    217.8360     16.6532   3.5699788656e+02   3.0532407168e+01     1.726576    0.7881573 -36.12  0.009751711    1.782    0.439
        16 -12.8448    229.7514      2.3397   3.5344108147e+02   2.9804552276e+01    0.7559581    0.2137132  77.38  0.003652836    3.602    0.722
        17 -14.7525    212.2398     40.7326   2.6962312916e+00   2.8798795936e+01     1.833541    0.6125795  78.82  0.007455984    4.051    0.753
        18 -13.3243    243.0666     35.1601   3.5941382141e+02   2.3968255240e+01    0.5512909    0.4452423 -84.05  0.003100962    1.354    0.261
        19 -14.9505    189.2334     20.1063   3.5961139071e+02   3.5910736818e+01     1.679526    0.6932896 -44.89   0.00836843    1.895    0.472
        20 -15.4892     99.6118     11.9941   7.5632877912e+00   5.8499106619e+01     1.656904    0.9224126  64.35  0.003886207    1.562    0.360
        21 -12.2581     60.2995     15.5810   2.0250433414e+01   6.7926382683e+01    0.5874594    0.3790807  42.56   0.00280296    1.493    0.330
        22 -11.7612     71.0225     16.5186   1.6893629111e+01   6.5241570727e+01    0.4091209    0.2756366 -19.29  0.001739508    1.808    0.447
        23 -12.2162     74.4988     10.4803   1.2693514304e+01   6.5063695295e+01    0.4045407    0.2784109 -18.08  0.002124784    1.751    0.429
        24 -12.0040     46.5889     12.7389   2.4687061529e+01   7.1391873286e+01    0.3930472    0.2902324  69.85  0.001508879    1.553    0.356
        25 -11.0480    142.6975     11.8634   1.3997630312e+00   4.7547779022e+01    0.2738832    0.1353303 -72.01  0.001226462    2.111    0.526
        26 -12.1720    152.8820      8.7901   3.5946877714e+02   4.5380006167e+01    0.2803295    0.2626701  62.27  0.001867746    1.320    0.242
        27 -12.6951     85.6342     13.9864   1.1481178265e+01   6.1877398470e+01    0.5135768    0.3606886 -48.78  0.002074386    1.535    0.348
        28 -12.9717     45.9940     33.2677   3.6772326522e+01   6.8266777649e+01    0.8947877    0.6028847  43.59  0.004351225    1.392    0.282
        29 -12.7160    119.8236      3.0111   9.3624379381e-01   5.4142227670e+01    0.5561551    0.2473166 -81.53  0.002224812    2.494    0.599
        30 -10.7070    192.8740      2.6605   3.5511592463e+02   3.6964025790e+01    0.1664712    0.1232291 -70.38 0.0006462767    1.088    0.081
        31 -11.3621     67.7350      2.8059   1.0468449340e+01   6.7500985818e+01     0.341097    0.1941727  47.37  0.001687358    1.653    0.395
        32 -11.8600     61.2827      1.5464   1.1675074926e+01   6.9205575456e+01    0.5082865    0.1570957  68.53  0.001774991    3.185    0.686
        33 -12.1810     80.4030      1.7586   6.7505599267e+00   6.4395685317e+01    0.7131201    0.1223719  65.50  0.002195488    3.884    0.743
        34 -12.0508     48.2262     19.8426   2.8198523600e+01   7.0045630334e+01    0.7377995    0.2780365  52.76  0.002820743    2.545    0.607
        35 -11.3687     97.6601    187.6840   5.7072648403e+01   2.2266880282e+01    0.1469963    0.1055192 -14.41 0.0007048239    1.705    0.413
        36 -14.7260     95.2917    234.8381   6.3318715497e+01   1.2916808578e+01     1.618617    0.8503544  55.58  0.007583373    2.656    0.624
        37 -14.1797      9.4594    245.5028   8.4379213660e+01   1.9440886478e+01     1.052882    0.6503076  53.79  0.003899351    1.333    0.250
        38 -14.2416     26.7755    225.6921   7.9506924478e+01   2.1974588308e+01     1.330292    0.6859012  78.94  0.006751684    2.168    0.539
        39 -14.2138     20.9028    224.4698   8.0925838940e+01   2.2759639467e+01    0.8391399    0.7472162 -69.21  0.005361727    1.363    0.266
        40 -13.0067    198.0311    180.4067   3.3527030851e+01   9.6218301123e+00    0.4214329    0.3306026 -74.47  0.002419791    2.488    0.598
        41 -11.9236    109.3787    242.8628   6.0901523266e+01   9.8975705778e+00    0.3053862    0.2155488  33.46  0.001268968    1.251    0.201
        42 -12.9678    124.9826    167.9806   4.6749123754e+01   2.2550706663e+01    0.6688714    0.2968178 -53.65  0.002662154    2.391    0.582
        43 -10.3653    101.9692    161.0000   5.1680478732e+01   2.7793287348e+01    0.2521972   0.08158385  32.33 0.0008032424    2.948    0.661
        44 -14.1271     22.3371    180.8804   7.8294583374e+01   3.2827996222e+01     1.055293    0.6021064 -51.86  0.004952359    2.025    0.506
        45 -12.4455     77.3007    156.9675   5.8379035858e+01   3.2574949822e+01    0.6184458    0.3899476  24.95  0.001711581    1.589    0.371
        46 -13.2143     74.0138    153.4931   5.8869170295e+01   3.3949410994e+01    0.7597653    0.5525324  23.85   0.00214864    1.383    0.277
        47 -12.4051    111.9818    155.8575   4.7957546569e+01   2.7375598982e+01     0.597145    0.3621657  67.53  0.002242869    2.872    0.652
        48 -12.7025    208.5862    154.4850   2.7110495783e+01   1.2356064701e+01    0.5216079    0.3409016  29.11  0.003134531    1.744    0.427
        49 -11.7481     55.1790    155.6978   6.5368443352e+01   3.5936113749e+01     0.476985    0.3058952  -4.72   0.00190058    2.148    0.534
        50 -11.9249     85.7491    152.6812   5.5034845907e+01   3.2386092025e+01      0.56896    0.2902234 -43.91  0.002208407    2.219    0.549
        51 -11.7380    103.7006    149.6492   4.9112799754e+01   3.0222621488e+01    0.3946435    0.3042403 -10.49  0.001355884    1.608    0.378
        52 -12.8638      8.8509    149.8299   8.0764342304e+01   4.2089922482e+01    0.8433635    0.4325648  54.41  0.003717857    1.830    0.454
        53 -11.9023     59.6727    148.9697   6.2912272908e+01   3.7151125327e+01    0.2178302    0.2038765 -86.70  0.001167169    1.083    0.077
        54 -10.6733     38.2164    145.7815   6.9986312687e+01   4.0620771300e+01    0.2033047    0.1720458 -33.25 0.0004676146    1.339    0.253
        55 -12.3089     42.5798    138.9249   6.7539544771e+01   4.2030718367e+01    0.3450677    0.2389447   7.43  0.001564516    1.668    0.401
        56 -12.6806    246.4028    133.6559   1.8060660939e+01   1.0471799376e+01    0.3506568     0.253541 -43.73  0.002509797    1.270    0.212
        57 -11.4458     47.3795    133.0103   6.4908855016e+01   4.3098518712e+01    0.4595764    0.2107639 -71.58  0.001701803    2.266    0.559
        58 -12.7033    223.5611    128.1164   1.9900496573e+01   1.4354023727e+01     0.498917    0.3721441 -79.17  0.003007771    2.190    0.543
        59 -14.2351    233.7465    129.9262   1.8920517394e+01   1.2660033618e+01      0.87577    0.4495881 -40.82  0.005053727    1.548    0.354
        60 -10.3347     10.9579    134.0143   7.8940869974e+01   4.6314654966e+01    0.1701924    0.1565262  43.90 0.0003601257    1.084    0.077
        61 -11.7195    138.5083    131.7249   3.6122544779e+01   2.8070237681e+01    0.3708271    0.2677846  15.51  0.001737221    1.779    0.438
        62 -14.1074    105.2040    122.2604   4.2885156186e+01   3.6560628255e+01     1.844547     1.105018  33.63  0.007706611    1.749    0.428
        63 -14.7239    105.9853    104.6517   3.8283835822e+01   4.0565961674e+01     1.581188     1.520906  87.14  0.007551896    1.025    0.025
        64 -13.0310     28.4788    121.9785   7.0768220222e+01   4.8281601798e+01    0.5502701    0.4481114 -47.01  0.002375664    1.287    0.223
        65 -10.5018     59.0222    125.0291   5.9178754042e+01   4.3740860258e+01    0.1910605    0.1724801 -72.83 0.0004741898    1.113    0.102
        66 -11.8988    181.0674    120.2294   2.4780492747e+01   2.2483440282e+01    0.2465755    0.1879577 -51.06 0.0009535687    1.270    0.213
        67 -11.9161     42.9961     90.1680   5.8632028056e+01   5.5488707109e+01     0.495916     0.309403 -72.22  0.001117187    1.724    0.420
        68 -13.1109      4.8707    118.8111   8.0226832821e+01   5.0954113960e+01    0.9077597    0.5394804 -57.59  0.003448383    1.643    0.391
        69 -14.4373     18.3872    110.7213   7.3642302408e+01   5.2347864192e+01      1.02369    0.8895244 -31.59  0.003498871    1.234    0.189
        70 -14.8120     26.7021     93.7827   6.7243031772e+01   5.6383208885e+01     2.325522     1.045919   8.75  0.008307477    2.791    0.642
        71 -12.1364     79.1158    110.8790   4.8732911296e+01   4.4255049247e+01    0.4248374    0.3538086  82.75  0.001346289    1.341    0.254
        72 -11.8014     88.3640    109.4894   4.5165969352e+01   4.2899715566e+01    0.5175738    0.3264068 -66.75  0.001800493    1.834    0.455
        73 -13.8190      2.2954     96.9273   7.9591832262e+01   5.7220861138e+01     1.217599    0.3790312 -82.21  0.003703443    3.101    0.677
        74 -10.8073    186.0345    116.2112   2.3052825073e+01   2.2309750808e+01    0.1622756    0.1087452  47.89 0.0004740698    1.698    0.411
        75 -13.1323     21.2898     86.2451   6.8604200426e+01   5.8961249265e+01    0.9192944    0.5079497   6.72  0.002641518    2.059    0.514
        76 -11.4307    194.8533    113.1652   2.0975129609e+01   2.1285242733e+01    0.1758976    0.1469453 -14.80 0.0007348506    1.319    0.242
        77 -11.3835     45.8568    110.1047   6.1603788003e+01   4.9661416583e+01    0.4353941    0.2608512 -47.97  0.001475427    1.733    0.423
        78 -10.5657     42.9415    107.2469   6.2299580155e+01   5.0826063981e+01    0.2191617    0.1945707  36.84 0.0004368044    1.118    0.106
        79 -12.1846    121.3796    111.7258   3.5739278236e+01   3.5794625650e+01    0.3839647    0.2568805  62.61  0.001190151    1.811    0.448
        80 -11.8860     62.7125    108.7938   5.4430404598e+01   4.7581401917e+01    0.9821962    0.3871397 -66.16  0.003140023    2.961    0.662
        81 -11.0391     64.6642    101.7198   5.1991561331e+01   4.9139617658e+01    0.2413132    0.2037787 -23.43 0.0002558602    1.364    0.267
        82 -11.9735     61.5728     97.9395   5.2314367616e+01   5.0642370784e+01    0.5611213    0.4046926  62.85   0.00168604    1.595    0.373
        83 -11.2161    177.0103    110.0070   2.3202861986e+01   2.5047346761e+01    0.2174755    0.1682313  -3.34  0.001150425    1.729    0.422
        84 -13.9166     11.1777    103.0622   7.6012921455e+01   5.5020739725e+01    0.9449478    0.7073795  12.10  0.004129799    1.418    0.295
        85 -12.6515    136.0232    102.8373   2.9782251088e+01   3.4649113097e+01    0.6033337    0.3578082  47.53   0.00167252    1.740    0.425
        86 -13.3091    120.3885    102.3626   3.3590210778e+01   3.8064436209e+01    0.6060888    0.3658613  36.12  0.002538437    1.880    0.468
        87 -12.6891     49.7190     98.9641   5.7613566915e+01   5.2188525681e+01    0.9027344    0.5917685  11.06  0.003355935    1.849    0.459
        88 -11.7236     48.9603     93.1806   5.6597851683e+01   5.3851731513e+01    0.4760883    0.3252254  76.94  0.001963066    1.885    0.470
        89 -12.5604    249.2312     98.2852   1.1210618390e+01   1.4981477740e+01     0.332767    0.1223071 -39.56  0.001725964    1.968    0.492
        90  -9.8445     75.2914    100.6848   4.7597173102e+01   4.7552169287e+01    0.1612911    0.1219523  73.79  0.000477696    1.595    0.373
        91 -12.3841    163.8385     97.3332   2.2560324974e+01   2.9913965248e+01    0.3397077    0.2617432  53.75 0.0007223248    1.404    0.288
        92 -12.8792    137.2681     95.0978   2.7460646070e+01   3.5952443390e+01    0.4759209     0.373463  73.40  0.001260404    1.428    0.300
        93 -11.5458     90.3629     96.6694   4.1113685799e+01   4.5639311365e+01     0.313323    0.2921183  -9.23    0.0016081    1.211    0.174
        94 -11.3801    129.2287     96.0173   2.9618004585e+01   3.7511984460e+01    0.2765324      0.19847  67.82  0.001275132    1.604    0.377
        95 -13.6574     32.2432    112.3107   6.7805983958e+01   5.0637090928e+01    0.8756842    0.4322761 -56.13  0.003506585    1.939    0.484
        96 -10.4003     78.5493     87.0253   4.2575553918e+01   5.0311428789e+01    0.2277696     0.154981 -55.30 0.0004221399    1.507    0.336
        97 -12.9631     84.9444    115.0025   4.7669422808e+01   4.2148354982e+01     1.029708    0.5693191  19.47   0.00356596    2.667    0.625
        98 -13.3259    188.5164     84.0612   1.5343384444e+01   2.7244735592e+01    0.6167877    0.3445655  45.78  0.002196115    2.227    0.551
        99 -12.9773    152.4343     83.0734   2.1046428313e+01   3.4919842232e+01    0.9104202    0.2988471  42.13  0.002538349    5.266    0.810
       100 -12.2008    158.8271     65.1883   1.5053658516e+01   3.6550042619e+01    0.8326545    0.2721413 -46.79  0.002947396    2.909    0.656
       101 -13.6328    164.8655     70.8332   1.5598711383e+01   3.4290969894e+01     1.146663    0.4750216  50.95  0.004159832    2.686    0.628
       102 -13.6977    160.6037     80.7776   1.8935095683e+01   3.3544443463e+01     1.131238    0.6801429  25.75  0.003535197    3.485    0.713
       103 -14.3512    169.5443     76.9767   1.6450305073e+01   3.2269716298e+01     1.396324    0.5219234  57.12  0.005475035    2.844    0.648
       104 -12.9549    242.2721     83.5766   9.0497451672e+00   1.7992480425e+01    0.3625962    0.2168305  70.74  0.002278432    2.264    0.558
       105 -13.2357    237.9301     79.8415   8.7185137292e+00   1.9169057916e+01    0.3709965    0.2698891  79.76  0.002462071    1.743    0.426
       106 -11.7925     98.0450     83.6965   3.4796404270e+01   4.7002250881e+01    0.2889993    0.2201736 -79.48  0.001159739    1.596    0.373
       107 -13.1244     57.0668    246.8462   7.3352502816e+01   1.4805886616e+01    0.6134167    0.3526892  17.32  0.003137597    1.596    0.373
       108 -13.8906     39.6187     67.6094   5.4232292325e+01   6.1803491350e+01     3.886408    0.9830257  26.02   0.01019482    4.851    0.794
       109 -13.8956    170.9456    242.1084   4.7935690227e+01   3.3303963941e+00    0.7394764    0.4484614  13.04  0.004735209    1.378    0.274
       110 -13.6488     66.3080     49.2998   3.4243303401e+01   6.1116521454e+01     1.387935    0.8181328 -31.00   0.00583055    2.155    0.536
       111 -13.7681     74.5866     73.6616   3.9910335161e+01   5.4228770525e+01     1.641119     0.825586  23.79  0.004941546    3.890    0.743
       112 -13.5536     87.3425     65.2479   3.2286218620e+01   5.3305871769e+01    0.8060847    0.6138674  -3.59  0.002556778    1.976    0.494
       113 -13.2219     55.5145     80.6507   5.0269047900e+01   5.6090940294e+01    0.6656574    0.5369458 -42.84  0.001714227    1.289    0.224
       114 -13.8589     61.2958     75.7250   4.6159130862e+01   5.6302962269e+01    0.9646801    0.5875133 -50.96  0.002474427    1.665    0.399
       115 -14.1556    197.9673     70.1265   1.0847323860e+01   2.7551091186e+01     1.065112    0.7809733  29.62  0.005071756    2.105    0.525
       116 -13.6701    214.3199     78.4613   1.0839980210e+01   2.3299594638e+01    0.8763537    0.6226177  86.73  0.005392754    1.721    0.419
       117 -12.0847    214.4018     71.6171   9.3421180568e+00   2.4266962039e+01     0.286341    0.2173953 -73.30  0.000939512    1.369    0.270
       118 -11.9365    114.2149     80.0723   2.8930555870e+01   4.4142957541e+01    0.4779567     0.331993 -52.53  0.001996873    1.454    0.312
       119 -12.0859     42.4268     78.0201   5.5806844162e+01   5.8768677487e+01     0.620637    0.3393337 -72.26  0.002446643    2.195    0.544
       120 -12.9271    135.2740     79.2390   2.3518386568e+01   3.9475976356e+01     0.784856    0.4056193  56.73  0.002965064    1.993    0.498
       121 -10.7555     90.1474     80.8525   3.6518935237e+01   4.9345899419e+01    0.2539993    0.2158488  81.93  0.001247639    1.288    0.224
       122 -12.3858    147.5196    238.8346   5.2176963975e+01   6.3103702647e+00    0.2388528    0.2167621  79.49  0.001079623    1.789    0.441
       123 -14.2529      5.6970     63.2814   7.3413335775e+01   6.6222492612e+01    0.8877972    0.6112003   9.69  0.004439094    1.497    0.332
       124 -11.5995     27.4521     76.3325   6.3256013775e+01   6.1052869050e+01    0.3791956     0.264177  77.35  0.001209507    1.752    0.429
       125 -13.1535    133.8504     66.0183   1.9924305103e+01   4.2205949020e+01    0.8918926    0.7320299  15.04  0.004004545    1.715    0.417
       126 -11.8645    241.1504     70.5932   6.5910618956e+00   1.9896785897e+01    0.2622246    0.1565234 -64.54  0.001620041    1.800    0.444
       127 -12.2996    132.1512     85.6645   2.6056405305e+01   3.8950684883e+01    0.2774928    0.1996095 -55.47  0.001326569    1.392    0.281
       128 -11.9235    100.2014     64.1347   2.7765895007e+01   5.0564039157e+01    0.4299942    0.3773481 -44.37  0.002246932    1.194    0.163
       129 -13.8851    177.8126     56.6667   1.0040554742e+01   3.3662053836e+01     0.891418     0.509647 -52.08  0.002949653    1.572    0.364
       130 -11.9533     38.9747     59.8984   5.2072678037e+01   6.3776551387e+01    0.4370596     0.296732  72.81  0.001820954    2.175    0.540
       131 -11.7333     34.6126     60.3919   5.4737211250e+01   6.4268834228e+01    0.4588012    0.2667029 -48.83    0.0019868    1.698    0.411
       132 -12.2959     35.1535     54.9103   5.2537015205e+01   6.5506611505e+01    0.5602366    0.3602455 -12.13 0.0008529453    2.147    0.534
       133 -12.0256     24.8566     59.3512   6.0292082791e+01   6.5709928440e+01     0.528012    0.2658706 -49.38   0.00193081    1.898    0.473
       134 -12.2299    144.5835    233.1804   5.2071617249e+01   7.5349161767e+00    0.4470479    0.1830664 -41.00  0.002171927    2.591    0.614
       135 -14.7339    119.7015     54.3998   1.9321346782e+01   4.7609382420e+01     1.094181    0.7437181  56.73  0.001890228    1.431    0.301
       136 -12.1435     48.3996    181.7715   7.0483489944e+01   2.9987608314e+01    0.4995133    0.3224189 -42.06  0.002372837    1.863    0.463
       137 -12.0113    237.2796    229.5730   3.4913061508e+01  -1.2957281185e+00    0.1763174   0.08419333  27.95  0.001158132    2.182    0.542
       138 -13.1274     57.6379    202.3986   6.9765817647e+01   2.3993985357e+01     1.958141    0.5027064 -67.60  0.006639903    4.042    0.753
       139 -12.8310     63.6395    224.0951   7.0070554503e+01   1.8591747910e+01    0.6670922    0.3420896  36.50  0.003327813    1.568    0.362
       140 -13.8683    111.9690     39.9654   1.6018362878e+01   5.1812850902e+01    0.9221358    0.5703181  32.60  0.002874148    2.415    0.586
       141 -13.4805     68.5213    221.1484   6.8577654742e+01   1.8659910567e+01    0.6422328    0.4478068 -84.00  0.003612561    1.766    0.434
       142 -12.8192    248.2769     52.0729   2.4035853392e+00   2.1114848214e+01    0.5874979    0.2678229 -34.63  0.003407443    1.763    0.433
       143 -10.8626     47.2799     56.1664   4.6167928925e+01   6.3332458722e+01    0.2962553    0.1820496  58.55  0.001228855    2.165    0.538
       144 -11.3684     17.5279     55.0237   6.3768310543e+01   6.7515865126e+01    0.3368915    0.2443816 -77.54   0.00172638    1.519    0.342
       145 -11.7855    231.0671     54.9326   4.2497868298e+00   2.3590241443e+01    0.2842787    0.1715391  85.28  0.001755238    1.985    0.496
       146 -10.4218     23.5196     49.9803   5.8175796784e+01   6.8146201434e+01    0.2004068    0.1356907 -58.41 0.0004456608    1.477    0.323
       147 -13.9225     64.0643    214.5272   6.9137595561e+01   2.0566103861e+01    0.5634871    0.4632806  21.62  0.002621691    1.128    0.113
       148 -13.1050     59.4782    212.8408   7.0195769669e+01   2.1447059214e+01    0.4768489    0.2951481 -11.08  0.001729272    2.302    0.566
       149 -13.0648     94.4183    218.3930   6.1780119256e+01   1.6179048855e+01    0.3667316    0.2467328  31.18  0.001434747    1.255    0.203
       150 -12.7361      3.1116     34.4039   6.8662976197e+01   7.3569193408e+01     0.313738    0.2736402 -75.28 0.0008526586    1.253    0.202
       151 -10.6851      5.5929    219.2634   8.4586641521e+01   2.5153124910e+01    0.1573686    0.1117916 -74.43 0.0008099268    1.608    0.378
       152 -11.8193     41.1070    247.9757   7.7152764890e+01   1.6160590905e+01    0.4553251     0.219488 -87.77  0.002356633    2.665    0.625
       153 -11.4370    201.7903     46.7732   4.9834315243e+00   3.0061002433e+01    0.1818621    0.1182046 -60.73 0.0007216624    1.352    0.260
       154 -12.4210    154.5365     46.5087   1.0444329147e+01   4.0392227080e+01    0.4332536    0.2532284  64.82  0.002120366    1.699    0.411
       155 -13.2495    158.7781     43.0951   8.8660135072e+00   3.9878875304e+01    0.5694482     0.536484 -86.07  0.002489403    1.160    0.138
       156 -10.9554     29.8233     46.1745   5.2586547963e+01   6.8257684544e+01    0.2910128    0.1846895 -42.91  0.001398392    1.592    0.372
       157 -11.1079     38.9535     46.2866   4.6913125872e+01   6.6890225878e+01    0.2067069    0.1825873  22.74  0.001149984    1.085    0.079
       158 -13.9651     28.1753    246.5367   8.0096683681e+01   1.7633952963e+01     1.395853      0.67603  68.69  0.007368993    2.254    0.556
       159 -12.6807      5.1632    210.8563   8.4452228693e+01   2.7049536191e+01    0.4705444    0.2104649 -75.34  0.002257924    2.388    0.581
       160 -10.8132    136.5166    210.9964   5.0833867109e+01   1.2310436888e+01    0.1811178    0.1257612 -47.49  0.001030541    1.588    0.370
       161 -12.8566     32.8596     40.4206   4.8191664399e+01   6.9095063074e+01    0.4995242    0.3912666 -35.44 0.0009455296    1.308    0.236
       162 -10.9606     25.8417     44.1052   5.4445575459e+01   6.9243202469e+01    0.2181935    0.1931279  56.21  0.001242006    1.292    0.226
       163 -13.2106     74.7332     36.8667   2.5465981119e+01   6.1455624872e+01     0.763868    0.3655843  57.54  0.001874036    2.041    0.510
       164 -11.1777     39.7555    210.8030   7.5292083103e+01   2.3991950445e+01    0.4090568    0.1532199  28.37  0.001729291    2.121    0.529
       165 -12.3426    104.9608     34.4681   1.5555503696e+01   5.4380223824e+01    0.7997425    0.2723556 -29.17  0.002650148    3.657    0.727
       166 -12.5869     46.6699    208.8721   7.3295796738e+01   2.3717356956e+01    0.5471401    0.2406185  64.11  0.002186238    2.880    0.653
       167 -13.2152     56.5479     27.1649   2.8213871996e+01   6.7135363691e+01    0.8548864    0.3451039  51.86  0.002292947    2.306    0.566
       168 -11.9131     64.4996     24.9705   2.3649391126e+01   6.5675081519e+01    0.4085427    0.2882068 -28.17  0.001748852    1.618    0.382
       169 -10.9062     98.0704     26.6679   1.4058030418e+01   5.7190714940e+01    0.3148551    0.2363703 -64.82  0.001181467    1.414    0.293
       170 -12.2274     30.9649     25.4952   4.2024310687e+01   7.2375023779e+01     0.441309    0.2610168  26.06  0.001625883    1.754    0.430
       171 -11.6912     35.9475     23.2312   3.7346767557e+01   7.1922077871e+01    0.3604943    0.2808877  -3.95  0.001711788    1.478    0.324
       172 -11.1430     80.6891    208.3569   6.4167474262e+01   1.9938866568e+01    0.2238073    0.1368993  51.41  0.001100414    1.721    0.419
       173 -12.7102     72.1647    206.6696   6.6242632646e+01   2.1338279473e+01    0.3227523    0.2528353  27.96  0.001842796    1.114    0.103
       174 -11.9964     13.6176    205.5784   8.2034306529e+01   2.7582550815e+01    0.3705136    0.1709033 -52.78  0.001546042    2.737    0.635
       175 -11.7913     14.4866    200.4906   8.1584746166e+01   2.8698482600e+01    0.2652667    0.2159293  45.11  0.001070572    1.029    0.028
       176 -12.7109     16.8626    195.8261   8.0711443657e+01   2.9610361905e+01    0.4451019    0.3092787 -61.17   0.00172137    1.637    0.389
       177 -10.7145    151.2012    206.2133   4.6904051794e+01   1.1293656929e+01    0.2241057    0.1212566 -10.71  0.000954867    2.819    0.645
       178 -10.7898    123.9958     11.4884   3.4864361973e+00   5.2277931806e+01    0.2112372    0.1192227  76.33  0.001028138    1.577    0.366
       179 -13.7122     40.5903    196.1000   7.4006630940e+01   2.7320317444e+01    0.9402708    0.4500395  49.93  0.004157193    1.933    0.483
       180 -14.4606     30.1247    168.8492   7.5005775625e+01   3.5217978484e+01     2.008679     1.136534 -35.89  0.002797997    2.344    0.573
       181 -15.2484      8.4734    183.1016   8.2549278033e+01   3.3399847923e+01     1.339964     1.244029  84.58  0.008470221    1.149    0.130
       182 -15.3006     15.3481    175.0083   8.0081802666e+01   3.4917994215e+01     2.583932     1.029945  53.61   0.01038278    2.318    0.569
       183 -10.7772    212.6538    199.6862   3.4255840930e+01   4.9927965766e+00    0.1202564   0.07157183  -9.51 0.0007047116    1.715    0.417
       184 -13.0582    164.5741    194.6562   4.2281633330e+01   1.1585069141e+01    0.5777194    0.3674924 -67.29  0.002675276    3.101    0.677
       185 -12.0456    201.0608    191.2447   3.4833501125e+01   7.5607175953e+00    0.2965629    0.2010029  -8.64   0.00139131    1.409    0.290
       186 -12.1056      2.7938    249.5324   8.5978486395e+01   1.9199559406e+01    0.3592835    0.2030174  33.60  0.001802356    1.306    0.234
       187 -12.2589     40.3026     40.2993   4.3476770060e+01   6.7931623998e+01    0.7705526    0.4974371  57.53  0.003516045    2.008    0.502
