#   1 NUMBER                 Running object number                                     
#   2 MAG_AUTO               Kron-like elliptical aperture magnitude                    [mag]
#   3 X_IMAGE                Object position along x                                    [pixel]
#   4 Y_IMAGE                Object position along y                                    [pixel]
#   5 X_WORLD                Barycenter position along world x axis                     [deg]
#   6 Y_WORLD                Barycenter position along world y axis                     [deg]
#   7 A_WORLD                Profile RMS along major axis (world units)                 [deg]
#   8 B_WORLD                Profile RMS along minor axis (world units)                 [deg]
#   9 THETA_WORLD            Position angle (CCW/world-x)                               [deg]
#  10 FWHM_WORLD             FWHM assuming a gaussian core                              [deg]
#  11 ELONGATION             A_IMAGE/B_IMAGE                                           
#  12 ELLIPTICITY            1 - B_IMAGE/A_IMAGE                                       
         1 -11.6972      4.8692     23.1027   2.9184874226e+02   7.4891393938e+00   0.03739798   0.03041556  -0.98   0.00427675    1.350    0.259
         2 -12.8463      6.5334      6.3441   2.9172888557e+02   7.6739732004e+00   0.06211366   0.05778892  33.14  0.007693674    1.083    0.076
         3 -11.6703     50.5130      4.9707   2.9120672967e+02   7.4363071839e+00   0.04894219    0.0294528  37.93   0.00398238    1.654    0.395
         4 -10.9223     39.9617      4.2451   2.9132564583e+02   7.5056323624e+00   0.02847544   0.02014277 -44.20  0.002010522    1.429    0.300
         5 -11.9091     46.0460     61.7095   2.9159903366e+02   6.8036751873e+00    0.1056884   0.03214008 -62.28  0.007529039    3.208    0.688
         6 -11.3632     30.3176     35.0236   2.9162284332e+02   7.2041858107e+00   0.04551965   0.02517027  46.78  0.004240273    1.983    0.496
         7 -12.7986     20.0769     30.7531   2.9171688296e+02   7.3127754777e+00   0.04400938   0.03163357  26.63   0.00143673    1.397    0.284
         8 -12.9446     27.8223      6.5186   2.9148112822e+02   7.5492889337e+00   0.07346822   0.04920974 -53.06  0.003886969    1.451    0.311
         9 -11.3509     19.5346     11.0747   2.9160529398e+02   7.5442156759e+00   0.05787763   0.02375733  55.30  0.003645447    4.661    0.785
        10 -11.6985     86.8099     48.8653   2.9104629891e+02   6.7172474684e+00   0.08016224   0.03355246 -58.80  0.006763455    2.257    0.557
        11 -12.2859     83.6891     18.7193   2.9090182735e+02   7.0850817319e+00   0.07394556   0.05114291  62.57  0.004779335    1.757    0.431
        12 -11.1254     69.8639     23.2881   2.9109065341e+02   7.1120384509e+00   0.02687511   0.02115995  12.03  0.001378215    1.351    0.260
        13 -10.8551     64.7813     16.9707   2.9111209251e+02   7.2146997485e+00   0.02828939   0.02569319 -79.76  0.002180141    1.145    0.127
        14 -10.9777    104.8010     21.5437   2.9067238190e+02   6.9301015414e+00   0.05626084   0.02895019  59.34  0.004198192    2.964    0.663
        15 -11.2508    109.9138     15.8167   2.9057832092e+02   6.9669004222e+00   0.04595156   0.01841912 -56.81  0.003060963    2.320    0.569
        16  -9.8965    114.0542     15.6837   2.9052921148e+02   6.9444486691e+00   0.01519951   0.01271831 -42.31 0.0005864247    1.200    0.167
        17 -10.7876    144.4675     23.8354   2.9022347343e+02   6.6735164101e+00   0.03298867   0.02361053 -16.79  0.002060392    1.690    0.408
        18 -10.2368    246.9199     21.5989   2.8901700196e+02   6.1034176331e+00   0.02326252   0.01681031 -64.23    0.0018675    1.390    0.280
        19  -9.2759    219.1065     29.5013   2.8938811103e+02   6.1738901309e+00   0.01697229   0.01177672 -67.25  0.001792589    1.481    0.325
        20  -9.1829    129.0844     18.5892   2.9037133267e+02   6.8236099830e+00   0.02159446   0.01100187 -56.66  0.001990619    1.872    0.466
        21 -10.0905    148.2381     18.3887   2.9014677105e+02   6.7147843270e+00   0.01947839    0.0148613 -46.67  0.001910961    1.304    0.233
        22  -9.8892    140.1820     14.0387   2.9021455436e+02   6.8119837893e+00   0.03087848   0.01127963  37.20   0.00243761    2.612    0.617
        23  -9.8839    188.3678     13.4932   2.8964966874e+02   6.5383167488e+00   0.02811685   0.01860313  85.27   0.00224502    2.035    0.509
        24  -8.8040    171.0565     11.5891   2.8983990264e+02   6.6610499482e+00     0.011487  0.009090019 -51.35 0.0003864929    1.242    0.195
        25  -8.9944    153.4550      9.8887   2.9003483677e+02   6.7830317993e+00   0.01682234   0.01127825  73.51  0.001635772    1.992    0.498
        26  -8.8525    229.0368     10.2954   2.8915695949e+02   6.3385868982e+00    0.0167844  0.007374097  34.80  0.001439107    2.180    0.541
        27  -9.9577    201.9097      7.4490   2.8945557964e+02   6.5295540535e+00   0.02497298   0.01856163 -38.23  0.002142436    1.408    0.290
        28 -11.8047     98.2655     28.6578   2.9079136503e+02   6.8854288088e+00    0.1118409   0.03516356  43.33  0.007675762    3.588    0.721
        29  -8.7195    132.4760      9.8760   2.9027940178e+02   6.9049626990e+00    0.0135636   0.01011076  57.07  0.001041051    1.505    0.336
        30  -8.2671    139.0028      9.4600   2.9020077731e+02   6.8719107137e+00  0.009924892  0.006533428  24.61 0.0005826819    1.543    0.352
        31 -10.1875    245.2276      4.1935   2.8893187103e+02   6.3148800198e+00   0.03079747   0.01612866 -27.20  0.002452294    2.938    0.660
        32 -11.0820    172.4951      5.4756   2.8978635732e+02   6.7235395584e+00   0.01598092   0.01440217 -11.62 0.0006724042    1.161    0.139
        33  -8.0793    162.6184      6.7944   2.8990940350e+02   6.7656624259e+00   0.00921537  0.006376198 -78.17 0.0004817687    1.644    0.392
        34  -9.3223     82.8860      3.5452   2.9082008175e+02   7.2657043200e+00   0.02347563   0.01042042 -62.59  0.001998674    2.235    0.553
        35  -8.8342    224.6092      4.2395   2.8917201456e+02   6.4345337041e+00   0.01762829   0.01119089 -50.85  0.001797491    1.540    0.351
        36  -9.1046    183.3488      2.2060   2.8964021212e+02   6.6983092637e+00   0.01438725   0.01360001  31.81  0.001451992    1.065    0.061
        37  -9.3244    155.8514      2.8151   2.8996435056e+02   6.8510984546e+00   0.01737871   0.01339371  73.56   0.00141194    1.538    0.350
        38  -8.6407    239.9974      1.9838   2.8897939486e+02   6.3709656721e+00   0.01010138  0.009878626  69.92 0.0006269751    1.049    0.047
        39  -7.9580    139.7950      1.6072   2.9014431615e+02   6.9583397776e+00   0.00947513  0.005856351  38.27 0.0008614193    1.614    0.380
        40  -9.2558     77.0346    208.5506   2.9211513610e+02   4.9183432067e+00   0.01389775   0.01057925 -77.85   0.00038985    1.432    0.302
        41  -9.2934     96.9784    250.1247   2.9213077381e+02   4.3198786642e+00  0.009710147  0.009478114 -32.30 0.0004199547    1.016    0.016
        42  -7.7475     65.6756    209.6505   2.9225393670e+02   4.9711100343e+00  0.007235385  0.004834916 -29.55 0.0007048934    1.751    0.429
        43  -9.3193     46.0655    207.9205   2.9247196604e+02   5.1043183299e+00    0.0135622   0.01067599 -60.85 0.0004463532    1.256    0.204
        44  -8.9918     43.2016    200.5683   2.9246152947e+02   5.2063157241e+00   0.01191271  0.009382102 -11.72 0.0007804076    1.441    0.306
        45  -9.0871     44.4623    203.9625   2.9246706342e+02   5.1595829598e+00   0.01448749  0.008510709 -69.55  0.001053342    1.826    0.452
        46  -9.6970    211.0945    205.6034   2.9053805045e+02   4.1767391645e+00   0.01897065  0.008802243  52.54  0.001472272    2.937    0.659
        47 -10.3327    124.0038    206.0010   2.9155322729e+02   4.6765717373e+00  0.009234106  0.009228081 -67.46   0.00116706    1.016    0.016
        48  -7.7822    218.4805    204.4779   2.9044549190e+02   4.1469690023e+00  0.006519485  0.006476529  77.25 2.490638e-06    1.026    0.025
        49  -9.0765    247.4017    201.2474   2.9009020963e+02   4.0166517201e+00   0.01227433   0.01072155  78.32 0.0007302037    1.254    0.202
        50  -8.8689    138.9929    199.0378   2.9133722323e+02   4.6707753590e+00  0.009413381  0.009319349 -45.34            0    1.007    0.007
        51  -9.2846    132.9677    198.9996   2.9140710514e+02   4.7060871681e+00  0.009358053  0.009158476 -28.25  0.001170533    1.015    0.015
        52 -11.0423    209.2937    192.5625   2.9048092724e+02   4.3386364564e+00    0.0261956    0.0229481 -59.77  0.003137399    1.130    0.115
        53  -9.9904    176.8824    194.2118   2.9086761736e+02   4.5074080417e+00   0.03067366   0.01873369  89.67  0.002766381    2.331    0.571
        54  -8.5825     15.3223    195.3056   2.9275492915e+02   5.4280972548e+00  0.006979444  0.004920987 -27.22 0.0007032327    1.639    0.390
        55  -8.8731    143.6468    193.4155   2.9124947479e+02   4.7091723197e+00    0.0158298  0.009869796 -34.20  0.001531556    1.849    0.459
        56  -8.7494     23.5056    192.4607   2.9264266528e+02   5.4140656069e+00   0.01796282  0.007038162  19.63  0.001322175    3.125    0.680
        57  -9.5804    217.0926    190.3441   2.9037700844e+02   4.3191521104e+00   0.01185183  0.008982087 -48.59  0.001308736    1.303    0.233
        58  -8.0656     18.3071    191.3032   2.9269633495e+02   5.4574574804e+00   0.00690121  0.004918831 -28.08  0.000325124    1.602    0.376
        59  -8.7094     21.8720    188.8637   2.9264027954e+02   5.4653002924e+00   0.01063205  0.008703065 -27.64  0.001207954    1.306    0.235
        60  -9.0579    223.0054    188.0323   2.9029445438e+02   4.3116851839e+00  0.009387289   0.00903239 -35.60   0.00116415    1.032    0.031
        61 -10.0442     62.3077    184.6376   2.9214404798e+02   5.2813577098e+00   0.01622197   0.01322931   2.67 0.0005174872    1.334    0.251
        62  -9.4041    204.8177    183.5944   2.9047926618e+02   4.4687549981e+00   0.01099919  0.009920539 -52.47 0.0007832049    1.093    0.085
        63 -10.7061    207.1762    178.5923   2.9042189576e+02   4.5131637968e+00   0.02078242   0.01502592   4.46  0.001623963    1.595    0.373
        64  -7.9024    123.1489    183.6472   2.9142965889e+02   4.9413237852e+00  0.009008161   0.00628235  10.47 0.0003547972    1.612    0.380
        65  -9.7990     75.1752    182.4079   2.9198086998e+02   5.2330089826e+00   0.01316119   0.01159261   1.15 0.0004792999    1.194    0.162
        66  -9.1314    212.9946    181.4652   2.9037146678e+02   4.4460384908e+00   0.01252343  0.009814383 -61.40 0.0004418063    1.264    0.209
        67  -8.0636    227.6432    181.3124   2.9020031398e+02   4.3627925467e+00  0.007137591  0.004900514  59.98 0.0003067025    1.739    0.425
        68  -9.1277    184.9738    179.0282   2.9068266310e+02   4.6368845540e+00   0.01345524  0.009074617 -61.83 0.0004918494    1.468    0.319
        69  -7.9055    111.4734    181.4862   2.9155267124e+02   5.0339736240e+00  0.006519349  0.006477356 -50.22 -4.925958e-05    1.012    0.012
        70  -8.0117    196.9975    179.9994   2.9054865873e+02   4.5558725686e+00  0.008329842  0.007454138 -60.35 0.0006561088    1.109    0.098
        71  -8.0242     21.5313    180.5257   2.9259459283e+02   5.5642156402e+00   0.00652866  0.006449735 -39.12 0.0002250025    1.002    0.002
        72  -9.1021    101.0323    175.9910   2.9164142297e+02   5.1582158572e+00  0.009177049  0.009054525 -27.20            0    1.005    0.005
        73  -8.1654    231.7975    174.8106   2.9011308805e+02   4.4141623917e+00  0.009061147  0.007563642  58.76 0.0003987035    1.297    0.229
        74 -10.6759     12.4415    169.2214   2.9263318614e+02   5.7479887882e+00   0.02257115   0.02044496 -26.09  0.002744081    1.134    0.118
        75  -8.5130     45.7372    170.9846   2.9225567401e+02   5.5356719282e+00  0.008938519  0.005684758 -61.98 0.0008938477    1.554    0.357
        76 -10.8271      5.8567    165.5305   2.9268795040e+02   5.8287971220e+00   0.03424456   0.01533573 -62.08  0.002944481    2.190    0.543
        77  -7.4526    129.2988    168.6817   2.9126861154e+02   5.0796561901e+00   0.00684875  0.005011784  64.01 0.0007020308    1.616    0.381
        78  -7.9500    213.4189    165.4685   2.9027070823e+02   4.6293342295e+00  0.006505251  0.006403908 -85.22  0.000104451    1.035    0.033
        79  -8.4859    152.9621    164.2334   2.9096655228e+02   4.9943081728e+00  0.008611495  0.005490167  27.45 0.0003198334    1.569    0.363
        80  -9.4916     24.3367    162.4712   2.9245431748e+02   5.7579823666e+00   0.01920146   0.01243644 -25.66  0.001194133    1.914    0.477
        81  -9.0683    181.0948    163.0051   2.9063185148e+02   4.8454983054e+00  0.009770761  0.009484459 -33.17 0.0002788549    1.023    0.022
        82  -9.3284    184.9503    159.1707   2.9056403779e+02   4.8676737736e+00   0.01569099  0.009674572 -80.49  0.001053679    2.013    0.503
        83 -10.2095      5.3825    157.0687   2.9264306851e+02   5.9299109450e+00   0.02242663   0.01341603  47.26  0.002148247    1.816    0.449
        84 -10.0320    163.4582    156.4613   2.9079787633e+02   5.0237726833e+00   0.01195601   0.01145642 -48.36 0.0007981387    1.031    0.030
        85  -8.5211    125.2342    152.4030   2.9121857771e+02   5.2923474816e+00  0.009219862  0.005938848  38.39 0.0003095195    1.553    0.356
        86  -8.8906    104.1316    151.5194   2.9145908174e+02   5.4247158846e+00   0.01075604  0.009030405 -60.51  0.000304232    1.179    0.152
        87  -7.5680    137.2905    151.6581   2.9107373293e+02   5.2311964513e+00  0.006897074  0.005023601  66.33   0.00070251    1.650    0.394
        88  -9.6900     32.2444    150.4867   2.9229067022e+02   5.8517547185e+00   0.01991951   0.01292521  38.74  0.001944221    1.545    0.353
        89  -9.9243     37.6169    148.2082   2.9221444505e+02   5.8472771498e+00   0.02032615   0.01045371 -47.24   0.00121985    1.953    0.488
        90 -10.5878     15.5763    145.9033   2.9245766352e+02   6.0010480393e+00   0.02757477   0.01273638 -59.57  0.002423595    2.072    0.517
        91  -9.4851    236.4208    146.3506   2.8988874088e+02   4.7176935789e+00   0.01351526   0.01199728  32.82 0.0005378518    1.131    0.116
        92  -7.5678    136.2759    147.2894   2.9105940086e+02   5.2878306618e+00  0.006683772  0.004908548 -29.51 0.0002134436    1.517    0.341
        93  -7.7652    224.6534    145.2419   2.9001886189e+02   4.7989343261e+00  0.006781168  0.004812193  53.76 0.0006918819    1.569    0.363
        94  -9.7765     27.5585    143.5223   2.9230375257e+02   5.9597167945e+00   0.02101637   0.01182167   9.53  0.001455243    2.283    0.562
        95  -8.5241    174.7950    143.1982   2.9058650879e+02   5.1120945245e+00  0.009380269  0.007630457 -24.34 0.0004765156    1.335    0.251
        96  -8.8697      4.9786    141.7156   2.9255627052e+02   6.1107289286e+00   0.01123057  0.008994696  73.53 0.0003197772    1.438    0.305
        97 -11.3183     33.7514    136.0850   2.9218715894e+02   6.0104822664e+00   0.03583639   0.02853316  75.17  0.003534418    1.456    0.313
        98  -8.8110     41.0733    132.0157   2.9207748537e+02   6.0155703766e+00   0.01586497   0.01061695  -1.54  0.001034535    1.881    0.468
        99  -7.4972    191.3295    140.2979   2.9037674554e+02   5.0498389600e+00  0.006964526  0.004944146 -25.89 0.0007028466    1.639    0.390
       100  -8.8622    127.2793    139.5529   2.9111786932e+02   5.4298160165e+00   0.01585627   0.01046904   0.80  0.001550843    1.903    0.475
       101  -8.8614     10.9789    139.2821   2.9247178739e+02   6.1044865992e+00  0.009308919  0.008497653  27.71 0.0004636725    1.101    0.092
       102  -9.0489    240.5000    137.4908   2.8978818743e+02   4.7968184797e+00   0.01443549   0.01109062  58.92  0.001373456    1.458    0.314
       103  -8.8594    169.8373    133.0879   2.9058362680e+02   5.2582735324e+00    0.0103298  0.009002338  72.08 0.0009448748    1.254    0.203
       104  -8.9827     12.2220    127.0083   2.9238407137e+02   6.2400023442e+00   0.01219536  0.009867042  -0.58  0.001376538    1.361    0.265
       105 -10.2701     10.8180    131.6920   2.9242839117e+02   6.1936421690e+00   0.02966992   0.01592773  16.57  0.002035591    2.154    0.536
       106  -9.2490      4.7353    128.2267   2.9247866734e+02   6.2689295534e+00   0.01184567   0.01150951 -61.45 0.0002896688    1.028    0.027
       107  -9.7768    245.5034    130.5482   2.8968838317e+02   4.8483023171e+00   0.01770117   0.01088866 -45.65 0.0007258986    1.645    0.392
       108 -10.7476    248.1217    125.3550   2.8962678815e+02   4.8933394694e+00    0.0145615   0.01243037  20.55 0.0005022467    1.191    0.160
       109  -8.0537    208.0555    130.7100   2.9012469930e+02   5.0640508755e+00  0.009030363  0.008725859   9.41 0.0006933566    1.042    0.040
       110 -10.1371     40.4416    137.6967   2.9211877230e+02   5.9531801843e+00   0.02567747   0.01096677 -65.58  0.001882349    2.456    0.593
       111  -9.2972     31.0167    126.0592   2.9215919401e+02   6.1427750930e+00   0.01508317  0.008662198  46.96  0.001422767    1.899    0.473
       112 -10.1218    233.6059    125.5495   2.8979665635e+02   4.9754834353e+00   0.01968111    0.0131191  32.43  0.000654812    1.484    0.326
       113 -10.5365    103.5894    123.9260   2.9130033951e+02   5.7484881410e+00    0.0197121   0.01361453 -26.94  0.001561316    1.699    0.411
       114 -10.2528    222.7078    123.9751   2.8991390435e+02   5.0571008315e+00   0.01348254   0.01230576 -35.83  0.000497002    1.103    0.093
       115  -9.6764    189.3846    124.8814   2.9030694614e+02   5.2401397837e+00   0.01518865  0.009816102  55.34  0.001496927    1.816    0.449
       116  -8.3641    149.7047    124.6758   2.9076760895e+02   5.4727171753e+00  0.008911669  0.007401965  59.61  0.001013514    1.310    0.237
       117  -9.3260    174.2809    122.7481   2.9046992896e+02   5.3525713019e+00   0.01192162   0.01125912 -20.85 0.0004391869    1.074    0.069
       118  -8.4922     47.8513    122.7941   2.9194336242e+02   6.0836531806e+00   0.01026053  0.008816523 -24.43 0.0006707548    1.228    0.186
       119  -9.5599      1.9781    108.5202   2.9239324308e+02   6.5138300347e+00   0.02977283    0.0158916 -87.33  0.002330857    3.104    0.678
       120  -9.3673      2.5021    118.5278   2.9244685523e+02   6.3945107357e+00   0.01603586   0.01187351 -58.26 0.0008567303    1.322    0.244
       121  -9.3460      1.6894    115.3314   2.9243726280e+02   6.4363356798e+00   0.01830108   0.01296082 -17.79  0.001265223    1.712    0.416
       122  -9.0533    238.5161    119.1001   2.8970087053e+02   5.0217799819e+00  0.009995995  0.006496614 -63.10 0.0004517724    1.535    0.349
       123  -9.4644    188.3108    117.6963   2.9027634903e+02   5.3297969505e+00   0.02128075   0.01361838 -14.70  0.001131979    2.116    0.528
       124  -8.8569     82.2671    118.5351   2.9151661382e+02   5.9344189208e+00   0.02289568   0.01075731  50.60  0.001775469    2.692    0.629
       125  -8.4663     55.4970    117.9917   2.9182550027e+02   6.0953449529e+00   0.01003472  0.006541172 -65.03 0.0006184985    1.551    0.355
       126  -8.8996     29.6033    118.0395   2.9212778702e+02   6.2441262357e+00   0.01154489  0.009582768   8.49 0.0003367814    1.277    0.217
       127 -10.8660     18.0021    112.9504   2.9223272958e+02   6.3701058783e+00   0.03216516   0.01667504 -57.10  0.002863765    1.841    0.457
       128  -9.6626     14.1980    117.8085   2.9230611434e+02   6.3355524569e+00   0.02738103  0.008911941  34.18  0.002072938    2.817    0.645
       129  -9.7331     13.4856    114.5141   2.9229475795e+02   6.3779401826e+00   0.01273336   0.01087228 -44.74   0.00117138    1.165    0.141
       130  -8.5548    227.1412    114.2647   2.8980407758e+02   5.1440299946e+00  0.009408267  0.008600191 -19.54 0.0003600466    1.130    0.115
       131  -9.7431    247.2424    108.0716   2.8953322967e+02   5.0989870468e+00   0.02088197  0.009883508  24.59  0.001262627    2.188    0.543
       132  -9.8399    239.7987    112.9116   2.8964880872e+02   5.0861299520e+00   0.01348975  0.009394884 -61.75  0.001157958    1.422    0.297
       133 -10.4027    240.4961    106.5692   2.8960261585e+02   5.1556630920e+00   0.02295182   0.01608937 -84.14  0.001613905    1.699    0.411
       134  -8.9201    208.3979    110.9840   2.9000236645e+02   5.2910447167e+00   0.01869675   0.01160551  70.93  0.001642296    2.317    0.568
       135 -11.1056      9.9683    105.4634   2.9228175736e+02   6.5033681756e+00   0.03841588   0.02542327  67.51  0.003754742    1.971    0.493
       136  -9.0554     15.8112    104.1942   2.9220599782e+02   6.4844750045e+00  0.009701706  0.008958454  72.47 0.0003290061    1.147    0.128
       137  -8.8435    142.0249    106.9676   2.9075093372e+02   5.7228987970e+00    0.0104677   0.01003676 -29.84  0.001060847    1.042    0.040
       138  -7.5740    129.9406    107.0179   2.9089202099e+02   5.7923437499e+00  0.007381842  0.007231993 -50.92            0    1.013    0.012
       139  -8.8091     61.2701    104.8119   2.9167936082e+02   6.2151603179e+00   0.01508194   0.01038108  -3.38  0.001199801    1.802    0.445
       140  -8.0764    226.8646    103.9200   2.8974518628e+02   5.2656813797e+00  0.008699413  0.007582114  62.66 0.0003215635    1.234    0.190
       141  -7.4079     93.3264    103.3222   2.9129663252e+02   6.0472174226e+00  0.007094776  0.004896894 -27.92 0.0005600752    1.687    0.407
       142  -8.5586    206.1587    102.4455   2.8997716609e+02   5.4031578054e+00   0.01250191  0.006677312  21.31  0.001132897    2.010    0.502
       143 -10.8897    242.5359     99.2941   2.8953521028e+02   5.2281986155e+00   0.03291013   0.01692232  24.07  0.002116053    2.017    0.504
       144  -9.3967     62.1754     88.8550   2.9157332461e+02   6.3953056568e+00   0.02253951   0.01294455 -50.78  0.002053882    1.695    0.410
       145  -9.6623     67.9817     91.7274   2.9152278418e+02   6.3284039309e+00   0.03595085   0.01701192  10.42  0.002726693    3.175    0.685
       146  -9.9034     64.8939     97.3566   2.9159249098e+02   6.2808479723e+00   0.02372651   0.01964676  15.44  0.002753737    1.251    0.201
       147  -9.1655     61.4366     95.7408   2.9162315029e+02   6.3195845776e+00   0.02505206  0.007584207 -54.40  0.001813615    2.932    0.659
       148  -8.7244    107.5608     95.9900   2.9108677015e+02   6.0500238124e+00   0.01193244  0.009079857  -1.14 4.291748e-05    1.505    0.335
       149  -8.3492     78.5524     94.4782   2.9141595706e+02   6.2353700827e+00   0.01027346  0.008477922   1.53 0.0004671738    1.314    0.239
       150  -8.9989     78.6199     89.8887   2.9138769123e+02   6.2882892312e+00   0.02395173  0.009855367 -61.75  0.001972393    2.372    0.578
       151  -8.2515     73.5693     94.7541   2.9147572710e+02   6.2609641673e+00  0.009052234  0.006481004 -79.18 0.0005305392    1.576    0.366
       152  -8.4120    164.4733     93.9537   2.9041142292e+02   5.7438079049e+00   0.01023833  0.006480223 -62.72  0.001025422    1.572    0.364
       153  -8.2298     51.0000     99.4948   2.9176735381e+02   6.3362186944e+00    0.0142473  0.003738438 -62.86 0.0008863361    3.782    0.736
       154  -8.4053    145.5503     93.4754   2.9062896979e+02   5.8591306681e+00  0.006550213  0.006415237 -37.61 0.0001696211    1.009    0.009
       155  -8.3595     86.3906     92.5027   2.9131271845e+02   6.2130037784e+00   0.01359264  0.006487804  26.88  0.001190955    2.097    0.523
       156 -10.3539      5.2859     89.7140   2.9224233440e+02   6.7133139946e+00   0.02783271    0.0209561  -7.33  0.003010503    1.551    0.355
       157 -10.7418      2.2083     82.5139   2.9223524151e+02   6.8146704488e+00   0.03582016   0.01724964 -59.37  0.002304333    1.991    0.498
       158  -9.1914    191.1945     91.6111   2.9008626010e+02   5.6158480907e+00   0.00956776  0.006409411  10.17 0.0009547104    1.716    0.417
       159  -7.9378    128.1042     90.8685   2.9081662403e+02   5.9905262747e+00  0.008399257  0.007265896 -24.38            0    1.217    0.178
       160  -7.9171     50.9054     90.8484   2.9171673614e+02   6.4372128562e+00  0.008865115   0.00751953  58.61 0.0002630479    1.269    0.212
       161  -9.9580    246.3759     89.2221   2.8943006288e+02   5.3226871426e+00   0.02397467  0.008014243  38.12  0.001804591    2.864    0.651
       162  -9.4936    186.0185     90.0023   2.9013685158e+02   5.6645875747e+00  0.008044832  0.007959689 -15.68 0.0004997446    1.008    0.008
       163  -8.8354    227.9432     87.0200   2.8963113814e+02   5.4554868113e+00   0.01005541  0.009951456 -21.95 0.0004956601    1.006    0.006
       164 -10.3547    241.4463     82.7846   2.8944868206e+02   5.4260439160e+00   0.01992644   0.01035432 -61.83  0.001835509    1.897    0.473
       165 -10.8427    240.3810     76.2820   2.8942198437e+02   5.5076610220e+00   0.02550595   0.01307906 -47.23  0.001894804    1.961    0.490
       166  -9.2455    176.9113     83.9177   2.9020635582e+02   5.7880982690e+00   0.01485599  0.008872267 -26.73  0.001209185    2.204    0.546
       167  -8.4952    133.5658     83.5574   2.9070913235e+02   6.0437636763e+00   0.01570825  0.008934701 -73.30  0.001444852    2.026    0.506
       168  -9.4523    223.0028     82.2278   2.8965980494e+02   5.5398181449e+00   0.01264325   0.01058876  35.77 0.0003914396    1.198    0.165
       169 -10.7126     20.4634     40.2966   2.9176952808e+02   7.1997859537e+00   0.03174811     0.015891  41.61  0.002862153    2.051    0.512
       170  -9.9182    146.9179    245.5892   2.9152297379e+02   4.0839470287e+00   0.02435269   0.01362372  23.64  0.001781064    1.847    0.459
       171 -10.4281     38.4079     44.8330   2.9158712819e+02   7.0436722094e+00   0.02577928   0.02150798 -87.92  0.002982789    1.321    0.243
       172  -9.8025     38.3365     64.3376   2.9170476524e+02   6.8176376258e+00   0.01338087   0.01149624 -26.71 0.0004706658    1.221    0.181
       173 -10.8726    195.2664    245.2299   2.9095889256e+02   3.8082379202e+00   0.02005327   0.01648642  -7.71  0.001703868    1.343    0.255
       174 -13.4433    230.0864    237.4872   2.9050816633e+02   3.6963613382e+00   0.02785455   0.02220221 -32.95   0.00122318    1.325    0.245
       175  -9.3687    242.6118    241.7109   2.9038800144e+02   3.5746990127e+00   0.01215279   0.01068022 -84.12 0.0007580494    1.210    0.174
       176  -9.2918     58.9025    242.2897   2.9252711532e+02   4.6306825340e+00   0.01481493   0.01057774 -29.13 0.0006509657    1.587    0.370
       177  -7.2505     11.7259    243.2693   2.9308195281e+02   4.8910220897e+00  0.006479016  0.004973515  61.83            0    1.480    0.324
       178 -10.1899     89.2704    240.4147   2.9216260867e+02   4.4772609694e+00   0.01981339   0.01308253 -34.26  0.001489201    1.701    0.412
       179 -10.3875     18.5882     46.3117   2.9182744674e+02   7.1407683437e+00    0.0166802   0.01549096 -75.28  0.000820393    1.102    0.093
       180  -9.9079    250.3139    239.8953   2.9028773692e+02   3.5511090646e+00   0.01239497  0.008865352 -59.64 0.0005769041    1.373    0.272
       181 -10.4673    212.6401    237.4783   2.9071073588e+02   3.7975985508e+00   0.02564475   0.01702957  58.57  0.002565615    1.807    0.447
       182 -12.0396     25.8746     48.8779   2.9175771349e+02   7.0689877824e+00   0.04687128   0.03045969 -78.87  0.001744699    1.811    0.448
       183 -11.5274     30.9271     43.8653   2.9166869107e+02   7.0980494984e+00   0.02116404   0.01725714  25.07  0.000600861    1.235    0.191
       184  -9.5956     65.7282     79.7812   2.9147755487e+02   6.4801754065e+00   0.01983121   0.01533087  85.14  0.001383881    1.522    0.343
       185  -8.9390    207.6554     80.0463   2.8982524570e+02   5.6543797679e+00   0.01528786  0.006194822 -63.01  0.001229269    2.468    0.595
       186  -8.2222    103.4587     79.9843   2.9103868162e+02   6.2596410230e+00  0.009866502   0.00645896 -62.50 0.0004685148    1.518    0.341
       187  -8.5566     71.3335     78.5415   2.9140473400e+02   6.4621881587e+00   0.01895488   0.01023517 -22.08  0.001498389    2.998    0.666
       188 -10.2836    246.9858     76.4945   2.8934647930e+02   5.4667471404e+00   0.01987171   0.01273092  79.91  0.001843764    2.218    0.549
       189  -9.5909    250.5055     75.4963   2.8929956655e+02   5.4578290222e+00   0.02101473  0.009081037 -62.24  0.001764338    2.285    0.562
       190 -10.2514    185.4434     75.5746   2.9005691964e+02   5.8353617101e+00   0.02446537   0.00882875 -53.92  0.001929798    2.545    0.607
       191  -9.9779    189.2190     72.5720   2.8999492893e+02   5.8482643859e+00    0.0131424   0.01168703 -24.91  0.001137429    1.168    0.144
       192  -9.0093     36.1199     75.3813   2.9179673518e+02   6.7021684563e+00   0.01697083  0.008826224 -51.82  0.001277268    1.851    0.460
       193  -9.8572    194.8146     73.8112   2.8993723359e+02   5.8013669368e+00   0.01677315   0.01082149  64.58  0.001604412    2.021    0.505
       194 -10.1028    194.9559     69.3566   2.8990882794e+02   5.8522277082e+00   0.01633791   0.01164339   5.93  0.001151042    1.617    0.382
       195 -10.4226    236.1217     70.8132   2.8943863545e+02   5.5958764914e+00   0.02485449   0.01092521 -37.67  0.001883917    3.031    0.670
       196 -11.0574    244.8483     68.7702   2.8932489008e+02   5.5687634981e+00   0.02687835   0.01471017 -65.09  0.001978341    1.869    0.465
       197 -10.3352    206.1944     69.3411   2.8977792945e+02   5.7870686596e+00   0.01743565   0.01676961  84.97  0.001394492    1.075    0.070
       198 -10.0467    203.9788     65.4992   2.8978062785e+02   5.8445185175e+00   0.01558324   0.01201624   0.37  0.001609697    1.468    0.319
       199  -9.9003    200.1563     64.7961   2.8982089393e+02   5.8749007263e+00   0.01448696   0.01292062   2.88 0.0007193518    1.170    0.145
       200  -8.6030    101.8604     70.8599   2.9100262165e+02   6.3748346743e+00   0.01080032  0.009067052 -30.11  0.001247224    1.249    0.199
       201  -8.8172    120.5812     70.2571   2.9078071206e+02   6.2734186329e+00  0.009453697  0.005887818 -50.80 0.0008443115    1.568    0.362
       202  -9.6961    223.6825     49.0029   2.8945217906e+02   5.9211861320e+00   0.01735883   0.01213981  53.12  0.001816232    1.591    0.371
       203  -9.8338    228.9149     68.7809   2.8951023079e+02   5.6613906548e+00   0.01310752   0.01137829 -19.56 0.0007320086    1.223    0.182
       204 -11.5099    225.3392     62.6754   2.8951511773e+02   5.7530054546e+00   0.05376345   0.01695302 -56.19  0.004031515    2.835    0.647
       205 -10.2854    225.6494     53.9090   2.8945880107e+02   5.8528531978e+00   0.02108045   0.01354071  29.85  0.001660016    1.543    0.352
       206  -8.7755    147.6922     67.8075   2.9045000749e+02   6.1446718525e+00   0.01317743  0.009939723 -54.16  0.001148465    1.296    0.228
       207  -9.6567    126.2924     66.7442   2.9069305327e+02   6.2811016274e+00   0.01602258   0.01087718  37.18  0.000676306    1.469    0.319
       208  -9.7165     96.0700     65.8807   2.9104030387e+02   6.4661546020e+00   0.01735763   0.01525966  52.31  0.001502662    1.188    0.158
       209  -9.2373     82.4938     66.9113   2.9120485364e+02   6.5327242750e+00    0.0123304   0.01092119  30.02 0.0003978167    1.133    0.117
       210  -8.7585     76.7913     65.9831   2.9126582252e+02   6.5764727870e+00   0.01076104  0.008705959 -31.89  0.001217151    1.305    0.233
       211  -8.1420     66.0006     66.4850   2.9139474171e+02   6.6330054497e+00  0.009836255  0.004761658  48.74 0.0008090285    2.446    0.591
       212  -9.0349    120.3606     64.3174   2.9074765051e+02   6.3436454035e+00   0.01263395    0.0103106 -33.29 0.0006778942    1.282    0.220
       213  -9.2345    174.9055     62.0891   2.9009863415e+02   6.0530517552e+00   0.01629828  0.009606968 -76.90  0.001203067    2.049    0.512
       214  -9.9824     99.6833     55.7519   2.9093741378e+02   6.5628197517e+00   0.02818087   0.01246115 -57.12   0.00167115    2.128    0.530
       215 -11.3695     75.9005     53.4969   2.9120137662e+02   6.7265784088e+00   0.05157121    0.0370193  65.00  0.005402762    1.680    0.405
       216  -9.8812     95.5806     50.8706   2.9095599474e+02   6.6432220685e+00   0.01536658   0.01306171 -45.92 0.0004661107    1.168    0.144
       217  -9.8150     83.1541     55.1536   2.9112666664e+02   6.6654042309e+00   0.01637024   0.01313546 -60.02  0.001119578    1.231    0.188
       218 -11.8832    210.1402    229.7355   2.9069348665e+02   3.9020084534e+00   0.04498873    0.0388382 -26.93   0.00298984    1.213    0.175
       219  -9.7747     86.9970     41.2886   2.9099866639e+02   6.8040958701e+00   0.02204765    0.0126246 -47.99 0.0007503065    1.735    0.424
       220 -10.0128    209.3639     58.5680   2.8967629807e+02   5.8935914429e+00   0.02035302   0.01625618   4.94  0.002298126    1.368    0.269
       221 -10.5715    207.4563     46.9457   2.8962862555e+02   6.0394685837e+00   0.03793717   0.01859893 -64.54  0.001908885    2.084    0.520
       222  -9.0248    203.5757     42.2638   2.8964564321e+02   6.1163321222e+00   0.01424622   0.01062097 -88.13  0.001399231    1.579    0.367
       223  -8.4125    128.1947     60.4145   2.9063289361e+02   6.3435423635e+00  0.009243587  0.005947081  38.70 0.0004438472    1.556    0.358
       224  -9.5836    248.9028     56.3216   2.8920289441e+02   5.6894775877e+00   0.01241801   0.01049798 -22.43 0.0005322689    1.267    0.211
       225 -10.4645    124.2244     54.2223   2.9064202018e+02   6.4384198246e+00   0.01523191   0.01440177 -32.68 0.0006471979    1.058    0.055
       226  -8.9787     55.5307     55.9817   2.9145401120e+02   6.8154252008e+00   0.01579992  0.009451958 -48.06  0.001340071    1.658    0.397
       227  -8.5061     55.5271     52.4766   2.9143305155e+02   6.8561382230e+00   0.01079394  0.009190049   8.49  0.001257499    1.233    0.189
       228  -9.4777    213.8317     53.0478   2.8959112009e+02   5.9316162743e+00   0.01380221  0.009861226  15.44 0.0009032934    1.504    0.335
       229  -8.5401    141.0648     53.0716   2.9043878031e+02   6.3541240973e+00   0.01107135  0.007854787  63.10  0.001137212    1.691    0.409
       230  -9.4597    248.1710     50.4378   2.8917600847e+02   5.7619438877e+00   0.02070442   0.01354111   9.14  0.002059446    1.802    0.445
       231 -11.4808     61.9067     45.8539   2.9131888905e+02   6.8961665667e+00   0.04357927   0.02652677 -57.12  0.001308643    1.588    0.370
       232 -11.5302     37.8102     53.8708   2.9164823990e+02   6.9422016992e+00   0.05137256   0.02449648 -34.70  0.001340988    2.870    0.652
       233  -8.6934    134.4948     51.4721   2.9050576643e+02   6.4107899191e+00   0.01012691  0.006613429   9.06 2.661641e-05    1.802    0.445
       234  -9.0505    172.0020     50.0060   2.9005986023e+02   6.2100955443e+00  0.009205487  0.009179131 -39.16  0.001162673    1.013    0.013
       235  -9.1909    129.0101     46.4678   2.9053966637e+02   6.5006594774e+00   0.01204839  0.009648089 -63.12  0.000356457    1.246    0.197
       236  -8.6081    180.6765     42.9055   2.8991614416e+02   6.2420467044e+00   0.01049922  0.009060943  -2.48 0.0004533583    1.238    0.192
       237  -9.6439      1.7128     32.5097   2.9194195384e+02   7.3981427883e+00   0.02543584   0.01554424 -76.34  0.001816453    1.918    0.479
       238 -10.7868      8.1569     38.8807   2.9190480710e+02   7.2871041625e+00   0.02919384   0.02012432 -89.96  0.002566354    1.823    0.451
       239  -9.7951      5.2314     35.9945   2.9192170652e+02   7.3374463812e+00   0.02181832  0.009880172 -55.01  0.001348655    2.077    0.518
       240  -9.3387    244.0023     40.5266   2.8916484891e+02   5.9011044032e+00   0.01264356   0.01141839  25.63 0.0004584845    1.113    0.102
       241  -9.6041    128.6765     33.6492   2.9046657449e+02   6.6513093659e+00   0.02499954   0.01680291 -41.99   0.00225989    1.541    0.351
       242 -10.7839    120.0908     30.8635   2.9054997751e+02   6.7334007491e+00   0.05012698   0.01661948  24.63  0.003609221    3.222    0.690
       243  -9.8764     74.0081     28.7357   2.9107495772e+02   7.0248786542e+00   0.01929032   0.01312239  12.71 0.0005154487    1.636    0.389
       244 -10.5877    125.2906    236.4196   2.9171977771e+02   4.3155865922e+00   0.01522894   0.01258087 -41.46 0.0004568364    1.221    0.181
       245  -8.3703    243.4977    234.6581   2.9033552925e+02   3.6514373773e+00   0.01167013   0.01007367 -21.60  0.001067673    1.228    0.186
       246  -8.5540    244.7092    231.1821   2.9030066815e+02   3.6847637324e+00   0.01454128  0.009445078  50.85  0.001456737    1.713    0.416
       247  -8.3150    153.9934    231.5051   2.9135665098e+02   4.2066647144e+00  0.009852855  0.008736624 -62.99 0.0003602097    1.124    0.111
       248  -8.1590     61.6434    232.1817   2.9243506332e+02   4.7324005153e+00  0.009423383  0.005738713 -52.07 0.0003896976    1.593    0.372
       249  -8.9537    194.1126    230.9946   2.9088723910e+02   3.9802696983e+00   0.01015707   0.00975446 -51.44 0.0005957769    1.029    0.029
       250  -8.0862     75.5312     40.7375   2.9112917564e+02   6.8768072328e+00  0.008591362  0.006484835 -81.86 0.0004826706    1.491    0.329
       251  -9.1179     49.2956     39.9324   2.9143062936e+02   7.0377222095e+00   0.01363452   0.01107232 -30.74 0.0005653856    1.304    0.233
       252  -9.5641     53.7127     36.1406   2.9135632428e+02   7.0562258464e+00   0.01482881   0.01254106  33.98  0.001740134    1.185    0.156
       253  -9.7794    234.0544     36.5481   2.8925660274e+02   6.0051662281e+00   0.02146015   0.01557702 -72.74  0.002310363    1.470    0.320
       254  -8.0384    224.3289     38.3040   2.8938030539e+02   6.0414529712e+00  0.006989118   0.00493511 -26.31 0.0005637322    1.651    0.394
       255  -8.4909    190.0134     36.7718   2.8977052633e+02   6.2588943139e+00   0.01206055  0.009190924 -59.68 0.0007397757    1.293    0.227
       256  -8.0517    173.9900     34.0113   2.8994056590e+02   6.3840513481e+00  0.007524287  0.007368125 -48.31 -0.007547014    1.011    0.011
       257 -10.2630    143.8671     31.6870   2.9027766113e+02   6.5859442560e+00   0.02352607    0.0164629 -71.76  0.002485276    1.523    0.344
       258 -10.4142    129.5084    226.6579   2.9161248142e+02   4.4046512877e+00   0.01921948    0.0142124   5.48 0.0006173508    1.529    0.346
       259 -10.0660    166.6982     26.7895   2.8998210798e+02   6.5101624768e+00   0.01318878   0.01162638  28.19 0.0004295951    1.138    0.121
       260  -9.5015    182.9870     25.3836   2.8978387639e+02   6.4317865742e+00   0.02200456   0.01063451  34.58  0.001147713    2.000    0.500
       261  -8.9991    118.3479     24.6737   2.9053312901e+02   6.8153006241e+00   0.01442325   0.01128263 -49.79  0.001074364    1.259    0.206
       262  -8.4266     86.8851    227.3134   2.9211230943e+02   4.6433395342e+00   0.01402044  0.005093005  33.95  0.001098682    2.568    0.611
       263  -8.6091    212.0195     23.0865   2.8943199386e+02   6.2894969406e+00  0.009845176  0.009556023  -6.47 0.0004213567    1.036    0.035
       264  -8.6989     23.9126    225.8825   2.9283678096e+02   5.0230713276e+00  0.009906575  0.009788748 -89.36 0.0007058928    1.030    0.029
       265  -8.4761     13.3747    227.9291   2.9297162669e+02   5.0599269027e+00  0.009602351  0.008119487 -54.09 0.0008305514    1.162    0.139
       266  -9.2877    238.3331    220.2119   2.9030905581e+02   3.8491099632e+00    0.0115133   0.01057331  67.36 0.0003686983    1.152    0.132
       267  -9.1949    141.8319     19.0996   2.9022573864e+02   6.7437291513e+00   0.01015864   0.01002339 -88.69 0.0006510438    1.033    0.032
       268 -10.0347    186.4033    219.8477   2.9091021280e+02   4.1544221111e+00   0.01436885   0.01152573 -52.61 0.0004499481    1.223    0.182
       269 -10.3787     56.0283    217.0278   2.9241019990e+02   4.9409804066e+00   0.02035818   0.00921891 -63.65  0.001019424    2.220    0.550
       270  -9.2699    154.0663     15.1481   2.9005933869e+02   6.7185120080e+00   0.01169563  0.009522185 -60.48 0.0006479982    1.216    0.178
       271  -9.7792    118.0841    212.4305   2.9166049320e+02   4.6360759124e+00   0.01387377  0.009783279 -76.55 0.0006478466    1.572    0.364
       272  -8.8395    227.4743    209.4490   2.9037075773e+02   4.0370701137e+00   0.01124834   0.01013149 -85.15 0.0005300056    1.171    0.146
       273  -8.1496    100.9895    215.0020   2.9187476912e+02   4.7049931090e+00  0.009147103  0.009132857  -8.95  0.001155372    1.014    0.014
       274  -8.4824    250.5598    213.6352   2.9012772207e+02   3.8545166834e+00   0.01365883  0.006497368 -63.57  0.001092022    2.116    0.527
       275  -9.4326    204.6306    213.9840   2.9066330510e+02   4.1168875110e+00    0.0120826   0.01121792  18.65 0.0006921623    1.087    0.080
       276 -10.3409    230.8347    212.8704   2.9035220189e+02   3.9778483333e+00    0.0360181   0.02308122 -32.59  0.003556828    1.810    0.448
       277 -11.6785    198.5488    196.3800   2.9062867233e+02   4.3566176084e+00   0.02697775   0.02280943  68.90 0.0006114406    1.310    0.236
       278 -12.4309    189.4846    204.5606   2.9078298507e+02   4.3141458841e+00   0.03814036   0.02726352  61.69 0.0009013743    1.653    0.395
       279 -11.7042    195.1385    201.1903   2.9069709747e+02   4.3205192196e+00   0.02933456   0.02161452  77.19 0.0009810067    1.671    0.401
       280  -8.0478    140.0004    213.3095   2.9141074916e+02   4.4990874184e+00  0.008901363  0.008362871  31.51  0.000340208    1.071    0.067
       281 -10.0478      5.1804    212.6308   2.9297610601e+02   5.2849784565e+00   0.01817988   0.01265573  20.11  0.001129678    1.497    0.332
       282 -11.9857     10.4676    207.6785   2.9288508565e+02   5.3121516920e+00   0.03669443   0.03276845 -30.93  0.002525654    1.146    0.127
       283 -10.5836      6.4764    208.5159   2.9293654833e+02   5.3253766108e+00   0.01824848   0.01517031  39.23 0.0008374997    1.215    0.177
       284  -8.0199    247.0000    210.9835   2.9015317645e+02   3.9059584874e+00   0.01104047   0.00373999 -62.69 0.0008005539    2.929    0.659
       285  -9.5947    122.4764    209.7805   2.9159356516e+02   4.6414787921e+00   0.01345431  0.009375226  34.22  0.001230439    1.424    0.298
