#   1 NUMBER                 Running object number                                     
#   2 MAG_AUTO               Kron-like elliptical aperture magnitude                    [mag]
#   3 X_IMAGE                Object position along x                                    [pixel]
#   4 Y_IMAGE                Object position along y                                    [pixel]
#   5 X_WORLD                Barycenter position along world x axis                     [deg]
#   6 Y_WORLD                Barycenter position along world y axis                     [deg]
#   7 A_WORLD                Profile RMS along major axis (world units)                 [deg]
#   8 B_WORLD                Profile RMS along minor axis (world units)                 [deg]
#   9 THETA_WORLD            Position angle (CCW/world-x)                               [deg]
#  10 FWHM_WORLD             FWHM assuming a gaussian core                              [deg]
#  11 ELONGATION             A_IMAGE/B_IMAGE                                           
#  12 ELLIPTICITY            1 - B_IMAGE/A_IMAGE                                       
         1 -14.4431     67.9326    144.0947   1.1310745943e+02   3.7443075234e+01     3.227888     1.794944 -89.88  0.007905012    2.148    0.534
         2 -13.7058    204.7411     20.3642   5.0165905356e+01   3.1431934325e+01     1.319789    0.9455246  26.97  0.004610792    1.696    0.410
         3 -13.8753    194.2862     32.9925   5.5432329176e+01   3.2639955477e+01     2.171584     1.443671  22.93  0.008373256    1.953    0.488
         4 -11.0172     41.4407      2.1939   8.2917075861e+01   6.8901636583e+01    0.2699969    0.1698941  19.63  0.001703708    1.643    0.391
         5  -9.2565     83.0000      4.4642   6.8927650627e+01   6.2241227849e+01    0.2736647   0.06605729 -27.06 0.0009312644    3.907    0.744
         6 -11.0515     29.2622     15.1442   9.4045405499e+01   6.8276490228e+01    0.3314516    0.1301601 -52.80  0.001500808    3.022    0.669
         7 -10.5113     57.0477      3.0170   7.7096378604e+01   6.6696287296e+01    0.1943582    0.1535387  -8.54 0.0007939129    1.021    0.020
         8  -9.9514     92.9872    236.0020   1.1845697105e+02   1.6593857926e+01    0.1597108    0.1163041  66.93 0.0003556073    1.048    0.046
         9 -12.3726    100.1743    249.3842   1.1845487273e+02   1.3554843467e+01    0.8893682    0.3360161  54.14  0.003567477    2.070    0.517
        10 -14.9570    134.1843    233.7904   1.1148547525e+02   1.0736851763e+01     4.099644     1.446905  40.27  0.008764892    2.696    0.629
        11 -13.0335     87.0638    197.0399   1.1573422504e+02   2.4100624903e+01     1.034341    0.5522802  54.92  0.005933463    1.614    0.380
        12 -15.9497     53.0319    204.3625   1.2244478003e+02   2.7238515472e+01     5.562293     3.084696 -81.15   0.03624505    1.618    0.382
        13 -12.8974     31.2569    206.0483   1.2619317062e+02   2.9396095264e+01    0.9766177     0.226083  56.51  0.002212323    3.957    0.747
        14 -11.9387    193.8046    193.9688   9.5367388049e+01   6.2546908708e+00    0.8039513    0.5345303 -64.16  0.004083929    2.421    0.587
        15  -9.4062    180.0155    192.4843   9.7654039743e+01   9.0673166464e+00     0.225067    0.1864763 -73.86  0.001079675    1.553    0.356
        16 -10.6183     98.6332    227.2717   1.1674996062e+02   1.7175558472e+01    0.4376799    0.1677829  53.98  0.001508892    2.181    0.541
        17 -10.3490    211.1302    179.9366   8.9687115902e+01   5.0182549653e+00    0.3683343    0.2563036 -14.79  0.001921811    1.711    0.415
        18  -8.7792     99.4542    180.7178   1.1144690385e+02   2.5350804390e+01    0.1529454     0.113028 -57.22 0.0007108069    1.504    0.335
        19 -10.2536     58.8074    176.8177   1.1892969421e+02   3.1787064716e+01    0.2690613     0.170164 -75.95 0.0006868062    1.395    0.283
        20 -15.9566      1.9631     44.8142   1.1435001393e+02   6.4677397479e+01     10.43005    0.9977167 -64.93   0.02746448    8.313    0.880
        21 -12.5553     84.9887    164.6355   1.1225302934e+02   3.0749302146e+01     1.642377    0.5045551  53.49 0.0008455408    3.924    0.745
        22 -12.9947     73.7767    160.5730   1.1406042891e+02   3.3166727608e+01    0.6024653    0.4141727 -57.91  0.001892646    1.515    0.340
        23 -11.8172    196.9632    245.4834   1.0255064002e+02  -9.8350039220e-01    0.3464696      0.22295  53.96  0.002256284    1.531    0.347
        24  -9.2710    174.7654    148.9469   9.0522978456e+01   1.7525592317e+01    0.2647541    0.1819485  60.61   0.00106182    1.593    0.372
        25 -10.3136    133.6919    144.0893   9.8301402287e+01   2.6804621007e+01    0.9800562    0.2304559 -54.89  0.002445756    6.242    0.840
        26 -10.8390    104.5470    141.9165   1.0445575490e+02   3.2489843329e+01      0.49553    0.3391146 -28.23  0.002353905    2.380    0.580
        27 -11.5459     92.3265    142.3788   1.0732287133e+02   3.4350020655e+01    0.2481798    0.2294367 -67.35 0.0005746976    1.174    0.148
        28  -9.4029     96.9170    138.3257   1.0557441282e+02   3.4505556020e+01    0.2181577    0.1544979  67.45 0.0009268845    1.494    0.331
        29 -10.0247    105.5429    130.9083   1.0218083812e+02   3.4694022249e+01    0.3697982    0.3496779  -4.69  0.002238491    1.327    0.247
        30  -9.8187    112.9604    131.6988   1.0058473701e+02   3.3237897811e+01    0.2906567    0.2380704  17.89 0.0009169811    1.634    0.388
        31 -11.9399     47.2145    128.9578   1.1575165766e+02   4.3201636044e+01    0.4673176    0.3403952  25.06  0.002942268    1.872    0.466
        32 -11.3084    118.9395    125.7351   9.7944897788e+01   3.3437024613e+01    0.7905579    0.3317384 -37.51  0.002597614    3.762    0.734
        33 -10.4080    100.4535    128.0294   1.0283755256e+02   3.6171244998e+01    0.2829542    0.2290497 -41.96 0.0006814059    1.387    0.279
        34  -9.5979    126.0372    127.7481   9.6698027721e+01   3.1675810042e+01    0.2955281     0.178451 -77.45 0.0009343961    2.641    0.621
        35 -10.6133    135.2694    122.8721   9.3462665350e+01   3.0892989434e+01    0.5880438    0.1254527 -49.37  0.001534692    4.957    0.798
        36 -14.3404     11.3564    206.3644   1.2938097734e+02   3.1330368012e+01    0.7776344    0.4386405  39.42  0.004722062    2.021    0.505
        37  -9.3111    109.0020    120.0038   9.9125531432e+01   3.6465611380e+01    0.2045625    0.1917438 -73.10 0.0003281255    1.031    0.030
        38  -9.6184    110.0441    115.7219   9.7936913504e+01   3.7211671538e+01    0.2315465    0.1908577 -60.63 0.0005079854    1.149    0.130
        39  -9.0782    167.9280    112.7941   8.3636577747e+01   2.5888180655e+01    0.3015138    0.1991448 -67.34   0.00122965    2.162    0.537
        40 -10.2790    119.8662    111.1308   9.4448657051e+01   3.6394363616e+01    0.2705028    0.2262214  70.57  0.000941808    1.289    0.224
        41 -10.8187    115.4556    109.8909   9.5254978866e+01   3.7488806812e+01    0.3822158    0.2838643 -19.82  0.001730618    1.882    0.469
        42 -10.2148    195.6908    170.1183   9.0671558562e+01   9.5650885522e+00      0.30944    0.2739024 -29.30  0.001272671    1.229    0.186
        43  -9.5838    134.5282    104.4864   8.9213294381e+01   3.4879314511e+01    0.4990458    0.1436762 -44.94  0.001522052    3.398    0.706
        44  -9.2596    205.5173    110.0135   7.5275049279e+01   1.7623016774e+01    0.2862392    0.2043271  34.70 0.0007066563    1.485    0.327
        45  -9.3186    193.7995    165.1799   9.0063834843e+01   1.0750019628e+01    0.3439013    0.2469118 -73.68  0.001634122    2.232    0.552
        46  -9.2531    137.4950    170.5025   1.0226891154e+02   2.0864785504e+01    0.1350016    0.1198661  65.84 0.0008106392    1.013    0.012
        47 -11.6938     91.9373    157.7768   1.0982030827e+02   3.1138934429e+01     0.522149    0.3913173 -30.54  0.002864974    2.117    0.528
        48  -9.1106    140.0770    156.7863   9.9328757626e+01   2.3034002815e+01    0.2102297    0.1719456  76.62 0.0005470665    1.276    0.217
        49  -9.2969     84.5320    233.6922   1.1961629441e+02   1.8134358566e+01    0.2279851     0.143115 -69.24   0.00133874    1.745    0.427
        50  -9.0029     24.9451     82.3336   1.1430487214e+02   5.5456856139e+01    0.1566978     0.127964 -62.98 0.0004049983    1.066    0.062
        51 -16.8566      5.8903    239.9125   1.3167498786e+02   2.6249274931e+01     6.529172     1.049862 -75.80   0.02739649    4.907    0.796
        52  -8.4714    155.7091     79.3442   7.7213595639e+01   3.5133927583e+01    0.1580532    0.1209725 -70.21 0.0004568503    1.656    0.396
        53  -9.6237    188.9810    154.4801   8.8826732061e+01   1.3549348394e+01     0.226901    0.1320779  45.79 0.0006478904    1.601    0.375
        54  -8.8145    183.1420     77.6436   7.0848266328e+01   2.8726123870e+01    0.2411659    0.1332386  43.74 0.0009454372    1.889    0.471
        55  -8.9383     63.4869     69.9797   9.9734851491e+01   5.4228543177e+01    0.2040836    0.1114393 -52.71  0.001023732    1.564    0.361
        56 -10.2232    159.1536     60.9267   7.0787126666e+01   3.7563808144e+01    0.3592638    0.2692698 -74.07 0.0007396895    1.783    0.439
        57  -9.1222    116.4650     56.4618   7.9754180083e+01   4.8070475297e+01    0.1437044    0.1361572 -31.53 0.0001852606    1.064    0.060
        58 -10.0908    161.4153     54.5803   6.8271230302e+01   3.8043516174e+01    0.2991149    0.2576148 -71.66 0.0007389578    1.340    0.254
        59 -13.7409    108.9479    240.2403   1.1627371096e+02   1.3642558908e+01    0.5994428    0.4349379  60.58  0.002388723    1.023    0.022
        60 -12.3848    119.3862    250.0478   1.1552190506e+02   1.0673525584e+01    0.4825888    0.1779359  46.36  0.002190726    2.035    0.509
        61 -12.6484    184.8940     40.3646   5.9238053266e+01   3.4124435558e+01    0.9371197     0.597811  43.93  0.002228279    1.615    0.381
        62 -11.1512     66.6344    244.0634   1.2317034953e+02   1.8858426728e+01    0.2754114    0.2001252 -76.04 0.0004624438    1.540    0.351
        63  -9.1742    150.4333     23.0179   5.9821834551e+01   4.5272572489e+01    0.2614183    0.2031357  87.08 0.0008415641    1.562    0.360
        64  -9.4681     70.8135    243.5735   1.2250554446e+02   1.8401146194e+01    0.1733481    0.1113687  79.23 0.0008624513    1.318    0.241
        65 -11.5453    113.0969    247.8783   1.1631156871e+02   1.1910609828e+01    0.3215289    0.1763034  42.71  0.001081601    1.620    0.383
        66  -8.6616     77.9823    243.4637   1.2140500270e+02   1.7482891799e+01    0.1412329   0.07819645  50.97  -2.5281e-05    1.398    0.285
