#   1 NUMBER                 Running object number                                     
#   2 MAG_AUTO               Kron-like elliptical aperture magnitude                    [mag]
#   3 X_IMAGE                Object position along x                                    [pixel]
#   4 Y_IMAGE                Object position along y                                    [pixel]
#   5 X_WORLD                Barycenter position along world x axis                     [deg]
#   6 Y_WORLD                Barycenter position along world y axis                     [deg]
#   7 A_WORLD                Profile RMS along major axis (world units)                 [deg]
#   8 B_WORLD                Profile RMS along minor axis (world units)                 [deg]
#   9 THETA_WORLD            Position angle (CCW/world-x)                               [deg]
#  10 FWHM_WORLD             FWHM assuming a gaussian core                              [deg]
#  11 ELONGATION             A_IMAGE/B_IMAGE                                           
#  12 ELLIPTICITY            1 - B_IMAGE/A_IMAGE                                       
         1 -13.4881    188.3875     26.5410   7.4550145185e+01   3.4806886263e+01     1.338565     1.176094  55.69  0.006368423    1.117    0.105
         2 -13.8911    201.0420      8.5105   6.7548620321e+01   3.3455553563e+01      1.84967     1.121851  42.64  0.008759505    1.838    0.456
         3  -9.9075     33.0000      4.4767   1.0679466794e+02   7.0321902726e+01    0.2587791   0.05452524 -38.42 0.0009442974    4.012    0.751
         4 -10.2840    152.9729    248.9575   1.3103839076e+02   5.6438908227e+00    0.1751457    0.1329501  47.59  0.000518513    1.010    0.010
         5 -12.0792    139.4114    249.0182   1.3328785258e+02   7.7330891006e+00    0.4778664    0.2803218  50.26   0.00310785    1.312    0.238
         6 -10.5363    126.8740    250.1693   1.3546756098e+02   9.4745958766e+00    0.1736629    0.1187944  59.12  0.001110296    1.225    0.184
         7  -9.8446     67.4915    250.5422   1.4497541763e+02   1.7662169607e+01    0.1716199   0.07742316  45.66 2.452494e-05    1.750    0.429
         8 -10.3892     46.3592    248.7312   1.4808012553e+02   2.0499762429e+01     0.298206    0.1412832  72.16  0.001052634    1.856    0.461
         9  -9.5968     29.1721    242.5422   1.5031926187e+02   2.3399219115e+01    0.2160382    0.1453282  73.16  0.001213101    1.059    0.055
        10 -10.5495     29.5492    249.2483   1.5059236221e+02   2.2295381450e+01    0.2571285    0.1964487  73.59   0.00229315    1.229    0.186
        11 -11.5222     35.2727    244.9025   1.4953083629e+02   2.2358243059e+01    0.4747933     0.359356 -89.34  0.003581585    1.350    0.260
        12 -14.6346      7.0709     16.9749   1.2496474321e+02   7.0671096778e+01     13.03549          nan -54.10   0.02865465   12.065    0.917
        13  -9.5715     95.1004    241.4708   1.3987477143e+02   1.5384791790e+01    0.1559962    0.1242266  81.37 0.0005287699    1.218    0.179
        14  -9.4185    187.3009    241.3242   1.2436584706e+02   1.1568322227e+00    0.1131215   0.07669271  20.30 0.0007028339    1.633    0.388
        15 -13.8264     50.9664    226.0630   1.4593732761e+02   2.3673756272e+01    0.8878258    0.5698743  81.57  0.004156718    1.295    0.228
        16 -10.6313     20.1592    238.0068   1.5144055639e+02   2.5077730069e+01    0.3097284   0.09491734  62.44  0.001693721    2.705    0.630
        17 -10.4466     34.7410    229.9953   1.4879436666e+02   2.4861818854e+01    0.2443596    0.1295665  62.35 0.0008861923    1.410    0.291
        18 -11.4197    151.6837    229.2246   1.2890135921e+02   8.5712290877e+00    0.4671018    0.1290888  41.34  0.001861331    3.088    0.676
        19  -9.8262    177.7519    227.5749   1.2411803934e+02   4.4755623677e+00    0.1746093    0.1442748 -89.80  0.000671969    1.710    0.415
        20 -11.3314    173.1839    222.2985   1.2417749995e+02   5.9690963983e+00    0.3966292    0.2466826  50.19  0.002334506    1.423    0.297
        21 -12.6056     45.0805    235.1001   1.4747108048e+02   2.2842039209e+01    0.2789692    0.2240088  85.18 0.0007556673    1.285    0.222
        22  -9.2082     27.5303    221.8922   1.4947728756e+02   2.7026009935e+01    0.1512865    0.1028412  64.30 0.0005741004    1.116    0.104
        23  -8.2861     96.6813    219.2522   1.3751523732e+02   1.8777554348e+01    0.1175159   0.07029773  64.33 0.0002565268    1.532    0.347
        24  -8.9430    152.5055    212.9784   1.2659769452e+02   1.0882006724e+01    0.1526949    0.1239898 -55.12 0.0003354681    1.471    0.320
        25 -11.8348     30.0949    204.7850   1.4801423361e+02   2.9820961177e+01    0.3163107    0.1667314  51.14 0.0009869799    1.592    0.372
        26 -10.6812     24.4920    202.5184   1.4883115366e+02   3.0820546102e+01    0.2420661    0.1719416 -64.11  0.001729632    1.700    0.412
        27 -11.3677     69.0594    199.9581   1.4063766698e+02   2.6111489695e+01    0.2948227     0.214653 -52.38  0.001473719    1.827    0.453
        28 -10.1827     85.4502    246.2513   1.4183805324e+02   1.5976508630e+01     0.202324   0.09547766  65.13 0.0009713203    2.093    0.522
        29 -10.1138    194.8390    198.6736   1.1657485133e+02   5.5309905173e+00    0.3319761    0.2030807 -63.43  0.001494122    3.215    0.689
        30  -9.7138    191.8259    192.9265   1.1613515078e+02   6.9283310903e+00    0.3484437    0.2008417 -65.08  0.001346456    4.164    0.760
        31 -11.6231     74.2075    191.9703   1.3885591493e+02   2.6951288982e+01    0.2397244    0.2080776 -75.00 0.0004809768    1.291    0.226
        32  -8.6216    106.5829    182.3981   1.3123406334e+02   2.4013138089e+01    0.1278534     0.107011  69.67  0.000169675    1.046    0.044
        33 -10.8352     83.1373    179.1597   1.3561100027e+02   2.8236693587e+01    0.2235626    0.1890085 -85.11 0.0003532117    1.120    0.107
        34 -13.0937     70.5663    177.1234   1.3794216232e+02   3.0397836433e+01    0.4376998    0.2646407 -45.90  0.001628984    2.317    0.568
        35 -11.6259     89.6545    169.5074   1.3298192702e+02   2.9248804483e+01    0.5319471    0.4650571  88.36  0.003476841    1.059    0.056
        36  -9.7636    195.7562    159.4859   1.0898196863e+02   1.1463544659e+01    0.2712369    0.2224377 -84.55  0.000686863    1.742    0.426
        37  -9.7059    101.1455    152.8703   1.2790105041e+02   3.0946051651e+01    0.2816662    0.2227179 -62.47 0.0009246955    1.241    0.194
        38  -8.9643    103.9659    148.7766   1.2655192909e+02   3.1356033494e+01    0.2428313    0.1686209 -33.12   0.00119443    2.027    0.507
        39 -11.9234     90.2301    152.5440   1.3033780840e+02   3.2747619703e+01    0.2486535    0.2319693 -47.59 0.0005340879    1.293    0.227
        40 -12.3579     67.0599    143.8782   1.3438579105e+02   3.7947733657e+01    0.7057986     0.424618  67.67   0.00366474    1.866    0.464
        41  -9.0964     89.2671    138.4192   1.2819884960e+02   3.5983518171e+01    0.1803315    0.1182037  55.72 0.0005532941    1.578    0.366
        42 -11.4647     54.1514    121.3216   1.3407864555e+02   4.4602932717e+01    0.5558879    0.2333948 -80.33  0.001941644    3.980    0.749
        43  -9.5982    198.2971    245.6656   1.2312281583e+02  -1.0996688778e+00    0.1035851   0.08074131  61.45 0.0003577519    1.648    0.393
        44 -10.5313     99.2530    135.1779   1.2518211823e+02   3.5099678655e+01    0.2601253    0.2156811 -45.80 0.0004919468    1.303    0.232
        45  -9.7233    170.2058    134.0085   1.0856187007e+02   2.1425566221e+01    0.2605285    0.2103643  63.71 0.0007355324    1.357    0.263
        46 -10.3447    177.1607    140.3454   1.0855003550e+02   1.8732454253e+01    0.4359798    0.3090925 -85.31  0.001662127    2.357    0.576
        47  -8.6386    192.0237    144.0249   1.0636957360e+02   1.4879153948e+01    0.1699331    0.1616409   4.99 0.0003909684    1.032    0.031
        48  -9.0560    108.1803    124.3607   1.2078531417e+02   3.5948148581e+01    0.1861971    0.1652971  59.90 0.0004187468    1.141    0.124
        49  -9.6477    111.5102    137.8604   1.2275045651e+02   3.2411757087e+01       0.3339    0.2361124 -26.43  0.001304538    2.076    0.518
        50  -8.9744    152.2155    117.9964   1.0869000391e+02   2.8496838427e+01    0.2440838    0.1712359 -73.30 0.0006796409    2.008    0.502
        51 -10.4096    168.0606    113.2773   1.0396127733e+02   2.5876703962e+01    0.3615292    0.3033975 -82.32  0.001052661    1.454    0.312
        52  -9.0765    203.4924    111.5270   9.6338724043e+01   1.7979782974e+01    0.1517878    0.1423755   4.70 0.0001230573    1.046    0.044
        53  -9.1650    130.1093    102.1229   1.0989956316e+02   3.6491791504e+01    0.2232517     0.209736  89.76  0.001208963    1.120    0.107
        54  -8.8131    126.9885    100.0153   1.1012315993e+02   3.7578563809e+01    0.2244028    0.1788571 -86.11            0    1.583    0.368
        55  -9.7474     30.0682     91.1282   1.3559161133e+02   5.3846507234e+01    0.2308421    0.1628739  44.45 0.0007613646    1.687    0.407
        56  -9.7642     21.9417     68.0321   1.3361184845e+02   5.9554253961e+01    0.2035244    0.1651621  37.83 0.0005021344    1.552    0.356
        57 -15.0680     35.9312    189.1506   1.4585700285e+02   3.2166894631e+01     9.205054     3.185107  64.66   0.03984008    3.532    0.717
        58 -13.8706      4.2923    237.5870   1.5374378720e+02   2.6703408117e+01     2.095228    0.7721325 -77.77   0.01378983    2.362    0.577
        59 -14.0424     10.5946    207.5831   1.5144410072e+02   3.1249626626e+01     1.942635     0.752053 -84.85   0.01157745    2.178    0.541
        60 -10.0645    249.7625    247.0074   1.1506402516e+02  -9.0120210863e+00    0.1840447   0.07825489 -31.33  0.001055311    2.765    0.638
        61 -10.6308     81.4252    249.0884   1.4269728727e+02   1.6081538933e+01    0.2579195    0.1210652  57.41   0.00130399    1.684    0.406
