#   1 NUMBER                 Running object number                                     
#   2 MAG_AUTO               Kron-like elliptical aperture magnitude                    [mag]
#   3 X_IMAGE                Object position along x                                    [pixel]
#   4 Y_IMAGE                Object position along y                                    [pixel]
#   5 X_WORLD                Barycenter position along world x axis                     [deg]
#   6 Y_WORLD                Barycenter position along world y axis                     [deg]
#   7 A_WORLD                Profile RMS along major axis (world units)                 [deg]
#   8 B_WORLD                Profile RMS along minor axis (world units)                 [deg]
#   9 THETA_WORLD            Position angle (CCW/world-x)                               [deg]
#  10 FWHM_WORLD             FWHM assuming a gaussian core                              [deg]
#  11 ELONGATION             A_IMAGE/B_IMAGE                                           
#  12 ELLIPTICITY            1 - B_IMAGE/A_IMAGE                                       
         1 -14.3137    135.7790    127.2592   1.0929198666e+02   3.0057030959e+01     2.029226    0.4336885 -48.15  0.005241749    5.368    0.814
         2 -14.7294    167.0789     39.3053   7.6738161098e+01   3.8398699048e+01     1.328809     1.023823  -2.37  0.004160738    1.430    0.301
         3 -14.6077    183.6204      6.9274   6.4098450447e+01   3.7738118326e+01     1.605976    0.9220138  64.75  0.007812851    1.689    0.408
         4 -12.4947    210.1456    176.1753   1.0353193083e+02   8.8103404291e+00    0.3785017    0.2990747   5.33  0.001744158    1.014    0.014
         5 -20.0138     66.4589    173.2781   1.3471012761e+02   3.1015742822e+01     16.05963     6.694281 -69.70    0.0735372    2.598    0.615
         6 -12.0963    116.0628    211.8702   1.2786765531e+02   1.7431837903e+01     0.238797    0.1754206  60.91 0.0009506161    1.580    0.367
         7 -11.0933    118.0479    181.2071   1.2348046886e+02   2.2474229353e+01    0.5059078    0.2509281  60.42   0.00184949    4.042    0.753
         8 -11.4203    194.2957    165.6501   1.0449186780e+02   1.2817666594e+01    0.2748269    0.2177598  34.05 0.0008344106    1.286    0.223
         9 -11.8031    195.6904    174.3232   1.0586815554e+02   1.1328101328e+01    0.2650142    0.2538486  74.66 0.0007493406    1.644    0.392
        10 -12.8380    195.7624    170.5461   1.0514713331e+02   1.1861219004e+01    0.4077419    0.3719198  19.89  0.001815236    1.277    0.217
        11 -13.5552    138.0471    170.9377   1.1731156529e+02   2.1254828973e+01    0.6863866    0.5924723  62.04  0.004141923    1.397    0.284
        12 -10.6673    110.3101    211.6664   1.2904007497e+02   1.8232657966e+01    0.3451166    0.2073537  66.13  0.001829635    2.454    0.592
        13 -12.2464    148.5728    173.3589   1.1537385191e+02   1.9124703154e+01    0.3660161    0.2293868  56.62  0.001371366    2.235    0.553
        14 -12.3796    143.4383    167.9873   1.1558542185e+02   2.0908836099e+01    0.4201107    0.2785548  57.68  0.001714895    2.028    0.507
        15 -12.3501    177.2868    170.9263   1.0885797386e+02   1.4818024583e+01    0.3802968    0.2270829 -47.19   0.00192179    2.098    0.523
        16 -12.0296    125.6333    172.0260   1.2033852625e+02   2.3025435586e+01    0.2904768    0.2572752  42.97  0.001105897    1.113    0.101
        17 -11.2713    202.9136    172.1357   1.0410103748e+02   1.0491703776e+01    0.1837195    0.1666584  15.29 0.0008426328    1.283    0.221
        18 -11.1361    108.4511    207.5370   1.2896672956e+02   1.9168400775e+01    0.2045993    0.1263613  33.35 0.0006478394    1.358    0.264
        19 -10.2993    150.7204    249.5273   1.2536655116e+02   7.5666674643e+00    0.1453356    0.1310109  -4.74  0.000350793    1.336    0.252
        20 -12.8594    163.4568    203.3362   1.1705347047e+02   1.2049319993e+01    0.3698959    0.2641788 -13.08  0.001884453    1.559    0.359
        21 -11.4816    229.9821    165.9780   9.8143190600e+01   7.1132229354e+00    0.1697844    0.1548879 -41.30  0.001102426    1.696    0.410
        22 -10.9586    200.9820    164.9725   1.0308966971e+02   1.1819930613e+01    0.2579032    0.1757126 -54.77  0.001237971    2.538    0.606
        23 -12.7631    161.2430    198.0262   1.1669641864e+02   1.3163192694e+01    0.3293973    0.2669764 -49.85  0.001999422    1.614    0.380
        24 -11.4916    168.9998    202.6652   1.1585627250e+02   1.1334926626e+01     0.185093    0.1695359  55.69 0.0006703101    1.517    0.341
        25 -10.5785    222.8823    162.7103   9.8708785375e+01   8.6275626121e+00    0.2170057    0.1553683 -47.66  0.001165256    2.123    0.529
        26 -10.4833    156.8602    202.1662   1.1820208152e+02   1.3188951775e+01    0.1867186    0.1509793  44.47 0.0008358768    1.357    0.263
        27 -10.2619     15.1287    157.0704   1.4605800135e+02   3.9519775080e+01    0.1589448    0.1447819 -63.79 0.0005369603    1.278    0.218
        28 -12.4981    162.9884    154.9808   1.0880891936e+02   1.9878632262e+01    0.3298648    0.2857279  41.29  0.001174716    1.244    0.196
        29 -14.1656    143.3353    143.3364   1.1092030257e+02   2.5505126858e+01     0.910197    0.6001582 -60.34  0.004251678    2.050    0.512
        30 -12.1377    134.7460    109.9996   1.0541104075e+02   3.3747603278e+01     1.114259    0.1794434 -45.27  0.002483437    6.546    0.847
        31 -10.7706    125.1254    247.2811   1.2981766316e+02   1.1034678718e+01    0.1293088   0.09815232 -57.81   0.00063663    1.803    0.445
        32 -11.3991    174.4977    148.7948   1.0508680614e+02   1.8889029904e+01    0.2748376    0.2479482  43.43 0.0008275615    1.293    0.227
        33 -10.9423     12.2204    231.5462   1.4981698228e+02   2.5490601902e+01    0.1141792   0.08471765  25.90 0.0004211036    1.516    0.340
        34 -11.4669    219.4233    225.1342   1.1006461406e+02   1.6234272685e+00    0.2537294    0.1233543 -40.01   0.00143556    2.857    0.650
        35 -13.6875    167.5705    189.3275   1.1403987785e+02   1.3521498349e+01    0.5886648    0.4216266  21.50  0.002492361    1.219    0.180
        36 -10.3154      9.2422    139.0870   1.4649887629e+02   4.3955075038e+01    0.1672521    0.1431948 -74.36   0.00116748    1.178    0.151
        37 -10.3417    172.0367    138.5009   1.0340423478e+02   2.1091321135e+01    0.2096242    0.1326652  39.96 0.0005316163    1.537    0.349
        38 -12.1346    160.3999    128.0631   1.0360319899e+02   2.5168276822e+01    0.3620189    0.2916228 -39.29  0.001383832    1.290    0.225
        39 -11.5948    171.3102    177.4340   1.1125490710e+02   1.4771285676e+01     0.265603    0.1950455 -69.12  0.001349891    2.587    0.613
        40 -14.2581    133.5698    145.6936   1.1374798888e+02   2.6782895520e+01     1.432633    0.4864655 -54.81  0.004476625    4.312    0.768
        41 -13.4518    175.3953    193.7480   1.1319564076e+02   1.1670719459e+01    0.4545195    0.3205866 -40.85    0.0019493    1.683    0.406
        42 -12.2044     28.9645    118.4284   1.3898397872e+02   4.7374548199e+01    0.3595285    0.2274722  13.27  0.001277625    1.931    0.482
        43 -12.8515    180.3436    192.8018   1.1207071715e+02   1.1059658943e+01    0.3321792    0.2965854 -45.13  0.001366271    1.548    0.354
        44 -10.7210    167.6517    112.6289   9.8254150289e+01   2.6505165903e+01    0.2904838    0.2234276 -76.93   0.00133556    2.120    0.528
        45 -12.9114    113.9123    110.1684   1.1109538358e+02   3.7752502134e+01    0.3105769     0.292329  84.48 0.0007634817    1.197    0.164
        46 -13.4252    175.9873    187.1795   1.1199176991e+02   1.2545205019e+01    0.5680487    0.3747743 -58.44  0.002923354    2.639    0.621
        47 -11.1678    154.5827    196.2326   1.1778158546e+02   1.4432558250e+01    0.2657181     0.218546 -77.00  0.001631976    1.934    0.483
        48 -10.8225    205.4377    110.1726   9.0220570106e+01   1.9232994401e+01     0.297428      0.19132  35.16 0.0009827465    1.601    0.375
        49 -10.1155     14.3625    227.4191   1.4929880010e+02   2.5996316900e+01   0.09397437    0.0763881  58.94 0.0007855377    1.129    0.114
        50 -12.7466    121.9134    223.0742   1.2794009924e+02   1.4893747852e+01    0.4345719    0.2459187  16.96   0.00235101    2.151    0.535
        51 -10.5289    110.2274    222.8962   1.3025899956e+02   1.6440367355e+01    0.1496141    0.1242203  44.75 0.0003517376    1.116    0.104
        52 -11.6532    153.9558    185.4484   1.1622662914e+02   1.6241472468e+01    0.2607557    0.1970569 -64.94  0.001481999    1.983    0.496
        53 -14.4228    154.9441     54.4582   8.4026651198e+01   3.9293805966e+01     1.211569     1.124277  37.92  0.001012323    1.078    0.072
        54 -12.0828    208.8802    234.8689   1.1325707787e+02   1.9105236739e+00    0.1800448     0.115113  12.22  0.001248118    1.249    0.200
        55 -12.8235    170.9305     31.8788   7.3681684388e+01   3.8349890348e+01    0.4021582    0.3355601  -9.02 0.0009290474    1.243    0.196
        56 -13.1031    128.8214    143.6180   1.1450586159e+02   2.8025062912e+01     0.556448    0.2899781  51.39  0.001549659    2.308    0.567
        57 -10.5752     13.5194     59.8164   1.3631424238e+02   6.2908934608e+01    0.1920743    0.1813538  -9.88 0.0003922909    1.219    0.180
        58 -11.0493    138.1917     31.5812   7.9393891788e+01   4.6747300966e+01    0.3476172    0.2450701  78.75  0.001337157    1.701    0.412
        59 -13.4871    210.1848    187.9713   1.0565451676e+02   7.2538918447e+00    0.7239256    0.3270515 -47.25   0.00299538    4.169    0.760
        60 -12.8044    205.4922    179.5178   1.0499295220e+02   9.0741221506e+00    0.3690324    0.2799267  40.44  0.001916225    1.527    0.345
