#   1 NUMBER                 Running object number                                     
#   2 MAG_AUTO               Kron-like elliptical aperture magnitude                    [mag]
#   3 X_IMAGE                Object position along x                                    [pixel]
#   4 Y_IMAGE                Object position along y                                    [pixel]
#   5 X_WORLD                Barycenter position along world x axis                     [deg]
#   6 Y_WORLD                Barycenter position along world y axis                     [deg]
#   7 A_WORLD                Profile RMS along major axis (world units)                 [deg]
#   8 B_WORLD                Profile RMS along minor axis (world units)                 [deg]
#   9 THETA_WORLD            Position angle (CCW/world-x)                               [deg]
#  10 FWHM_WORLD             FWHM assuming a gaussian core                              [deg]
#  11 ELONGATION             A_IMAGE/B_IMAGE                                           
#  12 ELLIPTICITY            1 - B_IMAGE/A_IMAGE                                       
         1  -9.9636     60.7497     23.8680   9.5219762779e+01   6.7509806258e+01    0.7136171    0.2957173 -33.73  0.002716835    2.583    0.613
         2 -12.3069    129.1398     14.3720   6.8549621880e+01   5.1651284960e+01     1.899323    0.7949429  70.80   0.00699384    2.293    0.564
         3 -12.0904    123.9579     27.6349   7.5076257464e+01   5.1510759860e+01    0.9980035    0.5281389  48.74   0.00270025    1.820    0.450
         4 -12.2942    104.9932     13.1308   7.3155468410e+01   5.8423628898e+01    0.5724221    0.4582652 -22.24  0.002982405    1.356    0.262
         5 -13.4706    118.7869     40.8425   8.1756059305e+01   5.0989135134e+01     1.420163      1.03249  61.25  0.003055863    1.340    0.254
         6 -11.8324     26.2099     55.5854   1.2812863385e+02   6.5235483693e+01      1.51771    0.8579656  -8.35  0.006914542    2.212    0.548
         7 -12.7350    112.9583     24.5488   7.6401023804e+01   5.4906377687e+01     1.502785    0.4434916  57.74  0.004784107    2.876    0.652
         8 -11.9406    182.2552     25.3972   6.4696658218e+01   3.5866777568e+01    0.7859006    0.3556765  47.65 0.0008465904    2.606    0.616
         9 -11.5116    178.1096     21.4957   6.3977286174e+01   3.7403822831e+01    0.8343602    0.5013065  13.41  0.003405664    2.741    0.635
        10 -11.4030    164.3911     27.5514   6.7706186309e+01   4.0375152027e+01    0.4673243    0.3908741 -58.45  0.001326446    1.165    0.142
        11 -10.9052    189.5929     29.0784   6.4951139861e+01   3.3536236656e+01    0.6424565    0.3319207 -32.32  0.002855408    1.818    0.450
        12 -12.3621     60.4540     44.8452   1.0562665647e+02   6.3490798483e+01     1.128411    0.5823331 -47.50  0.004743163    1.910    0.476
        13 -11.9708     22.5983     11.2447   1.1331019924e+02   7.5691316544e+01    0.6485899    0.4987029  -5.85  0.003160204    1.216    0.178
        14 -11.9856     16.6583     13.8136   1.1991073783e+02   7.5717639929e+01    0.4549964    0.2440475 -38.91 0.0003469656    1.625    0.385
        15 -11.4148     14.0161      9.6727   1.2012180762e+02   7.6786942531e+01    0.4672434    0.4012804   0.16  0.002505399    1.178    0.151
        16 -11.1086    153.1403     25.7994   6.8807674682e+01   4.3669335018e+01    0.6895474    0.4123485  -1.94  0.002704252    2.455    0.593
        17  -9.8081    145.9800     16.7606   6.6657720580e+01   4.6692692408e+01    0.6588632    0.3419725 -68.16  0.002299038    2.530    0.605
        18  -9.8007    149.5052     14.9835   6.5481329138e+01   4.5901013386e+01    0.2685402    0.2157123  26.23   0.00117294    1.474    0.322
        19  -9.3864     86.7686      7.2055   7.5133058439e+01   6.3836941321e+01     0.704731    0.3532207  60.24  0.003002369    1.808    0.447
        20 -11.4299     90.5418     20.2080   8.0830449612e+01   6.1330758605e+01    0.6057782    0.5122271 -25.18  0.002257598    1.251    0.201
        21 -11.4338     86.0696     14.0139   7.9073209737e+01   6.3242013196e+01     0.582404    0.3741921  -1.19  0.001986358    1.951    0.487
        22 -10.5811     42.3964      3.5453   9.2799417406e+01   7.4150912491e+01    0.7858429    0.4037684  -9.26  0.002996881    3.352    0.702
        23  -9.8818     31.9361     12.1254   1.0627282806e+02   7.4400961568e+01    0.3557384    0.2088668  47.13  0.001249726    2.322    0.569
        24 -12.2023     49.3113     13.0043   9.5046606984e+01   7.1470422424e+01    0.8433865    0.6335273   0.15  0.004370116    1.382    0.277
        25 -11.3773     42.3430     14.1184   1.0013436494e+02   7.2492951842e+01    0.5620459    0.2712233  32.81  0.001834889    2.091    0.522
        26 -11.0881     38.7499     21.5861   1.0698826115e+02   7.1667646805e+01    0.5069137    0.2222113 -46.10  0.001460771    2.184    0.542
        27 -11.5731     35.5607     19.1589   1.0783506007e+02   7.2581900090e+01    0.6014633    0.2270579 -42.23  0.002424713    2.489    0.598
        28 -12.0865     69.6704     18.0314   8.7650499791e+01   6.6576312177e+01    0.8336156    0.4894682  53.70  0.003808953    1.727    0.421
        29 -11.7604    238.6851      6.7981   5.5147541492e+01   2.4446419700e+01     0.554548    0.2065683 -57.56  0.002482174    2.484    0.598
        30 -11.6285    245.7787      7.9134   5.5030882110e+01   2.2859850318e+01    0.4519651    0.2675674 -21.69  0.001867045    1.764    0.433
        31 -11.2173    241.4946      3.9849   5.4352207716e+01   2.4132048045e+01    0.3568228    0.2021563 -83.92  0.002018839    1.771    0.435
        32 -12.3742    237.2271     15.8178   5.7351841135e+01   2.3836566210e+01     0.518654    0.4522958  65.02  0.002627383    1.370    0.270
        33 -11.6431    244.7561     14.6065   5.6613531537e+01   2.2389640879e+01    0.3455139    0.2141637 -17.39  0.001537942    1.828    0.453
        34 -11.0052    165.3773     17.2543   6.4143716787e+01   4.1288785450e+01    0.4153669    0.2760687  40.27  0.001204945    1.772    0.436
        35 -11.2199    205.3757      2.4277   5.6026239900e+01   3.2433228462e+01    0.4185551    0.2568983 -83.18  0.001070017    1.546    0.353
        36 -10.4003    200.0143      6.0745   5.7392507356e+01   3.3397157726e+01    0.3907895    0.2034179  84.22 0.0009421675    1.880    0.468
        37 -10.0210    191.8162     16.5204   6.1042756870e+01   3.4391705241e+01     0.303171    0.2454631   1.94  0.001668869    1.559    0.359
        38 -10.5321    186.6059     15.0477   6.1109041657e+01   3.5883819545e+01    0.3110666    0.2339503  58.71  0.000799795    1.400    0.286
        39 -11.7167    192.1345      8.0575   5.8565809787e+01   3.5177759185e+01    0.7548627    0.6201273  26.53  0.003864081    1.561    0.359
        40 -10.0262    219.5497     12.4700   5.7695370209e+01   2.8094968496e+01    0.3180512    0.1544693  66.31  0.001208079    2.122    0.529
        41 -11.5411    211.4917      9.9430   5.7605734895e+01   3.0234127982e+01    0.4533346    0.3475177   9.27  0.001460366    1.787    0.440
        42 -11.2622      3.0563      1.8547   1.2714588750e+02   7.9070154493e+01    0.4370684    0.1926029  -2.63  0.002123381    2.436    0.590
        43  -9.2493      4.5556     10.1886   1.2943094130e+02   7.7224686235e+01      0.48069    0.1790803 -48.18  0.002120525    2.004    0.501
        44  -9.1648      5.2478      5.3707   1.2655981347e+02   7.8231182848e+01    0.1633728    0.1244765 -57.74 0.0006102395    1.261    0.207
        45 -10.3329    168.9668     10.0945   6.1370937060e+01   4.1055223414e+01    0.3509624    0.2250712  49.66  0.001493625    1.686    0.407
        46 -10.1534    157.3409      9.5225   6.2505563371e+01   4.4283588655e+01    0.4229153    0.1665625 -36.62  0.001011844    2.380    0.580
        47  -9.9601    151.0138      7.5523   6.2590826618e+01   4.6221808440e+01    0.5260757    0.2133898  65.61  0.001323237    2.137    0.532
        48 -10.7240     67.1372     10.2639   8.4144499168e+01   6.8210305297e+01    0.6002123    0.2070383  47.40  0.002217639    2.564    0.610
        49  -9.6785    157.8403      2.8200   6.0130489116e+01   4.4766606114e+01    0.3990231    0.1668023  57.41  0.001590841    2.232    0.552
        50 -10.4090    162.9279      5.6294   6.0542353744e+01   4.3120849060e+01    0.3973907    0.2400231  -1.55  0.001266347    2.246    0.555
        51  -9.3735    162.5746      1.3911   5.9158361785e+01   4.3596578843e+01    0.1925947    0.1177705  69.25 6.022164e-05    1.492    0.330
        52 -10.9548     77.6920      4.8765   7.6744438693e+01   6.6351718760e+01    0.6316579    0.4173447  -0.61  0.003073218    1.746    0.427
        53 -10.6494     71.4290      3.5814   7.8219846059e+01   6.8001486139e+01     0.447616    0.3179589  28.87  0.002168588    1.376    0.273
        54 -10.3464     62.8080      6.1614   8.3469159990e+01   6.9688592877e+01    0.3331822     0.229865   5.92  0.001057387    1.621    0.383
        55 -10.1060      1.2971      7.2628   1.3147749716e+02   7.7978029381e+01     0.197278   0.09196772 -63.56 0.0002417707    1.823    0.452
        56 -10.8157    218.9112      2.8923   5.5308265525e+01   2.9192985390e+01    0.3000293    0.2487363 -49.24  0.001311137    1.084    0.077
        57 -11.6328    223.9437      1.8449   5.4761243017e+01   2.8147290505e+01    0.7577646    0.3110788 -77.81  0.003109156    2.687    0.628
        58 -10.1265    174.9572      4.4888   5.8984076762e+01   3.9985350750e+01    0.2944348    0.2286359  86.83 0.0009084002    1.175    0.149
        59 -10.2554    141.9837      3.6892   6.2325042845e+01   4.9087421173e+01    0.4631452    0.2432647  73.03  0.002012732    1.707    0.414
        60 -12.2561    133.8972      2.6352   6.3020941742e+01   5.1439805537e+01    0.4242452    0.3010941  75.02  0.000546472    1.267    0.211
        61 -11.0459    106.2042      2.0576   6.7538476015e+01   5.9174663004e+01    0.7614844    0.3009189  75.18   0.00222624    2.685    0.628
        62 -10.8146    113.4578      2.0420   6.6102154039e+01   5.7185248498e+01    0.5878222    0.2583759  74.67  0.001882505    2.214    0.548
        63 -12.7444     18.7783     22.9783   1.2242874614e+02   7.3570315123e+01     1.101389    0.6331089  46.17  0.004606454    2.389    0.581
        64  -9.4376    171.2038      4.3735   5.9297981640e+01   4.0998038005e+01    0.2729174    0.1803683  87.86 0.0007800302    1.411    0.291
        65  -9.6055    122.8307      1.2716   6.4133483430e+01   5.4647357788e+01    0.4017888    0.1049528  68.74  0.001267088    3.126    0.680
        66  -8.9605     15.3615      1.2675   1.1357590323e+02   7.8332321396e+01    0.1314033   0.08036181 -16.98 0.0003701978    1.645    0.392
        67  -9.9207    133.3976    140.5640   1.0770442660e+02   2.7080362323e+01    0.3192126     0.257066 -16.22  0.001332082    1.459    0.315
        68 -11.9804     29.8875    132.8998   1.3832154823e+02   4.4701382924e+01    0.6996304    0.3739277  83.06 0.0004389928    1.898    0.473
        69 -10.1918     26.4913    139.9671   1.4001015333e+02   4.3205509585e+01    0.2419862    0.2124914  85.51 0.0006291914    1.069    0.065
        70 -11.6494     23.0316    135.4877   1.4075224793e+02   4.4624649111e+01    0.5742925    0.4035188  46.55  0.002268206    1.321    0.243
        71 -11.2105     71.6848    134.1646   1.2476958490e+02   3.9470269474e+01      0.79918    0.4195125 -49.30    0.0033277    2.087    0.521
        72 -10.7547     81.3105    135.5293   1.2191933137e+02   3.7669930322e+01    0.6061996    0.4079386  -6.06  0.002327388    2.417    0.586
        73 -10.6964     47.3684    135.1388   1.3283991922e+02   4.2363296566e+01    0.4371659    0.2151143 -58.56  0.001533895    2.013    0.503
        74 -11.1854     92.6165    129.0635   1.1713515857e+02   3.7406333331e+01    0.4345734    0.3372703 -83.19  0.001499091    1.473    0.321
        75 -10.1763     14.3160    133.4697   1.4338174981e+02   4.5788924294e+01    0.3270824    0.1780093  70.69  0.001631583    1.701    0.412
        76  -9.9645     62.3701    131.8926   1.2745937329e+02   4.1350412896e+01    0.4164702    0.1811813 -59.39  0.001648075    2.224    0.550
        77 -11.1706     79.2967    127.4299   1.2111520139e+02   4.0023558155e+01    0.6232095    0.4095969 -31.85 0.0008790886    2.055    0.513
        78 -10.6048     18.3940    125.2748   1.4148354012e+02   4.7582882997e+01    0.4349938    0.1695948 -67.82  0.001286196    2.261    0.558
        79  -9.6206      2.0890    125.4129   1.4685714282e+02   4.8552729080e+01    0.2723432    0.1555467  81.95  0.001447536    1.511    0.338
        80  -9.5101      4.4318    121.7747   1.4591920409e+02   4.9344900313e+01    0.2889301    0.1808825  51.12  0.001605846    1.484    0.326
        81 -10.4330    239.4913    124.4940   8.2466906236e+01   9.3580081892e+00    0.2781264     0.109701 -31.94  0.001217414    2.188    0.543
        82 -11.0120     55.7622    123.1420   1.2836165757e+02   4.4473677490e+01    0.6747216    0.3637178  24.17  0.002216358    2.007    0.502
        83 -10.4510     45.9878    120.6906   1.3143241806e+02   4.6271689000e+01    0.4107285    0.2491071  58.21  0.001229666    1.717    0.417
        84 -11.6885    104.8947    121.0999   1.1158632589e+02   3.7107045508e+01    0.5906759    0.5242517  53.24  0.002027988    1.103    0.093
        85  -9.1936    221.4837    120.5046   8.4350392198e+01   1.3127760512e+01    0.1356602    0.1183698 -15.02 0.0001621135    1.014    0.014
        86  -9.8196    148.4624    119.6475   9.8981679952e+01   2.8381690083e+01    0.3071153    0.1931019  39.90 0.0007453974    1.552    0.356
        87  -9.3098     72.4791    119.8899   1.2199952001e+02   4.3005685801e+01    0.2840261    0.2024281   4.60 0.0007593484    1.894    0.472
        88 -12.0110      9.9204     97.4718   1.4231970173e+02   5.5321220414e+01       1.2837    0.6950356  45.81  0.006379777    1.874    0.467
        89 -12.1622      7.0934     88.6830   1.4271316979e+02   5.7745549484e+01    0.7253088    0.5547053  -4.27  0.001130986    1.554    0.356
        90 -11.8199     45.7553     86.2045   1.2556724673e+02   5.5431449080e+01     0.833481    0.5337384  61.01  0.002749973    1.866    0.464
        91 -11.9858     37.5700     85.8222   1.2908485224e+02   5.6398949668e+01     1.010525    0.7559984  -5.84  0.003127235    1.596    0.373
        92 -12.1664     28.7264    113.0205   1.3669622881e+02   4.9972837217e+01     1.195665    0.7877794  40.43  0.005172871    1.503    0.335
        93 -12.8367     26.0169    107.1099   1.3703526476e+02   5.1752055491e+01     1.813492    0.9281967 -29.62  0.007510148    2.769    0.639
        94 -12.5473     18.7492    106.2811   1.3970948101e+02   5.2496634222e+01    0.3920001    0.2949955 -54.64  0.000309679    1.337    0.252
        95 -12.8561     19.9822     95.5465   1.3807568382e+02   5.5245118608e+01       1.1246    0.6424435   7.61  0.002150933    2.106    0.525
        96 -12.4791     18.5542     90.3123   1.3804791297e+02   5.6719418760e+01     0.741182    0.3611616 -43.22 0.0004839246    2.186    0.543
        97  -9.1019     81.5102    117.4625   1.1841755255e+02   4.2198811179e+01    0.1513079     0.147571  61.55 0.0002089176    1.032    0.031
        98  -9.9574    114.0376    115.9798   1.0757920292e+02   3.6515273228e+01    0.2363459    0.2264568  38.02 0.0003475304    1.019    0.018
        99  -9.3796     81.9595    102.8451   1.1498363343e+02   4.5842038157e+01     0.290756    0.2103635 -37.65 0.0005377912    1.552    0.356
       100 -10.9879     86.3221    105.0032   1.1395044852e+02   4.4528978190e+01    0.5513418    0.3936947  22.31  0.002038004    1.600    0.375
       101  -9.9746     88.0956    114.6511   1.1557732230e+02   4.1787544231e+01    0.3864202    0.2195985  50.28 0.0003246712    1.863    0.463
       102 -11.2307     79.1709    108.5294   1.1730649385e+02   4.4866952360e+01     0.789233    0.4340729  45.37  0.002697131    1.827    0.453
       103 -11.7236      2.4918    112.1977   1.4608318840e+02   5.1872596710e+01    0.5222442     0.317308  49.07 0.0008621168    1.579    0.367
       104 -10.7499      5.5529    108.5272   1.4478218305e+02   5.2668395542e+01    0.2351499    0.2112564  79.59 0.0006738717    1.066    0.062
       105 -11.7662      3.7798    105.0343   1.4521346030e+02   5.3649716747e+01    0.4191645    0.3567251  11.53  0.001587105    1.387    0.279
       106  -9.5800    126.8445    113.9048   1.0330997200e+02   3.4307634957e+01    0.2400357    0.2161505   4.12 0.0005213851    1.212    0.175
       107 -10.5028    107.9922    112.5012   1.0858551965e+02   3.8560024130e+01     0.464338    0.3279447  77.69  0.001697986    2.023    0.506
       108 -10.9351    102.5345    109.3783   1.0954951955e+02   4.0395500554e+01    0.6368055    0.4906635 -24.18  0.002890027    1.603    0.376
       109  -9.8640     49.0297    112.3352   1.2908045945e+02   4.8130373233e+01    0.2860703    0.2550626  41.39  0.001072428    1.141    0.123
       110 -11.2697    171.2612    109.7022   9.1126629674e+01   2.5291573249e+01    0.6748483    0.4481799  25.88  0.002711141    1.818    0.450
       111 -10.6934     67.0393    112.0745   1.2241678794e+02   4.5841106067e+01    0.5432652    0.3329007 -73.25   0.00187716    1.755    0.430
       112 -10.1293    120.1071    109.1174   1.0403362365e+02   3.6835678273e+01    0.2477474    0.2203388  -1.43  0.000711943    1.266    0.210
       113 -10.5281    157.6737    105.9662   9.3215218042e+01   2.9083908996e+01    0.3859099    0.2846987 -14.56   0.00125242    1.654    0.395
       114 -10.4103    143.4728    105.7125   9.6649193754e+01   3.2388132440e+01    0.3687065    0.3319503  22.28   0.00136917    1.141    0.124
       115 -11.2661    145.8487     99.7747   9.4414816805e+01   3.3064541517e+01    0.5341237    0.4695018 -15.27  0.001999272    1.228    0.186
       116 -10.3542     48.0266    103.0925   1.2790767761e+02   5.0697625935e+01    0.2275712    0.2217269 -81.59 0.0003913221    1.055    0.052
       117 -10.1425     51.6089    100.1497   1.2595208853e+02   5.1052512710e+01    0.4213398     0.208765 -47.98  0.001292677    2.084    0.520
       118  -9.7795     52.3507     96.3191   1.2489870569e+02   5.1974528540e+01    0.3185345    0.1753366 -43.58  0.001329504    1.981    0.495
       119  -9.6812     57.6612    102.5309   1.2404279500e+02   4.9651536081e+01    0.2994218    0.1813595 -69.42  0.001320783    1.650    0.394
       120 -10.2805     57.5028     97.8149   1.2313782574e+02   5.0914917692e+01     0.318384    0.2597481 -87.32 0.0008921827    1.273    0.215
       121 -10.6347     66.8669     99.3459   1.1980114773e+02   4.9185716004e+01    0.5014513    0.3363211  42.61  0.002306994    1.494    0.330
       122 -10.3298     68.4559     95.8395   1.1837137034e+02   4.9853402660e+01    0.5930924    0.3955627 -26.13   0.00106628    2.015    0.504
       123  -9.3309    136.6439    100.2979   9.6964411238e+01   3.5094905060e+01    0.2941873      0.18988  28.94  0.001175342    1.861    0.463
       124  -9.0604     96.0410    100.0438   1.0931539662e+02   4.3939137031e+01    0.1903825    0.1720862  41.08 0.0003354404    1.088    0.081
       125  -9.5101     66.5203     73.5743   1.1315969325e+02   5.5805353567e+01    0.4623629    0.2909101 -75.29  0.001643134    2.166    0.538
       126 -10.2787     77.9731     97.0361   1.1502088654e+02   4.8001727843e+01    0.3391356    0.2234991 -65.05 0.0003005405    1.609    0.378
       127 -11.3391     81.9111     93.0383   1.1250953123e+02   4.8322588780e+01    0.7950287    0.5939612  47.37  0.003144924    1.356    0.263
       128 -11.0755     89.3042     90.0292   1.0894756910e+02   4.7691193081e+01    0.4902238    0.3413458 -43.44  0.001037359    1.483    0.326
       129 -10.0076     92.8859     85.7597   1.0640301547e+02   4.8014612127e+01    0.3425572      0.26674  39.03 0.0004945821    1.275    0.215
       130 -11.6769     79.2298     82.6845   1.1063530745e+02   5.1374239376e+01    0.6539168    0.5553017  85.46  0.001270246    1.365    0.267
       131 -11.1954     66.7170     81.7924   1.1546687039e+02   5.3721149710e+01    0.5260724    0.3985877  22.50  0.002535216    1.430    0.301
       132 -11.5096     73.2502     77.7617   1.1157789977e+02   5.3643703022e+01    0.7161499    0.5654306  -9.07  0.003391984    1.558    0.358
       133  -9.6593    210.3268     98.0010   8.0824441688e+01   1.8783413687e+01    0.3189567    0.1578667 -39.23  0.001381482    1.866    0.464
       134  -9.6988    140.3663     96.2918   9.4844735005e+01   3.5067131285e+01    0.3137082    0.2264302  29.89 0.0008701451    1.554    0.356
       135  -9.7453    138.1376     93.3083   9.4572822947e+01   3.6211993402e+01    0.4107141    0.2609172  25.21  0.001477304    2.146    0.534
       136 -10.0140     42.5756     94.9020   1.2863516394e+02   5.3479139974e+01    0.3287414    0.2945378 -55.50  0.001073656    1.100    0.091
       137 -11.2209    124.2941     92.5928   9.8220101911e+01   3.9606108286e+01    0.7582622    0.5899729  66.52  0.002612973    1.473    0.321
       138 -10.4984    117.5784     93.0331   1.0035579604e+02   4.1038247668e+01    0.4126461    0.3009578  27.73   0.00108161    1.552    0.356
       139 -11.0297    102.4532     90.3138   1.0441636369e+02   4.4964659236e+01    0.6214332    0.5449438   5.97  0.001854558    1.298    0.229
       140  -9.5771    160.4730     93.4941   8.9148660759e+01   3.0839915260e+01    0.2734244    0.1538035  62.60  0.001027198    2.209    0.547
       141 -10.5847    152.6038     91.8705   9.0513220197e+01   3.3039274062e+01    0.4047955    0.3817095  60.73  0.002095959    1.082    0.076
       142  -9.6986    212.1735     87.3079   7.7868842166e+01   2.0038794521e+01    0.2374983    0.1821408 -18.70  0.000626026    1.307    0.235
       143 -10.1669    183.9138     85.9724   8.2242167460e+01   2.6610241736e+01    0.6454012    0.2076616 -40.08  0.002106064    2.918    0.657
       144 -11.2206    113.4053     84.5979   9.9107215935e+01   4.3862396574e+01    0.7867323    0.3887948 -39.79  0.002101304    2.161    0.537
       145 -10.7957    108.7039     80.9830   9.9477082233e+01   4.5730007260e+01    0.4109917    0.3385504 -24.00   0.00137624    1.365    0.267
       146  -9.1597     67.5614     88.1896   1.1682998508e+02   5.1960937776e+01    0.2251277     0.132699 -46.01 0.0009400994    1.726    0.421
       147 -10.6209    120.2138     85.2055   9.7200042395e+01   4.2158740485e+01    0.4978053    0.2642424  42.10  0.001876104    1.884    0.469
       148 -11.3343    143.7436     83.1982   9.0108627538e+01   3.6895720923e+01    0.5172612    0.4081275  -8.12  0.002198357    1.568    0.362
       149 -10.5744    127.6841     83.4683   9.4478357389e+01   4.0758544168e+01     0.444458    0.2611991  40.61  0.001752996    1.747    0.428
       150  -9.0599     46.9733     77.4493   1.2302109347e+02   5.7578349181e+01    0.2265024    0.1984926  77.06 0.0009267502    1.231    0.188
       151 -11.6610     52.9089     76.5070   1.2006660976e+02   5.7075162942e+01    0.8216174    0.4186908 -62.95  0.003374344    1.932    0.482
       152 -11.1407     58.5709     78.2628   1.1800173218e+02   5.5845791110e+01    0.4245206    0.3601245 -82.16 0.0008458694    1.271    0.213
       153  -9.6063    239.9961     82.4931   7.2946037523e+01   1.5093158332e+01    0.1754419    0.1002072  31.48 0.0008099711    2.499    0.600
       154 -10.5957    165.5707     83.1215   8.5061137100e+01   3.1521552433e+01    0.4400397    0.3681583 -61.01  0.001713645    1.305    0.234
       155  -9.9630    104.3322     76.7417   9.9553352946e+01   4.7653439563e+01    0.4888256    0.3021165 -29.70  0.001911936    2.005    0.501
       156 -10.1598     22.1786     72.2600   1.3376077099e+02   6.1238101368e+01    0.4967154    0.1643368  32.38  0.001903381    2.990    0.666
       157 -11.8958     13.9930     74.6487   1.3808837824e+02   6.1093297761e+01    0.5184125    0.4445939 -83.34  0.001970146    1.076    0.071
       158 -11.9803      2.0031     71.4220   1.4342425391e+02   6.2397269581e+01    0.8190249    0.1804558 -77.23   0.00276057    3.548    0.718
       159 -11.3157     14.2335     66.5676   1.3679260575e+02   6.3182481972e+01    0.3978004    0.2945493  81.63 0.0008417648    1.392    0.282
       160 -11.8742      6.7312     62.6447   1.4009688659e+02   6.4507721314e+01    0.8854278    0.2179941 -60.61  0.003318455    2.824    0.646
       161 -11.5684     12.0758     62.2402   1.3723281110e+02   6.4400822467e+01    0.3901815    0.2572682   5.59 0.0009250554    1.728    0.421
       162 -10.3322     80.9691     57.6792   1.0147843581e+02   5.6857098548e+01     1.212765    0.6776875 -34.04  0.003204922    2.042    0.510
       163 -10.6162     94.1923     76.4991   1.0302981161e+02   4.9912084599e+01    0.5747482    0.4719412  37.93  0.001823472    1.212    0.175
       164 -11.8343     85.1979     73.4903   1.0542375674e+02   5.2446020590e+01     1.055605    0.7255904 -53.87  0.004704346    1.503    0.335
       165 -11.7452     78.7584     67.1846   1.0586817127e+02   5.5164756607e+01     2.026896     1.056791 -65.98  0.006745385    3.156    0.683
       166 -12.2015     74.5110     49.4675   1.0094610486e+02   5.9902813658e+01    0.8156921    0.6200755  39.56  0.001618015    1.305    0.234
       167 -10.9745     72.4587     45.9895   1.0038731680e+02   6.1029037487e+01    0.3275193    0.2541846 -48.90  0.001244274    1.354    0.261
       168 -11.2012     21.5268    114.2070   1.3944586847e+02   5.0224708418e+01    0.4102763    0.2810145 -10.72 0.0009563281    1.896    0.473
       169  -9.1289    170.5080     77.5492   8.2423186980e+01   3.1285925071e+01    0.1510783    0.1497409 -40.90 0.0001274828    1.008    0.008
       170  -9.2085    134.4597     77.4673   9.0716054993e+01   4.0324629385e+01    0.1605049     0.155887  81.06 3.175692e-05    1.048    0.045
       171  -9.6961    241.6702     76.3107   7.1309247502e+01   1.5604762314e+01    0.1333368   0.08791704 -55.69 0.0007042025    1.668    0.400
       172 -12.1330    186.2425     70.4859   7.7502132395e+01   2.8585975762e+01     0.888181    0.6454921 -33.86  0.003365895    1.322    0.244
       173  -9.2645    126.7905     76.5989   9.2542751223e+01   4.2391442444e+01    0.2184232    0.1536596  60.59 0.0002751523    1.524    0.344
       174 -11.2646     33.2873     71.7748   1.2820963743e+02   6.0490610836e+01    0.5841501    0.3308777  23.55  0.002727839    1.882    0.469
       175 -10.1433     38.4651     73.4957   1.2608199959e+02   5.9544741696e+01    0.2540337    0.2210334 -49.90  0.000720737    1.082    0.076
       176 -11.3395     41.7423     70.8426   1.2385605917e+02   5.9883606672e+01    0.4721518    0.3583158 -57.19  0.001724182    1.215    0.177
       177  -9.4099     60.9567     72.9506   1.1543076783e+02   5.6833763722e+01    0.2321847    0.1758073  64.78 0.0004626596    1.613    0.380
       178 -11.7131    122.6841     68.4107   9.0974684738e+01   4.5046432824e+01    0.6852402    0.4628158  52.04  0.002218503    1.450    0.310
       179 -10.1918    161.9044     70.4317   8.2027575827e+01   3.4675139469e+01    0.3795871    0.2896945  84.37  0.001520845    1.564    0.361
       180 -10.5217    172.0835     67.7635   7.9216746974e+01   3.2537686400e+01    0.4543668    0.3299379 -51.06  0.001905189    1.418    0.295
       181 -11.5639    219.8278     66.3158   7.1490934504e+01   2.1443830274e+01    0.6125737    0.3568844  60.08  0.002490563    1.882    0.469
       182  -9.9607    208.1178     68.1425   7.3509896746e+01   2.3787901717e+01    0.3680566    0.1803517  46.87  0.001547173    2.317    0.568
       183 -10.3338    129.5806     65.5637   8.8069126727e+01   4.3858925200e+01    0.6662209    0.3355694 -59.40  0.002048529    3.390    0.705
       184  -9.5883    192.1944     65.7956   7.5213174668e+01   2.7869325743e+01    0.2318892    0.1892395 -61.30 0.0008995198    1.270    0.213
       185  -9.4741     25.8309     65.2008   1.3055684272e+02   6.2812621354e+01    0.1903111    0.1699348 -80.75 0.0003325133    1.115    0.103
       186 -10.2569     21.0224     65.0762   1.3303273182e+02   6.3180559538e+01    0.2084736     0.190554 -32.46 0.0008590647    1.126    0.112
       187  -9.9940    204.4511     63.8497   7.2874441123e+01   2.5252595058e+01    0.2531415     0.206702  36.28 7.419781e-05    1.407    0.289
       188  -9.4307    198.3614     63.0682   7.3526476474e+01   2.6798092862e+01    0.3045491    0.1511837 -44.20  0.001267446    1.922    0.480
       189 -10.4453    105.7965     62.7513   9.4187960078e+01   5.0291092565e+01    0.5220844     0.324698  84.40   0.00163608    3.653    0.726
       190 -10.5591     98.2302     62.7186   9.6773332054e+01   5.2055563807e+01    0.4523252    0.3245915  11.32  0.001781777    1.950    0.487
       191 -11.0481     91.7266     62.4627   9.9052557344e+01   5.3558011649e+01    0.4566544    0.3761737  42.26  0.001232886    1.195    0.163
       192 -10.8266     91.2501     57.9554   9.7528125244e+01   5.4614428145e+01    0.4293326    0.3608608  39.06  0.001055544    1.169    0.144
       193 -10.7793     87.5606     56.7277   9.8465914210e+01   5.5676570985e+01    0.5324851    0.2532014 -39.70  0.001342907    2.187    0.543
       194 -10.0714    142.9160    249.5048   1.2212865390e+02   6.2679236833e+00    0.1877503   0.08544616  32.21  0.001032343    1.589    0.371
       195 -10.9509     58.2656     61.6826   1.1311573087e+02   6.0003648423e+01    0.5063615    0.3734656 -64.98  0.001643502    1.468    0.319
       196 -11.3296     56.6146     30.9528   1.0116678972e+02   6.6993212332e+01     0.433167    0.2940045  37.77  0.001332938    1.467    0.318
       197 -11.8106     48.0546     30.3307   1.0570090870e+02   6.8548003991e+01    0.8184845    0.3784533  25.67   0.00274548    2.599    0.615
       198 -10.8226     60.5993     36.7636   1.0191769761e+02   6.5140289481e+01    0.3728524    0.2486764 -38.88  0.001123584    1.479    0.324
       199  -9.4531    167.5672     63.0975   7.8644352940e+01   3.4449843171e+01    0.2434634    0.2047316  79.78  0.001213675    1.255    0.203
       200 -10.6995    159.3071     61.8563   7.9869249920e+01   3.6793232120e+01    0.4991314    0.2954647  44.21  0.002054706    1.807    0.446
       201 -11.3155    157.2898     55.6055   7.8251146734e+01   3.8338649760e+01    0.6511244    0.3826937 -37.14  0.001397908    1.682    0.405
       202 -10.7822    155.4449     49.9912   7.6752839371e+01   3.9708660772e+01    0.4709085    0.3313917   1.32  0.001413823    1.991    0.498
       203  -9.2130    213.3589    248.3194   1.0885394765e+02  -2.5191292257e+00    0.1168454   0.06247341   8.47 0.0007044059    1.763    0.433
       204  -9.5980    175.4812    246.4902   1.1547304029e+02   2.3861791664e+00    0.1162922   0.08336481  23.52 9.105863e-05    1.046    0.044
       205  -9.8994    199.0606    244.5044   1.1086256912e+02  -3.7751877150e-01    0.1760678   0.08289038  30.34  0.001035019    1.597    0.374
       206 -11.7261    120.4842     57.6957   8.7788939003e+01   4.7649420137e+01     1.393908    0.7474726  53.42  0.005411879    1.811    0.448
       207 -11.0752    112.8319     50.2722   8.7207862636e+01   5.0946177746e+01    0.5531758    0.3639008  35.90  0.001414185    1.670    0.401
       208 -10.9985    127.4729    242.4143   1.2448325352e+02   9.3161007376e+00    0.2823896    0.2159107 -87.58  0.001875687    2.070    0.517
       209 -10.2291    150.5018    237.9955   1.1930746847e+02   6.8199941162e+00    0.1485233    0.1183856 -36.43  0.001038464    1.607    0.378
       210 -11.3509     33.6980     42.3181   1.1966327606e+02   6.7793112794e+01     0.693535    0.4987051  32.72  0.003722229    1.501    0.334
       211 -10.1794     51.9557     47.8366   1.1127068755e+02   6.4193504167e+01    0.3623446    0.2584568 -42.74  0.001213392    1.333    0.250
       212 -12.2318     49.2551     60.0530   1.1702904953e+02   6.1686064144e+01    0.9912897    0.6036409  62.87  0.002276923    2.561    0.609
       213 -11.1937     40.0252     55.8557   1.2054545566e+02   6.3849091788e+01     0.545523     0.414987  72.45  0.002078903    1.701    0.412
       214 -11.6673     46.0452     48.9720   1.1490948187e+02   6.4763631227e+01    0.5065319    0.4182328 -12.46  0.001340363    1.254    0.202
       215 -12.0182     41.7276     45.4338   1.1602598154e+02   6.6143583960e+01    0.3685956    0.3000809   9.36 0.0003198269    1.274    0.215
       216  -9.7133    147.3746     60.6177   8.2004065409e+01   4.0127682377e+01    0.3795654    0.1564998  62.00  0.001238239    2.677    0.626
       217  -9.4335    228.5786     59.2837   6.8695102737e+01   2.0518688050e+01     0.226667    0.1628824 -89.57 0.0008010488    1.669    0.401
       218 -11.1353    139.6148     43.8500   7.7866636417e+01   4.4921274502e+01    0.6303762    0.4160855  38.66  0.001891933    1.696    0.410
       219 -10.9770    136.7545     56.1326   8.2937753607e+01   4.3695726848e+01    0.8490613    0.6911961  15.61  0.003988164    1.482    0.325
       220 -10.3148    145.5197     52.0051   7.9480262620e+01   4.2050362051e+01      0.37677    0.3113712 -33.04  0.001278196    1.249    0.199
       221 -11.4596    146.0540     46.2463   7.7353704084e+01   4.2810840456e+01    0.8147023     0.399863 -31.39  0.002894072    2.099    0.524
       222  -9.4388      1.8101     56.2177   1.4190827322e+02   6.6283850396e+01    0.1783265    0.1234621 -48.96 0.0004760033    1.300    0.231
       223  -9.4489    187.5400     55.1575   7.2883590916e+01   3.0592470210e+01    0.3006627    0.1715159  48.20  0.001299619    1.903    0.475
       224 -11.7880    105.5820     33.0581   8.2203003147e+01   5.5657554694e+01     0.660353     0.418947  14.66  0.001151636    2.368    0.578
       225  -9.8201     67.0517     54.8850   1.0649902293e+02   6.0131803081e+01    0.2584436    0.2158336 -48.72 0.0007430626    1.201    0.167
       226  -9.6399     13.8470     54.2672   1.3486448548e+02   6.6352747936e+01    0.2160895    0.1628402 -80.78 0.0002602843    1.280    0.219
       227 -10.1690    249.6352     53.0804   6.5112830553e+01   1.7040726635e+01    0.2614557    0.1987961 -72.97    0.0011898    1.449    0.310
       228 -10.1225    244.6027     50.8130   6.5042273599e+01   1.8305631809e+01    0.2572454    0.1693624 -37.21 0.0009906292    1.249    0.199
       229 -10.9333    240.0832     50.3716   6.5356003666e+01   1.9269447915e+01      0.33717    0.3190565 -45.13  0.001403244    1.130    0.115
       230 -11.1618    202.1923     47.0199   6.8573267513e+01   2.8128574455e+01    0.5425044    0.4696056 -57.41  0.003108869    1.075    0.070
       231  -9.4711     54.8803     51.1596   1.1102467489e+02   6.2993607482e+01    0.1944122    0.1595525 -12.11 0.0004300524    1.297    0.229
       232  -9.5351    221.0959     49.3597   6.7015910727e+01   2.3441638217e+01     0.350398    0.2223068  14.90  0.001557502    2.649    0.623
       233 -11.0914    173.7349     48.1294   7.2913257571e+01   3.5138641026e+01    0.5529509    0.3861844  79.81  0.002078684    1.543    0.352
       234 -10.0243     90.4424     48.1698   9.3895173964e+01   5.6757438150e+01    0.2853752    0.2434986  69.87 0.0006271173    1.344    0.256
       235  -9.0798     26.4545     43.4579   1.2455302401e+02   6.8207028898e+01    0.1907978    0.1259886  -2.58 0.0005979236    1.693    0.409
       236  -9.2403     29.4658     46.4927   1.2365878405e+02   6.7210183516e+01     0.309623    0.1313179 -66.48  0.001234365    2.398    0.583
       237 -10.3568     25.9914     48.0166   1.2621558225e+02   6.7135887127e+01    0.2567786    0.1924029 -37.73  0.001423936    1.241    0.194
       238 -10.4731     21.1960     47.4550   1.2896758578e+02   6.7631430356e+01    0.3762189    0.3306535 -64.08  0.001730622    1.096    0.088
       239  -9.4187      2.3035     48.7731   1.4064776198e+02   6.8145286589e+01    0.2745916    0.2281076  28.02  0.001740917    1.413    0.292
       240  -9.9227      4.2657     44.4415   1.3878240747e+02   6.9176254057e+01    0.4611572    0.2026401 -26.31  0.002075001    2.398    0.583
       241 -10.0893     14.1919     46.1298   1.3294947071e+02   6.8376124010e+01    0.4275381    0.1318152 -47.79  0.001666878    2.626    0.619
       242  -9.6883     17.7916     42.0005   1.2963790697e+02   6.9190996560e+01     0.416775    0.2301207 -45.73  0.002087395    1.573    0.364
       243 -10.4017    177.2140     44.1975   7.1152575801e+01   3.4785646437e+01    0.6267323    0.2365468 -51.13  0.002010929    3.285    0.696
       244  -9.7034    193.4771     45.9930   6.9395694104e+01   3.0397752456e+01    0.2767606    0.1917698 -82.40 0.0008188612    1.637    0.389
       245  -9.9651    249.2771    236.0019   1.0116751649e+02  -5.3689446863e+00     0.147381   0.09979784   1.38 0.0004333505    1.080    0.074
       246 -10.6904    153.2557     36.1650   7.2430275297e+01   4.2305486388e+01    0.3172061    0.2827329 -38.95 0.0004237961    1.151    0.132
       247  -9.9439    161.8905     43.3704   7.3363025671e+01   3.8960145279e+01    0.4437918    0.2560888  80.03  0.001778157    2.053    0.513
       248 -11.4798    156.0850     41.8435   7.3879324246e+01   4.0743900440e+01    0.4324805    0.3952725 -69.66 0.0009382108    1.080    0.074
       249 -10.4824    100.5770     43.1922   8.8190328864e+01   5.5266014903e+01    0.3920734    0.3075967 -68.19  0.001263561    1.606    0.377
       250 -11.1476     93.9146     41.3399   8.9686737110e+01   5.7208201792e+01    0.6257988    0.3185731  48.35  0.001784948    1.872    0.466
       251  -9.8677    188.9980     41.5576   6.8697831742e+01   3.2114094437e+01    0.3683518    0.1857644 -29.26 0.0005055674    1.941    0.485
       252  -9.2409     86.9591     31.4795   8.7689362000e+01   6.0536503399e+01    0.3457323    0.2566966 -74.73  0.001548721    1.995    0.499
       253 -10.9943     81.2541     39.3920   9.3653627083e+01   6.0472479969e+01    0.6104667    0.4137346  46.20  0.002374767    1.439    0.305
       254 -11.1192     77.8388     34.1934   9.2623868948e+01   6.2160847707e+01    0.4514483    0.3097841  40.84    0.0011001    1.405    0.288
       255 -10.6684     82.0743     31.5421   8.9599293161e+01   6.1665285590e+01    0.4487309    0.3360482 -57.88  0.002137237    1.689    0.408
       256 -10.5229    231.6014     39.1570   6.3421595535e+01   2.2414889721e+01    0.4192665    0.1945431 -44.42  0.001800937    1.826    0.452
       257  -9.5247    218.5098     38.9498   6.4601487751e+01   2.5336938420e+01    0.2021185     0.177632 -88.39 0.0008228868    1.171    0.146
       258 -11.2866    176.5951     37.0004   6.9010032790e+01   3.5916464479e+01    0.6814407     0.289533 -32.78  0.002641228    2.213    0.548
       259 -10.6652    172.4338     33.2743   6.8423472917e+01   3.7498710271e+01    0.4223139    0.3099906  56.77  0.001925671    1.375    0.273
       260  -9.5341     15.3404    233.5665   1.4717979495e+02   2.3996183756e+01     0.182336    0.1217314 -89.04  0.001306329    1.598    0.374
       261 -10.5499    242.6877    231.4918   1.0154436637e+02  -4.1988427591e+00    0.1964292    0.1602595  32.42   0.00150061    1.917    0.478
       262 -11.4521      4.4748     35.9441   1.3705108231e+02   7.1255742419e+01    0.5363863    0.2662652 -40.07 0.0006600209    1.774    0.436
       263  -7.1894      6.1221     30.8547   1.3472987708e+02   7.2431246222e+01    0.4356657    0.1713213  -3.55  0.001870231    2.937    0.660
       264 -10.0541    206.7050     36.9095   6.5275786869e+01   2.8345459070e+01    0.2866775     0.211408 -47.85 0.0008306476    1.221    0.181
       265  -9.8988    133.2676     37.0510   7.6723621927e+01   4.7659680584e+01    0.4856367    0.2996977 -70.34  0.001884419    2.280    0.561
       266 -10.7660     22.6534     36.5643   1.2476405408e+02   7.0158757846e+01    0.4321834    0.2375055  35.20  0.001561722    2.043    0.510
       267 -10.2091    139.7154     32.4070   7.3608374188e+01   4.6536488973e+01    0.6465372    0.3877369  -7.22  0.002551115    2.365    0.577
       268 -11.0348    159.4595     29.7546   6.9187165593e+01   4.1446368534e+01    0.7914528    0.2950823 -41.11  0.002817438    2.577    0.612
       269 -10.2085    247.4693    231.0865   1.0072034188e+02  -4.6942078402e+00    0.1479584   0.08515578 -20.31 0.0007793621    1.579    0.367
       270 -10.5952    240.5816     31.8085   6.0905643998e+01   2.1379323339e+01    0.3208819    0.2947942   9.53  0.001703725    1.370    0.270
       271 -10.2830    197.9865    231.5020   1.0926130401e+02   1.2615465169e+00    0.1739641   0.07772535  16.99 0.0008105545    2.591    0.614
       272  -9.1340    216.8252     32.1393   6.2992087451e+01   2.6544994521e+01    0.1700218    0.1560379  13.00 0.0003669629    1.335    0.251
       273 -11.2840    198.4450     28.6531   6.3859649766e+01   3.1359120261e+01    0.4662281    0.3652621  46.55  0.001678627    1.480    0.324
       274  -9.9748    199.6754     24.6982   6.2619895390e+01   3.1514181630e+01    0.2439433    0.2161466  61.10 0.0005162942    1.242    0.195
       275  -9.4056    182.6785     31.9976   6.6655875773e+01   3.4962102956e+01    0.2033109    0.1802457 -45.67 0.0004907417    1.097    0.088
       276  -9.2437     23.4891    231.5532   1.4547312062e+02   2.3592200901e+01     0.114153   0.07927852  50.80  0.000300748    1.018    0.017
       277 -11.6123    106.0301     20.1864   7.6221974650e+01   5.7319416287e+01    0.3453305    0.2483946 -30.77 0.0004395554    1.478    0.323
       278 -11.9060     26.4785     27.7248   1.1867931293e+02   7.1849539195e+01    0.5684103    0.4655307  37.88  0.002600416    1.428    0.300
       279  -9.7852      9.5024     21.5198   1.2933393467e+02   7.4477239515e+01    0.2816379    0.1713451 -46.08 7.557538e-07    1.349    0.259
       280  -8.9800    189.9952    229.9759   1.1053301932e+02   2.5036999425e+00    0.1462047    0.1051559  18.96  0.000538895    1.025    0.024
       281  -9.6257      9.1567    227.1901   1.4826616131e+02   2.5697617138e+01    0.1516194    0.1228933  49.56 0.0003484318    1.189    0.159
       282 -10.1846    234.0896    222.6872   1.0161047753e+02  -2.2829423468e+00    0.1638873    0.1079348  16.11  0.001147358    1.145    0.127
       283  -9.9972    230.2086     28.0018   6.0793752702e+01   2.4020123632e+01    0.3552225    0.1565319 -32.45  0.001660187    1.910    0.476
       284  -9.5080    211.0488     29.8748   6.2937461460e+01   2.8161221495e+01    0.2164585    0.1597769 -58.67 0.0006414056    1.245    0.197
       285  -9.1089    221.5172     29.4623   6.1879654181e+01   2.5785666610e+01     0.133577    0.1137741 -53.99 6.203411e-05    1.007    0.007
       286  -9.5434    158.4803     20.4544   6.6141057629e+01   4.2822381788e+01    0.3945378     0.170937  70.67  0.001135975    2.183    0.542
       287  -8.7924    209.4679    223.4460   1.0598848855e+02   7.2155004189e-01    0.1187954   0.08519074  12.22 0.0001388837    1.028    0.027
       288  -9.9467    156.3921     25.2543   6.8109810829e+01   4.2839041938e+01    0.2892407    0.2034122  54.22  0.000601608    1.410    0.291
       289  -9.7252    250.5419     25.0310   5.8633770049e+01   2.0112331278e+01    0.1857032     0.100653 -31.77 0.0004411445    1.546    0.353
       290 -11.2032    214.5950     23.6896   6.0979030240e+01   2.8037202606e+01    0.4023657    0.3748206   7.62  0.001759489    1.319    0.242
       291 -10.2890    144.2468     24.9170   6.9967498697e+01   4.6239276426e+01    0.6115058    0.3447911 -86.59   0.00236851    2.289    0.563
       292  -9.5409      9.8429    217.8298   1.4790114446e+02   2.7378842938e+01    0.1655754   0.09230027  55.55  0.001068483    1.307    0.235
       293  -9.5525    165.9993    212.7484   1.1278731428e+02   8.2377909007e+00    0.1886331    0.1346122  75.76 0.0005282424    3.484    0.713
       294  -9.8938    133.3274     23.6897   7.1508185992e+01   4.9423336546e+01    0.4152904    0.3003832 -74.86   0.00193153    1.569    0.363
       295 -10.2646    138.1866     21.5809   6.9776285350e+01   4.8323040795e+01    0.4337921    0.2180832  56.99  0.001219998    1.808    0.447
       296  -9.8514    141.9890     19.5294   6.8334184453e+01   4.7499090305e+01    0.3813483    0.2304427  72.20  0.001259267    1.567    0.362
       297  -9.1836    152.5217    207.5363   1.1487379025e+02   1.1074234325e+01    0.1315901     0.104875  25.47 0.0002254811    1.002    0.002
       298  -9.7705     81.1887     19.1753   8.3586019687e+01   6.3762888664e+01    0.4229924    0.1725732  50.90  0.001201833    2.211    0.548
       299 -10.5867      4.3000    204.7094   1.4877526469e+02   3.0395885516e+01    0.2592787    0.1259404 -77.55  0.001242435    2.143    0.533
       300  -9.9231    238.3432    204.5316   9.7993528897e+01  -7.9539069993e-01    0.2199832    0.1233502 -21.83  0.001361412    1.615    0.381
       301 -11.0221     69.6024     32.6943   9.5532530466e+01   6.4177766247e+01    0.5336809    0.3479019  38.27 0.0008922613    1.496    0.332
       302 -10.6233    245.4897    200.9931   9.6243225947e+01  -1.2914215003e+00    0.1749166      0.12288  13.23 0.0006167808    1.146    0.127
       303 -10.0066    233.9019    197.1432   9.7483075980e+01   6.4194223552e-01    0.2406391     0.143655 -20.65  0.000873661    1.511    0.338
       304 -10.1872     16.9557    192.3848   1.4552365884e+02   3.1857773564e+01    0.1945497    0.1520398  85.73 0.0003656178    1.254    0.203
       305 -12.2946      5.2845    185.4697   1.4806834117e+02   3.4294173906e+01     0.784774    0.4255556  64.56  0.004065841    1.475    0.322
       306  -9.8199    169.6139    191.4732   1.0870211994e+02   1.0964476299e+01    0.3483292    0.1623336  25.58  0.001089527    2.256    0.557
       307  -9.1205    250.0000    180.0087   9.1870690858e+01   5.5802850597e-01    0.1877283    0.0559404 -31.70  0.000810865    3.001    0.667
       308  -9.6436    223.4828     22.4426   5.9935193411e+01   2.6134693230e+01    0.2184474    0.1757872 -69.07 0.0006382264    1.143    0.125
       309  -9.6194    220.9834     19.2258   5.9311455062e+01   2.7053061631e+01    0.2254702     0.160766 -47.30  0.001299513    1.193    0.162
       310 -10.4941     66.3199     21.7478   9.1291238582e+01   6.6729221394e+01    0.2435691    0.2003059  41.80 0.0003872559    1.184    0.155
       311 -10.0672     52.2993    174.3739   1.3543671674e+02   3.2231981470e+01    0.4702964    0.1936972  75.90  0.001678388    3.695    0.729
       312 -10.6283    246.1008     20.8021   5.7954051188e+01   2.1462029880e+01    0.2124731    0.1535945   6.36 0.0007345525    2.023    0.506
       313  -9.6613     28.3275    176.3208   1.4193953267e+02   3.4332849544e+01    0.1172918   0.09391741 -39.78 0.0006529391    1.686    0.407
       314 -10.3250     39.3174    173.2744   1.3883817791e+02   3.3928473390e+01    0.2163853    0.1529479 -79.98 0.0008795822    1.424    0.298
       315 -10.2613     35.4102    169.6974   1.3963477228e+02   3.5157234787e+01    0.3419277    0.1655259  84.01  0.001586741    2.170    0.539
       316 -11.5404      9.7088    165.9846   1.4631973460e+02   3.8282369970e+01    0.5094076    0.4019202 -82.89  0.002457886    1.270    0.213
       317 -11.5869     13.0791    157.2687   1.4503650325e+02   4.0060770041e+01    0.5160072    0.3324609  53.11  0.001310303    1.310    0.237
       318  -9.2903      1.6784     20.6153   1.3552975462e+02   7.4962114367e+01    0.1497442     0.113808  12.75 0.0009321725    1.499    0.333
       319  -9.2833    198.0261    167.7341   9.8588479018e+01   1.0022540205e+01    0.1877567    0.1541395  13.98 0.0006078321    1.052    0.049
       320  -9.9090    225.7403     17.0043   5.8404844999e+01   2.6216744300e+01    0.2397191    0.1465626 -73.63  0.001281969    1.631    0.387
       321  -9.4071    247.9876    173.5063   9.0994255376e+01   1.6110148377e+00    0.1700769   0.08263662  16.83 0.0007010424    2.560    0.609
       322 -10.1625     18.9732    165.3720   1.4382141519e+02   3.7685300550e+01    0.2574701    0.2351012  37.48  0.001053029    1.236    0.191
       323  -9.6865    188.7691    164.2763   9.9750314844e+01   1.2152814128e+01    0.2615053    0.1737701 -21.71 0.0008521844    1.563    0.360
       324  -9.7485    205.0017    163.2172   9.6368780413e+01   9.5437782132e+00      0.21826    0.1746419 -14.44 0.0006281225    1.146    0.127
       325 -10.2393     28.1808    162.8805   1.4115651722e+02   3.7456254823e+01     0.339255    0.1755796 -77.45   0.00170258    1.861    0.463
       326  -9.1614     55.4543     17.4412   9.4310766193e+01   6.9607450103e+01     0.141609    0.1241829   9.03 0.0004731492    1.035    0.034
       327 -10.2696     80.8868    160.1715   1.2586989948e+02   3.1755523090e+01    0.4663388    0.2421741  33.08    0.0020482    1.767    0.434
       328 -10.6707    104.4828    153.3288   1.1810160001e+02   2.9576915802e+01    0.6268412    0.2791331 -63.87  0.002305663    2.834    0.647
       329  -9.0700    223.9981    156.7391   9.1668022318e+01   7.3734384728e+00    0.1577914    0.1033646  34.66  0.000556397    1.520    0.342
       330 -10.3709     31.3330    154.2481   1.3965409642e+02   3.9232063391e+01     0.388393    0.2001686  43.49  0.001918925    1.682    0.405
       331 -10.8928     30.5344    149.2525   1.3950570905e+02   4.0530465954e+01    0.3659679     0.238195  72.77 0.0004842127    1.422    0.297
       332  -9.9968     22.9889    155.1217   1.4212513965e+02   3.9772909678e+01    0.2670624    0.1799548  10.87  0.001463558    1.831    0.454
       333 -10.3481     72.3457    152.2681   1.2726957163e+02   3.4877983992e+01    0.5050686    0.2569032  40.76  0.002209462    1.747    0.428
       334 -11.4224     12.9903    139.3774   1.4414415748e+02   4.4406463540e+01      0.79473    0.2908399  64.21  0.003217885    2.717    0.632
       335 -10.6873     10.7670    127.2869   1.4414342863e+02   4.7583812073e+01    0.6023611    0.1912627 -63.18  0.001780477    2.838    0.648
       336 -12.0679     23.0135    149.2307   1.4173880964e+02   4.1202301268e+01    0.5708991    0.3285401 -29.35  0.002645283    2.734    0.634
       337 -10.5904     16.1560    148.1754   1.4369181907e+02   4.2011489839e+01    0.4480878     0.199482  37.20  0.001411952    1.956    0.489
       338  -9.9161      3.5563    152.8480   1.4749771625e+02   4.1779161998e+01    0.3037403    0.1385768  55.68  0.001536354    1.827    0.453
       339 -11.5624      5.2276    147.3999   1.4682362360e+02   4.2969527450e+01    0.4483648    0.3654386   3.48  0.002076663    1.553    0.356
       340 -11.0816      3.2178    141.8753   1.4719066683e+02   4.4429561758e+01    0.3992836    0.3264251  36.29  0.001978299    1.276    0.216
       341 -11.4206      3.8922    136.5192   1.4677319716e+02   4.5697764108e+01    0.2562909    0.2249417  85.17 0.0004657695    1.100    0.090
       342 -11.5920     62.5286    149.8473   1.2989779700e+02   3.6806269390e+01    0.5736857     0.449863  38.19  0.002312233    1.204    0.170
       343  -9.8842     48.5160    151.4962   1.3431734252e+02   3.8114691308e+01    0.3222433    0.2059901  20.91  0.001064304    1.729    0.422
       344 -11.2044     46.9166    145.8587   1.3420764436e+02   3.9696427941e+01    0.5553552    0.3499238 -89.98   0.00160541    1.611    0.379
       345  -9.4861    214.5104    151.5502   9.2267653264e+01   9.6949954103e+00    0.1327822     0.113271  -1.38 0.0002177346    1.025    0.024
       346  -9.5607     85.8057    150.1664   1.2296537895e+02   3.3382758415e+01    0.2003861    0.1793822  -8.56 0.0008736727    1.337    0.252
       347 -10.2276     42.4685    147.9466   1.3578708275e+02   3.9662525758e+01    0.5533869    0.2551691  64.75  0.002261896    2.444    0.591
       348 -10.5451    249.6482    143.0142   8.4846824582e+01   5.2345041113e+00    0.5887277    0.1663838 -33.46  0.002369288    2.992    0.666
       349  -9.3934    239.7598    146.5985   8.7055471768e+01   6.2778449092e+00    0.1500336    0.1188939  44.55 0.0007140358    1.581    0.367
       350  -9.6329    108.6022    146.0145   1.1562013962e+02   3.0535011737e+01    0.2375795    0.1879949  38.18  0.001192538    1.168    0.144
       351  -9.4577     74.2279    145.5856   1.2574573852e+02   3.6243869941e+01    0.1979764    0.1390454  20.38 0.0008366393    1.600    0.375
       352 -10.7479     33.2618    144.3210   1.3827171805e+02   4.1498516343e+01    0.2890443    0.2409667  59.79 0.0007128652    1.067    0.063
