#   1 NUMBER                 Running object number                                     
#   2 MAG_AUTO               Kron-like elliptical aperture magnitude                    [mag]
#   3 X_IMAGE                Object position along x                                    [pixel]
#   4 Y_IMAGE                Object position along y                                    [pixel]
#   5 X_WORLD                Barycenter position along world x axis                     [deg]
#   6 Y_WORLD                Barycenter position along world y axis                     [deg]
#   7 A_WORLD                Profile RMS along major axis (world units)                 [deg]
#   8 B_WORLD                Profile RMS along minor axis (world units)                 [deg]
#   9 THETA_WORLD            Position angle (CCW/world-x)                               [deg]
#  10 FWHM_WORLD             FWHM assuming a gaussian core                              [deg]
#  11 ELONGATION             A_IMAGE/B_IMAGE                                           
#  12 ELLIPTICITY            1 - B_IMAGE/A_IMAGE                                       
         1 -14.7452     97.8406     93.2349   4.8272241973e+01   4.4744509484e+01     2.028424     1.427914 -76.91  0.009188078    1.802    0.445
         2 -14.8242    247.2573     90.8984   2.1021999747e+01   1.6784581605e+01     1.690362    0.5186973 -45.70  0.008176662    2.476    0.596
         3 -15.8097    234.5864     54.8174   1.5571619069e+01   2.3624365021e+01     2.329336       1.6699  83.87   0.01683199    1.491    0.329
         4 -13.2194      5.4930     44.4057   7.7835789818e+01   6.9653803486e+01    0.7787504    0.5568981  52.66  0.004395891    1.685    0.406
         5 -14.2280     27.5561     60.2150   6.8439151445e+01   6.4082824813e+01     1.423945    0.9519761 -59.05  0.007362107    1.542    0.352
         6 -14.0478     80.0983     63.7402   4.5579205785e+01   5.4556079907e+01     1.390152     1.074784 -64.68  0.005838936    1.457    0.314
         7 -13.8812    110.1081     23.3484   2.3366081599e+01   5.4119506056e+01    0.9717279    0.6400564 -65.17  0.004564083    1.651    0.394
         8 -12.1027     14.1742     26.5575   6.5760614611e+01   7.2657667598e+01    0.4657759    0.3871506 -66.53  0.002945725    1.467    0.318
         9 -14.5075    165.2174      9.6151   1.1738111854e+01   4.2738035778e+01     1.084843    0.5548393 -62.85  0.005615775    1.777    0.437
        10 -14.3888    150.1649      4.7191   1.1869412515e+01   4.6647453729e+01     1.212794    0.5558951  80.76  0.006053811    1.918    0.479
        11 -13.7638     84.8530     19.3632   2.7818861054e+01   6.0627067895e+01     1.379407    0.7567795  86.78  0.005710753    2.774    0.639
        12 -13.4796     57.4645     18.1018   3.6506007735e+01   6.6915261960e+01      1.01137    0.5688778  49.58  0.004955589    1.524    0.344
        13 -13.8723    103.8916      8.7457   1.9426280209e+01   5.7263799376e+01    0.5479373    0.3719654  89.09  0.002732783    1.390    0.281
        14 -13.6657    114.0727      3.1728   1.5768919320e+01   5.5348057288e+01     1.167223    0.3434571  78.38  0.003936711    3.839    0.740
        15 -12.5865     36.3674      3.1282   3.8598861605e+01   7.3050137657e+01    0.5999787    0.3059787  53.26  0.003052221    1.812    0.448
        16 -12.9509     82.8264      7.0475   2.3277646610e+01   6.2487431106e+01    0.7201707    0.4389837  -3.25  0.003504448    2.703    0.630
        17 -14.3879     26.0081    173.7150   8.6292805265e+01   3.4812491481e+01     1.758245     0.688556 -85.35  0.006529199    2.906    0.656
        18 -13.6175     97.4187    229.9942   7.2087342781e+01   1.3652303331e+01      1.71236     1.091553  77.41  0.008483646    2.491    0.599
        19 -13.0438    114.6548    240.5956   6.9229941233e+01   9.6202775923e+00    0.9582215    0.5545532  58.21  0.004648618    2.689    0.628
        20 -13.1602    108.9534    250.0619   7.1522877817e+01   8.5940414486e+00     1.068245    0.2606556  27.38  0.003992598    3.224    0.690
        21 -13.5446     93.0078    244.5281   7.4614551990e+01   1.1393462835e+01    0.9634636    0.6531948  55.41  0.005588415    1.696    0.410
        22 -13.1762     61.3975    249.1543   8.2442440560e+01   1.3993183082e+01    0.6556107    0.3553078  31.71  0.002743402    1.428    0.300
        23 -12.3298     56.1268    244.8826   8.3392389668e+01   1.5379987373e+01    0.3520856    0.2680507  60.10  0.001620702    1.340    0.253
        24 -12.6011     49.9424    242.7572   8.4735273031e+01   1.6446050839e+01    0.5745195    0.3208727  58.41  0.002590588    1.848    0.459
        25 -12.8949     24.4045    216.2228   8.9552094530e+01   2.4648548478e+01     1.233857    0.5416216  63.07  0.004355909    2.382    0.580
        26 -13.1205     18.0510    228.4739   9.1783537433e+01   2.2512095629e+01     0.555015    0.3339534  62.12  0.001804986    1.540    0.351
        27 -13.6463     14.4578    204.2942   9.1590671693e+01   2.8290009400e+01     1.406833    0.8899107  26.64  0.007616965    1.429    0.300
        28  99.0000     40.2585    234.7675   8.6592089212e+01   1.9069057256e+01     1.437703    0.6625977 -80.67   0.00686409    2.583    0.613
        29 -13.3276     32.1905    231.2852   8.8393962986e+01   2.0598731709e+01     1.229391    0.4209725  89.56  0.004553249    4.189    0.761
        30 -13.6518     11.0212    218.4594   9.3134654551e+01   2.5323083762e+01    0.8029884    0.3180988  66.41  0.003240571    2.588    0.614
        31 -13.3351      3.0832    208.1716   9.4805125178e+01   2.8303405342e+01    0.5503342    0.2954274  67.40  0.002119855    1.734    0.423
        32 -12.1737     29.2964    248.5146   8.9985870499e+01   1.7327719526e+01    0.3726849    0.2980237  68.96  0.001851865    1.280    0.219
        33 -14.6531     11.4417    240.6608   9.3873193640e+01   2.0515323497e+01     1.311071    0.3803383  61.95  0.005093506    3.601    0.722
        34 -13.1192      3.4786    224.6147   9.5261293686e+01   2.4575335223e+01    0.7461655    0.2594857  64.81   0.00316055    2.815    0.645
        35 -11.1639     10.2985    250.6230   9.4474030669e+01   1.8605489842e+01    0.3745859   0.07964715  28.92  0.001152536    2.872    0.652
        36 -11.2525      1.9530    250.5043   9.6365261458e+01   1.9319458669e+01    0.1921572    0.1523449  10.90 0.0007860775    1.425    0.298
        37 -11.2495      4.4259    246.6982   9.5700061828e+01   1.9874798316e+01    0.3150469    0.1708063  68.79  0.001505345    1.753    0.430
        38 -11.2497      1.3659    242.6779   9.6295136558e+01   2.0933719688e+01    0.2613344     0.116988  55.25  0.001370871    1.829    0.453
        39 -13.2540     52.0196    208.7681   8.1637607303e+01   2.3538633394e+01     2.059003     1.408192  84.69  0.008132517    1.656    0.396
        40 -12.8557    131.5025    239.2205   6.5328632337e+01   7.9071309233e+00     0.850365    0.3543873  41.44  0.003874961    2.554    0.608
        41 -13.0434    129.0042    213.0241   6.2543527048e+01   1.2990734530e+01    0.3130103    0.3046671 -16.33  0.001518822    1.165    0.142
        42 -13.0629    126.2138    207.0240   6.2364212111e+01   1.4527603107e+01    0.4913897    0.4385829  38.08  0.002596555    1.165    0.142
        43 -13.9003     39.6870    187.0741   8.3250199657e+01   3.0068758725e+01    0.9829661    0.6179076  57.13  0.003887858    1.551    0.355
        44 -12.6876    249.2483    202.1685   3.8978419187e+01   9.0823855637e-01    0.6614299    0.1148574 -39.91      0.00261    4.500    0.778
        45 -13.1743    112.1251    199.7033   6.4749620587e+01   1.7936027368e+01    0.8850513    0.7285583  59.70  0.005057691    1.397    0.284
        46 -13.2577     83.8574    194.5014   7.1435380186e+01   2.2930999753e+01     1.196332     0.667433  70.45  0.004767233    2.837    0.648
        47 -12.7915      2.0135    189.3042   9.4381302100e+01   3.2871784233e+01    0.8640063    0.1990325 -76.85  0.002849033    4.023    0.751
        48 -11.8987     67.4905    170.7899   7.3093069831e+01   3.0822542868e+01    0.6398315    0.3757087  51.71  0.002825128    1.749    0.428
        49 -13.0912     51.8425    167.4405   7.7527531125e+01   3.3665145731e+01    0.7113754    0.6204582  66.39   0.00347702    1.121    0.108
        50 -12.0646     59.9261    169.8265   7.5288862605e+01   3.2052482492e+01    0.4652135    0.3565479  80.00  0.001663535    1.416    0.294
        51 -11.8009     98.8447    188.8693   6.6651217354e+01   2.2153749431e+01    0.5753333    0.2870823 -46.69  0.002469143    2.200    0.546
        52 -11.9597    128.0646    190.2954   5.9473767544e+01   1.7652827030e+01    0.3477236    0.1470992  37.79  0.001443211    2.204    0.546
        53 -11.6739     47.2929    174.0151   7.9688378004e+01   3.2516601491e+01    0.4268573    0.2687757 -61.63  0.001582874    1.658    0.397
        54 -13.1445    138.5789    174.4814   5.4426203061e+01   1.9354790616e+01    0.6682748     0.548618 -18.02  0.003777653    1.301    0.231
        55 -11.7120     39.9417    171.9443   8.1768865258e+01   3.3865365678e+01    0.4986852     0.316081 -82.93  0.002220143    1.674    0.402
        56 -11.2121     38.7575    165.4316   8.1489111474e+01   3.5678827849e+01    0.3208867    0.2169868 -28.80  0.001130538    1.887    0.470
        57 -11.3577     44.3996    164.7389   7.9594495244e+01   3.5235785377e+01    0.3446357    0.2250015  37.07  0.001439906    1.392    0.281
        58 -11.9476     46.3136    160.3443   7.8469518473e+01   3.6161628382e+01     0.358776     0.257932 -51.58 0.0008279976    1.501    0.334
        59 -13.5295     60.4293    183.7708   7.6792639570e+01   2.8504953225e+01      1.28645    0.7395087 -77.22  0.005811614    1.977    0.494
        60  -9.9382     59.6983    152.6962   7.3066705870e+01   3.6489139696e+01    0.1491535    0.1137851 -27.08 0.0004110639    1.592    0.372
        61 -11.5258     52.4214    151.5068   7.5322601627e+01   3.7741166107e+01    0.4115787    0.2824776  28.34  0.001659218    1.399    0.285
        62 -12.6164     43.7612    148.2101   7.7840889435e+01   3.9658363243e+01     0.405342    0.2942702  -0.23 0.0009820934    1.651    0.394
        63 -11.8097     38.9966    142.9927   7.8849720706e+01   4.1589163712e+01    0.5145866    0.2949339  72.94  0.002133342    2.103    0.525
        64 -11.0244     69.7877    146.2905   6.8767885508e+01   3.6739168282e+01    0.4176176    0.3311058 -32.30  0.002062116    1.469    0.319
        65 -10.8104     53.3626    143.8954   7.3929346199e+01   3.9626501997e+01    0.2802674    0.1909486  42.54 0.0009964206    1.385    0.278
        66 -12.1568     56.5419    138.1134   7.1942297287e+01   4.0731904909e+01     1.132511    0.4473772  56.70  0.003257332    4.153    0.759
        67 -12.5321    108.4936    134.0596   5.4592307949e+01   3.3367035181e+01    0.6057476    0.4463322  50.46  0.002944654    1.361    0.265
        68 -11.6517     74.2465    133.8082   6.5122865190e+01   3.9263744576e+01    0.2581556    0.2436661 -26.78 0.0003839018    1.159    0.137
        69 -12.4565     39.7565    129.6103   7.6761148655e+01   4.5088286664e+01    0.9040734    0.5278962  83.40  0.003748233    2.116    0.527
        70 -12.5113     34.0704    119.3772   7.7464214225e+01   4.8457407991e+01    0.8806277    0.3877424  54.52  0.003135414    2.798    0.643
        71 -14.2327    122.6891    123.9610   4.8597563241e+01   3.3019499315e+01    0.9461181    0.7095195 -64.63  0.004687009    1.435    0.303
        72 -14.1516    114.6764    110.9362   4.7778088238e+01   3.7454834202e+01      1.12336    0.5809773  53.07  0.004484783    2.079    0.519
        73 -11.6605    127.7706    248.5419   6.7218956634e+01   6.7464771983e+00    0.3054129    0.1561653  37.66  0.001632782    1.821    0.451
        74 -11.7790     33.9182    109.0384   7.5893935273e+01   5.1222831930e+01    0.6831725    0.3238141 -89.09  0.002384126    3.095    0.677
        75 -11.6292     79.6958    248.4270   7.8079080246e+01   1.2155456009e+01    0.4473784    0.1693115  31.36  0.002061158    1.989    0.497
        76 -11.2266     74.4144    243.1227   7.8876235169e+01   1.3749888002e+01    0.4467319    0.2977712  61.82  0.001891067    1.725    0.420
        77 -13.1664     49.9536    101.0972   6.7665571232e+01   5.1289334323e+01     1.293585    0.5116981 -66.99  0.004480962    2.876    0.652
        78 -11.0609     36.3885     92.8245   7.1809487089e+01   5.5153395942e+01    0.2847866    0.2686195  81.95  0.001469372    1.094    0.086
        79 -11.7268      1.9057     91.4917   8.7866923636e+01   5.8387458197e+01    0.3632198    0.2115438 -78.74  0.001328978    1.674    0.403
        80 -12.8661     15.0069     46.2981   7.1996700374e+01   6.8491782838e+01    0.5009798    0.4440417 -12.20  0.002139037    1.049    0.046
        81 -14.5656    156.8405    234.9410   5.9451236520e+01   5.7243284203e+00     1.029092    0.7247991  49.07  0.005959492    1.952    0.488
        82 -13.5172     10.7755     64.1731   7.8996722072e+01   6.4715254860e+01     1.000551    0.6966023  34.83  0.005419568    1.471    0.320
        83 -13.1399      7.8960     55.5870   7.8903660488e+01   6.6945172878e+01    0.8204572    0.4535783  29.70  0.003589091    1.783    0.439
        84 -12.9597     11.7687     85.1612   8.2193829216e+01   5.9436761089e+01    0.6756082    0.5901694  67.79  0.002609166    1.216    0.177
        85 -13.4586      7.0592     75.9684   8.3191856181e+01   6.2064750041e+01     1.046874    0.5369141 -84.11  0.004644376    2.190    0.543
        86 -11.9496     15.6632    107.7235   8.3529491363e+01   5.3261874410e+01     1.053487    0.5130563 -66.72  0.004545655    1.920    0.479
        87 -12.8801     29.0528     76.8076   7.1847028728e+01   5.9990258930e+01    0.8892775    0.5612904  55.14  0.004148467    1.873    0.466
        88 -13.9349    141.3543    227.1059   6.1671702547e+01   8.8553334756e+00    0.6525522    0.6154806 -68.37  0.002906026    1.394    0.283
        89 -12.6416     64.8206    236.2906   8.0633099765e+01   1.6164552890e+01    0.5946683    0.3720964  76.00  0.003061854    2.030    0.507
        90 -12.8727      7.9956    100.7837   8.6087414023e+01   5.5625287667e+01    0.9609767    0.8559477  62.30  0.005403689    1.141    0.124
        91 -12.9916    180.5831     32.2819   1.5775150526e+01   3.6764958155e+01    0.3148671     0.224969 -80.23  0.001969155    1.217    0.179
        92 -11.0738     32.1578     30.2416   5.5133103988e+01   6.9647743340e+01    0.3202415    0.1990212  12.66  0.001553142    2.018    0.505
        93 -13.2716    122.7061    226.6003   6.5754454856e+01   1.1218058745e+01     0.957197    0.5134803  47.29  0.004636379    2.198    0.545
        94 -10.6277     24.2459     30.5699   6.0308700866e+01   7.0701729167e+01    0.1856834    0.1151169  16.94 0.0009507071    1.650    0.394
        95 -12.6248    114.5761    223.0948   6.7207430040e+01   1.2889685040e+01    0.5082702    0.4449289  72.47  0.002676018    1.440    0.305
        96 -11.8595     71.1022    217.6270   7.7388290472e+01   1.9363250612e+01    0.6100622    0.3695762 -52.12  0.003125635    1.884    0.469
        97  99.0000     83.8230    219.9309   7.4364243014e+01   1.7342870464e+01     1.404807    0.4564143 -58.10  0.005537347    3.231    0.691
        98 -12.7432     76.8300    211.5153   7.5274595938e+01   2.0006435091e+01    0.8001052    0.2168594  41.26   0.00274933    3.174    0.685
        99 -12.7055     81.3394    208.7572   7.3791908821e+01   2.0052440917e+01    0.5852811    0.4689202  17.41  0.002821658    1.203    0.169
       100 -14.1812     29.3060    147.0812   8.2756359655e+01   4.1502202440e+01      3.19412      1.32367  69.00   0.01040657    3.539    0.717
       101 -14.9822     14.4725    177.1928   9.0097930789e+01   3.4934054686e+01     3.084884     1.031668  77.66   0.00988202    4.063    0.754
       102 -15.0096      9.3596    144.8753   8.9607969174e+01   4.3765701529e+01     1.937698     1.135166  87.42  0.007420936    1.705    0.414
