#   1 NUMBER                 Running object number                                     
#   2 MAG_AUTO               Kron-like elliptical aperture magnitude                    [mag]
#   3 X_IMAGE                Object position along x                                    [pixel]
#   4 Y_IMAGE                Object position along y                                    [pixel]
#   5 X_WORLD                Barycenter position along world x axis                     [deg]
#   6 Y_WORLD                Barycenter position along world y axis                     [deg]
#   7 A_WORLD                Profile RMS along major axis (world units)                 [deg]
#   8 B_WORLD                Profile RMS along minor axis (world units)                 [deg]
#   9 THETA_WORLD            Position angle (CCW/world-x)                               [deg]
#  10 FWHM_WORLD             FWHM assuming a gaussian core                              [deg]
#  11 ELONGATION             A_IMAGE/B_IMAGE                                           
#  12 ELLIPTICITY            1 - B_IMAGE/A_IMAGE                                       
         1 -14.0415     68.8662    144.4650   9.6544060750e+01   3.7359154087e+01     4.449255     2.297309  73.61  0.003037143    4.942    0.798
         2 -13.6310    205.1989     42.2780   3.8462710867e+01   2.9392295161e+01     1.601188      1.32717  27.42   0.00760979    1.768    0.434
         3 -13.4348    217.7449     31.2202   3.4683452403e+01   2.8111281849e+01    0.9085626    0.7772873  40.75  0.005047006    1.648    0.393
         4 -12.0771    246.9065      6.9251   2.7614560737e+01   2.5081624318e+01    0.6415187    0.3845297 -32.55  0.004088924    1.918    0.479
         5 -12.0664    241.0549      5.9908   2.7797808146e+01   2.6306813631e+01    0.5920764    0.3586205 -39.62  0.003872409    1.616    0.381
         6  -9.3338     52.3085      4.5299   5.7427826315e+01   6.7504602486e+01    0.2108013    0.1063429  52.25 0.0006580945    1.994    0.498
         7  -9.4194     47.6669      2.4686   5.8203330070e+01   6.8501984215e+01    0.2054707    0.1716245  42.13 0.0005939989    1.319    0.242
         8 -10.2645    191.9197    192.6965   7.4780006740e+01   4.6934667971e+00    0.5854211    0.3441186 -67.44  0.002036243    4.218    0.763
         9  -9.9006    102.2005    250.1724   1.0338044834e+02   7.6794182921e+00    0.2380069    0.1596855  41.44 0.0006028851    1.262    0.207
        10 -10.8787    101.4516    244.6769   1.0291658139e+02   8.8431882109e+00    0.4822063    0.2138583 -69.87  0.002032888    3.174    0.685
        11  -9.6040     90.8558    250.3738   1.0579610650e+02   9.2398642373e+00    0.2469319    0.1104212  27.82 0.0008451483    2.444    0.591
        12 -14.7843      5.9739    142.0119   1.1503068476e+02   4.4525540316e+01     6.887976     1.344844 -75.69   0.01974059    4.921    0.797
        13  -9.6566    111.1910    203.8772   9.5218110237e+01   1.5984402295e+01    0.2451015    0.1957794  40.86 0.0006589605    1.185    0.156
        14  -9.2927     99.4445    180.9045   9.4453974650e+01   2.3332284487e+01    0.2647238    0.2174777  24.75 0.0005942099    1.312    0.238
        15  -9.7979    186.3262    174.3552   7.2285471418e+01   9.2642146807e+00    0.3580691     0.315226 -64.18  0.001960281    1.365    0.267
        16  -9.8554     85.4817    174.5055   9.7089344375e+01   2.7146736844e+01    0.3510916     0.280708 -86.77  0.001783994    1.324    0.245
        17  -9.2870     88.7080    173.3472   9.6025207027e+01   2.6935983505e+01     0.237292    0.1490283  39.34 0.0007296955    1.585    0.369
        18 -11.2861     63.6154    172.6882   1.0273395046e+02   3.0769156241e+01    0.4186269      0.30124 -28.18  0.001508213    1.844    0.458
        19 -11.3649     68.6153    167.6891   1.0060367214e+02   3.1368113169e+01    0.4215623    0.3172402 -23.86  0.001151583    1.739    0.425
        20 -10.9260    114.2585    173.2350   8.9202054384e+01   2.2697761460e+01     0.822503    0.1679515  39.55  0.002151914    4.494    0.777
        21 -11.9561     77.9233    158.9620   9.6526436112e+01   3.2271293934e+01    0.9895824    0.4904678  57.04  0.000367252    2.813    0.644
        22 -12.7374     65.3824    154.5403   9.9376633750e+01   3.5222287084e+01    0.5267121    0.4100167 -23.35 0.0008760392    1.594    0.373
        23 -10.1832    119.7286    245.0491   9.9025370691e+01   6.1006128819e+00    0.2852836    0.1451781 -48.87  0.001020155    2.245    0.554
        24  -9.2282     23.6367    161.2206   1.1217759961e+02   3.8236878785e+01    0.1942443    0.1036889 -63.65 0.0002962851    1.606    0.377
        25  -8.2724     33.9364    160.0000   1.0919290686e+02   3.7555556622e+01    0.2057419     0.079483  25.53 0.0007994304    2.922    0.658
        26 -10.9233     23.1191    156.2564   1.1175758307e+02   3.9553485334e+01     0.347352    0.2975457 -85.70  0.002125799    1.031    0.030
        27  -9.6600     32.5778    156.1914   1.0909251390e+02   3.8675554593e+01    0.2250423    0.2107699  38.51 0.0007181165    1.218    0.179
        28  -9.6178     29.2843    155.6844   1.0995997040e+02   3.9128812779e+01    0.2209034    0.1816057 -41.74 0.0006069214    1.351    0.260
        29 -11.4037     85.2693    152.5175   9.3224337933e+01   3.2796395847e+01    0.6841473    0.4568864 -26.58  0.002010419    2.027    0.507
        30 -10.3148    134.3170    147.2819   7.8554705531e+01   2.5216770934e+01    0.7925757    0.2343028 -53.48    0.0021465    3.940    0.746
        31  -9.1468    174.6187    148.9101   6.9311535701e+01   1.6782753283e+01    0.3108428     0.185129 -55.64  0.001285551    1.898    0.473
        32 -14.4012     10.2062    206.6295   1.1937177321e+02   2.8378754906e+01     1.013902    0.8624925  24.26  0.003873211    1.498    0.332
        33 -14.5829     37.4779    196.0899   1.1227442825e+02   2.8112117439e+01      3.38183     1.691239  70.30  0.005346587    2.318    0.569
        34  -9.4891     32.7177    143.9037   1.0739505904e+02   4.1845185132e+01    0.4012473    0.2531663  70.86  0.001920185    1.865    0.464
        35 -10.2769    100.3514    138.4908   8.5910716946e+01   3.3818568022e+01    0.5935116    0.3746713 -18.67  0.002194496    2.625    0.619
        36 -11.6357     87.2685    137.9961   8.9678971817e+01   3.6196229705e+01    0.3151987     0.281536 -37.28 0.0004492382    1.138    0.121
        37  -9.8546    105.8823    130.8673   8.2540889298e+01   3.4700268247e+01    0.3708121     0.331812 -33.01  0.001244646    1.136    0.120
        38  -9.4685    110.0008    129.4993   8.1022361688e+01   3.4255874466e+01    0.3497427    0.2587945  -5.64  0.001497322    1.878    0.468
        39 -10.6628    240.1272    169.2967   6.1165515842e+01   1.2854718433e+00    0.2358826    0.1532657 -28.91 0.0007312059    1.351    0.260
        40  -9.8383     46.6737    167.6724   1.0666166159e+02   3.4184594952e+01    0.4764338    0.2468358  67.74 0.0008800303    2.587    0.613
        41  -8.9620    160.6208    127.7985   6.7488444951e+01   2.4225015859e+01    0.2347229    0.1409922 -53.40 0.0008999518    1.749    0.428
        42  -9.7651     97.1780    125.1634   8.3756208927e+01   3.7703762972e+01    0.3285709    0.2647251  -8.53 0.0009485996    1.509    0.337
        43 -10.1326    135.5260    128.9594   7.3904384025e+01   2.9266396742e+01    0.4143395     0.221305 -49.60   0.00160406    1.851    0.460
        44  -9.1025    106.9263    118.4391   7.9170789688e+01   3.7509899394e+01    0.2215068    0.2006207 -42.67 0.0003056891    1.071    0.067
        45 -13.4969     47.2898    187.1904   1.0890929418e+02   2.9167840733e+01     1.470048     1.034692  59.14  0.007922723    1.384    0.277
        46 -10.0860    231.2248    113.8199   5.1069706416e+01   1.2605520146e+01    0.2879719    0.2420916 -55.91 0.0007581962    1.119    0.107
        47  -9.0364    205.5463    110.2374   5.4322038339e+01   1.8270126314e+01    0.2399649    0.2005947  55.99 0.0005656315    1.321    0.243
        48  -8.7596    110.6336    167.7095   8.9106558561e+01   2.4687271367e+01    0.2685298    0.1940123 -67.23  0.001100818    1.497    0.332
        49  -9.9548     52.6971    104.2946   9.3396563787e+01   4.9744998222e+01      0.25104    0.2287056  84.64  0.001423553    1.268    0.211
        50 -10.2716    248.5089     99.0385   4.5626440020e+01   1.1980006201e+01    0.2085177    0.1066357 -41.02 0.0008906089    1.608    0.378
        51 -10.2025     69.5678    160.8253   9.9227339549e+01   3.3007000428e+01    0.5107613    0.3007712  41.19  0.002291836    1.731    0.422
        52 -16.6452     15.4370    242.3104   1.2045968217e+02   2.0098785083e+01     6.949595     2.685675  22.62   0.02959467    4.029    0.752
        53  -9.3418     52.5308     90.9876   9.0115244678e+01   5.2932432669e+01    0.2159757   0.09688392 -36.61 0.0005627041    2.510    0.602
        54  -9.6641     18.2437     90.0566   1.0311052602e+02   5.6608341041e+01    0.1903788    0.1489186 -54.33 0.0004657971    1.076    0.070
        55  -8.8722     72.1160     83.1223   8.0653114781e+01   5.1828707196e+01    0.2094641    0.1774883  77.79 0.0005191434    1.610    0.379
        56  -8.3529    129.7853     65.1293   5.7525981959e+01   4.3570922554e+01    0.1920445    0.1663558  21.24  0.000371547    1.277    0.217
        57  -8.5449     89.5215     65.0297   6.8822968244e+01   5.2284176171e+01    0.2061965    0.1386449 -42.53 0.0005968784    1.533    0.348
        58  -9.1325     48.6800     62.8307   8.3226337184e+01   5.9498335412e+01     0.207795     0.167739   3.06 0.0003638461    1.198    0.165
        59 -12.4882    195.7029     48.9506   4.1196606587e+01   3.0594458563e+01    0.7861717    0.5818273  39.51  0.002689691    1.794    0.442
        60 -13.8203     14.3473    214.0944   1.1897566264e+02   2.6288371780e+01     1.028688     0.523086  28.56  0.003610409    2.171    0.539
        61 -10.9395    119.7237    213.3126   9.4628768548e+01   1.2520813089e+01    0.4398359    0.2534978 -58.04  0.001419388    1.890    0.471
        62  -8.5333    150.3436    193.3139   8.4047395167e+01   1.1695485760e+01    0.2075014    0.1426377 -58.72 0.0009703175    1.668    0.400
        63 -10.1814     13.4928     59.9739   9.7903312300e+01   6.3683684905e+01     0.249443    0.1852648 -43.84 0.0004279981    1.110    0.099
        64  -8.8465    198.1910     23.7740   3.4948240701e+01   3.3267841492e+01    0.1543653    0.1446868  56.19 0.0006387761    1.343    0.255
        65  -9.2249    148.3252    190.0023   8.3903346530e+01   1.2766847786e+01    0.2716222    0.1756728  70.23  0.001051833    2.778    0.640
        66  -8.6860    189.5042     14.9533   3.3768249494e+01   3.6201124126e+01    0.1719161    0.1157187 -38.73 0.0005743444    1.544    0.352
        67  -9.6016    122.5928    199.5492   9.1759037625e+01   1.5086854459e+01     0.367914    0.2422986 -77.93  0.001618655    2.127    0.530
        68  -7.9953    224.2647    206.6846   7.1118022834e+01  -2.7511940942e+00    0.1119145    0.1007208 -52.78 0.0002437481    1.546    0.353
        69 -11.2920    197.3386    203.5641   7.5735111298e+01   1.7977374458e+00    0.4334493    0.2962504  20.69  0.002298858    1.481    0.325
