#   1 NUMBER                 Running object number                                     
#   2 MAG_AUTO               Kron-like elliptical aperture magnitude                    [mag]
#   3 X_IMAGE                Object position along x                                    [pixel]
#   4 Y_IMAGE                Object position along y                                    [pixel]
#   5 X_WORLD                Barycenter position along world x axis                     [deg]
#   6 Y_WORLD                Barycenter position along world y axis                     [deg]
#   7 A_WORLD                Profile RMS along major axis (world units)                 [deg]
#   8 B_WORLD                Profile RMS along minor axis (world units)                 [deg]
#   9 THETA_WORLD            Position angle (CCW/world-x)                               [deg]
#  10 FWHM_WORLD             FWHM assuming a gaussian core                              [deg]
#  11 ELONGATION             A_IMAGE/B_IMAGE                                           
#  12 ELLIPTICITY            1 - B_IMAGE/A_IMAGE                                       
         1  -9.9508     30.6477     17.0118   1.1014683391e+02   6.9311824407e+01    0.3863522    0.2261179  24.39  0.002194196    1.909    0.476
         2 -10.5268     98.0481     15.5968   8.0389399888e+01   5.8765885937e+01    0.4487557    0.3681547 -75.04  0.001987244    1.886    0.470
         3  -8.9168     18.6416     14.9743   1.1592552255e+02   7.0685044333e+01    0.2155681    0.1324146  48.83  0.001154181    2.728    0.633
         4 -13.6749    207.7399      2.9828   5.5149779771e+01   3.1880173939e+01     3.863811    0.3576676  69.66  0.008841535    7.252    0.862
         5 -12.5037    160.9608      3.9192   6.1278258056e+01   4.4202397659e+01      1.04229    0.6663203   9.12  0.004785698    1.816    0.449
         6 -12.4926    170.2765      2.2999   5.9351019888e+01   4.1835347800e+01     1.312394    0.3392206  72.39   0.00367048    4.377    0.772
         7  -9.3001     35.3071      5.6992   1.0226823294e+02   7.0889601887e+01    0.2629933    0.1904238  47.54  0.001527597    2.174    0.540
         8  -9.5359     78.3903     11.2159   8.5098422496e+01   6.3393196625e+01     0.387695    0.2259154  63.84  0.001593509    3.118    0.679
         9  -9.5162     84.8627     11.3876   8.2806757050e+01   6.2095065718e+01    0.3456789    0.1642553  53.17  0.001452884    2.371    0.578
        10 -10.0563     57.3601      9.8363   9.3217971940e+01   6.7249996780e+01    0.3259577    0.2751944  39.28  0.001408238    1.475    0.322
        11  -9.3213     48.9736     10.6548   9.7651040743e+01   6.8344227059e+01    0.2418734     0.199361  48.41  0.001259694    1.756    0.431
        12  -9.9441     92.1770      9.6771   7.9471088573e+01   6.0790667814e+01    0.2981885    0.1909285  55.40   0.00145278    1.721    0.419
        13  -9.0716     29.3234      9.8957   1.0770383442e+02   7.0773979660e+01    0.1989884    0.1576167  22.64  0.001311337    1.470    0.320
        14 -12.5703    147.7013      3.6040   6.3331127365e+01   4.7780712524e+01     1.233709    0.5730314  51.52  0.005085327    1.868    0.465
        15  -9.2980     41.0681     12.5694   1.0261596924e+02   6.9029370150e+01    0.3025776    0.2622201 -27.22   0.00156686    1.189    0.159
        16  -8.6959     36.3156      8.6820   1.0323489878e+02   7.0261345743e+01    0.1963114    0.1130188 -44.89 0.0006549113    1.615    0.381
        17 -10.5762     72.3755      6.7834   8.5157510667e+01   6.5130352736e+01    0.3810742    0.2547221  53.45  0.001902927    1.872    0.466
        18  -9.7975     65.0813      2.0425   8.5590324527e+01   6.7080629501e+01    0.4449212    0.2660179  63.53  0.001891054    3.397    0.706
        19 -11.0439    104.1040      9.1581   7.5559797667e+01   5.8197578895e+01    0.4828781    0.1524659  48.82  0.001716073    2.722    0.633
        20 -11.8676    127.4334      6.2930   6.8392512601e+01   5.2821318665e+01    0.7620689    0.1325565  57.68  0.002158658    4.024    0.751
        21 -11.0761    134.0069      4.3637   6.6202343616e+01   5.1315117972e+01    0.4029588    0.3154446 -59.36  0.002051479    1.598    0.374
        22 -10.2815    129.2454      1.8790   6.6141814153e+01   5.2771942632e+01    0.4909931     0.203744  68.83   0.00178919    2.667    0.625
        23 -11.0734    117.9496      3.6546   6.9417004240e+01   5.5461022417e+01    0.5187032    0.2838815  73.98  0.002115767    2.411    0.585
        24  -9.9232    123.3070      2.1339   6.7520681182e+01   5.4263306936e+01    0.3862636    0.2476384  48.16  0.001210475    1.377    0.274
        25  -9.8573     79.4031      2.1020   8.0010130115e+01   6.4358263548e+01    0.3036148    0.2325722  37.39  0.001332542    1.247    0.198
        26  -8.6094     24.4913      4.9823   1.0814219182e+02   7.2117675229e+01    0.1475426    0.1042713 -69.27 0.0005366222    2.381    0.580
        27 -13.3714    187.0641     12.3871   6.0419788403e+01   3.6417597932e+01     1.601092    0.6119488  79.15  0.005074571    3.643    0.726
        28 -10.2912    139.0759      2.5253   6.4468983837e+01   5.0157754170e+01    0.3097134    0.1705595  61.93 0.0009646987    1.670    0.401
        29 -10.7121    106.5127      3.0679   7.2034752247e+01   5.8290868805e+01    0.4548742    0.1699339  58.90  0.001692959    2.624    0.619
        30  -8.5348     17.7910      3.6252   1.1156378823e+02   7.2924373732e+01    0.1472355    0.1041393  26.29  0.000949542    1.717    0.418
        31  -8.5683     91.3248      4.2918   7.7085217568e+01   6.1611245552e+01    0.1490866   0.09293301  23.09 0.0007016209    1.616    0.381
        32  -8.8428     53.9339      1.7875   9.0461560823e+01   6.8978659080e+01    0.1773904    0.1565128  66.85 0.0008739047    1.913    0.477
        33  -9.4901    112.3928    214.4975   1.2422632642e+02   1.8202853880e+01    0.2385636    0.1926974 -18.93  0.001632674    1.833    0.454
        34 -11.2713    167.0236    248.2403   1.1795458643e+02   5.8405474576e+00    0.3531873    0.2116749  34.35  0.001398515    1.205    0.170
        35  -9.1482    115.9531    210.2418   1.2308192256e+02   1.8367430840e+01    0.2136666    0.1315482  78.45 0.0009391202    2.504    0.601
        36  -9.4507    202.8358    209.3623   1.0637759933e+02   5.0067942297e+00    0.2016319    0.1682455 -38.80  0.001386363    1.682    0.405
        37  -9.5625     79.0489    210.5519   1.3024922423e+02   2.3254709087e+01    0.1729195   0.08693204  40.75  0.001027012    1.603    0.376
        38  -9.2859    123.9961    205.9783   1.2101516227e+02   1.7870554851e+01    0.1701011    0.1351634  45.96  0.001157099    1.041    0.039
        39  -8.9195     56.3456    205.6698   1.3419198526e+02   2.6743663120e+01    0.1182575   0.06033285  60.69 0.0007050165    1.756    0.431
        40  -9.4189    164.8798    198.9694   1.1197462594e+02   1.2525396465e+01    0.2465025    0.1606631 -18.64  0.001355549    2.118    0.528
        41 -10.1168    126.6107    197.7158   1.1947669260e+02   1.8807515864e+01    0.2723636    0.2588241 -86.19  0.001712808    1.242    0.195
        42 -10.6809    172.9142    195.6604   1.0989154300e+02   1.1675378407e+01    0.2931728    0.2509716  38.91 0.0007816944    1.177    0.151
        43  -9.6366    173.8217    191.6290   1.0907634976e+02   1.2103768586e+01    0.2119939    0.1784731  53.59 0.0004219785    1.399    0.285
        44  -8.0286     36.3326    196.6810   1.3740990832e+02   3.0405921905e+01    0.1148657   0.05762601  61.02 0.0007048541    1.694    0.410
        45  -9.0623     89.0886    199.3450   1.2726511639e+02   2.3880836340e+01    0.2491304    0.1564534  72.67  0.001295582    1.797    0.443
        46  -8.8696     66.9765    195.0384   1.3130826864e+02   2.7403699355e+01    0.1951528    0.1050496  62.95  0.001131786    1.821    0.451
        47  -8.5688    112.8513    198.2287   1.2233792993e+02   2.0774425582e+01    0.2086964    0.1066599  63.56 0.0009485483    2.881    0.653
        48  -8.8612    135.7064    194.0967   1.1714300923e+02   1.7985180528e+01    0.2736271    0.1407507  63.48  0.001074908    3.805    0.737
        49  -8.8626     44.2675    194.1403   1.3572639110e+02   3.0069024105e+01     0.223891   0.09007953  54.81  0.001222514    2.147    0.534
        50  -8.6004    186.2871    193.6624   1.0696961434e+02   9.7173980388e+00     0.114021   0.09678067  61.50 0.0002805167    1.633    0.388
        51  -8.5885    149.3165    199.0067   1.1506777786e+02   1.5044169010e+01    0.1691523    0.1023053 -77.77 0.0007031857    4.161    0.760
        52  -8.7929    124.8660    192.1456   1.1911648864e+02   1.9998134665e+01    0.1909355    0.1443421  55.65  0.000746042    1.276    0.216
        53  -8.5882    139.4460    189.9874   1.1579965777e+02   1.8057859493e+01    0.1579026      0.10905 -89.86 0.0007533839    2.479    0.597
        54  -9.4217    205.0139    188.6879   1.0256640095e+02   7.2225554887e+00     0.188126    0.1361169  31.91 0.0009385063    1.148    0.129
        55  -8.5195     87.3614    189.6783   1.2663839066e+02   2.5820897502e+01    0.1280909   0.07436739  61.66 0.0007042355    1.776    0.437
        56  -8.8616    156.4591    188.0291   1.1200449334e+02   1.5570703498e+01    0.1651205    0.1288796 -44.15 0.0007969034    1.543    0.352
        57  -8.4716    129.3257    188.6712   1.1772210317e+02   1.9889364627e+01    0.1275212   0.08793961  63.45 0.0007050314    1.701    0.412
        58  -9.2780    120.6826    186.6847   1.1927201834e+02   2.1574705342e+01    0.3047141    0.1503294 -64.54  0.001442912    2.789    0.641
        59  -8.9077     55.4567    187.5816   1.3302465465e+02   3.0080567721e+01    0.2973042   0.08930452  54.96  0.001218025    3.629    0.724
        60  -8.3535     44.3173    188.3431   1.3532444920e+02   3.1123535948e+01   0.09734131   0.08132906 -41.92 0.0006508398    1.716    0.417
        61  -9.0298     34.6316    187.8131   1.3720636732e+02   3.2180425955e+01    0.2324827   0.09169139  72.47  0.001134962    2.935    0.659
        62  -8.7073    149.1339    187.1388   1.1337551380e+02   1.6934321288e+01    0.1640052    0.1428624  65.03 0.0005187755    1.341    0.254
        63  -9.5838     94.1755    186.3840   1.2485064686e+02   2.5498455047e+01     0.311708     0.155142  65.28  0.001416041    2.853    0.649
        64  -8.1687    144.3157    186.7333   1.1431454760e+02   1.7796504272e+01    0.1239691   0.08931965  58.26 0.0001922578    1.550    0.355
        65  -9.0342    109.3024    186.1318   1.2161274226e+02   2.3386620242e+01    0.2508259    0.1308695  57.21  0.001229372    2.156    0.536
        66  -9.2176    229.9792    185.5077   9.7456169275e+01   3.4582469498e+00    0.1582623    0.1060565  56.68 0.0006372439    2.540    0.606
        67 -10.6077    210.9670    183.3913   1.0051596316e+02   6.8961699188e+00    0.4585662    0.2500754  16.10  0.002185891    2.170    0.539
        68  -9.6286    197.5995    182.7734   1.0293308105e+02   9.2768898810e+00    0.3369857    0.1730818 -43.98   0.00156746    2.567    0.610
        69  -8.6017    139.3322    185.3159   1.1514679306e+02   1.8847458854e+01    0.1264534   0.09418961   9.26 0.0007046691    1.686    0.407
        70  -9.0153     75.0054    184.5184   1.2870394415e+02   2.8357223848e+01     0.240662    0.1088938  68.17  0.001030514    3.333    0.700
        71  -9.1752     66.4230    185.2236   1.3056788517e+02   2.9267226165e+01    0.1549129   0.09700062  86.83  0.000814919    1.689    0.408
        72  -9.3031    174.4477    183.6069   1.0763621300e+02   1.3177740282e+01    0.2297756    0.1829915  89.08  0.001267848    2.194    0.544
        73  -8.5052     27.6295    183.3180   1.3831767440e+02   3.3666368071e+01    0.1186819   0.05695094  60.45 0.0007034933    1.791    0.442
        74  -8.5977    183.4992    181.4203   1.0545173355e+02   1.1924355212e+01    0.1340027    0.1065731  24.67 0.0008047872    1.047    0.045
        75  -9.2111    147.9910    181.0257   1.1267240618e+02   1.8122320844e+01    0.2023519    0.1501627  66.49  0.001125628    1.748    0.428
        76  -8.5482     44.5046    183.0051   1.3490894220e+02   3.2100687733e+01    0.1558689    0.0724822  73.55 0.0007732075    2.384    0.581
        77  -8.7276    137.5214    179.0496   1.1459326368e+02   2.0205461894e+01    0.1662024    0.1135499 -87.24 0.0008091717    2.514    0.602
        78 -10.3737    204.9159    176.1778   1.0033461986e+02   8.8977232805e+00    0.3288748    0.2427743 -24.43  0.001207054    1.453    0.312
        79  -8.1257    100.6905    178.2725   1.2248481287e+02   2.6073427150e+01    0.1247065   0.08298658  61.37 0.0001949991    1.548    0.354
        80 -10.1578     77.5023    176.2220   1.2731909009e+02   2.9613700149e+01    0.4710495     0.156276  50.20  0.001960027    3.015    0.668
        81  -9.0642     60.1979    177.1628   1.3115469230e+02   3.1520297334e+01    0.2410657    0.1063186  54.46  0.001230114    2.159    0.537
        82  -9.4400     12.9585    175.7872   1.4081705258e+02   3.6326065537e+01    0.2780092    0.1176133  87.33  0.001597887    2.156    0.536
        83  -9.0175    182.8715    175.2002   1.0447691588e+02   1.2952295564e+01     0.287735    0.1499887 -26.25  0.001316343    2.446    0.591
        84  -8.7752    160.4583    175.9767   1.0922521239e+02   1.6804388337e+01    0.3038538    0.1326889  58.05 0.0008103145    6.740    0.852
        85 -10.1198    105.4986    175.1433   1.2102429728e+02   2.5954028865e+01    0.3405083    0.1973421  81.93  0.001516703    3.015    0.668
        86  -9.2102    149.1681    175.2908   1.1150383640e+02   1.8878792788e+01    0.2182379    0.1468638  24.76 0.0008820869    1.533    0.348
        87  -9.0067      3.9735    174.7450   1.4253043072e+02   3.7205511461e+01    0.1920907   0.05318644  64.12 0.0008660738    3.511    0.715
        88  -9.6721    207.5190    170.8844   9.8841495681e+01   9.1577100374e+00    0.2864827    0.2196422  63.15  0.001295497    2.076    0.518
        89  -8.4572    177.3051    171.6828   1.0497266809e+02   1.4485782724e+01    0.1243124    0.1045128  66.78 0.0002838299    1.627    0.385
        90  -9.2000    122.1984    170.1572   1.1660016146e+02   2.4295485398e+01    0.2916223    0.1904997  76.52  0.001411453    2.354    0.575
        91  -8.7632    218.4877    174.0264   9.7388482648e+01   6.8084120670e+00    0.1744468    0.1197155 -21.02 0.0003633774    1.490    0.329
        92  -9.0202     55.6346    170.1289   1.3150466277e+02   3.3405715028e+01    0.2344377    0.1139378  55.11 0.0009220925    1.941    0.485
        93  -8.5344     44.9988    172.4715   1.3400770477e+02   3.4073813328e+01    0.1672131   0.06245077  52.32 0.0008082094    2.453    0.592
        94  -9.8100    100.1130    166.6849   1.2109839872e+02   2.8361739529e+01    0.4276651    0.1600956  53.42  0.001575537    3.499    0.714
        95  -9.0852    139.9526    165.6244   1.1190927215e+02   2.2150170412e+01    0.2600017    0.1746833 -87.54  0.001166012    2.802    0.643
        96  -9.6838     80.1640    164.3337   1.2537387208e+02   3.1601696536e+01    0.4231724    0.2023447  66.13  0.001770316    3.157    0.683
        97  -9.1522    159.2318    164.8338   1.0753789608e+02   1.8866858255e+01    0.2177839    0.1490474  76.49 0.0009518312    2.834    0.647
        98  -9.2685    219.7759    163.7210   9.5143194690e+01   7.9290707482e+00    0.1893547   0.09864934 -40.30  0.000701484    2.367    0.578
        99  -8.3102    185.4962    163.9927   1.0185834852e+02   1.4172476104e+01    0.1879469    0.1117182  -8.51  0.000809965    2.497    0.599
       100  -8.6068     47.7980    164.6061   1.3274157990e+02   3.5346425507e+01    0.1704507   0.08334682  46.32 0.0009434343    1.806    0.446
       101  -8.6023     37.7819    164.6195   1.3495268081e+02   3.6341768015e+01    0.1560928   0.08446116  45.92 0.0004808374    1.637    0.389
       102  -9.5155      9.4370    161.1748   1.4080679644e+02   3.9416261926e+01    0.4116226     0.111409  62.98  0.001680135    4.185    0.761
       103  -8.8614    151.9468    161.4679   1.0852102301e+02   2.0764092830e+01    0.1936705    0.1085889  58.23 0.0008087238    2.486    0.598
       104  -9.7672     93.3726    160.9549   1.2187473147e+02   3.0467956023e+01    0.2982591    0.1634071  58.72  0.001439965    2.079    0.519
       105  -8.8589     62.1456    160.7659   1.2912104693e+02   3.4549979635e+01     0.213781   0.09796662  64.86 0.0009428346    2.832    0.647
       106  -8.5641     31.6142    160.8242   1.3601963338e+02   3.7677270926e+01    0.1595838   0.08733258  85.78 0.0005498931    1.723    0.420
       107  -8.6110     23.4785    159.9901   1.3774157775e+02   3.8551477616e+01    0.1626606   0.06893599  73.97 0.0008096379    2.502    0.600
       108  -9.3356    106.1218    158.5533   1.1853603329e+02   2.9052675606e+01      0.33486    0.1811349  59.20  0.001381227    2.306    0.566
       109  -8.5310    167.5233    157.5365   1.0438241839e+02   1.8567636220e+01    0.1390576    0.1226005  32.53 0.0004111424    1.066    0.062
       110 -10.0610    213.1956    155.4668   9.4696686223e+01   1.0256471936e+01    0.2700064    0.2192871  17.13 0.0008456011    1.023    0.022
       111  -9.0493    120.1326    155.9353   1.1482247057e+02   2.7325903311e+01     0.289167    0.1859224  71.63  0.001334898    2.323    0.570
       112  -9.7897     82.7843    155.5099   1.2364653998e+02   3.3042606884e+01    0.3725996    0.1854419  62.23  0.001628573    2.679    0.627
       113 -10.1484     49.8182    154.8948   1.3138348670e+02   3.7119485188e+01    0.4437303    0.2157902  71.50  0.002145737    2.506    0.601
       114  -8.7472    145.9729    155.5121   1.0876994447e+02   2.2908109562e+01    0.1969113    0.1100691  58.62 0.0005126812    2.497    0.600
       115  -9.6486     68.8522    154.5155   1.2684882761e+02   3.5038362806e+01    0.2979926    0.1543067  54.49     0.001463    1.957    0.489
       116  -9.6338    133.8061    153.1323   1.1113427969e+02   2.5526218284e+01    0.3852328    0.2425833  67.30  0.001697925    2.449    0.592
       117  -8.9881    205.3406    152.7516   9.5640098571e+01   1.2123269808e+01    0.1889623    0.1202862 -18.70 0.0003915155    1.677    0.404
       118  -8.6129    168.3494    152.3076   1.0317673011e+02   1.9294227161e+01    0.1471891     0.102363  11.82 0.0007043343    1.708    0.414
       119  -8.9123    190.2538    150.6983   9.8222896263e+01   1.5332050654e+01    0.3060936    0.2158385 -89.69  0.001157935    4.017    0.751
       120  -8.9408     98.9871    151.1984   1.1912292279e+02   3.1617951308e+01    0.2255686    0.1320236  60.08  0.001071234    2.020    0.505
       121  -9.5097     29.1283    150.4127   1.3579033154e+02   4.0027575469e+01    0.3308165    0.1208385  68.86  0.001339306    3.782    0.736
       122 -10.5712     56.8844    146.3630   1.2879424865e+02   3.8149967643e+01    0.5751712    0.2571197  61.30  0.002387974    2.829    0.647
       123  -9.8262     39.7927    147.9771   1.3308787469e+02   3.9569504430e+01    0.4192948    0.1658856  59.85  0.001870312    2.957    0.662
       124 -10.3231    108.1492    145.8489   1.1601800020e+02   3.1290733961e+01    0.6728633    0.3016353  59.37  0.002224392    4.195    0.762
       125 -10.0255    149.4406    145.7407   1.0610198754e+02   2.4055631300e+01    0.4784799    0.3160364  74.66  0.001892301    2.882    0.653
       126  -9.2565     13.4474    146.4731   1.3909836550e+02   4.2087884616e+01    0.2457298    0.1204749  50.16 0.0009810722    1.846    0.458
       127  -9.7851     88.8078    144.6119   1.2062901225e+02   3.4476481548e+01    0.3549863    0.1817407  59.25  0.001325358    2.516    0.602
       128  -8.7917    206.0239    142.9778   9.3422603713e+01   1.3431488934e+01    0.1884897    0.1770403 -87.92 0.0004245708    1.555    0.357
       129  -9.5726    125.8369    143.7795   1.1131751421e+02   2.8739257534e+01    0.4187093    0.2617697  79.07  0.001626747    3.274    0.695
       130  -9.2558     69.6224    140.6266   1.2490068829e+02   3.7884476550e+01    0.3929791    0.1933991  78.94     0.001464    3.870    0.742
       131 -10.0467     23.7573    138.4173   1.3610721333e+02   4.2995204499e+01    0.4971021    0.1841126  62.83  0.002177753    3.244    0.692
       132  -9.4547     22.5764    131.5832   1.3583395712e+02   4.4553187470e+01    0.3208509    0.1029815 -51.54  0.001354512    3.603    0.722
       133  -9.7948     39.1748    136.4974   1.3212739837e+02   4.2081430195e+01    0.2395513    0.1526852  68.86  0.001133082    1.548    0.354
       134  -9.1123    113.7003    134.0872   1.1251145054e+02   3.2801928001e+01    0.3615953    0.1575476  52.86  0.001320034    2.963    0.662
       135 -10.5338     84.0805    132.5211   1.1994507653e+02   3.7735647086e+01    0.4600415    0.2503036  58.25  0.001373553    2.254    0.556
       136 -10.3333    132.6120    132.3125   1.0739254120e+02   2.9794381309e+01    0.3909352    0.2660294  87.10  0.001622899    2.720    0.632
       137  -8.8902    143.6529    132.3495   1.0469928638e+02   2.7689404154e+01    0.2254708    0.1781129  76.42  0.001117471    1.727    0.421
       138 -10.9198     61.8123    125.8357   1.2488704979e+02   4.2070325706e+01    0.9391801    0.3902353  54.24  0.003790884    3.099    0.677
       139  -9.8770     12.9914    129.5421   1.3805660626e+02   4.5682556670e+01    0.3675467    0.1532331  66.73  0.001819134    2.579    0.612
       140  -8.4046    169.3116    130.6499   9.8346361990e+01   2.2865080031e+01    0.1418563    0.1196665 -89.83  0.000704553    1.719    0.418
       141  -8.9485    153.6210    130.2879   1.0187093001e+02   2.6117870119e+01    0.2207536    0.1793521  86.36 0.0008168179    1.769    0.435
       142 -10.2705     99.9054    128.5881   1.1506580806e+02   3.6227559858e+01    0.5419191     0.332037  73.10  0.002052881    2.646    0.622
       143 -10.3352     73.6236    129.9271   1.2231275217e+02   3.9712643963e+01    0.3327846    0.2035875  51.69  0.001241673    1.685    0.407
       144  -8.8042      2.9021    130.6239   1.4058306733e+02   4.6092223201e+01    0.1785226   0.03172857  46.03  0.000700759    4.397    0.773
       145 -10.8074     44.9737    123.8298   1.2919058378e+02   4.4318138334e+01    0.8195846    0.3669821  69.09     0.003266    3.528    0.717
       146  -9.9670    118.7475    126.1529   1.0963151542e+02   3.3575901588e+01    0.5072255    0.2689158  62.36  0.001800165    3.358    0.702
       147 -10.7458     28.4130    122.2626   1.3346395237e+02   4.6136034168e+01    0.7599887    0.2791399  68.48  0.002630809    4.982    0.799
       148  -8.5876    179.7611    125.1500   9.4769328771e+01   2.1644509241e+01    0.2376154    0.1715851 -84.22 0.0009559364    2.881    0.653
       149  -9.9735     72.2682    121.4666   1.2133340136e+02   4.1767502335e+01    0.4595638    0.2743046  68.43  0.002152067    2.238    0.553
       150  -8.8761    159.2413    122.3797   9.8738579212e+01   2.6443993642e+01    0.3181127    0.1864352  65.13  0.001154404    3.019    0.669
       151 -10.1623    142.5623    120.1619   1.0224272884e+02   3.0276372158e+01    0.4014313    0.2944864 -74.53  0.001675747    2.059    0.514
       152  -9.9355    132.0836    119.7214   1.0478553756e+02   3.2425141283e+01    0.4413043    0.2510345  63.12   0.00163439    2.924    0.658
       153 -10.0588      3.4931    117.6728   1.3960715182e+02   4.8825145257e+01    0.4999813     0.179029  73.51   0.00219712    3.284    0.696
       154 -10.1803    110.1885    115.3756   1.0961912836e+02   3.7361360970e+01    0.4855525    0.3153338  86.01  0.001925743    2.903    0.655
       155 -10.4892     79.7632    113.5608   1.1781588981e+02   4.2539858512e+01    0.5339948    0.3228907  72.88   0.00198637    2.557    0.609
       156 -10.4394     94.5437    113.6898   1.1361880665e+02   4.0322194983e+01    0.7049791    0.2938975  47.51  0.002557311    2.684    0.627
       157  -9.6239    123.4475    113.5423   1.0562140314e+02   3.5341553104e+01    0.4912533    0.2175654  51.99  0.001751484    2.811    0.644
       158 -10.5553     67.3766    111.5986   1.2105281352e+02   4.4612225068e+01    0.4522536    0.2547692  62.11  0.001959388    2.379    0.580
       159 -10.7672     14.4250    110.0955   1.3608072716e+02   4.9840924907e+01    0.4915788    0.2461468  86.20  0.001831498    1.941    0.485
       160  -8.2988    175.3208    112.6779   9.2702735330e+01   2.4754317562e+01     0.145385    0.1236843 -83.58  0.000704517    1.673    0.402
       161  -9.4358    133.8707    110.1506   1.0206409635e+02   3.4011327838e+01    0.2293623    0.2072474  81.42   0.00106523    1.315    0.240
       162 -10.5165     59.8808    108.8144   1.2278049756e+02   4.6141015884e+01    0.4456303    0.1762386 -60.76  0.001819009    2.240    0.554
       163 -11.1255     46.2229    103.0647   1.2594641548e+02   4.8908853010e+01    0.8029888    0.3651273  64.54  0.003006203    3.924    0.745
       164 -11.0589     23.5071    103.1926   1.3277171465e+02   5.0784728284e+01    0.7726206    0.3522562  68.93   0.00348803    2.928    0.658
       165  -9.6333     20.0000     94.9660   1.3285517373e+02   5.2892753954e+01    0.4910589   0.09814543 -58.52  0.001895255    3.340    0.701
       166  -9.4662    140.6623    105.5554   9.9158939940e+01   3.3543796191e+01     0.353844    0.2472962  72.09  0.001169577    2.222    0.550
       167  -9.3630    150.7344    104.4736   9.6346986973e+01   3.1618572834e+01    0.2741841    0.2041368 -78.36 0.0009228174    2.174    0.540
       168 -10.0781    130.6284    103.4017   1.0123220062e+02   3.6030526134e+01    0.5928564    0.3117311  60.57  0.002044418    3.165    0.684
       169  -9.4357      7.2766    103.5198   1.3749079645e+02   5.1722858485e+01    0.3238723      0.15205  60.35  0.001719982    2.314    0.568
       170 -11.0177    111.3175    100.6495   1.0587405469e+02   4.0318126482e+01    0.9392993    0.4426371  57.11  0.003092403    3.613    0.723
       171  -9.7815     82.9035    100.9907   1.1434692014e+02   4.4924998009e+01     0.388211    0.2367696  57.60   0.00127514    2.096    0.523
       172 -10.9613     65.0940     97.1474   1.1905171132e+02   4.8196590782e+01    0.6816823    0.3531984  59.33  0.002350872    2.950    0.661
       173  -9.7365     95.9407     97.8027   1.0968328899e+02   4.3609653785e+01    0.4014187    0.2408298  55.27  0.001440395    2.090    0.521
       174  -9.1226    139.7322     93.1001   9.6082517345e+01   3.6189956004e+01    0.3797319    0.2050032  61.74  0.001319135    2.949    0.661
       175 -10.0086    126.4397     92.1346   9.9387909343e+01   3.9173165103e+01     0.692203    0.3310111  57.19  0.002318999    3.196    0.687
       176 -10.1158      6.8942     92.6760   1.3660288882e+02   5.4166536339e+01     0.538125    0.1894048  37.55   0.00265784    2.991    0.666
       177 -10.6833     35.2661     89.8919   1.2731334846e+02   5.2932636243e+01    0.6020527    0.3223303  86.31  0.002447711    2.443    0.591
       178 -10.5837     87.2136     87.4870   1.0984253371e+02   4.7298093831e+01    0.5563248    0.3383613  63.37  0.001883396    2.623    0.619
       179 -10.4584     49.5058     85.4457   1.2180458972e+02   5.2646123197e+01    0.5763167    0.2879467  60.00  0.002336086    3.299    0.697
       180  -8.5730     64.3067     87.3403   1.1725695413e+02   5.0541939095e+01    0.1405535   0.09520847 -32.07 0.0007042298    1.683    0.406
       181 -10.3031    106.7811     84.7265   1.0302286862e+02   4.4547023351e+01    0.6942884    0.3996626  61.50  0.002621024    2.847    0.649
       182  -8.8902    142.4826     84.5190   9.2921388883e+01   3.7238985763e+01    0.2813271    0.1490174  57.55  0.001033092    2.396    0.583
       183 -10.2472     25.7640     81.6484   1.2917158404e+02   5.5556561725e+01    0.5232618    0.2552611  52.71  0.001899719    2.606    0.616
       184  -9.4444     75.2104     81.4407   1.1223416506e+02   5.0439222340e+01    0.3300743    0.2342447 -88.81  0.001540948    2.042    0.510
       185  -9.9536     10.2300     81.6993   1.3436334410e+02   5.6477998876e+01    0.4398078    0.1355284  36.39  0.001992178    3.463    0.711
       186  -9.1774    120.4877     81.2361   9.7968744419e+01   4.2598252808e+01    0.3579836    0.2113094  60.88   0.00138165    2.477    0.596
       187  -8.6922      1.4883     81.4869   1.3717620062e+02   5.6928525408e+01    0.1152175   0.09035514 -79.53 -1.968007e-05    1.034    0.033
       188  -8.4982    184.6026     77.8193   8.1234137019e+01   2.8469320669e+01    0.2156066    0.1388446 -40.58 0.0006180792    1.635    0.388
       189  -9.3571     62.0711     77.2440   1.1569371150e+02   5.3119541518e+01    0.3707184    0.2072587 -77.15  0.001543507    2.671    0.626
       190  -9.5817    129.5175     76.8347   9.4092259270e+01   4.1567228877e+01    0.5749255      0.29614  59.19  0.002023879    2.826    0.646
       191 -10.0626     83.3369     73.7396   1.0743287241e+02   5.0933184099e+01    0.4925921    0.3268719  75.49  0.002019522    2.884    0.653
       192  -8.8817      9.9366     74.6510   1.3358140311e+02   5.8093845169e+01     0.151793    0.1350465 -74.49 0.0003545542    1.116    0.104
       193  -9.1503     43.5389     73.5328   1.2144263033e+02   5.5974851405e+01    0.3074875    0.1875127  52.10  0.001583155    2.077    0.518
       194  -9.1267    116.7621     73.5884   9.6745235826e+01   4.4893700601e+01    0.2168963     0.143436  54.54 0.0009511444    1.763    0.433
       195  -9.3834    107.6128     73.1073   9.9365528432e+01   4.6809903479e+01    0.4091768     0.203524  52.77  0.001536771    2.569    0.611
       196  -9.5442     95.9623     72.4347   1.0285742323e+02   4.9105058855e+01    0.3698084    0.2733785 -72.65  0.001739195    1.895    0.472
       197  -9.8847     25.1106     72.0018   1.2781854361e+02   5.7818095827e+01     0.304874    0.2044492 -40.30 0.0008796481    1.482    0.325
       198  -9.8929     51.8477     70.4455   1.1771416212e+02   5.5840218754e+01    0.4658166    0.2882643 -88.50  0.001612153    2.515    0.602
       199  -9.6238     17.2960     70.6022   1.3040716245e+02   5.8626976651e+01    0.3044211    0.1854084  66.22  0.001432586    2.035    0.509
       200  -8.6876    147.6338     69.3059   8.6959021694e+01   3.8838434558e+01    0.1566771    0.1268429 -80.96 0.0001851425    1.746    0.427
       201  -8.4967     31.3095     68.3132   1.2485738066e+02   5.8216550256e+01    0.1311789   0.07856116 -40.58 0.0007028487    1.628    0.386
       202  -8.7801    139.8031     67.5778   8.8403218247e+01   4.0982925330e+01    0.2222131    0.1503222  61.64 0.0009459193    1.794    0.443
       203  -9.0463    123.1070     67.3655   9.2913376751e+01   4.4770734446e+01    0.2959549    0.1969253  60.24  0.001270962    1.906    0.475
       204  -9.8099     38.7304     65.3400   1.2142935493e+02   5.8285408060e+01    0.4883352    0.2128161  47.92  0.002042656    3.311    0.698
       205  -8.9924     10.5598     66.2153   1.3218706569e+02   5.9980083817e+01    0.2643882    0.1246902  43.19  0.001375386    2.592    0.614
       206  -9.4440    111.4282     64.8469   9.5559235448e+01   4.7705373929e+01    0.4060963    0.2471109  59.51  0.001652324    2.285    0.562
       207  -9.4242    101.7513     61.7681   9.7589987805e+01   5.0222518072e+01    0.3866034    0.2742172 -89.83  0.001547349    2.864    0.651
       208 -10.2763     75.3387     60.8492   1.0640342931e+02   5.4939252120e+01    0.6816592    0.2957396  45.34  0.002667967    2.835    0.647
       209  -9.5701     26.7519     60.4990   1.2501405320e+02   6.0331985064e+01    0.4173579    0.1808899  42.09  0.001939477    2.918    0.657
       210  -8.8632     90.1530     60.6665   1.0109539583e+02   5.2569776075e+01    0.2754023    0.1278043  47.17  0.001066157    2.534    0.605
       211  -9.4156     14.5788     59.8256   1.2964212869e+02   6.1228326841e+01    0.1648034    0.1460083  22.55 0.0007948707    1.391    0.281
       212 -10.2289      8.1421     58.3051   1.3188653204e+02   6.1880595276e+01    0.3719567    0.2133048  56.74  0.001556371    2.251    0.556
       213  -8.8752    131.8893     59.2795   8.7757172210e+01   4.4290603679e+01     0.241965    0.1986242  67.15 0.0008445549    1.483    0.326
       214  -9.4285    120.8988     57.3404   9.0180163958e+01   4.7114058709e+01    0.4180551    0.2433488  63.34  0.001584635    2.578    0.612
       215  -8.5195    140.6268     57.2950   8.4776829980e+01   4.2578848886e+01    0.1552421    0.1258591 -80.20 0.0007026117    1.736    0.424
       216  -9.8567     55.0922     55.2944   1.1241782339e+02   5.8852869967e+01    0.4518638    0.2984074  89.77  0.002009102    2.829    0.646
       217  -9.7613     45.1369     56.4689   1.1672818923e+02   5.9680026692e+01      0.38787     0.242763  58.13  0.001709502    2.432    0.589
       218  -9.6608     63.6271     55.7085   1.0919704468e+02   5.7694265935e+01    0.3293491    0.2325351  56.68  0.001426121    1.982    0.495
       219  -8.7647    107.0406     54.5426   9.3404890059e+01   5.0569535630e+01    0.2056553    0.1354421  69.06 0.0008091344    2.623    0.619
       220  -9.6183    100.4312     54.0094   9.5350580664e+01   5.1987865028e+01    0.2934517    0.2430158 -60.67 0.0004014216    1.502    0.334
       221 -10.0157     93.3041     51.9458   9.7012887614e+01   5.3737809274e+01    0.5933969    0.3320086  52.81  0.002479632    2.314    0.568
       222 -10.1089     33.2250     52.9318   1.2066912035e+02   6.1548305379e+01    0.5252736     0.245507  44.60   0.00240839    2.924    0.658
       223  -9.1745     25.5104     54.4902   1.2421979667e+02   6.1775890720e+01    0.1834441    0.1232727  14.13  0.001084112    1.778    0.438
       224  -9.2473     21.1018     53.4011   1.2579353461e+02   6.2307976511e+01     0.292994    0.1878964  39.83  0.001662247    1.919    0.479
       225  -8.9717    113.6202     47.9562   8.8972392865e+01   5.0375019904e+01     0.298162    0.2030964  77.45  0.001172622    2.737    0.635
       226  -9.5682     83.1516     47.6672   9.9064926591e+01   5.6377490877e+01    0.4363736    0.2288457  52.63   0.00174545    2.741    0.635
       227  -9.7530     46.0937     46.0469   1.1330174653e+02   6.1858200610e+01    0.3463034    0.2951954  46.65  0.002157002    1.469    0.319
       228  -9.1755    124.1220     46.9834   8.5546754538e+01   4.8189455648e+01    0.3528378     0.223096  69.71  0.001391455    2.445    0.591
       229 -10.0270     19.5502     45.8773   1.2477872041e+02   6.4083197537e+01     0.499646    0.2089374  27.53  0.002487622    2.753    0.637
       230  -9.7394     59.1018     43.5650   1.0698939561e+02   6.0840524741e+01    0.3985789    0.2930912  84.02  0.001784324    2.567    0.610
       231 -10.0209      6.3551     42.8361   1.2990488165e+02   6.5413784317e+01    0.4665593    0.2852177  66.81  0.002657815    2.253    0.556
       232  -8.5596    134.1573     44.3706   8.1876645358e+01   4.6240581054e+01    0.2198013    0.1473758  63.32  0.000950332    1.760    0.432
       233  -9.9456     71.3160     42.8886   1.0179598055e+02   5.9237342648e+01    0.5618505    0.3178105  53.56  0.002376486    2.785    0.641
       234  -9.6917    106.7893     42.4539   8.9002805276e+01   5.2791681670e+01    0.4100698    0.2456689  61.31  0.001673353    2.374    0.579
       235  -9.6009     38.1195     41.7012   1.1542515125e+02   6.3582694074e+01    0.3491569    0.1864017  41.36  0.001339664    2.418    0.586
       236  -9.6492     97.1324     39.2603   9.0905917127e+01   5.5330486642e+01    0.3785067    0.2322202  57.29  0.001642041    2.170    0.539
       237  -9.4814     83.1131     38.7322   9.5667647909e+01   5.8072315580e+01    0.3587715    0.2994672  78.10  0.001876916    1.859    0.462
       238  -9.8088     27.4694     37.2178   1.1892127989e+02   6.5442586458e+01     0.288382    0.1652462  27.59  0.001606707    2.037    0.509
       239  -9.0177    105.5082     35.8341   8.6789725166e+01   5.4169214448e+01    0.2242169     0.214988 -77.11  0.001254071    1.325    0.245
       240  -8.7986    128.0365     36.0000   8.0331006458e+01   4.8994475470e+01    0.2480995   0.08426201  53.79 0.0007855478    2.894    0.654
       241  -8.4250     45.3109     35.6680   1.1017313929e+02   6.4120042569e+01     0.119669    0.1027102  89.39 0.0003024591    1.673    0.402
       242  -9.5554    113.0600     35.7079   8.4420458436e+01   5.2530801527e+01    0.3972738    0.2725418  78.82  0.001630875    2.577    0.612
       243  -9.4956    120.6902     34.0888   8.1576347134e+01   5.1026276905e+01     0.367746    0.2213433  57.85   0.00158404    1.833    0.455
       244 -10.0339     62.6140     33.7642   1.0182829796e+02   6.2302150027e+01    0.4616099     0.227758  43.43  0.002050844    2.478    0.596
       245  -9.7785     51.3037     33.8045   1.0678049317e+02   6.3801334437e+01    0.3523955    0.2283724  44.78  0.001848736    2.028    0.507
       246 -10.1550    222.3182     31.6017   6.1690447009e+01   2.5346817907e+01    0.3891632      0.17929 -39.70  0.001616792    2.097    0.523
       247  -9.8309     74.7872     32.6797   9.6392331596e+01   6.0606489844e+01    0.4643557    0.2294414  45.47  0.002006877    2.356    0.576
       248  -9.6536     13.5755     31.4885   1.2394581184e+02   6.7563271886e+01    0.2697883    0.2156676  71.25  0.001232551    1.685    0.407
       249  -9.3580    102.9930     30.1655   8.5250023989e+01   5.5607474339e+01    0.3467432    0.2090809  58.48   0.00150608    2.067    0.516
       250  -9.8755     83.2481     28.9148   9.1536395804e+01   5.9768306226e+01    0.4706809    0.3119622  68.22  0.001967912    2.994    0.666
       251  -9.6936     93.5929     27.8460   8.7368706798e+01   5.7933649708e+01    0.4090535    0.2822859  63.10  0.001908609    2.070    0.517
       252  -9.6724      4.7990     28.4577   1.2750887412e+02   6.8612540572e+01    0.2899314    0.1790217  55.66   0.00167652    2.402    0.584
       253  -8.8482    111.0386     27.8385   8.1799515695e+01   5.4176612408e+01    0.2897267    0.2589091 -62.78  0.001556348    1.448    0.309
       254  -8.9924    110.0414     24.4908   8.0677626681e+01   5.4880875894e+01    0.4335273    0.2555249  24.14   0.00154014    1.987    0.497
       255  -8.8641    106.0304     23.5300   8.1464809973e+01   5.5921760387e+01    0.2752152    0.2128848  86.92  0.001212441    2.059    0.514
       256  -8.4031    120.1481     27.6406   7.9128822657e+01   5.2085456564e+01    0.2192908    0.1241945  42.37 0.0006881371    1.679    0.404
       257  -9.5887    147.4441     26.5007   7.2085538612e+01   4.5406838446e+01    0.2789525    0.1523031  74.60  0.001033413    2.518    0.603
       258  -9.3096     44.0967     30.5555   1.0884536444e+02   6.5288228877e+01    0.3578203    0.1206762  30.58  0.001458479    3.241    0.691
       259 -10.2417     76.1035     20.5378   9.0503602827e+01   6.2435985331e+01    0.4832628    0.3124404  51.28  0.002389739    1.933    0.483
       260  -8.7709     43.9645     25.5159   1.0691985309e+02   6.6294302780e+01    0.1689744    0.1225341  17.01 0.0004072037    1.477    0.323
       261  -9.1867     58.7873     22.8192   9.8849929633e+01   6.4873192420e+01    0.3280969    0.1556021 -44.46 0.0009851786    2.036    0.509
       262 -10.1521     64.8368     21.5490   9.5614898076e+01   6.4175206552e+01    0.4166057    0.3165132  59.40  0.002208652    2.076    0.518
       263 -10.2831     50.9209     22.4218   1.0228742575e+02   6.6029385275e+01    0.5134208    0.2299037  37.25  0.002349639    2.512    0.602
       264  -8.8233     34.9199     23.1521   1.1043671482e+02   6.7710247335e+01    0.1855628     0.141417  56.38  0.001071442    2.085    0.520
       265  -8.9287     20.6542     22.2526   1.1750019682e+02   6.9077386945e+01    0.1931344     0.141939  32.14  0.001235045    1.718    0.418
       266  -9.2761     12.6543     21.4594   1.2149647008e+02   6.9734091160e+01    0.2219746    0.1448051 -14.67  0.001186292    1.620    0.383
       267  -8.5591    122.5202     21.5434   7.5983640056e+01   5.2327324473e+01    0.1493436    0.1368172  21.35 0.0001512354    1.031    0.030
       268 -11.1752    188.8185     19.3207   6.2392703835e+01   3.5251491304e+01    0.4235379    0.2513202  50.07  0.001913419    1.611    0.379
       269  -9.9247     90.1336     18.1554   8.4203043826e+01   6.0091780919e+01    0.3863385    0.2632257  53.80  0.001713028    1.691    0.409
       270  -9.4348     40.4791     18.9732   1.0587011511e+02   6.7932578552e+01    0.2886812    0.1686395  38.03  0.001535217    2.115    0.527
       271  -8.9745    107.6941    248.7556   1.2822645585e+02   1.3872060777e+01    0.1729672    0.1089211  36.29 0.0007818289    1.316    0.240
       272  -8.9228    109.0056     17.4818   7.7930571596e+01   5.6057213147e+01    0.2211275    0.1395159  53.28  0.001026959    1.587    0.370
       273 -10.3357    245.3234    247.7027   1.0484724500e+02  -4.9682400863e+00    0.3935726    0.1271749  36.67  0.002108825    2.238    0.553
       274  -8.3493      2.4991     16.9872   1.2569045572e+02   7.1125745527e+01    0.1455453   0.09030459  86.77 0.0007608633    2.351    0.575
       275 -10.9580    173.2203    244.0865   1.1640615861e+02   5.4285675609e+00     0.236555    0.2029403 -68.21  0.001218428    1.899    0.473
       276 -11.1218    168.7750    241.8127   1.1691373236e+02   6.3299006567e+00    0.3985003    0.1973542  25.81  0.002214303    2.084    0.520
       277 -10.1338    237.8031    240.2736   1.0499839466e+02  -3.3311460722e+00    0.2947264    0.1493743  37.33  0.001621259    1.587    0.370
       278  -9.4372    108.4996    239.9807   1.2735583345e+02   1.4965864544e+01    0.1917621     0.106243 -62.48  0.001266449    2.362    0.577
       279  -8.6860    160.2944    239.6476   1.1815445432e+02   7.8122528872e+00    0.1059847   0.07417307  56.66 0.0003939518    1.683    0.406
       280  -8.9703    160.5201    234.5657   1.1752315180e+02   8.4041324533e+00    0.1151638   0.08403938  36.24 0.0001313857    1.019    0.018
       281 -10.4244    169.9445    232.4567   1.1557763193e+02   7.2733098803e+00    0.2791736    0.1637436  40.53  0.001125014    1.310    0.237
       282  -9.5506    236.7045    229.9171   1.0365932904e+02  -2.2380503433e+00    0.2155915    0.1844579  -0.97  0.001700113    1.469    0.319
       283  -9.2540    128.6804    231.6991   1.2296375344e+02   1.3373179631e+01    0.1053223   0.07729831  18.17 0.0002968948    1.624    0.384
       284  -8.4092      1.5358     11.4951   1.2458463857e+02   7.2293955121e+01     0.115578   0.08729919 -49.24 0.0004236632    1.043    0.041
       285 -10.8172     98.0964    226.8354   1.2808329367e+02   1.8238091482e+01    0.2807139     0.138672  36.30   0.00104536    1.698    0.411
       286  -9.4162    114.6714    228.5007   1.2520293939e+02   1.5774363490e+01    0.2161106   0.09875919 -53.46 0.0009796384    2.804    0.643
       287 -11.2132    164.4249    226.2531   1.1580106029e+02   8.8728757761e+00     0.473279    0.2721345  32.61  0.002402924    1.386    0.278
       288 -10.0441    114.2328     16.4343   7.6007483499e+01   5.4962109045e+01    0.2642749    0.2048786  33.55  0.000958081    1.184    0.156
       289 -10.1903    160.5431    227.4713   1.1666301072e+02   9.2993165005e+00     0.209115    0.1733444  34.26   0.00121075    1.115    0.103
       290  -8.4516    144.6277    228.7135   1.1972616343e+02   1.1491900375e+01    0.1140044   0.07622614  19.36 0.0007019146    1.713    0.416
       291  -9.9679     88.2768    227.0410   1.2988666897e+02   1.9463709666e+01    0.1449189    0.1157078  58.19 0.0004189681    1.089    0.082
       292  -9.8773    182.5637    225.1392   1.1235531246e+02   6.2624239738e+00    0.2300299    0.1273582  16.08  0.001211484    2.307    0.567
       293 -11.0947    125.5536    221.2100   1.2243732401e+02   1.5316430124e+01    0.3679619    0.2406006  29.90  0.001217312    1.455    0.313
       294  -9.9363    109.2060    222.2456   1.2560908448e+02   1.7451123883e+01    0.2237184    0.1520389  37.76  0.001361051    1.233    0.189
       295  -9.3347     19.3954    222.7699   1.4165780778e+02   2.7567890031e+01    0.1184493   0.07661933 -77.20 0.0008671412    1.646    0.392
       296  -9.6989    104.1520    225.1810   1.2682401495e+02   1.7689314923e+01    0.1599958    0.1305334  37.77 0.0005174641    1.191    0.161
       297  -9.0808    157.7747    221.8638   1.1647491169e+02   1.0452608694e+01    0.1751738    0.1320919  25.77 0.0005726974    1.198    0.165
       298  -9.2024    114.7327    221.3927   1.2449000329e+02   1.6818286219e+01    0.1629686    0.1363253 -16.93 0.0008826975    1.726    0.421
       299  -8.9444    148.8176    220.0125   1.1791997009e+02   1.2060009299e+01    0.1738931    0.1377777  19.70  0.001194254    1.300    0.231
       300 -10.5795    100.1702    218.9012   1.2698471115e+02   1.9185560803e+01    0.4805565    0.1714427  53.04  0.002189162    2.960    0.662
       301  -9.2923     74.8288    219.6364   1.3176121339e+02   2.2280043703e+01    0.1598873   0.07167655  45.84 0.0005433331    1.692    0.409
       302  -9.1807    143.6972    216.2453   1.1842719529e+02   1.3364743165e+01    0.2225943    0.1409046 -43.61  0.001381751    2.027    0.507
       303  -8.2331     61.6818    217.3371   1.3400169854e+02   2.4184457903e+01    0.1138751   0.05936571  60.96 0.0003699774    1.703    0.413
       304  -8.5152    175.9614    216.0602   1.1231750198e+02   8.4113339495e+00    0.1458993    0.1110532  31.25 0.0006542017    1.006    0.006
       305  -9.7662    131.4533    215.1379   1.2063629492e+02   1.5357346141e+01    0.2353187    0.2114007  72.71  0.001158503    1.293    0.227
