#   1 NUMBER                 Running object number                                     
#   2 MAG_AUTO               Kron-like elliptical aperture magnitude                    [mag]
#   3 X_IMAGE                Object position along x                                    [pixel]
#   4 Y_IMAGE                Object position along y                                    [pixel]
#   5 X_WORLD                Barycenter position along world x axis                     [deg]
#   6 Y_WORLD                Barycenter position along world y axis                     [deg]
#   7 A_WORLD                Profile RMS along major axis (world units)                 [deg]
#   8 B_WORLD                Profile RMS along minor axis (world units)                 [deg]
#   9 THETA_WORLD            Position angle (CCW/world-x)                               [deg]
#  10 FWHM_WORLD             FWHM assuming a gaussian core                              [deg]
#  11 ELONGATION             A_IMAGE/B_IMAGE                                           
#  12 ELLIPTICITY            1 - B_IMAGE/A_IMAGE                                       
         1 -12.3511     16.9063     51.9646   1.1668932592e+02   6.3903995672e+01    0.8506867     0.324207 -46.94  0.001460939    2.084    0.520
         2 -13.1253    247.6954     33.8777   5.7246314685e+01   2.1432787061e+01    0.8250499    0.4007933 -35.79  0.004258505    2.310    0.567
         3 -12.9122     10.3486     18.3049   1.0794829924e+02   6.9766136010e+01    0.5538988    0.4111916  23.80  0.001891469    1.577    0.366
         4 -11.8352     19.8709     27.7861   1.0719445111e+02   6.7575089659e+01     0.736313    0.3406737  -4.35  0.002919741    3.484    0.713
         5 -11.0958     20.6159     22.7493   1.0490075364e+02   6.8215469582e+01     0.383293    0.2481744 -13.55  0.002017095    1.298    0.230
         6 -13.3181     40.6501     17.8362   9.4225655795e+01   6.6514374179e+01    0.6999376    0.5161303  49.57  0.002389177    2.053    0.513
         7 -11.2910     51.4836      9.7895   8.6679436047e+01   6.5828037921e+01    0.3390911    0.2209337   4.76  0.001140308    1.470    0.320
         8 -11.2848     41.9477     10.2048   9.0483185658e+01   6.7184058894e+01    0.3068593    0.2063221  -0.50 0.0006687656    1.333    0.250
         9 -11.2655     46.9454      7.9685   8.7591521312e+01   6.6691096315e+01    0.3078154    0.2286312  -0.22  0.001632045    1.180    0.153
        10 -11.0039     87.7150     14.1805   7.7020987360e+01   5.9080165502e+01    0.2197028    0.1930128  29.29 0.0005947168    1.084    0.077
        11 -10.7966     49.1791      2.8269   8.4554939043e+01   6.6834328944e+01     0.462597    0.1963948  39.76  0.001865543    1.937    0.484
        12 -11.4291     60.1621     10.8909   8.4081740204e+01   6.4342659491e+01    0.5795083    0.2784747  16.75  0.002607457    2.942    0.660
        13 -12.4870     69.0375      8.3712   8.0197382251e+01   6.3066675465e+01     1.401272    0.4901757  50.24  0.006572488    2.493    0.599
        14 -11.0957     75.7841      3.6585   7.6368208944e+01   6.2249810469e+01    0.3133137    0.1952459  -4.75  0.001928294    1.788    0.441
        15 -11.2393     80.0156      2.7100   7.4843963271e+01   6.1535196620e+01    0.3037783    0.2875209   0.93  0.001010998    1.279    0.218
        16 -11.1993     30.8560     14.7219   9.7023469880e+01   6.8123686140e+01    0.3486074    0.1835186 -26.67  0.001834537    1.763    0.433
        17 -12.0014      2.1313     10.5174   1.0884471645e+02   7.1476626879e+01    0.6112957    0.1762874 -37.84 0.0007594845    2.789    0.641
        18 -10.6213    236.0665     20.3273   5.5694906971e+01   2.5546507203e+01     0.224397    0.1424977 -57.57 0.0007096836    1.352    0.261
        19 -10.7226     16.6428      3.1597   9.8384187468e+01   7.1050351638e+01    0.2934567    0.2373827  29.99  0.002140035    1.701    0.412
        20 -10.8388     26.0745      7.5569   9.6012167762e+01   6.9512304707e+01    0.2736407    0.1844802  13.45 0.0003965674    1.193    0.162
        21 -11.2653     22.0295      3.6180   9.6068692918e+01   7.0408792694e+01    0.3591038    0.2124368  -2.22  0.001755342    1.539    0.350
        22 -10.7746     59.0642      3.6937   8.1494077785e+01   6.5178723256e+01    0.4648378    0.2242766  -1.14  0.002296283    2.909    0.656
        23  -9.4253    197.7665      5.9957   5.6315738720e+01   3.5463853973e+01    0.1413238   0.09735217 -39.72 0.0008771798    1.623    0.384
        24  -9.3073    148.1727      5.8657   6.2257009288e+01   4.6780153611e+01    0.1670671    0.1223442  50.86 0.0004295066    1.293    0.227
        25  -8.9831    222.5713      3.5398   5.3596450908e+01   3.0299787451e+01    0.1173921   0.09006819 -83.66 0.0001131244    1.024    0.024
        26  -8.7966    133.7097      2.7006   6.3598058901e+01   5.0312732829e+01    0.1225013   0.07743181  42.52 0.0002456855    1.561    0.359
        27  -9.4479     35.1919      2.2764   8.9721700970e+01   6.8905474671e+01    0.1304892     0.108862   5.03  0.001016045    1.249    0.199
        28  -9.4087      8.2804      1.8794   1.0190969987e+02   7.2025511359e+01    0.1674136      0.11694  20.39  0.001292654    1.432    0.302
        29 -10.2030     68.7442    240.2159   1.3417108849e+02   1.5148046659e+01    0.2100142    0.1865758  41.48 0.0005115062    1.332    0.249
        30  -9.2325    249.7972    250.2022   9.9113954669e+01  -1.4644524052e+01    0.1623243    0.1103854  -2.22 0.0004771853    1.322    0.243
        31  -9.2808    231.6905    250.7173   1.0248630967e+02  -1.2352219499e+01    0.3669669   0.09794298  33.16  0.001386603    3.695    0.729
        32  -9.6145    233.6373    247.7888   1.0163398819e+02  -1.2196095038e+01    0.2206579    0.1489998 -48.89 0.0005355792    2.024    0.506
        33 -10.2505    233.9810    244.0394   1.0093353512e+02  -1.1697800041e+01    0.2298195    0.1685519  10.70 0.0004015279    1.209    0.173
        34  -9.8945    230.4723    244.4752   1.0165927483e+02  -1.1277567419e+01    0.2049511    0.1613416 -21.78  0.000570557    1.204    0.169
        35 -10.2721    218.5767    250.1542   1.0485690180e+02  -1.0441529198e+01    0.2457018    0.1544627  22.02  0.001020837    1.469    0.319
        36 -11.2264    166.2886    248.5933   1.1500483150e+02  -2.0926253625e+00    0.2273126     0.218665  16.14  0.000445345    1.119    0.106
        37 -11.8011    139.6978    247.0755   1.2029579326e+02   2.5818981817e+00    0.4585745    0.3034251  16.40 0.0009046674    2.049    0.512
        38  -9.6081     87.3878    249.9865   1.3143272899e+02   1.0399640639e+01    0.1701133    0.1458659  85.00 0.0004706657    1.144    0.126
        39  -9.1603     72.7628    250.6901   1.3440855019e+02   1.2412610601e+01    0.1654483   0.09428899  48.04 0.0003497723    1.481    0.325
        40 -11.1493     46.1055    249.9904   1.3945978918e+02   1.6182978722e+01    0.3430271    0.1819554  43.72  0.001496089    1.678    0.404
        41 -10.0098      1.7160    249.0488   1.4728703570e+02   2.1462376656e+01     0.230461     0.112985 -74.66  0.001408596    1.795    0.443
        42 -11.0269     50.5755    239.7989   1.3774599191e+02   1.7718105064e+01     0.379504    0.2171431  61.19  0.001494125    1.539    0.350
        43 -11.5166    204.9014    231.6268   1.0436911470e+02  -5.4385369224e+00    0.4648947    0.2806297  24.27 0.0004861862    1.681    0.405
        44 -10.3872    202.2658    239.9932   1.0632861977e+02  -6.4158547953e+00    0.2429618    0.2080279  38.14 0.0004672477    1.260    0.206
        45 -11.5108    198.5130    237.8518   1.0671477082e+02  -5.4716684876e+00    0.6019896    0.3333589  26.12  0.002466808    1.836    0.455
        46 -10.8550    119.3072    238.6283   1.2343202401e+02   7.6192647952e+00    0.4403135    0.3457009   1.08  0.001318844    1.860    0.462
        47  -8.8287     35.3606    240.2985   1.4071479927e+02   1.9527978866e+01    0.1055929   0.09252477 -45.11 0.0007034645    1.713    0.416
        48 -10.9623     26.3010    238.9799   1.4231376825e+02   2.0872395088e+01    0.3326366    0.2465053 -38.75 0.0009287501    2.318    0.569
        49  -9.9119    247.0365    238.9313   9.7676560133e+01  -1.2706785431e+01     0.186124    0.1416633  -2.73 0.0005683588    1.109    0.098
        50 -10.4311    238.8910    215.8130   9.5008720854e+01  -8.0162487707e+00    0.4640587    0.1879461 -35.13  0.001418211    2.362    0.577
        51 -12.6026    198.8951    214.1459   1.0244424175e+02  -1.3628917460e+00     1.763093    0.8166484  34.08  0.007498663    2.184    0.542
        52 -10.7327    234.1443    209.6424   9.4732314790e+01  -6.2809326671e+00     0.323536    0.2868576   3.91 0.0006363229    1.091    0.083
        53 -12.4741    235.6983    163.1878   8.5298554823e+01   1.8189778370e+00     1.273153    0.9230252  79.61  0.006189968    2.271    0.560
        54 -11.4768    238.5603    153.9628   8.2909623445e+01   3.0430317107e+00    0.8585461    0.4463832 -29.97  0.003660504    2.204    0.546
        55 -11.5303    235.1537    238.5340   9.9768351917e+01  -1.1043061794e+01    0.6999665    0.2444835  31.17  0.002941626    2.973    0.664
        56 -12.5139    233.9146    185.0445   9.0026258889e+01  -1.9211453564e+00    0.9073794    0.6502239 -21.10     0.002943    1.420    0.296
        57 -11.5795    216.5692    220.4870   1.0008135126e+02  -5.3928551469e+00    0.4184456    0.3751931 -15.88  0.001208313    1.096    0.087
        58 -13.1033    216.6997    205.6665   9.7293335894e+01  -2.8093854537e+00    0.9209371    0.6601561  -3.24  0.004838974    1.603    0.376
        59 -12.4268    247.6239    204.1700   9.1270428933e+01  -7.3813507680e+00     1.120598    0.4159808 -28.68  0.003966693    3.753    0.734
        60 -11.6590    242.1138    174.8433   8.6541526519e+01  -1.4238936337e+00    0.7443944    0.3505861 -28.79  0.002450956    2.550    0.608
        61 -11.0679    239.1533    206.0810   9.3144523514e+01  -6.4405614990e+00    0.4964316    0.2304285 -38.94  0.001371246    1.970    0.493
        62 -11.1245    248.5744    212.8913   9.2730239785e+01  -8.9398005106e+00    0.3219121    0.2329426 -10.49  0.000476539    1.320    0.243
        63 -12.6812    236.8711    197.9731   9.2013817936e+01  -4.6991947303e+00     1.139012    0.5935583 -26.54  0.004099526    2.145    0.534
        64 -11.7452    242.9426    198.5123   9.1025000874e+01  -5.7304529621e+00    0.5992012    0.3739115  -7.14  0.002089354    2.120    0.528
        65 -11.9284    245.9363    191.7266   8.9192494290e+01  -5.0227469541e+00    0.5546705     0.428646 -15.37  0.001794719    1.238    0.192
        66 -11.6606    249.5820    183.4065   8.6948488505e+01  -4.1416497460e+00    0.3972047    0.2662469 -22.42 0.0007182148    1.503    0.335
        67 -12.4982    247.7723    175.9238   8.5786968626e+01  -2.5378827868e+00     1.242877    0.4188803 -31.61  0.003878349    4.346    0.770
        68 -11.5552    243.1362    232.0844   9.7177780563e+01  -1.1172218917e+01      0.51591    0.3031039  10.85   0.00273305    1.962    0.490
        69 -12.1974    244.7655    224.9333   9.5607241729e+01  -1.0303707052e+01    0.4826364     0.435074  34.60  0.002272264    1.423    0.297
        70 -11.8595    246.7639    218.1036   9.4009826663e+01  -9.5142987344e+00    0.3279016    0.2018546 -39.44 0.0007897461    1.556    0.357
        71 -10.7204    148.4346    238.2166   1.1716211018e+02   2.7848194559e+00    0.3000704    0.2087571  36.12 0.0004199801    1.305    0.234
        72 -10.1032    134.9927    238.9366   1.2013045072e+02   4.9275536338e+00    0.2021404     0.181989  43.43 0.0003855921    1.036    0.035
        73  -9.9356     62.4919    239.2876   1.3533748507e+02   1.6221736345e+01    0.3031403     0.137453  39.63  0.001244427    2.044    0.511
        74 -10.3716      9.6810    238.8550   1.4532851713e+02   2.2714752090e+01    0.2027725     0.152728  83.77 0.0005420269    1.087    0.080
        75 -10.8020    184.0364    236.7360   1.0946489044e+02  -2.9396150981e+00    0.2667831     0.208721  12.50 0.0004610445    1.290    0.225
        76  -8.8072    112.6413    237.6874   1.2472718037e+02   8.9111057993e+00    0.1300178    0.1068299  -1.78 0.0007043015    1.744    0.427
        77  -9.6356     41.4769    236.5906   1.3924354932e+02   1.9562177629e+01    0.1735913     0.145737  55.48 0.0005757424    1.247    0.198
        78 -11.1666    159.0349    235.1791   1.1443921599e+02   1.5516901874e+00    0.3384425    0.2379339  35.37 0.0008084535    1.294    0.227
        79 -10.9381    140.6858    234.7319   1.1829322883e+02   4.7843670537e+00    0.4698156    0.2355252  45.08  0.001104929    1.819    0.450
        80 -10.8654    145.5627    230.3993   1.1657754762e+02   4.8003660873e+00    0.3584362    0.2608884 -37.88 0.0009056323    1.595    0.373
        81  -9.8319    143.9890    225.9993   1.1622863457e+02   5.9582602322e+00    0.2299953    0.2069197 -56.35 0.0004396293    1.210    0.174
        82 -10.4261     91.1839    235.8112   1.2904738763e+02   1.2737578398e+01    0.2550693    0.2131289   6.96 0.0005328231    1.736    0.424
        83 -11.2739     86.4632    233.2664   1.2974411412e+02   1.4008522156e+01    0.5259799    0.2610912  55.16    0.0018944    1.969    0.492
        84 -10.5150     77.2714    235.4242   1.3191886550e+02   1.4929730562e+01    0.3148146    0.2000176  58.53 0.0008528949    1.419    0.295
        85 -10.3167    128.8790    233.9920   1.2072954371e+02   6.9485092343e+00    0.3883863    0.2301834  55.22  0.001124364    1.754    0.430
        86  -9.7362      3.7785    235.2258   1.4615834289e+02   2.4067276754e+01    0.1425964    0.1152599 -78.48  0.000569871    1.351    0.260
        87 -10.7264    230.3823    233.3359   9.9746323958e+01  -9.5747177429e+00    0.2284549    0.1924928  12.39 0.0004108165    1.102    0.093
        88 -10.2623    226.6452    230.3910   9.9928905214e+01  -8.5667180542e+00    0.2837471    0.2009763 -32.43  0.001060757    1.361    0.265
        89 -10.8789    177.5863    232.2856   1.1005814869e+02  -1.0694139349e+00    0.3274937    0.2386308  -5.66 0.0007271479    1.702    0.413
        90  -9.7129    249.2009    232.4117   9.6148192676e+01  -1.2037872994e+01    0.2751114    0.1512082 -14.62  0.001392516    2.138    0.532
        91  -9.6874    170.9043    232.8187   1.1154757914e+02  -3.4111424195e-02    0.1994239    0.1695261  12.54 0.0003824623    1.184    0.155
        92  -8.9391    108.3797    233.2501   1.2505422325e+02   1.0530016888e+01    0.1285084    0.1055601   9.82 0.0006261225    1.651    0.394
        93 -11.3838     34.9196    231.0143   1.4005785546e+02   2.1561801407e+01    0.3787542     0.304476   2.30  0.002257507    2.177    0.541
        94 -10.3909      9.7437    232.0813   1.4489215737e+02   2.4124886208e+01    0.2245241    0.1566198 -79.82 0.0007458992    1.279    0.218
        95  -9.9626    164.6280    232.4976   1.1282151543e+02   1.0984746980e+00    0.2966411     0.124462  37.84  0.001213707    2.180    0.541
        96 -10.9342     55.2592    230.4938   1.3594701191e+02   1.9099922572e+01    0.3727776    0.2467046 -67.82  0.001447808    1.495    0.331
        97  -9.6979     49.0358    231.0501   1.3726132285e+02   1.9797107404e+01     0.267264     0.139731 -82.60  0.001355353    1.885    0.470
        98 -10.8255    216.7668    230.4490   1.0183116543e+02  -7.0919080824e+00    0.2529688    0.2000452   4.41 0.0004529292    1.179    0.151
        99 -10.7479    189.1107    230.7584   1.0741203996e+02  -2.7246543472e+00    0.4838125    0.2143232  30.72  0.002003706    2.376    0.579
       100 -10.6154    124.0073    230.6873   1.2131016810e+02   8.4531209230e+00    0.2876342    0.2288126  18.93 0.0006031301    1.507    0.336
       101 -10.1621    100.5165    230.4878   1.2639078413e+02   1.2393895502e+01    0.2245533     0.181016 -67.39 0.0006673932    1.304    0.233
       102 -10.8704    103.8633    227.8754   1.2531953732e+02   1.2411981537e+01    0.3474992    0.2629074  27.78  0.001164426    1.520    0.342
       103  -9.7518    134.2534    230.4274   1.1903908537e+02   6.7518736584e+00    0.2442997    0.1509963  45.88 0.0007099875    1.474    0.322
       104  -9.9247     45.0229    229.4048   1.3791800280e+02   2.0669810432e+01    0.2089038    0.1559943 -64.03 0.0005525618    1.459    0.315
       105  -9.1579    158.4859    229.4025   1.1362964844e+02   2.7496784132e+00    0.1380924    0.1234498  30.76 0.0001127319    1.038    0.037
       106 -10.6933    114.0116    227.9672   1.2310958145e+02   1.0712158661e+01    0.3518712    0.2439708  19.91  0.001106655    1.922    0.480
       107 -10.4786    115.1749    222.5988   1.2208706304e+02   1.1667808040e+01    0.3915367     0.239464 -74.63  0.001807283    2.020    0.505
       108  -9.4964     92.9786    227.9864   1.2770407546e+02   1.4136448499e+01    0.1865068    0.1652341 -19.66 0.0004637546    1.571    0.363
       109  -9.9797     78.8627    226.6465   1.3058760970e+02   1.6601476232e+01    0.4036388    0.1686587 -72.11  0.001630696    2.772    0.639
       110 -11.2009     18.5129    226.0383   1.4284192489e+02   2.4500544262e+01    0.4564937    0.2853385  84.07  0.002822066    1.312    0.238
       111 -10.3362     16.3174    221.1618   1.4290692667e+02   2.5796729157e+01    0.2161917    0.1965029  27.51   0.00071002    1.576    0.366
       112 -10.8863    236.2496    226.2932   9.7402556822e+01  -9.3144387133e+00    0.2617874    0.1981232 -22.59 0.0004191101    1.186    0.157
       113  -9.6111    229.5150    225.5102   9.8515120321e+01  -8.2080571371e+00    0.2004322    0.1676306 -24.26 -9.64399e-06    1.151    0.131
       114 -10.7237    233.0938    222.0366   9.7217395871e+01  -8.1752589641e+00    0.3522373    0.2354771  25.48 0.0009419409    1.468    0.319
       115  -9.7660    174.3626    227.1787   1.0987387097e+02   4.2355534953e-01    0.2216076     0.174805  24.02 0.0005187438    1.225    0.184
       116 -10.7804    163.8139    225.0597   1.1176631932e+02   2.6620903171e+00    0.5381429    0.2825593  43.97  0.001307231    1.806    0.446
       117 -11.1341    169.9051    222.5533   1.1003192518e+02   2.0794794643e+00    0.5843982    0.2956731 -50.53  0.002565542    2.182    0.542
       118 -10.3856    165.8268    220.3789   1.1053606538e+02   3.2234507970e+00    0.3098159    0.2153844  14.58 0.0008957466    1.779    0.438
       119 -10.5125     67.8357    227.0386   1.3297972135e+02   1.8124605104e+01    0.2515588    0.1767556  44.66 0.0005429893    1.360    0.265
       120  -9.7407      1.6314    227.1436   1.4605996156e+02   2.5974515670e+01    0.1620667    0.1145135 -90.00 0.0009596756    1.114    0.103
       121 -10.7116    184.4544    225.2876   1.0742907930e+02  -9.5418667867e-01    0.2661201    0.2399705 -58.60  0.001077662    1.321    0.243
       122 -10.0097    199.7693    224.5954   1.0416003469e+02  -3.3952638332e+00    0.2281575    0.1783357 -33.84 0.0004560645    1.294    0.227
       123  -9.6265    120.6765    224.9861   1.2121342723e+02   1.0217841655e+01    0.1848915    0.1730572 -78.13 0.0004897881    1.129    0.114
       124  -9.3560      7.7955    225.1863   1.4480361314e+02   2.5790918606e+01    0.1440557    0.1209163 -78.70 0.0004497159    1.322    0.244
       125 -10.2433    191.0351    223.2581   1.0570740221e+02  -1.6990680510e+00    0.2382769    0.1892139 -26.60 0.0004940096    1.289    0.224
       126  -9.6478    129.5850    223.8258   1.1906569506e+02   8.9267265243e+00    0.2243454    0.1804239  30.34 0.0004610454    1.284    0.221
       127 -10.8530    207.0933    222.3828   1.0229253725e+02  -4.2032389251e+00    0.2786876    0.2298259 -11.71 0.0004968446    1.165    0.142
       128  -8.8420    155.3036    223.3177   1.1331967180e+02   4.5045325988e+00    0.1391151    0.1087052  -2.87 0.0003939595    1.625    0.385
       129  -9.8694    135.6927    222.9838   1.1758131640e+02   8.0357141797e+00    0.1900838    0.1804582 -76.30 0.0004361725    1.122    0.108
       130  -9.1724     82.6694    223.0075   1.2932807765e+02   1.6834556774e+01    0.1818953    0.1583513 -89.16 0.0004317494    1.100    0.091
       131 -10.0523     50.0529    222.5192   1.3624111944e+02   2.1551052401e+01    0.2109331    0.1614817 -63.98 0.0005003492    1.401    0.286
       132  -9.0806     97.7704    221.9720   1.2587100360e+02   1.4692425630e+01    0.1618678    0.1114545 -64.81 0.0003289504    1.495    0.331
       133 -10.0246     73.6217    222.5760   1.3124222214e+02   1.8283471033e+01    0.3114283    0.1328108  31.26  0.001254286    2.824    0.646
       134  -9.8931     28.5259    222.0265   1.4057952552e+02   2.4276362118e+01    0.1783925    0.1424161  73.09 0.0004500407    1.074    0.069
       135  -9.9200    180.9195    220.9462   1.0740918610e+02   4.6281683228e-01    0.2085982    0.1871852  12.25 0.0003943162    1.060    0.056
       136 -10.1254    175.0046    220.5571   1.0859532559e+02   1.5694202459e+00    0.2454033     0.187806 -24.20 0.0003344984    1.458    0.314
       137 -10.2030    148.5958    220.1233   1.1426320147e+02   6.3436308681e+00    0.2565205    0.2266621 -14.83 0.0005866805    1.296    0.229
       138  -9.7462     59.4545    220.3446   1.3403708912e+02   2.0790816102e+01    0.2775496    0.1838842  84.21  0.001200467    1.452    0.311
       139 -10.0064     56.1184    216.7641   1.3436904964e+02   2.2055124874e+01    0.2203206    0.1569561 -82.85 0.0007171382    1.272    0.214
       140 -10.5429     40.2826    220.7798   1.3809526768e+02   2.3170073322e+01    0.2184407    0.1923904 -78.14 0.0007154805    1.259    0.205
       141 -10.1363    186.2110    219.1463   1.0597762221e+02  -1.1507909590e-01    0.2304675    0.2039243   9.87 0.0004349638    1.078    0.073
       142 -10.1884    132.2571    213.7015   1.1687056346e+02   1.0622879357e+01    0.2656243    0.2269873  21.54 0.0006291655    1.299    0.230
       143 -10.6431    146.7994    206.8459   1.1240356725e+02   9.4693943303e+00    0.8030818     0.405656  20.32  0.002493814    4.154    0.759
       144  -8.8414    140.6707    220.2500   1.1604102736e+02   7.7278545707e+00    0.1418971    0.1031333  62.95 0.0002263811    1.549    0.354
       145 -11.6951    137.9116    215.3384   1.1585896889e+02   9.2583556540e+00    0.5748417    0.4506141 -54.19  0.002066248    1.357    0.263
       146 -10.0465    159.1142    218.0315   1.1159475721e+02   4.8888638659e+00    0.2343795    0.2168712 -75.13 0.0008000397    1.214    0.176
       147  -9.8276    128.9875    219.0220   1.1845693796e+02   1.0052503878e+01    0.2098913    0.1737258  -3.79  0.000423553    1.595    0.373
       148  -9.3472    109.2332    218.8300   1.2287186378e+02   1.3497230455e+01    0.1748616    0.1667348  -7.71 0.0004762448    1.288    0.223
       149 -10.2114    119.9090    216.5116   1.2011603675e+02   1.2183559257e+01    0.4373388    0.2524537  61.23  0.001881118    2.092    0.522
       150 -10.9878    119.3009    212.5024   1.1963488247e+02   1.3176950422e+01    0.3948461    0.2346094  36.01  0.001119958    1.676    0.403
       151  -9.4007     21.6916    216.7084   1.4150991626e+02   2.6213754060e+01    0.1096795   0.08720609 -55.13 0.0002111389    1.581    0.368
       152 -10.9553    228.1625    217.7446   9.7355912701e+01  -6.7299008652e+00    0.2797894    0.2295428  -8.50 0.0005959131    1.094    0.086
       153  -8.9988    124.2915    215.6613   1.1899111075e+02   1.1605406620e+01    0.1470557    0.1062667  74.12 0.0003396547    1.645    0.392
       154  -9.2328     83.2152    215.5273   1.2826867362e+02   1.8441318429e+01    0.1683503    0.1325182  26.34 0.0005139827    1.550    0.355
       155 -10.2492     31.2707    214.3087   1.3936518770e+02   2.5693901732e+01    0.2189292    0.1865405  88.96  0.000541614    1.138    0.121
       156 -12.3291    223.3491    213.4693   9.7478674073e+01  -5.2586841451e+00     2.205129     0.708977 -31.29  0.006465386    5.222    0.808
       157 -10.2388    171.2862    213.9795   1.0823097253e+02   3.5164967564e+00    0.2472049    0.1996972  43.70 0.0005141346    1.212    0.175
       158  -9.5230    165.8561    213.8730   1.0939350396e+02   4.5159910972e+00    0.2151239    0.1840452   1.67 0.0004408607    1.284    0.221
       159  -9.6868    143.3833    214.2334   1.1444393441e+02   8.5097163061e+00    0.2337595    0.1824079  29.07 0.0005598221    1.317    0.241
       160 -10.3928     63.5739    213.1981   1.3235095876e+02   2.1857034819e+01    0.2230309    0.2084987  50.05  0.000462427    1.259    0.206
       161  -9.5831     51.8418    212.6416   1.3485279060e+02   2.3565739541e+01    0.1745732    0.1604885  34.01 0.0005007753    1.383    0.277
       162  -9.7851     41.0833    212.6537   1.3715963545e+02   2.4915963182e+01    0.1729363    0.1476141  63.33 0.0005597086    1.166    0.143
       163  -9.3425    154.6112    212.2448   1.1158958217e+02   6.8911223172e+00    0.1879609    0.1348458 -38.57 0.0003683688    1.531    0.347
       164  -9.3078     96.8050    212.4360   1.2477660712e+02   1.6997254516e+01    0.1782555    0.1344906  28.62 0.0004861222    1.528    0.345
       165 -10.4820      7.8040    215.9169   1.4417454953e+02   2.7806535779e+01    0.3032606    0.2133015 -77.38  0.001400675    1.253    0.202
       166 -10.7387    124.0176    206.0141   1.1750614311e+02   1.3800190856e+01    0.2290584    0.1957555  36.78  0.001233567    1.181    0.153
       167  -9.7509     25.5091    210.4729   1.4021784824e+02   2.7207476495e+01    0.1920016    0.1446224 -53.67 0.0005661948    1.615    0.381
       168 -10.3232     18.1264    210.7608   1.4174990509e+02   2.7924153034e+01    0.2209537    0.2053036 -50.44 0.0009534127    1.495    0.331
       169  -9.0455    149.2140    209.9253   1.1239508661e+02   8.3656049139e+00    0.1793415    0.1186623 -53.50 0.0004592849    1.609    0.379
       170  -8.9437    106.7258    210.2789   1.2218518479e+02   1.5842391558e+01    0.1417345     0.102642  71.34 0.0002153609    1.496    0.332
       171  -9.9430     56.3509    210.0466   1.3358520463e+02   2.3573269321e+01    0.1996381     0.182913  40.22 0.0004522141    1.322    0.244
       172 -10.2470    161.1287    208.5855   1.0949171242e+02   6.4608350533e+00    0.2717919    0.2295171  11.99 0.0006805578    1.296    0.228
       173  -9.1646     93.4521    208.7866   1.2502988055e+02   1.8382081741e+01    0.1868441    0.1276882 -51.19 0.0005971214    1.600    0.375
       174  -9.4553    177.0298    208.2315   1.0594478546e+02   3.6265614768e+00    0.1885255    0.1740597  24.74 0.0002835323    1.032    0.031
       175 -10.6757    145.2948    200.6196   1.1164090813e+02   1.1108697486e+01    0.3940318    0.2378806  46.29  0.001597953    1.615    0.381
       176 -10.9603    132.5384    206.8973   1.1567991715e+02   1.2067782041e+01    0.4341707    0.3030815  28.09  0.001471711    1.585    0.369
       177 -11.3390    139.3849    203.6622   1.1354438722e+02   1.1533171481e+01    0.5000011     0.339132  23.83  0.001538845    1.769    0.435
       178  -9.4304    120.1982    206.7563   1.1851505268e+02   1.4311317411e+01    0.2697197    0.1967003  11.37 0.0007176599    1.972    0.493
       179 -10.5321    114.6819    206.3862   1.1973980589e+02   1.5364698098e+01    0.3711859    0.1939567  55.18  0.001512308    2.131    0.531
       180 -10.9225    110.0285    201.4239   1.2004190629e+02   1.7320209817e+01    0.4796474    0.3045426 -80.45  0.002065918    1.986    0.496
       181 -10.3245     47.0166    206.1708   1.3521683368e+02   2.5686511754e+01    0.2154836    0.1869754  36.02  0.000533341    1.394    0.282
       182  -9.2946     32.0116    206.5083   1.3849812807e+02   2.7396363009e+01    0.1665449     0.120179  40.47 0.0004791284    1.505    0.335
       183  -8.5266    183.5402    205.4842   1.0403645005e+02   2.9940345064e+00    0.1427466    0.1325387   4.45  0.000156868    1.037    0.036
       184  -9.7372     86.2223    205.0359   1.2617626049e+02   2.0409879978e+01    0.2003302    0.1868103 -50.08 0.0005639101    1.266    0.210
       185 -11.5097     56.2914    202.4983   1.3273453274e+02   2.5355281751e+01    0.4083816    0.2047771 -67.60  0.001256431    1.830    0.454
       186  -8.8543    179.3950    202.4294   1.0434965839e+02   4.3622691519e+00    0.1410414    0.1339293   2.22 0.0001187026    1.020    0.019
       187 -10.2326    161.9955    201.2631   1.0796031644e+02   7.8390212298e+00    0.3126053    0.2440669  55.56 0.0009904815    1.371    0.271
       188 -10.8097    165.4955    199.9595   1.0693424591e+02   7.4586210815e+00     0.287723    0.2318359 -22.39 0.0006630671    1.407    0.289
       189  -9.9312     91.0067    200.8410   1.2445369315e+02   2.0641533934e+01    0.2958411    0.2143146  84.32  0.001487663    1.485    0.327
       190  -9.1141     20.8583    202.3841   1.4048519981e+02   2.9554290982e+01    0.1404521    0.1215074  17.22 0.0005649429    1.642    0.391
       191  -9.9420    198.3247    201.1184   1.0010483889e+02   1.1950129484e+00    0.2152116    0.1834634  11.48 0.0003999256    1.174    0.148
       192  -9.2463    186.9795    201.0419   1.0246191667e+02   3.2523232720e+00    0.1650739    0.1562518   4.69 0.0003237502    1.003    0.003
       193  -9.3999     64.4300    200.3201   1.3060634426e+02   2.4765849443e+01    0.2764209   0.08734601 -52.72 0.0009616888    3.378    0.704
       194  -9.0948     34.2990    201.2834   1.3750010379e+02   2.8353770612e+01    0.1171118   0.09279559 -50.05 0.0002211917    1.548    0.354
       195  -9.7786    132.2904    199.7178   1.1450524824e+02   1.3725103767e+01    0.2799172    0.2076837  -5.29 0.0008637739    2.051    0.512
       196  -8.9751     98.4950    200.5451   1.2263653320e+02   1.9486332307e+01    0.1421441    0.1343122  78.20 8.140887e-05    1.068    0.064
       197  -9.5783     69.1392    200.4963   1.2953726523e+02   2.4057083938e+01    0.1921164    0.1329077  38.45 0.0007174027    1.509    0.337
       198 -10.1303    199.6555    188.8835   9.7427701989e+01   3.3515858408e+00    0.2599882    0.2380317  38.86 0.0005204786    1.149    0.129
       199 -10.9431    211.1088    179.9418   9.3312570139e+01   3.0173888315e+00    0.3901099    0.2633622 -36.28  0.001096365    1.414    0.293
       200 -10.7584    209.8800    198.1930   9.7198033694e+01  -2.7622567840e-01     0.368531    0.2656994 -61.04  0.001210815    1.831    0.454
       201 -10.3746    209.1978    192.3424   9.6185586048e+01   9.5498584968e-01    0.3483615     0.245916  23.14 0.0009368567    1.554    0.357
       202 -10.2848    202.7759    194.8708   9.7977599336e+01   1.6102252253e+00    0.3111687    0.2507999  -2.58 0.0006611757    1.345    0.257
       203 -11.2000    207.2690    188.0490   9.5716010492e+01   2.1294394255e+00    0.7034833    0.4464206  12.57  0.002385384    2.298    0.565
       204 -11.8829    224.8801    204.9082   9.5573580847e+01  -4.0097900749e+00    0.5439951    0.4079588  10.31 0.0005224149    1.404    0.288
       205  -9.8350     41.9116    199.2939   1.3561246903e+02   2.7933090759e+01    0.1726575    0.1558534  76.23 0.0005239653    1.153    0.133
       206 -10.0903    103.2839    198.1467   1.2112336041e+02   1.9248578229e+01    0.3089747    0.2102968  39.60 0.0007588852    1.459    0.315
       207  -8.9232     80.6739    198.7386   1.2659424194e+02   2.2766499129e+01    0.1289733    0.1121252 -21.37 0.0002275638    1.561    0.359
       208 -10.6336     75.6830    197.4258   1.2759176737e+02   2.3836034812e+01    0.2486479    0.1534543 -48.24  0.001176082    1.845    0.458
       209  -9.8474     49.3784    198.1353   1.3379872941e+02   2.7289467574e+01    0.1900418    0.1827039  68.41 0.0004870896    1.247    0.198
       210 -10.5695    215.4210    195.5169   9.5582450996e+01  -7.3055907543e-01    0.3661967    0.2398356 -44.91  0.001458927    1.518    0.341
       211 -10.3953     71.6155    197.1935   1.2852080190e+02   2.4491379048e+01    0.1995136    0.1183508 -57.16 0.0009518554    1.666    0.400
       212  -9.3594    169.7693    195.9917   1.0522933258e+02   7.4914673842e+00    0.1960993    0.1915548 -15.35 0.0004080204    1.031    0.030
       213 -10.7473    157.6122    194.6299   1.0770561803e+02   1.0096799172e+01    0.4303777    0.2676031 -41.55  0.001587962    1.702    0.412
       214  -9.7693    149.2625    196.5580   1.0998348704e+02   1.1260366930e+01    0.2030331    0.1418774  28.98 0.0004685862    1.549    0.354
       215  -9.7966     89.0498    195.9443   1.2419262734e+02   2.2125621922e+01    0.2139539    0.2006337  87.71 0.0004514633    1.074    0.069
       216  -9.0321     60.9964    195.9740   1.3085563293e+02   2.6282758930e+01    0.1644305    0.1422027  82.82 0.0003448015    1.017    0.017
       217  -9.7586    184.3318    194.6064   1.0178100136e+02   5.0390420353e+00    0.2277103    0.1714351  26.52 0.0004186065    1.386    0.279
       218  -9.2831    176.4367    195.4930   1.0366380139e+02   6.3368673890e+00    0.1441982    0.1398013   3.36 9.896109e-05    1.009    0.009
       219  -9.3418    140.6758    195.3129   1.1175131404e+02   1.3160899764e+01    0.1541112    0.1155377  74.85 0.0004892084    1.660    0.398
       220  -9.1940    143.8739    193.8309   1.1072977895e+02   1.2890853323e+01    0.2070054    0.1756833  82.72   0.00052238    1.333    0.250
       221 -10.0553    113.1370    194.0695   1.1809014980e+02   1.8503372714e+01     0.215128     0.200187 -22.48 0.0003507206    1.272    0.214
       222 -10.1617     81.4496    193.8609   1.2571022418e+02   2.3822620599e+01    0.2515233    0.1758624  51.65 0.0005609068    1.388    0.280
       223 -10.8461      6.7823    203.9424   1.4351039947e+02   3.0573641651e+01    0.2585495    0.2063282 -39.07 0.0009920343    1.828    0.453
       224  -9.1206     17.4227    194.5127   1.4052243939e+02   3.1725607503e+01    0.1254479   0.09868938 -87.08  9.75054e-05    1.038    0.037
       225  -9.8078    220.0770    193.1339   9.4212196045e+01  -1.0831200344e+00    0.2108333    0.1742125  -5.34 0.0004587477    1.221    0.181
       226  -9.2544     36.3988    192.7837   1.3615503390e+02   3.0127025182e+01    0.1752021    0.1041967 -63.76 0.0003947904    1.526    0.345
       227  -8.9258    194.4118    192.5093   9.9235126735e+01   3.5935344875e+00    0.1421231    0.1345787 -15.98 0.0001122587    1.022    0.021
       228 -10.2670    151.6574    191.5560   1.0848993882e+02   1.1915128798e+01    0.2760302    0.2674451 -34.04 0.0006658309    1.068    0.064
       229 -10.2604    224.5758    190.1923   9.2775040091e+01  -1.3019861916e+00    0.2851726    0.2350473 -48.82  0.001627643    1.302    0.232
       230 -10.1509    162.2680    190.3479   1.0582238131e+02   1.0138395106e+01    0.2430309    0.2112079 -33.91  0.000443328    1.197    0.165
       231 -11.3913    159.1221    186.7469   1.0583596381e+02   1.1540373071e+01      0.45039     0.341016  43.23  0.002127996    1.302    0.232
       232  -9.2662     72.7920    207.6392   1.2961373507e+02   2.1835145512e+01    0.1917599    0.1136265  48.53 0.0005317301    1.591    0.371
       233  -9.8327     96.6232    189.0243   1.2127334078e+02   2.2559880369e+01    0.3871524    0.1704525 -62.35 0.0009979027    2.329    0.571
       234 -10.6321     73.6277    189.0453   1.2690452229e+02   2.6175085426e+01    0.3028822    0.1975004 -89.63 0.0009122897    1.689    0.408
       235  -9.9167     15.1077    189.5352   1.4057803043e+02   3.3112125188e+01    0.2654801    0.1178586 -60.84  0.001312312    2.007    0.502
       236  -9.5434    172.2851    189.0860   1.0332411438e+02   8.4789656822e+00     0.224797    0.1963475  -6.87 0.0005560009    1.255    0.203
       237  -9.1097     64.5022    189.5882   1.2918775061e+02   2.7349789077e+01    0.1377642    0.1230258  89.32 9.213349e-05    1.042    0.040
       238  -8.9665    179.3241    188.2236   1.0160310668e+02   7.3093392688e+00    0.1425682    0.1119958   9.86 0.0002297477    1.504    0.335
       239 -10.1888    116.2734    187.7404   1.1623375735e+02   1.9446662052e+01    0.4377121    0.2707523  31.21  0.001554715    1.809    0.447
       240  -9.5545     77.5474    188.5681   1.2587955592e+02   2.5707099789e+01    0.1432346    0.1272714  84.59 5.389054e-05    1.013    0.013
       241  -8.8344      1.3420    188.2573   1.4342799733e+02   3.4628863166e+01    0.1095463   0.08110512 -52.34 0.0004450775    1.585    0.369
       242  -9.7408    215.1762    186.7580   9.3894848325e+01   9.6692263779e-01    0.1928303    0.1905972 -26.96 0.0006682111    1.148    0.129
       243 -10.1337    127.3546    185.7201   1.1316470563e+02   1.7885003431e+01    0.4342606    0.2066576  29.93   0.00153369    2.704    0.630
       244  -8.9940     20.7872    186.4023   1.3902582802e+02   3.3303636939e+01    0.1411559     0.124773   2.03 0.0004731197    1.616    0.381
       245 -10.2232    166.9072    184.5584   1.0362739408e+02   1.0501683956e+01    0.2507226    0.2019229 -34.34 0.0004016155    1.298    0.230
       246  -8.6701     80.6928    184.6909   1.2452044438e+02   2.6179889443e+01    0.1394182    0.1117211 -31.70 0.0003365143    1.614    0.381
       247  -9.3850     34.8756    184.5252   1.3559920060e+02   3.2283115577e+01    0.1711557    0.1293465  35.29 0.0007119342    1.524    0.344
       248  -9.3230    140.4486    183.4612   1.0957588418e+02   1.5918315076e+01    0.1501956    0.1472124  70.20 4.277729e-05    1.012    0.012
       249  -9.3093     67.2539    182.7765   1.2756459510e+02   2.8637670760e+01     0.180124    0.1575741 -44.94 0.0004877197    1.327    0.246
       250  -9.0534    224.0234    181.9184   9.1228940802e+01   3.3472795328e-01    0.1601266    0.1434477 -25.40 0.0003562964    1.012    0.011
       251  -9.8452    203.3507    180.7931   9.5035917180e+01   4.2810832742e+00    0.2284248    0.2117637 -63.71 0.0004304003    1.210    0.174
       252  -9.5111    184.2182    180.8477   9.9048594394e+01   7.9179129399e+00    0.2497025    0.1836231 -32.77 0.0003779441    1.412    0.292
       253  -8.8144      9.5049    181.5785   1.4109455686e+02   3.5489078537e+01    0.1231385   0.09808797 -81.47  0.000323367    1.069    0.064
       254 -10.4771    175.1985    179.6637   1.0077790272e+02   9.9365237619e+00    0.2902088     0.261681 -39.43  0.000450932    1.100    0.091
       255 -10.8440    159.7447    179.8486   1.0431461817e+02   1.2955513978e+01    0.2784528    0.2053257  30.32  0.001186246    1.456    0.313
       256  -9.3067     55.5182    180.0186   1.3007685097e+02   3.0909644106e+01    0.2040766    0.1216606 -65.55  0.000529893    1.502    0.334
       257 -11.3573    221.7027    225.1090   9.9926342331e+01  -6.9675570918e+00    0.5458835    0.2528813  35.15  0.002432977    2.114    0.527
       258  -9.9722     61.3341    177.9455   1.2834223501e+02   3.0652963715e+01    0.3640641    0.2044543 -80.55  0.001616529    1.931    0.482
       259  -9.8438    191.0372    176.9574   9.6790631914e+01   7.4086682966e+00    0.2213678    0.2085629 -16.82 0.0003884071    1.041    0.039
       260 -10.2706    101.0920    176.0271   1.1793780779e+02   2.4984620009e+01    0.2492273    0.2038497  79.15            0    1.284    0.221
       261  -8.8859     69.3032    177.3423   1.2624887074e+02   2.9693802155e+01      0.14274    0.1060627 -37.14 0.0007039675    1.680    0.405
       262  -9.9825    210.1120    174.0723   9.2300890761e+01   4.3599610348e+00    0.3078203    0.2490216  40.84 0.0009419202    1.310    0.236
       263 -10.6631    205.0650    175.0308   9.3502553648e+01   5.1155541927e+00    0.3216695    0.2374628 -18.77 0.0008616574    1.556    0.357
       264 -10.2866    169.4885    176.0837   1.0131641294e+02   1.1851370233e+01    0.2263044    0.1487544 -46.97 0.0005508595    1.513    0.339
       265 -10.9113    140.4676    175.0805   1.0791727107e+02   1.7869329700e+01    0.3899627    0.2087203 -35.94  0.001390486    2.405    0.584
       266 -11.2397    197.8321    173.9876   9.4755426333e+01   6.7081119471e+00    0.3555977    0.3093465  57.47  0.001746459    1.286    0.223
       267 -10.4680    201.0282    170.0336   9.3272111153e+01   6.9015872986e+00     0.269172    0.1841031 -42.32 0.0003792853    1.392    0.282
       268  -8.8801     46.6696    175.3066   1.3163373919e+02   3.3178480191e+01    0.1428685   0.09255999  71.17 0.0007038644    1.660    0.398
       269  -9.4961    182.8726    173.9252   9.7903920865e+01   9.6515740016e+00    0.2256502    0.1990773 -14.91 0.0004395713    1.208    0.172
       270 -11.3457    161.6344    174.0518   1.0268816099e+02   1.3879588442e+01    0.3332371    0.2270344  29.65 0.0005978232    1.652    0.395
       271  -8.9980    129.2615    173.0131   1.1025659040e+02   2.0546306019e+01     0.193482    0.1326479 -53.46  0.000332471    1.453    0.312
       272  -9.0795    233.4000    172.4915   8.7602168891e+01   4.7830649550e-01    0.1384416      0.12052 -31.39 0.0001131268    1.020    0.020
       273  -9.0848     24.5044    172.3868   1.3669602102e+02   3.6302370357e+01    0.1271104    0.1066263 -77.47 0.0002114246    1.072    0.067
       274 -10.0490    225.8729    170.8169   8.8626656020e+01   2.1151176867e+00     0.201052    0.1755613  -9.30 0.0004185335    1.173    0.148
       275 -10.4088    192.9761    171.2887   9.5196679182e+01   8.2127326416e+00    0.2560397    0.2207837  24.13 0.0003777867    1.229    0.186
       276 -10.3180    188.4675    170.7007   9.6023349420e+01   9.2266898129e+00    0.3506276    0.1749265  41.24  0.000960675    2.076    0.518
       277  -8.8262     76.3543    171.3146   1.2349261296e+02   3.0164650076e+01    0.1463126    0.1114585 -28.68 0.0007045488    1.738    0.425
       278  -8.7881     44.6684    170.6892   1.3151936527e+02   3.4557466148e+01     0.135195   0.09700766 -40.70 0.0007042881    1.672    0.402
       279 -10.5720    158.6534    168.9175   1.0230442212e+02   1.5644993276e+01     0.218536    0.1977892 -52.33 0.0005738725    1.100    0.091
       280  -9.3410    219.4519    175.0562   9.0698118368e+01   2.4531890211e+00      0.20344    0.1297002 -40.88  0.000337346    1.451    0.311
       281  -9.5262    134.8828    167.8603   1.0781678301e+02   2.0679550468e+01    0.2356914    0.2120268 -13.77 0.0004627554    1.287    0.223
       282 -10.4235    210.6277    165.7818   9.0465344244e+01   5.9174701053e+00    0.5924916    0.4135146 -73.88   0.00262753    2.204    0.546
       283 -10.0632    213.1959    160.3366   8.8815183124e+01   6.5159125462e+00    0.2505968     0.206366 -14.49 0.0004449066    1.347    0.258
       284  -9.7514    169.8145    166.7583   9.9276010544e+01   1.3850172865e+01    0.2077651    0.1814688 -87.99 0.0004885717    1.316    0.240
       285  -9.9605    150.4863    166.8983   1.0380942332e+02   1.7771811960e+01    0.2280021    0.1525573 -49.42 0.0003412436    1.486    0.327
       286 -10.8812    205.2172    166.8824   9.1763876255e+01   6.7342392751e+00    0.3167041    0.2369724 -29.20 0.0004287838    1.371    0.271
       287  -8.9356     84.5492    167.4491   1.2069680506e+02   2.9867341408e+01    0.1469528     0.136718 -73.69 0.0001049408    1.044    0.043
       288  -9.0022    231.2558    178.2959   8.9161902098e+01  -2.3404342162e-01    0.1338193   0.09933472 -13.59 0.0002335612    1.496    0.332
       289 -10.2748    218.9564    165.2537   8.8760209827e+01   4.4525152130e+00    0.2284678    0.1904715 -37.03 0.0004085499    1.102    0.092
       290  -9.3492    179.0368    166.5001   9.7164886492e+01   1.2024010248e+01      0.21794    0.1510181  41.26 0.0003602432    1.480    0.324
       291  -9.9692    165.2927    166.3219   1.0021303841e+02   1.4874511201e+01    0.1550969    0.1230871  -9.33 0.0002061661    1.611    0.379
       292 -10.2438    200.0954    162.3777   9.1831812189e+01   8.6601610497e+00    0.2842062    0.2228224 -10.93 0.0008779008    1.548    0.354
       293 -11.6292    205.2382    159.1979   9.0118901105e+01   8.2966318459e+00    0.5533535     0.376124 -11.62  0.001978912    2.187    0.543
       294 -10.5086    206.0553    152.4611   8.8498432275e+01   9.5112728110e+00    0.3301315    0.2292369 -37.72 0.0008936335    1.389    0.280
       295 -11.6967    212.6652    150.9580   8.6902230827e+01   8.5002621617e+00    0.7394262    0.6026574 -89.43  0.003802818    1.562    0.360
       296  -9.6835    215.3316    147.2892   8.5607640010e+01   8.7079022827e+00    0.2214086    0.2041837  39.56 0.0005186391    1.183    0.154
       297  -9.6678    191.9331    162.7473   9.3591239973e+01   1.0214891805e+01    0.2172036    0.1966314  -1.04 0.0004273992    1.195    0.163
       298  -9.5883    185.0246    163.4867   9.5215137823e+01   1.1456854896e+01    0.2179879    0.1506706  42.12 0.0004111218    1.494    0.331
       299  -9.4047    111.2869    163.3307   1.1290409489e+02   2.6300037666e+01    0.1535071    0.1211281 -23.52 0.0003032445    1.618    0.382
       300  -8.8778     80.5286    163.5218   1.2106813961e+02   3.1482772530e+01    0.1479044    0.1353906 -80.08 0.0002243957    1.003    0.003
       301  -8.6121    172.6603    162.2759   9.7666055069e+01   1.4259323142e+01    0.1543198    0.1224355  82.37  0.000318772    1.615    0.381
       302  -9.8390    221.0578    159.5861   8.7177729424e+01   5.1705909352e+00    0.2705172    0.1916432 -56.85 0.0008422515    1.534    0.348
       303  -9.7721    163.5081    160.4196   9.9345324662e+01   1.6574170982e+01    0.1527829    0.1512067 -88.10 0.0001141353    1.014    0.014
       304 -10.6452    152.9022    159.9175   1.0173028295e+02   1.8892540265e+01    0.2352101    0.2139955 -12.31 0.0004296759    1.231    0.188
       305 -10.0616     53.4049    158.3118   1.2745234013e+02   3.6585193569e+01    0.4023669    0.2243096  28.37  0.001195345    2.102    0.524
       306 -10.2662    250.4523    156.7895   8.1526425355e+01   4.6395468094e-01    0.3309341    0.1348156 -40.52  0.001127112    2.118    0.528
       307 -10.2167    158.8549    158.1868   9.9939523984e+01   1.8052004499e+01    0.2093493    0.1867255  -8.09 0.0003839281    1.283    0.221
       308  -9.5399    141.3533    157.6269   1.0404046809e+02   2.1807907588e+01     0.382917    0.2549987  75.69   0.00148652    2.284    0.562
       309  -8.6848     99.2892    156.2823   1.1467296469e+02   3.0202314213e+01     0.146475    0.1193068 -22.70  0.000285386    1.528    0.345
       310  -9.1071    246.4225    155.5127   8.1921435133e+01   1.3804329123e+00    0.1368788    0.1164428 -35.45 0.0001057277    1.034    0.033
       311 -10.3984    226.0717    154.9109   8.5279704131e+01   5.1425821604e+00    0.2668746    0.2309335   8.83 0.0007839776    1.327    0.246
       312 -10.6375    227.8253    150.7033   8.4080309180e+01   5.6282733609e+00    0.3079186    0.1946432  43.46  0.001494993    1.765    0.434
       313  -9.4782    222.4079    154.4896   8.5852248451e+01   5.9139639363e+00    0.2084554    0.1668453 -12.73 0.0005451808    1.454    0.312
       314  -9.9167    221.5060    150.5095   8.5168753351e+01   6.8664562367e+00    0.4376044    0.1319871 -41.51 0.0008798923    3.066    0.674
       315  -9.4820    197.2482    154.7346   9.0750069959e+01   1.0821533607e+01    0.1973286    0.1702697 -12.52 0.0003938138    1.297    0.229
       316  -8.6956    110.3055    155.2910   1.1152432319e+02   2.8463428342e+01    0.1512359    0.1229189 -17.13  0.000213903    1.574    0.365
       317 -10.6713    233.0348    151.5207   8.3344583092e+01   4.5042707827e+00    0.2765643    0.1900209 -42.40  0.000543724    1.293    0.227
       318  -8.7431    192.6934    152.6820   9.1231269900e+01   1.2187189615e+01     0.152015    0.1200131  -5.73  0.000327242    1.632    0.387
       319 -10.7514    145.1731    149.3282   1.0125154633e+02   2.2967864977e+01    0.4829764    0.2845664 -48.38  0.001526796    1.672    0.402
       320 -13.5123    239.3396     82.6531   6.7852025957e+01   1.5829402254e+01     1.388705    0.4979459 -51.12  0.005417194    2.656    0.623
       321 -13.2807    239.1469     68.3678   6.4924866260e+01   1.8186590869e+01      1.17213    0.5723568 -63.19  0.005213985    2.310    0.567
       322 -12.7380    249.4848     79.7015   6.5993741275e+01   1.4273826947e+01     1.165573    0.3081215 -42.28  0.004141441    3.178    0.685
       323 -13.1615    236.5348    123.8229   7.6928045222e+01   9.0776480897e+00     1.694806     1.280582 -35.55  0.009247252    1.302    0.232
       324 -11.0856    243.8109    145.7973   8.0360335169e+01   3.6292489577e+00    0.5308176    0.2524675 -45.38  0.001482935    1.845    0.458
       325 -11.3850    249.6731    139.8926   7.8227255371e+01   3.6752283746e+00      0.55596    0.3438338 -31.03  0.001582551    1.672    0.402
       326 -10.6819    248.7971    133.5152   7.7058475997e+01   4.9956627643e+00    0.3561093    0.2876239 -36.50 0.0009217736    1.158    0.136
       327 -11.7200    244.7675    129.5558   7.6856282409e+01   6.4567339542e+00    0.7390699    0.4913521   5.58  0.003078135    3.265    0.694
       328  -9.2915    202.4918    149.5227   8.8553539110e+01   1.0834942988e+01    0.1492217    0.1403974 -43.08 0.0001030021    1.006    0.006
       329  -9.1350    197.0165    147.9772   8.9303648599e+01   1.2281247315e+01    0.1844256    0.1651248 -45.39 0.0003282748    1.058    0.055
       330 -11.0158    160.1420    145.0245   9.6667045477e+01   2.0775539687e+01    0.4466673    0.2682855 -64.28  0.001338413    2.169    0.539
       331  -9.2638    150.3193    147.2680   9.9524402736e+01   2.2361720121e+01    0.1539479     0.126798   1.11 0.0002213715    1.559    0.359
       332  -9.0149     98.7986    146.5985   1.1281548295e+02   3.2692098391e+01    0.2197726    0.1395628  49.76 0.0009513419    1.685    0.406
       333  -9.7544     37.4649    145.5287   1.2980810123e+02   4.1586455148e+01    0.2527465    0.1366954  26.53  0.001215035    2.189    0.543
       334 -10.2834    234.9822    143.9451   8.1426570698e+01   5.5846025735e+00    0.2261554    0.2017525  43.07 0.0004854909    1.271    0.213
       335  -9.2946    223.5190    144.5176   8.3524389241e+01   7.6515942205e+00    0.1441712    0.1305265 -39.50 0.0002909573    1.034    0.033
       336  -8.7815    120.0000    143.9841   1.0649169444e+02   2.9373349708e+01    0.2669348    0.0876758 -51.09 0.0008068144    2.973    0.664
       337 -10.0470    208.4950    142.9975   8.5950839387e+01   1.0944572325e+01    0.2105255    0.2038867  55.34  0.000387241    1.109    0.099
       338 -10.5616     24.9688    142.9425   1.3286890931e+02   4.3429730462e+01    0.1972347    0.1626088 -68.62 0.0004081587    1.017    0.017
       339 -10.2632     37.4120    140.7872   1.2908120614e+02   4.2757772227e+01    0.1971839      0.10405 -55.81 0.0005269564    1.612    0.379
       340 -10.0460     29.6997    141.1396   1.3129948113e+02   4.3433540678e+01    0.1854858    0.1429391 -64.96 0.0004300829    1.087    0.080
       341  -9.3593     18.9698    140.8482   1.3421973852e+02   4.4452868845e+01    0.1984942    0.1276152 -32.16  0.001069842    1.915    0.478
       342 -10.3401    238.5162    139.4809   7.9907942648e+01   5.7708096523e+00    0.2448444     0.190042 -40.50 2.431964e-05    1.146    0.127
       343 -10.8201    248.9289    122.8847   7.4860043100e+01   6.9034618425e+00    0.3011237    0.2488266 -27.78 0.0007810995    1.327    0.247
       344  -9.3587    131.4429    139.4190   1.0243826047e+02   2.8157048996e+01    0.1547678    0.1524709 -64.87 0.0001211195    1.025    0.024
       345  -9.3608    109.4417    138.7285   1.0815602503e+02   3.2678803032e+01    0.2103012    0.1425602 -41.75 0.0005144889    1.522    0.343
       346  -9.3705    243.6711    138.0502   7.8784586382e+01   5.0903403046e+00    0.1946008    0.1511393 -41.08 0.0003844729    1.130    0.115
       347 -10.2246    167.0034    136.6950   9.3138995317e+01   2.1147399324e+01    0.4058013    0.2594911 -38.48 0.0009605582    1.622    0.384
       348  -8.8736    195.7051    136.6854   8.7022127401e+01   1.4910851018e+01    0.1486995    0.1207446  -5.37 0.0005653006    1.601    0.375
       349  -9.7056    135.1992    136.1344   1.0069642086e+02   2.8146195110e+01    0.2106318    0.1827148 -84.16 0.0003184933    1.268    0.212
       350  -9.4262    218.5726    135.5364   8.2455849540e+01   1.0390526219e+01    0.6791214    0.3154464 -24.68  0.001776888    5.871    0.830
       351 -11.2464    215.6458    133.7134   8.2578072829e+01   1.1343587870e+01    0.6356029     0.369993  18.90   0.00202098    4.565    0.781
       352  -8.6451    198.4634    134.4872   8.5976162791e+01   1.4777131941e+01    0.1507737    0.1417826 -50.86 0.0008093469    1.017    0.017
       353  -9.4595     38.8083    131.4494   1.2712622384e+02   4.4893775728e+01    0.1676034    0.1305875  -4.61 0.0004813709    1.619    0.382
       354 -11.2560    221.1777    125.4198   7.9782074292e+01   1.1834218698e+01     0.381671     0.302007  77.55  0.002008444    1.470    0.320
       355 -10.4567    102.9935    125.4338   1.0685353710e+02   3.7067092890e+01    0.3460273    0.2578728  -6.32  0.001197861    1.884    0.469
       356  -9.0659    145.8157    123.3998   9.4920841264e+01   2.8766964280e+01    0.2188078    0.1499781  35.56 0.0009393611    1.614    0.380
       357 -11.0717      5.4772    121.4318   1.3533391820e+02   5.0031597821e+01    0.3489216    0.1697381 -61.27  0.001255011    1.557    0.358
       358  -9.0604    153.6012    122.4815   9.2809131566e+01   2.7245652746e+01    0.1552383    0.1502758 -42.13 -8.075576e-05    1.059    0.056
       359 -12.1829    247.7184    110.4181   7.2472343933e+01   9.3669744129e+00     1.488862    0.8017775  77.90  0.006018151    3.285    0.696
       360 -10.7457     10.5731    115.6505   1.3296397794e+02   5.1040264850e+01    0.2596258    0.0892362 -62.17  0.001149141    2.147    0.534
       361 -10.3917     17.6569    115.1735   1.3072224683e+02   5.0648269564e+01    0.3155541    0.1626657 -11.75  0.001426617    3.066    0.674
       362 -11.5531     19.9919    111.6948   1.2939794309e+02   5.1275771434e+01     0.506765    0.2766389  77.55  0.002131848    3.343    0.701
       363 -11.5251      4.8301    112.3330   1.3419699933e+02   5.2165963592e+01    0.3847738    0.2012209 -35.42  0.002052259    2.035    0.509
       364 -10.2433      2.1761    108.8249   1.3447553194e+02   5.3116645670e+01    0.2579983    0.1654151 -42.77  0.000987115    1.425    0.298
       365 -11.1256      3.0000    105.0415   1.3362995194e+02   5.3922206276e+01    0.2324779    0.1728129 -75.62  0.001418863    1.262    0.208
       366 -10.5724     90.2484    112.6595   1.0744546927e+02   4.2317639407e+01    0.2696187      0.23447 -28.42 0.0004021073    1.171    0.146
       367 -12.4934    248.2710    103.1595   7.0907032371e+01   1.0541189162e+01    0.8435352    0.5420579 -88.48 0.0008747258    2.103    0.524
       368 -11.8823     12.0215     91.5798   1.2826781048e+02   5.6351085245e+01    0.4269832    0.2123404 -29.91  0.002173933    2.184    0.542
       369 -11.3812     27.5590    106.6605   1.2604064385e+02   5.1813961918e+01    0.5256135    0.2871899 -31.09  0.002075685    2.081    0.520
       370  -9.9785     60.5263    103.9000   1.1461629795e+02   4.8849676422e+01    0.4025703    0.2353068 -62.81  0.001858097    1.854    0.461
       371  -9.7033     89.4471    102.9091   1.0516683196e+02   4.4640586002e+01    0.2078732    0.1937191  19.72 0.0004812475    1.100    0.091
       372  -9.2163     69.0183    100.9567   1.1111466818e+02   4.8328074068e+01    0.1684553     0.152614 -36.68  0.000322473    1.012    0.012
       373  -9.0227     34.3600    101.2736   1.2268911529e+02   5.2418395605e+01    0.1350744   0.08630714 -29.54 0.0004072785    1.655    0.396
       374 -11.1800     24.9135     98.9509   1.2536958750e+02   5.3777631732e+01    0.3958701    0.1874403 -43.42  0.001483523    1.853    0.460
       375 -10.2642    214.4494     97.4863   7.4661837626e+01   1.8522738520e+01    0.2573869    0.2252231 -63.76 0.0006042352    1.027    0.026
       376 -10.0598     44.3751     97.1369   1.1837466665e+02   5.2314853739e+01      0.37535    0.1289187 -52.58  0.001498518    2.407    0.585
       377 -10.0792     87.1525     96.2412   1.0407556269e+02   4.6475589230e+01    0.2851444    0.2489779  17.27  0.001573912    1.182    0.154
       378 -10.0179    148.4266     96.1434   8.7233303811e+01   3.3918911174e+01     0.291889    0.2130047  59.34 0.0006945041    1.409    0.290
       379  -9.5889     68.8624     93.8765   1.0931100348e+02   4.9891140891e+01     0.217762     0.175247 -27.39 0.0007644431    1.209    0.173
       380 -10.6094     39.7979     93.9295   1.1918113146e+02   5.3506723829e+01    0.2889463    0.2018044  -5.16  0.001100949    1.673    0.402
       381 -11.0127     44.1889     91.2486   1.1701165987e+02   5.3619378241e+01    0.3874126    0.2945988 -86.55    0.0013317    1.869    0.465
       382 -11.4360     20.6532     93.9558   1.2578498376e+02   5.5220444874e+01    0.4090549    0.1725061  12.24  0.001822455    3.160    0.684
       383  -9.4680     35.4318     91.6685   1.2016057807e+02   5.4436327857e+01    0.2044717    0.1385809 -17.21 0.0005955701    1.646    0.392
       384 -12.2474      7.0755     96.2684   1.3082457022e+02   5.5635526218e+01    0.6092036    0.3341954  77.58  0.002722367    3.425    0.708
       385  -9.5138     23.9809     88.0274   1.2334395944e+02   5.6242384854e+01    0.2075158    0.1201416 -32.50 0.0006929193    1.685    0.407
       386 -10.9381      6.3043     87.8824   1.2951876632e+02   5.7500501803e+01    0.3290787    0.1058666 -58.27  0.001503733    2.226    0.551
       387 -11.6060     11.1714     85.8702   1.2741053879e+02   5.7632888594e+01    0.3272034    0.1986513  35.83  0.001910731    2.062    0.515
       388 -11.7553     12.4851     82.0236   1.2612603938e+02   5.8359632729e+01    0.3679809    0.2407116 -83.85  0.002050308    2.111    0.526
       389 -10.8365    249.5875    147.7355   7.9835319998e+01   2.2583164122e+00    0.4766561    0.2274821 -35.50  0.001565877    2.010    0.503
       390  -9.9925    229.9054     84.4192   6.9479659378e+01   1.7495879447e+01    0.2714615     0.163106 -57.32 0.0008209221    1.574    0.365
       391 -10.2257      2.6944     83.6477   1.2995822252e+02   5.8600943073e+01    0.4989279    0.1499472 -31.03  0.001782906    4.766    0.790
       392  -9.5563      1.3019     81.2866   1.2998910162e+02   5.9169515856e+01    0.1931526   0.09280427 -58.63 0.0004397343    1.595    0.373
       393 -10.4429     36.9587     80.3811   1.1681842521e+02   5.6667396436e+01    0.4521872     0.220423 -28.00  0.002013067    2.487    0.598
       394 -11.2611     45.0427     79.3272   1.1360202967e+02   5.6015184773e+01    0.4783072    0.2927265  28.83  0.002581298    1.758    0.431
       395 -10.3919     61.4510     79.1202   1.0771230922e+02   5.3986994229e+01    0.2690583    0.1753987  49.32  0.001347939    2.002    0.501
       396  -9.1825     80.4548     76.5437   1.0052763007e+02   5.1572443956e+01    0.1377054    0.1260465  -7.88 8.063971e-05    1.002    0.002
       397 -10.0529      2.0061     69.2231   1.2719072331e+02   6.1596613752e+01    0.2675325    0.1400667 -43.05  0.001588907    1.468    0.319
       398 -10.0842      7.0128     66.6061   1.2465010632e+02   6.1832633192e+01    0.2710516    0.1649698   2.06  0.001251861    1.819    0.450
       399 -11.4391      6.5307     74.7477   1.2671537546e+02   6.0232501676e+01    0.4131989    0.2656906  33.92  0.002572252    1.975    0.494
       400 -10.6514      9.7375     71.3942   1.2474207847e+02   6.0715720031e+01      0.28067    0.2327985  87.76  0.001527694    1.673    0.402
       401 -10.4866    125.1119     74.0125   8.6740070341e+01   4.3293145164e+01    0.2306715    0.1997744  48.24 0.0002851309    1.111    0.100
       402 -10.1000    223.9758     71.9869   6.7599564854e+01   2.0831729378e+01    0.2020622    0.1732838 -73.89 0.0003516334    1.011    0.011
       403 -11.1525     53.3409     71.3641   1.0831112743e+02   5.6576721142e+01    0.2636371    0.2319039  31.83   0.00104187    1.302    0.232
       404 -11.3923    248.5489     93.6688   6.8932580462e+01   1.2127046013e+01     0.618279    0.2417643 -46.79  0.001879242    2.170    0.539
       405 -10.7214    101.8567     68.2223   9.1337237255e+01   4.9155030167e+01     0.240915     0.210908 -14.99 0.0003427583    1.157    0.136
       406 -10.9207     43.4218     64.7042   1.0998001555e+02   5.9034586670e+01    0.3326731    0.2101061 -48.32  0.001662058    1.538    0.350
       407 -10.4339     39.7829     63.6311   1.1104248548e+02   5.9642063204e+01    0.2428398    0.1186254  27.75   0.00076424    2.146    0.534
       408 -12.0559    247.3660     61.7318   6.2655981655e+01   1.7531367559e+01    0.3598179    0.2528304 -53.59  0.002163584    1.216    0.178
       409 -10.6066    225.1858    247.7668   1.0320665234e+02  -1.1025044348e+01    0.2215186    0.1884496  -4.96 0.0004577345    1.095    0.086
       410  -9.9552     11.9343     44.3151   1.1646257786e+02   6.5615548972e+01     1.036327    0.3889393 -17.78  0.003496991    5.920    0.831
       411 -10.3719     19.5265     43.8235   1.1301994857e+02   6.5097355015e+01    0.2959597    0.1797663  -9.53  0.001352042    1.632    0.387
       412 -11.3938     17.6679     38.6259   1.1208736696e+02   6.6109164868e+01    0.5643644    0.2600435 -33.70   0.00236559    1.854    0.461
       413 -10.7148     23.4750     34.8711   1.0821486340e+02   6.6174896042e+01     0.251897    0.1776223  -7.09 0.0008036885    1.213    0.175
       414 -11.3681     30.5905     30.2861   1.0342030603e+02   6.6119603371e+01    0.7703195    0.2902476  20.53  0.003342264    3.427    0.708
       415 -10.8051      8.9250     53.2079   1.2038706830e+02   6.4251788502e+01    0.3076947    0.2044026  -3.79  0.001387062    1.505    0.336
       416 -10.8593      1.4320     61.0683   1.2550958245e+02   6.3222170910e+01    0.2371672    0.1295685 -56.77 0.0006076394    1.539    0.350
       417 -11.6909      6.2489     59.2053   1.2310483869e+02   6.3305203736e+01    0.5522193    0.2510796  23.95  0.002926881    2.470    0.595
       418 -11.4640      4.5143     55.5206   1.2284957938e+02   6.4099008353e+01    0.3702208    0.3229024 -61.15   0.00202618    1.392    0.282
       419 -11.1154     47.6047     58.4259   1.0642184030e+02   5.9665194539e+01    0.3403153    0.1481129 -46.67  0.001587056    2.223    0.550
       420 -11.7424     45.6256     53.8406   1.0567965259e+02   6.0698993475e+01    0.4816103    0.2893836 -19.58  0.002594591    1.765    0.433
       421 -11.8192    245.1195     55.0906   6.1584937610e+01   1.8983397622e+01    0.2880025    0.2048217  67.12   0.00174868    1.476    0.322
       422 -11.7591     78.9794     55.1907   9.4189662802e+01   5.5540898128e+01    0.3401018    0.2202522   5.83   0.00166682    1.996    0.499
       423  -9.9534     64.9570     57.2296   9.9652854055e+01   5.7479640820e+01    0.1671258    0.1014073  34.84 0.0004004411    1.630    0.387
       424  -9.7533     31.2555     57.0103   1.1235786974e+02   6.1735508793e+01    0.2361929    0.1268249 -42.06  0.001280735    1.587    0.370
       425 -10.8344     26.5052     55.7299   1.1387755565e+02   6.2416934388e+01    0.3987814    0.2231109  18.99   0.00136455    1.876    0.467
       426  -9.4529     60.9892     60.0000   1.0198233030e+02   5.7596539873e+01    0.2035165   0.07010517  35.90 0.0007998097    2.924    0.658
       427 -10.3557     51.2034     50.1927   1.0231082936e+02   6.0590176101e+01    0.2233362    0.1497632 -14.95 0.0009138381    1.493    0.330
       428 -10.7084     46.7568     46.9426   1.0289420287e+02   6.1690574832e+01    0.3367939    0.2575086  51.81  0.002025551    1.986    0.497
       429  -8.8383    172.2330     49.9468   7.0109268353e+01   3.6122761356e+01    0.1548723    0.1130794 -42.62  0.000822021    1.443    0.307
       430  -9.4756     42.2813     49.5494   1.0554458688e+02   6.1820474542e+01    0.2098009    0.1236393 -22.50 0.0006776561    1.705    0.414
       431  -9.3328     25.4512     49.4795   1.1235246161e+02   6.3612134953e+01    0.1184399   0.09469407 -21.98 0.0002307067    1.024    0.024
       432 -10.1175     69.2823     48.5818   9.5192567199e+01   5.8182071162e+01    0.1813316      0.10987  26.96 0.0009460378    1.640    0.390
       433  -8.9722    185.4796     43.5330   6.6437272839e+01   3.3879295476e+01    0.1352684    0.1174361  86.16 0.0008093914    1.009    0.009
       434 -10.8674     50.8745     42.6223   9.9775047679e+01   6.1817265612e+01     0.327085    0.1695166  24.86  0.001685747    1.978    0.495
       435 -11.0911     34.0402     35.4750   1.0390739517e+02   6.4979814345e+01    0.2971142    0.1971952  17.62  0.001266983    1.408    0.290
       436 -10.7807     31.0440     41.0435   1.0717363612e+02   6.4453052886e+01    0.3224027    0.2164933 -11.56  0.001160142    1.363    0.266
       437 -10.9142     28.8569     37.5736   1.0686407521e+02   6.5222719637e+01    0.3225224    0.2231736  -5.20  0.001231228    1.293    0.226
       438 -10.8836     61.5037    248.5403   1.3640211119e+02   1.4432091970e+01    0.2381961    0.1994959  71.25 0.0005831258    1.086    0.079
       439  -9.7840      2.6051     34.0895   1.1736447416e+02   6.7956331089e+01    0.2609223    0.1082718 -22.58  0.001203778    2.588    0.614
       440  -9.9262      4.9668     29.4676   1.1470083697e+02   6.8537237673e+01    0.4839361    0.2187714  -8.97  0.002513715    2.718    0.632
       441 -10.4379     49.5272     33.0898   9.6768043976e+01   6.3371438021e+01    0.2453403    0.1971884   5.13  0.001674599    1.026    0.025
       442 -10.3241     17.3493    248.5638   1.4457524703e+02   1.9906863484e+01     0.227487    0.1689259 -56.57 0.0008010472    1.844    0.458
       443 -10.2818      8.9031    248.4120   1.4603206334e+02   2.0848294427e+01    0.1963337     0.132321 -81.99 0.0005399584    1.320    0.242
       444 -11.0803    157.8559    245.4368   1.1627095683e+02  -1.4133531063e-01    0.4405369    0.3122168  11.79   0.00135762    1.752    0.429
       445  -9.0708     87.4639     41.4990   8.6827289464e+01   5.6021162016e+01    0.1322997    0.1114156  18.77 -8.751452e-07    1.073    0.068
       446  -9.6379    233.9837     32.6615   5.8279319312e+01   2.4429486816e+01    0.1747344    0.1333554 -87.00 0.0005630016    1.098    0.089
       447 -10.9242     70.7032     20.2938   8.4316876167e+01   6.1606848748e+01    0.2303604    0.1861958 -12.03  0.001441526    1.259    0.206
       448 -11.8189     65.4733     26.9994   8.8622396148e+01   6.1731864277e+01    0.4929736    0.3205221  21.99  0.002864675    1.445    0.308
       449 -11.9154     57.9476     27.5689   9.1493882754e+01   6.2859461604e+01    0.3605154    0.2785707  39.65 0.0009268224    1.397    0.284
       450 -11.1459    170.0354    240.1120   1.1291093051e+02  -1.2147923864e+00    0.4590725    0.3047574  18.43  0.001678868    1.714    0.417
       451 -10.8181    165.8519    239.8656   1.1374426308e+02  -4.7015478571e-01    0.3655849    0.2678127 -10.00  0.001901184    1.769    0.435
       452  -9.4440    119.4893    248.5005   1.2469418582e+02   5.6400983074e+00    0.1324015    0.1141742  51.42 0.0008105531    1.015    0.015
       453 -10.4788     31.5244    247.0785   1.4193550118e+02   1.8582153714e+01    0.2732017    0.1841992  81.35 0.0006374132    1.207    0.171
       454 -11.3343     77.6329     21.2158   8.2500633269e+01   6.0277135919e+01    0.3987155    0.2761579  46.40  0.001500251    1.342    0.255
       455 -11.3681     88.7801     19.1238   7.8517862402e+01   5.8395397591e+01    0.3542477    0.2368824  83.32  0.001745262    2.864    0.651
       456 -11.7117    210.8651    246.1384   1.0567201048e+02  -8.7056327479e+00    0.2736978    0.2157835   0.59 0.0005255273    1.176    0.149
       457  -9.7309    124.2291    247.0340   1.2351804159e+02   5.1481828077e+00    0.1792278     0.169783  23.24 0.0004207763    1.202    0.168
       458 -10.9380     59.8318     17.1840   8.6733867821e+01   6.3758256675e+01    0.2380299    0.1835289  24.14 0.0008208239    1.069    0.065
       459 -10.5342    112.9664    244.8685   1.2558755021e+02   7.4106070357e+00    0.3606125    0.2737837  -7.72  0.001475036    2.172    0.540
       460 -10.5938    132.8851    245.2956   1.2147299414e+02   4.0509560102e+00    0.2537038    0.2310795  54.02 0.0004448401    1.054    0.051
       461 -11.5117    191.9830    244.1269   1.0906975495e+02  -5.4813635189e+00    0.2864144    0.2321903   6.96 0.0005362394    1.189    0.159
       462  -9.9674     93.5949    244.8124   1.2959734089e+02   1.0495372747e+01    0.2076573    0.1597965  37.86 0.0005556248    1.324    0.245
       463 -10.0694     80.8840    244.5535   1.3216412001e+02   1.2477361775e+01    0.1811441    0.1661102  79.12 0.0005130765    1.177    0.150
       464 -10.7932    115.3155     37.4225   7.7925376949e+01   5.0898759617e+01    0.3762341    0.2383324  58.66  0.001964888    1.516    0.340
       465  -9.5374    179.0966     14.8871   6.0393392788e+01   3.8798257627e+01    0.1882503    0.1447705 -86.10 0.0003699067    1.166    0.143
       466  -9.5568     41.3217    244.7669   1.3994097183e+02   1.7862053951e+01    0.1433039      0.12814 -83.72 0.0005961934    1.329    0.248
       467 -11.0919    177.0178    243.4214   1.1199561149e+02  -2.9518119095e+00    0.2817647    0.2287316  12.14 0.0005336165    1.230    0.187
       468  -9.0030    152.2508    244.3759   1.1728148514e+02   9.8731173831e-01     0.128393    0.1003346  -9.83  0.000695612    1.644    0.392
       469 -10.6163    225.7655    240.2743   1.0182298512e+02  -9.9814997268e+00    0.2393215    0.1866523   6.50 0.0003961842    1.128    0.114
       470 -11.8517    210.7764    237.8495   1.0428700644e+02  -7.3802241666e+00    0.4424053    0.3622622  11.83  0.001543688    1.077    0.072
       471 -11.1221    217.8445    240.8820   1.0343631129e+02  -8.9224754184e+00    0.3932106     0.319484 -70.60   0.00206868    2.117    0.528
       472 -11.1712    221.6304    236.6477   1.0198122314e+02  -8.8178668153e+00    0.4180611    0.2866096  -6.94  0.001816618    1.540    0.351
       473 -10.0558     98.4146    241.5738   1.2821897184e+02   1.0404377389e+01    0.2267543    0.2156276  57.78 0.0006515909    1.188    0.158
       474 -10.4047    154.8295    241.1419   1.1625404751e+02   1.1510645945e+00    0.1951814    0.1721803  53.55 0.0003976059    1.152    0.132
       475 -10.6133    125.4238    240.0961   1.2233069613e+02   6.3071996853e+00    0.2492089     0.200138  40.80 0.0004307207    1.137    0.121
       476 -10.3520    103.2479    240.1883   1.2703706211e+02   9.9212024408e+00    0.2090493    0.1891215  57.54 0.0004440952    1.090    0.083
