#   1 NUMBER                 Running object number                                     
#   2 MAG_AUTO               Kron-like elliptical aperture magnitude                    [mag]
#   3 X_IMAGE                Object position along x                                    [pixel]
#   4 Y_IMAGE                Object position along y                                    [pixel]
#   5 X_WORLD                Barycenter position along world x axis                     [deg]
#   6 Y_WORLD                Barycenter position along world y axis                     [deg]
#   7 A_WORLD                Profile RMS along major axis (world units)                 [deg]
#   8 B_WORLD                Profile RMS along minor axis (world units)                 [deg]
#   9 THETA_WORLD            Position angle (CCW/world-x)                               [deg]
#  10 FWHM_WORLD             FWHM assuming a gaussian core                              [deg]
#  11 ELONGATION             A_IMAGE/B_IMAGE                                           
#  12 ELLIPTICITY            1 - B_IMAGE/A_IMAGE                                       
         1 -12.5016    211.6654     22.8986   4.3608060297e+01   2.9702494387e+01      1.04293    0.7895546  25.39  0.005573785    1.809    0.447
         2 -12.7663    199.7979     35.6347   4.8478903328e+01   3.1031439141e+01     1.732997     1.154812  27.64   0.00797845    2.142    0.533
         3  -9.2091     32.6202     11.2009   8.3751127038e+01   6.9887547602e+01    0.1742326   0.08920287 -28.03 0.0009518286    1.710    0.415
         4  -9.1684     32.3721      2.1368   7.9164090208e+01   7.1153831736e+01    0.1943047     0.118785 -13.36  0.001189692    1.455    0.313
         5  -9.2844    236.3457      1.4377   3.6137971853e+01   2.6302446479e+01     0.459262     0.107689  73.46  0.001629465    3.962    0.748
         6 -11.2311    162.6736    226.9382   1.0009287857e+02   4.5417496700e+00    0.6251405    0.3300524  19.89  0.002584056    3.201    0.688
         7 -12.8039     87.2003    228.1363   1.1492116680e+02   1.6188945108e+01     1.950789    0.8337583  52.25 0.0005841248    2.046    0.511
         8 -14.0587     68.4338    248.0954   1.2005559343e+02   1.5164327039e+01        5.873     1.669089  33.58   0.02133898    5.124    0.805
         9 -13.4961     44.5053    205.5876   1.2115502718e+02   2.6213870631e+01     2.110208     1.189195  58.63  0.007249427    1.520    0.342
        10 -12.8050     53.0833    195.3955   1.1853967924e+02   2.7329583674e+01      1.63108    0.8463839  51.71  0.008861477    1.720    0.418
        11 -15.3315      6.6048    204.4086   1.2821490856e+02   3.0373018611e+01     15.18286     1.305586 -77.33   0.02014829    9.454    0.894
        12 -10.4469    100.5083    170.5731   1.0483990249e+02   2.6095887892e+01    0.8620018    0.2935958  50.39  0.002914301    3.369    0.703
        13  -8.1218     36.8270    167.6315   1.1935663638e+02   3.5357172256e+01    0.2265593   0.08717813  45.54 0.0007300451    2.461    0.594
        14  -9.4344     33.1511    165.6143   1.1999012037e+02   3.6200287704e+01    0.2597404    0.1713143  61.78  0.000935715    1.423    0.297
        15 -10.8957     82.1046    163.4787   1.0815276021e+02   3.0597750840e+01    0.6398686    0.4222848  77.90  0.000680362    1.726    0.421
        16 -11.8374     69.6376    159.1267   1.1055721439e+02   3.3392370971e+01    0.6591772    0.4444897 -41.99  0.001306636    1.858    0.462
        17 -11.6016     68.6865    144.3113   1.0855313829e+02   3.7065155432e+01    0.8173365    0.5349743  83.25  0.002815687    1.763    0.433
        18 -10.5083     88.2803    156.6604   1.0555929121e+02   3.1263664149e+01    0.5306199     0.371558 -35.02   0.00178462    1.905    0.475
        19  -9.5375     32.4132    156.5850   1.1924392012e+02   3.8362371100e+01    0.2538065    0.1263533 -70.57  0.001310788    1.667    0.400
        20 -10.1382     27.4224    149.7560   1.1971769912e+02   4.0438128302e+01    0.2436299    0.1604529  71.71   0.00143187    1.454    0.312
        21  -8.6901     38.3716    146.0529   1.1659467793e+02   4.0244406613e+01    0.2539541    0.1368248  53.06 0.0007430765    1.952    0.488
        22  -8.7992     84.5574    144.1530   1.0437106795e+02   3.4818707790e+01    0.2788573    0.2018251  68.95  0.001060187    1.523    0.344
        23  -8.7869    133.7486    142.4037   9.1402799277e+01   2.6510035869e+01    0.4830227    0.1302672 -55.11  0.001172837    5.324    0.812
        24  -9.3154     59.0106    229.3080   1.2029744260e+02   1.9761668374e+01    0.1666947    0.1227251  57.59  0.001151752    1.118    0.106
        25  -9.1746    102.3607    141.1147   9.9133856970e+01   3.2654144291e+01      0.53715    0.2962901 -31.43  0.001945515    3.085    0.676
        26 -10.6027     89.7365    141.2375   1.0247707920e+02   3.4713821766e+01    0.2808803    0.2508906 -51.45 0.0003957843    1.161    0.139
        27 -10.4221     58.1616    130.4611   1.0911275994e+02   4.1789164116e+01    0.5350575    0.2621487 -69.96  0.002360184    1.951    0.488
        28  -8.2211    105.9332    130.6950   9.6017280529e+01   3.4506388613e+01    0.2805462    0.1957428 -71.38  0.001286343    1.605    0.377
        29  -9.4245     32.6919    128.3908   1.1579992420e+02   4.5033703582e+01    0.4923853     0.116407 -72.67  0.001463668    4.715    0.788
        30  -9.3510     98.7356    127.5017   9.7278664329e+01   3.6529852913e+01    0.2936272    0.2525057 -14.11  0.001088555    1.432    0.301
        31  -8.7649    111.3932    131.1240   9.4651738877e+01   3.3413844274e+01    0.2772325    0.2078171   3.88  0.001244312    1.967    0.491
        32  -9.4053     94.7217    221.2819   1.1275796100e+02   1.6385110396e+01    0.2091314     0.184652  61.44 0.0003269733    1.118    0.105
        33  -7.9016    107.9439    119.7741   9.2987660125e+01   3.6727547110e+01    0.1976599    0.1879342  55.82 0.0003343869    1.094    0.086
        34 -10.1330    165.0340    219.0189   9.8455610853e+01   5.4316731110e+00    0.3981628    0.2630558  72.68  0.001898943    2.629    0.620
        35  -7.7887    205.6691    110.2780   6.7618037549e+01   1.7429934666e+01    0.1496563    0.1189672 -74.98 0.0004405495    1.601    0.375
        36  -9.6699     32.4549    106.9104   1.1262245106e+02   5.0223611061e+01     0.257535     0.170858 -62.60  0.001466037    1.223    0.182
        37  -8.6567    134.5299    106.5081   8.2442184498e+01   3.4419980977e+01    0.1563846    0.1516504 -53.33 0.0001401554    1.020    0.019
        38 -15.2291      8.6717    242.3425   1.2964150202e+02   2.3004187950e+01     9.552092      1.96165 -78.33  0.002818065    4.297    0.767
        39  -9.6079     73.7709    188.5070   1.1340965257e+02   2.6121209291e+01    0.3848668    0.2152262  71.18  0.001547369    2.037    0.509
        40  -8.1769     74.9349     84.9616   9.4010763653e+01   5.0387159302e+01    0.2169136    0.1720054 -89.42 0.0006129697    1.681    0.405
        41  -8.1586     41.1872     92.1101   1.0704325503e+02   5.2926978133e+01    0.2064033    0.1520967 -43.96 0.0006527751    1.259    0.206
        42 -10.3062    121.6839    223.2949   1.0766064488e+02   1.1862696727e+01    0.4087012    0.3861177  13.34  0.002072441    1.305    0.234
        43  -9.7536    146.7040     50.9447   6.2451526593e+01   4.2244946549e+01    0.5693406    0.3570871 -82.47  0.001649969    2.897    0.655
        44 -11.0342    149.8314    229.6094   1.0295978293e+02   6.2207298674e+00    0.3773717    0.3479543 -39.68  0.002604104    1.296    0.228
        45 -11.5271    190.8196     42.2729   5.1631006689e+01   3.2386589358e+01    0.5170053    0.4947693 -13.88  0.001618631    1.152    0.132
        46 -10.9342    140.0068    233.4453   1.0536297849e+02   7.1801130345e+00    0.4692279    0.2250902  32.62  0.002240389    2.144    0.533
        47 -10.2838     68.2436    178.4600   1.1343711439e+02   2.9110046713e+01     0.403692    0.2760458 -36.92  0.002076515    2.192    0.544
        48  -9.0412    148.0257     44.3017   5.9954924743e+01   4.2924476743e+01    0.2679305    0.2356666 -80.20 0.0004304095    1.272    0.214
        49  -9.2759     32.7487     35.3369   9.4188578775e+01   6.5879581874e+01    0.3853117    0.1063329 -54.81  0.001213471    5.126    0.805
        50 -10.1778     72.9191    173.2791   1.1171161415e+02   2.9648189541e+01    0.3158784    0.2343567 -48.14 0.0008791882    1.588    0.370
        51 -11.3030     14.8928    190.4360   1.2583969778e+02   3.2495656288e+01    0.3945294    0.2668941  88.57 0.0003390252    1.146    0.127
        52  -8.9138     74.1001    231.0906   1.1766221251e+02   1.7456777673e+01    0.3769813   0.09219149  49.03  0.001490709    3.335    0.700
