#   1 NUMBER                 Running object number                                     
#   2 MAG_AUTO               Kron-like elliptical aperture magnitude                    [mag]
#   3 X_IMAGE                Object position along x                                    [pixel]
#   4 Y_IMAGE                Object position along y                                    [pixel]
#   5 X_WORLD                Barycenter position along world x axis                     [deg]
#   6 Y_WORLD                Barycenter position along world y axis                     [deg]
#   7 A_WORLD                Profile RMS along major axis (world units)                 [deg]
#   8 B_WORLD                Profile RMS along minor axis (world units)                 [deg]
#   9 THETA_WORLD            Position angle (CCW/world-x)                               [deg]
#  10 FWHM_WORLD             FWHM assuming a gaussian core                              [deg]
#  11 ELONGATION             A_IMAGE/B_IMAGE                                           
#  12 ELLIPTICITY            1 - B_IMAGE/A_IMAGE                                       
         1 -19.1448    228.6638    156.8820   2.2257036583e+01   9.3441814852e+00      4.74542     4.052967 -35.85   0.02023617    1.256    0.204
         2 -13.1732     77.7574     89.9166   4.0900386887e+01   4.9373898471e+01     1.632317     1.337592  85.57  0.007794043    1.454    0.312
         3 -13.9995    238.1959      6.2673   3.5233065430e+02   2.7576688179e+01     3.996232     1.426201  75.58   0.02263459    3.001    0.667
         4  -8.4775    116.3455     12.3169   2.8982624833e+00   5.3287638080e+01    0.2585174    0.1307225  56.75  0.001200871    1.893    0.472
         5  -9.9752    120.2091      9.0502   1.2091942211e+00   5.2623062284e+01    0.4134105     0.338156  58.45  0.002397128    1.294    0.227
         6  -7.8660    100.6962      9.3351   4.1987496362e+00   5.7586317454e+01    0.1430705   0.09088176 -66.42 0.0007038067    1.664    0.399
         7 -11.9704    214.8958      8.4644   3.5373375442e+02   3.1502261576e+01     1.891251    0.2079047 -50.66  0.006910015    4.409    0.773
         8 -10.2130    123.9985    205.9900   5.0742085155e+01   1.4721755459e+01    0.1923949    0.1653304  10.03            0    1.004    0.004
         9  -8.8188     97.8378    249.7266   6.2174290437e+01   9.7893926573e+00    0.2096246    0.1404202  57.71  0.001129108    2.022    0.505
        10 -10.3734    147.6469    204.7669   4.5141379670e+01   1.1879400103e+01    0.3215163    0.1805936  31.04  0.001667277    1.656    0.396
        11 -11.3337    159.0280    225.5052   4.5793543037e+01   6.9986642845e+00    0.4044276    0.2129185  21.41 0.0008352355    1.679    0.404
        12  -8.9091     16.0817    199.7274   7.9272233031e+01   2.8608769974e+01    0.2062381    0.1513443  44.60 0.0005184935    1.157    0.136
        13  -9.9467    215.9581    234.1324   3.6602911868e+01  -9.9783431455e-03    0.1659956    0.1231443  -9.88 0.0003105556    1.101    0.092
        14 -16.1052    207.6913    173.0272   2.8272529787e+01   9.5087252943e+00     1.135603    0.7755385  48.62  0.006873967    2.156    0.536
        15  -8.0875    250.6184    237.4885   3.1830125221e+01  -3.2614321710e+00    0.0992369   0.06382361 -14.62 0.0002147524    1.033    0.032
        16  -8.9648     92.2263    183.6540   5.5681036344e+01   2.3788489240e+01    0.3178865    0.1843797 -26.06 0.0009088092    2.407    0.585
        17  -8.5482     30.5265    178.0511   7.3552100490e+01   3.2691687822e+01    0.1995495    0.1391444 -79.83 0.0004439924    1.498    0.333
        18  -8.5670    101.0974    176.0746   5.2051049184e+01   2.4247794470e+01     0.202484    0.1790481  -3.67            0    1.141    0.124
        19 -11.0236    113.2982    171.5822   4.7993272198e+01   2.3416090885e+01    0.5457216    0.3082673 -58.53   0.00206916    2.010    0.502
        20  -8.5894     72.4318    163.2159   5.8492384123e+01   3.1535395396e+01    0.2076128    0.1487603 -84.11 0.0006929906    1.669    0.401
        21 -10.4546    170.3182    235.6300   4.4953912607e+01   4.2192701264e+00    0.3411245    0.1956498  31.88  0.001113267    1.754    0.430
        22  -8.7024     16.3389    152.1609   7.6173644152e+01   4.0844052480e+01    0.2711644    0.1068161  14.08 0.0009749036    2.705    0.630
        23  -9.5294     91.1744    145.4867   4.9550883766e+01   3.3132671730e+01      0.43215     0.190611 -52.33   0.00159116    2.277    0.561
        24 -11.4550     68.4466    143.4906   5.6586954516e+01   3.7230316353e+01    0.8093332     0.627277  61.37  0.003010791    1.400    0.286
        25 -10.4934      5.3083    137.2011   7.9097260031e+01   4.5759501730e+01    0.2641323    0.2369995   0.97 0.0005142776    1.210    0.174
        26  -9.4932     58.9771    100.7378   5.1270497901e+01   5.0063111357e+01     0.255767    0.2267155 -64.50 0.0004993766    1.157    0.136
        27  -9.6699    102.1995    100.1659   3.5564870597e+01   4.1989429172e+01     0.244286    0.2301178  74.28  0.000531199    1.071    0.067
        28  -9.8011     98.4484     98.7363   3.6331608313e+01   4.3097530421e+01    0.2977881    0.2392322 -43.74 0.0008547334    1.284    0.221
        29 -10.8013     66.5266     75.9221   4.1006787313e+01   5.4855208908e+01    0.4968386    0.2891804 -45.40  0.001320099    1.800    0.444
        30 -16.5508    181.9986    175.3878   3.3181008254e+01   1.2473130225e+01     2.952553     1.339208  35.94   0.01419771    2.327    0.570
        31 -12.2928     66.5015     83.7151   4.3466687161e+01   5.3026152704e+01    0.8658674    0.5907703  43.32 0.0008105122    1.424    0.298
        32 -10.6564    243.1174    226.8745   3.1398992298e+01  -1.4448151207e+00    0.2497617    0.1633991 -27.14 0.0007711888    1.284    0.221
        33  -9.7130     96.8282     88.6352   3.3954016538e+01   4.5706851674e+01     0.289478    0.2122471 -22.06  0.001266208    1.821    0.451
        34  -9.5743    237.8251    227.0839   3.2201033407e+01  -1.0310403265e+00    0.2112477    0.1324636  20.50 0.0004997809    1.632    0.387
        35 -11.3187    163.7074    230.3258   4.5523589570e+01   5.7238609993e+00    0.4698938     0.322194  53.37  0.002222412    2.791    0.642
        36 -10.3605    182.9548     84.0754   1.3920607824e+01   2.7980062957e+01    0.3322119    0.2498951  43.51 0.0009670742    1.619    0.382
        37 -10.5463    141.9893     82.5005   2.0565479767e+01   3.6858006551e+01     0.401949    0.3046697 -13.74  0.001121804    1.819    0.450
        38 -12.8890     48.9520     76.1637   4.8992700588e+01   5.7942969479e+01     1.236737    0.9695376  30.90  0.004078848    1.242    0.195
        39 -10.2817    168.6211     79.7329   1.5031231327e+01   3.1578511316e+01    0.2510981    0.2142185  -3.67 0.0008313934    1.534    0.348
        40 -11.5957    175.1048     76.2666   1.3181885043e+01   3.0793630518e+01    0.6012111    0.4971053 -28.90  0.002934348    1.313    0.238
        41 -10.0353    184.5562     77.9207   1.2243220404e+01   2.8630952068e+01    0.4162077    0.2626416  40.09  0.001941484    2.168    0.539
        42  -8.9301    108.9964     79.0324   2.7436076244e+01   4.5015427685e+01    0.2348168    0.1906677   7.03 0.0005033007    1.687    0.407
        43  -8.4007    250.6097     78.4342   5.3255683929e+00   1.7307745085e+01    0.1097301   0.07834953 -43.89 0.0001353917    1.019    0.019
        44  -9.5096    199.3970     77.9833   1.0350564376e+01   2.5781764392e+01     0.198163    0.1765079  84.31 0.0002694562    1.243    0.196
        45 -10.1582     87.2812    223.7366   6.2039704784e+01   1.5795959368e+01    0.5212871    0.2902711  87.44    0.0021698    3.557    0.719
        46  -8.6612    125.9864     70.9839   2.0707933263e+01   4.2596867183e+01    0.2244016    0.1842352  14.24   0.00066495    1.669    0.401
        47  -8.8204    250.3636     69.0110   3.5849284891e+00   1.8535002164e+01    0.1443162   0.09634802 -43.40 0.0002031148    1.086    0.080
        48 -10.0695    157.3076     68.6180   1.3978103908e+01   3.5817542038e+01    0.2431963     0.193579 -70.76 0.0007874449    1.236    0.191
        49  -9.6739    236.9211     67.7094   4.4093193666e+00   2.0753928262e+01     0.188563     0.149767  87.66   0.00064942    1.473    0.321
        50 -10.6363    148.9741     65.6102   1.4564242099e+01   3.8176707320e+01    0.3856422    0.2270995 -44.14  0.001834942    1.593    0.372
        51  -9.1705    211.1925     66.1204   6.4357662603e+00   2.5314813690e+01    0.2930658    0.1554687  57.93   0.00162388    2.226    0.551
        52  -8.9041    189.3443     78.0121   1.1623360172e+01   2.7681205691e+01    0.2506446    0.2169012  69.09 0.0008339806    1.292    0.226
        53 -11.1946    160.5306     62.5178   1.1834859339e+01   3.6059055877e+01    0.5470809    0.2805674 -54.53  0.002439878    2.000    0.500
        54 -13.3460     12.2007     57.7580   6.4625910212e+01   6.7094126505e+01      1.02414    0.3901871  37.15  0.002913071    2.718    0.632
        55 -10.6583    174.0898     55.4462   8.1042085228e+00   3.4139127063e+01    0.4246826    0.2459905  44.49  0.002051016    2.356    0.576
        56 -10.3969    184.9417    235.3981   4.2155489544e+01   2.7580907253e+00    0.3869108     0.238008  40.03  0.002001103    2.308    0.567
        57  -8.4865     77.6705    224.2782   6.4522007369e+01   1.6801689727e+01    0.1371619   0.08481815  46.30 0.0001686733    1.598    0.374
        58 -10.9166    154.8486    222.0656   4.6168106713e+01   8.0333203431e+00    0.3211342    0.2807646  59.81  0.001280983    1.815    0.449
        59  -9.9224    139.5232    217.6874   4.8843126828e+01   1.0600703745e+01    0.2974639    0.2248644  78.31  0.001241848    2.630    0.620
        60 -10.0742    139.4833     43.5605   9.7213083809e+00   4.3744697132e+01    0.5409969    0.2699876  38.99  0.002021758    3.396    0.706
        61  -9.8804    163.6906    216.4448   4.3527542330e+01   7.9210512349e+00    0.2175909     0.202416   2.07 0.0008966174    1.322    0.244
        62  -8.4788    157.7815    247.7362   4.9023690891e+01   3.7377178423e+00    0.1446425    0.1150232  22.28 0.0004084262    1.317    0.241
        63  -7.9888    101.9809     25.9796   1.0587078247e+01   5.5447253810e+01    0.1647344    0.1473931  82.22            0    1.018    0.018
        64  -8.1949     85.9685     25.0087   1.4006695183e+01   5.9632125856e+01     0.165157    0.1470707  70.18 0.0009456465    1.005    0.005
        65  -9.1240    196.4525     28.0764   3.5919328033e+02   3.2979704236e+01    0.1823748    0.1401494 -83.04 0.0007235964    1.217    0.178
        66 -10.4296    160.0215    214.8092   4.4034421895e+01   8.6212743924e+00    0.2811448    0.2315724  51.51  0.001763117    1.819    0.450
        67  -9.5863     71.1674    225.3400   6.6279828806e+01   1.7322221088e+01    0.2135579    0.1997019   3.86 0.0004376111    1.155    0.134
        68  -8.7717    127.1818    213.4079   5.1046367968e+01   1.2905071940e+01    0.1998818    0.1600032 -24.15 0.0005468682    1.254    0.203
