#   1 NUMBER                 Running object number                                     
#   2 MAG_AUTO               Kron-like elliptical aperture magnitude                    [mag]
#   3 X_IMAGE                Object position along x                                    [pixel]
#   4 Y_IMAGE                Object position along y                                    [pixel]
#   5 X_WORLD                Barycenter position along world x axis                     [deg]
#   6 Y_WORLD                Barycenter position along world y axis                     [deg]
#   7 A_WORLD                Profile RMS along major axis (world units)                 [deg]
#   8 B_WORLD                Profile RMS along minor axis (world units)                 [deg]
#   9 THETA_WORLD            Position angle (CCW/world-x)                               [deg]
#  10 FWHM_WORLD             FWHM assuming a gaussian core                              [deg]
#  11 ELONGATION             A_IMAGE/B_IMAGE                                           
#  12 ELLIPTICITY            1 - B_IMAGE/A_IMAGE                                       
         1 -14.7747    154.2483     50.6534   8.4360726281e+01   4.0552038267e+01      1.22682     1.175666 -39.28  0.003493064    1.071    0.067
         2 -14.9686    164.4638     21.2105   7.2747086778e+01   4.1803734742e+01     1.098128    0.9998363  77.35  0.003480356    1.045    0.043
         3 -13.7236    190.2594     13.7912   6.6840641788e+01   3.5809511736e+01    0.6167707    0.4470315 -49.06   0.00201159    1.388    0.279
         4 -13.3544    183.6696      8.2940   6.6019366739e+01   3.8100791432e+01    0.4735138    0.2914463 -63.12     0.002244    1.785    0.440
         5 -12.6384      5.1198     25.7013   1.2697262628e+02   7.0086737087e+01    0.3038756    0.1870481  -9.84  0.001103452    1.784    0.439
         6 -11.1188    189.2703    249.9456   1.2132224005e+02  -1.4154381716e+00    0.1540574    0.1250429  29.13 0.0003695397    1.103    0.093
         7 -20.5890     88.4581    182.6063   1.3192810017e+02   2.6627172844e+01     14.15855     6.535562 -65.23   0.06614961    2.220    0.549
         8 -12.0922    207.7087    171.6380   1.0493089183e+02   6.4542574434e+00    0.3741455    0.2330526 -49.38 0.0008504983    1.981    0.495
         9 -12.9144    192.5382    164.5044   1.0642747281e+02   1.0689427561e+01     0.331502    0.2905771   8.89 0.0006662796    1.172    0.147
        10 -14.1486    189.8595    161.0926   1.0625751368e+02   1.1839000039e+01     1.131144    0.5241644 -39.18  0.002827882    2.293    0.564
        11 -13.0095    195.5547    173.0684   1.0755958432e+02   8.6201041279e+00    0.7831883    0.4366384 -52.90  0.002986205    2.403    0.584
        12 -13.0684    230.5715    167.6640   9.9932998437e+01   2.6698632265e+00    0.4692314     0.268928 -47.67  0.002191018    2.234    0.552
        13 -10.3292    186.5527    236.4730   1.1995350124e+02   7.2575969562e-01     0.121296    0.0953728  35.63 2.316116e-05    1.005    0.005
        14 -13.9214    160.2566    152.8942   1.1077835563e+02   1.9586217960e+01    0.8126255    0.4964215  48.52  0.003000406    1.562    0.360
        15 -10.6653    176.8912    154.9403   1.0763041137e+02   1.5678362733e+01    0.2181093    0.2059873  70.06 0.0006204165    1.128    0.113
        16 -12.6848    174.1395    148.5077   1.0682800177e+02   1.7485768125e+01    0.4461635    0.3299412 -53.62  0.001089616    1.500    0.333
        17 -10.8312     13.9482    142.1607   1.4433895415e+02   4.4403469660e+01    0.1888716    0.1295871 -81.43  0.001249983    1.139    0.122
        18 -12.1495    172.5523    138.6717   1.0496731316e+02   1.9735281983e+01     0.273796    0.2399351  36.23 0.0006558635    1.131    0.115
        19 -12.4651    186.8959    242.3316   1.2070828158e+02  -8.8570338186e-02    0.4298677    0.1676301  43.83  0.002104407    2.033    0.508
        20 -12.7853    147.9830    133.6960   1.0936064235e+02   2.6128314692e+01    0.3801681    0.2737379 -82.36   0.00114942    1.932    0.482
        21 -10.7536     27.7444    228.5601   1.4766053231e+02   2.5512120173e+01    0.1299111   0.08733834  66.18 0.0002942534    1.060    0.056
        22 -11.1661    196.5058    227.5285   1.1686125231e+02   2.4988827043e-01     0.219264     0.121404 -36.45  0.001209948    2.183    0.542
        23 -11.5519    207.4828    221.1780   1.1390285039e+02  -7.5790922235e-01    0.2344854    0.1690274 -39.75 0.0009641045    1.701    0.412
        24 -10.6763    207.7753    226.2346   1.1465117948e+02  -1.4606230255e+00    0.1651857     0.121878  14.84 0.0004841456    1.332    0.249
        25 -13.4400    160.5527    128.2776   1.0518817267e+02   2.4482904794e+01    0.5184218    0.4632428 -62.14  0.001670558    1.176    0.150
        26 -12.2588    151.6913    239.6166   1.2663768595e+02   6.0476608083e+00    0.3812688    0.2898066 -20.29  0.002257295    1.993    0.498
        27 -11.0097    217.7188    217.5454   1.1149206175e+02  -2.0016085745e+00    0.3188847    0.1588088 -43.71  0.001606243    2.617    0.618
        28 -13.0909     40.0859    123.2453   1.3549269447e+02   4.6318656745e+01    0.4205746    0.2955863  28.04  0.002504715    1.746    0.427
        29 -11.0652     14.9920    218.5523   1.4928000327e+02   2.8663185866e+01    0.1771323   0.09811439 -78.75  0.000982683    1.619    0.382
        30 -11.1546    211.5086    238.0429   1.1580078275e+02  -3.5178256353e+00    0.1483498    0.1143983 -29.31 0.0007849092    1.562    0.360
        31 -12.1831    141.2086    120.8671   1.0794236083e+02   3.0312664610e+01    0.5545662    0.2744779  63.52  0.001769682    3.355    0.702
        32 -10.6370     17.9059    213.6762   1.4852914769e+02   2.9274587703e+01    0.1654213   0.09818053  76.69    0.0005787    1.268    0.211
        33 -12.2239     40.4114    114.8878   1.3413074738e+02   4.8223985976e+01    0.2773885    0.1926576 -31.63  0.001022639    1.909    0.476
        34 -11.2195    167.6461    112.7058   9.9711046154e+01   2.5979811904e+01    0.3656213    0.2722216  82.72  0.001300214    1.791    0.442
        35 -11.2646      9.7035    212.0513   1.4985795371e+02   3.0386803004e+01    0.1419805   0.09261968  87.49 0.0003275707    1.207    0.171
        36 -10.9902    205.4584    110.1762   9.1368685962e+01   1.7500608152e+01    0.3219654    0.2141659  43.38 0.0009862202    1.548    0.354
        37 -10.7606     17.0437    209.2284   1.4843846389e+02   3.0200239562e+01    0.1399492   0.09575471  44.79 0.0007322191    1.518    0.341
        38 -11.5375     41.2074    101.4045   1.3159601693e+02   5.1264833948e+01    0.2533675     0.208848  -8.77  0.001066801    1.580    0.367
        39 -13.1312     11.4518    206.1325   1.4925636011e+02   3.1337101551e+01    0.4475482    0.2802657  35.85  0.002880979    1.879    0.468
        40 -10.5191     32.3693    204.9290   1.4541215370e+02   2.9419919633e+01    0.1553353    0.1084929  87.40  0.000505869    1.171    0.146
        41 -11.7090     16.2548    193.5463   1.4767568823e+02   3.3328319692e+01    0.1775026    0.1304058 -79.31 0.0005084079    1.317    0.241
        42 -10.3179     24.0952    190.1055   1.4596238328e+02   3.3242467814e+01    0.1513924    0.1188514 -83.67 0.0003393398    1.242    0.195
        43 -12.0758    140.8654     83.2404   9.7782642978e+01   3.8150068440e+01    0.4538753    0.2588338 -26.03  0.001390032    2.250    0.556
        44 -11.3815    108.6609     82.9997   1.0635014822e+02   4.5251313972e+01    0.2387313    0.2110799  43.89   0.00127509    1.170    0.145
        45 -11.9892     59.5602     83.0101   1.2172724379e+02   5.3352296522e+01    0.2510832    0.1968467  31.60 0.0005134051    1.449    0.310
        46 -14.8103    145.1283     65.4064   9.1200953850e+01   4.0422825602e+01     1.296129     1.217761  77.63     0.001699    1.109    0.098
        47 -12.0040     17.7926    184.1171   1.4678021180e+02   3.5083755787e+01    0.3728981    0.1777344 -59.10  0.001209903    2.345    0.574
        48 -13.6378    158.1552     41.5882   8.0582129428e+01   4.0876853778e+01    0.5516775    0.5236657 -31.18 0.0008059675    1.096    0.088
        49 -13.9412    237.8708    174.9152   1.0012842770e+02   2.7315505225e-01    0.5713501    0.4674486  80.46  0.003190083    2.061    0.515
        50 -11.5026     13.4445     59.8508   1.3267323340e+02   6.2775997740e+01    0.1979325    0.1761017 -56.63 0.0004200163    1.138    0.121
        51 -10.7419    157.9259    243.7913   1.2603391389e+02   4.4340692516e+00    0.2780578     0.159069 -35.01 0.0009449284    2.609    0.617
        52 -13.0218    203.9862    174.8015   1.0627106782e+02   6.6733253057e+00    0.5788798    0.3668147 -60.43  0.002582577    2.576    0.612
        53 -10.7054      3.1355    246.2062   1.5232712157e+02   2.5002995324e+01    0.1456518   0.09386949  32.42 0.0008838879    2.203    0.546
