#   1 NUMBER                 Running object number                                     
#   2 MAG_AUTO               Kron-like elliptical aperture magnitude                    [mag]
#   3 X_IMAGE                Object position along x                                    [pixel]
#   4 Y_IMAGE                Object position along y                                    [pixel]
#   5 X_WORLD                Barycenter position along world x axis                     [deg]
#   6 Y_WORLD                Barycenter position along world y axis                     [deg]
#   7 A_WORLD                Profile RMS along major axis (world units)                 [deg]
#   8 B_WORLD                Profile RMS along minor axis (world units)                 [deg]
#   9 THETA_WORLD            Position angle (CCW/world-x)                               [deg]
#  10 FWHM_WORLD             FWHM assuming a gaussian core                              [deg]
#  11 ELONGATION             A_IMAGE/B_IMAGE                                           
#  12 ELLIPTICITY            1 - B_IMAGE/A_IMAGE                                       
         1 -13.1494     38.0517     49.5102   7.5504131352e+01   6.1633831311e+01    0.8018606    0.5951232 -38.26  0.003555221    1.122    0.109
         2 -11.0478    111.9111     26.3186   4.2035818906e+01   5.3829279647e+01    0.4310612    0.1958847 -27.61  0.001793022    2.234    0.552
         3 -10.0396     30.8826     12.6416   6.5142005571e+01   6.8869004348e+01    0.2923571    0.1515589 -29.35  0.001683876    1.665    0.399
         4 -10.3249     50.9882     17.9371   5.8866146977e+01   6.5736930191e+01    0.4165117    0.2107463 -38.28  0.001210782    1.765    0.433
         5 -10.0349     50.6771     10.4792   5.5629425582e+01   6.6855440604e+01    0.8561758     0.340538 -18.78  0.002774387    5.426    0.816
         6  99.0000     38.3961      6.0747   5.8761794043e+01   6.9019603841e+01    0.4215784    0.2046108  33.96  0.002009826    2.228    0.551
         7 -11.0484     29.8208     19.3460   6.8428669954e+01   6.7895291130e+01    0.3729696    0.1558836 -37.55 0.0009828625    1.955    0.488
         8 -10.5533     33.8307     16.0101   6.5279788851e+01   6.8040110708e+01    0.3894352    0.1937885 -32.20  0.002179008    1.709    0.415
         9 -11.4209     41.2301     17.4978   6.2715456925e+01   6.7000537060e+01    0.4917887    0.4066847 -31.79  0.002808106    1.230    0.187
        10 -11.4995     39.9613     10.9300   6.0349639616e+01   6.8141424580e+01    0.4212602    0.2778122  11.29  0.001826153    1.546    0.353
        11 -12.1829      4.1885     16.8801   7.9225849566e+01   7.0226699011e+01    0.4598095    0.3388907  65.82  0.003045585    2.628    0.619
        12  -9.9877      9.5584     15.8427   7.6333299932e+01   7.0087971025e+01    0.2552765    0.1448365 -21.85  0.001321524    1.704    0.413
        13  -9.9060     15.0594     13.6734   7.2908946585e+01   7.0077759593e+01    0.1747154    0.1371043 -23.98 0.0009261124    1.103    0.094
        14 -11.2195     19.0595     16.7346   7.2245276127e+01   6.9261285407e+01     0.400772    0.2306057 -14.07  0.002459533    1.879    0.468
        15 -11.9917    159.6466     23.0598   3.0127457868e+01   4.2641338400e+01     0.397195     0.285407  25.11 0.0005172398    1.571    0.363
        16 -12.3947    165.6826     22.4632   2.8846564141e+01   4.1126474208e+01    0.5085562    0.2655258  49.92  0.002157829    1.773    0.436
        17 -11.5388     66.5438     20.7131   5.4081873189e+01   6.3108953316e+01    0.9446552    0.4598034  17.06  0.003647843    3.713    0.731
        18 -10.3272     83.3682     12.5905   4.4710798872e+01   6.1332728054e+01    0.3650467    0.2246761 -51.68  0.001727032    2.660    0.624
        19 -10.9264     73.8901      1.9300   4.2911655445e+01   6.4266874229e+01    0.2749965    0.2180886  56.51  0.001168066    1.638    0.389
        20 -10.8904     73.9167      6.7065   4.5156819642e+01   6.3729838821e+01    0.2571531     0.201624  -9.20 0.0008720875    1.132    0.117
        21 -10.3412     70.6726     13.4511   4.9383266356e+01   6.3450516346e+01    0.3272008    0.2078132 -30.09 0.0008789388    1.485    0.327
        22 -11.2800     75.9947     10.8967   4.6380589326e+01   6.2867227854e+01    0.4404868      0.38954  37.44  0.002535551    1.309    0.236
        23 -12.7252    238.0527     17.6100   1.7822435314e+01   2.2730365910e+01    0.3344752    0.2702658 -73.65 0.0004653706    1.156    0.135
        24 -11.2115     59.5001     20.5525   5.6653781967e+01   6.4180184474e+01    0.3381636    0.2003411 -21.92 0.0009661125    1.618    0.382
        25 -11.2806    155.4681     13.1333   2.7505312288e+01   4.4829944129e+01    0.5244799     0.266533   0.21  0.001960373    3.037    0.671
        26 -10.0989    117.7971     13.2257   3.5348928209e+01   5.4093084597e+01    0.4274241    0.2166881  12.95  0.001593889    3.145    0.682
        27 -10.8121    118.1958      7.6966   3.3046538995e+01   5.4577209186e+01    0.2453141      0.19696  -0.08 0.0005364578    1.253    0.202
        28 -10.9115    117.7741      3.0802   3.1287250114e+01   5.5116092913e+01    0.3429836    0.2389684  84.19  0.001092127    1.966    0.491
        29 -12.3448    128.1823     10.4110   3.1866283064e+01   5.1950977729e+01    0.5257975    0.3357771 -47.96  0.001172955    1.967    0.492
        30 -10.2312    126.0538      2.6606   2.9324009876e+01   5.3204497761e+01    0.3162204     0.168066  54.05  0.001401973    1.627    0.385
        31 -10.9918     60.1612     13.3593   5.3214024358e+01   6.5113839075e+01    0.3429732    0.2589171  47.45  0.002127959    1.736    0.424
        32  -9.7899     22.6500     12.2502   6.8756266032e+01   6.9701635148e+01    0.1610885   0.07673155 -36.85 0.0004397017    1.642    0.391
        33  -9.8832    100.1289     12.7862   3.9768136945e+01   5.8010456691e+01    0.2666789    0.1595007  -4.36   0.00128127    1.905    0.475
        34 -10.0228     55.2168     12.7423   5.4853509823e+01   6.5915110580e+01    0.2021747    0.1284893 -30.51 0.0005177992    1.398    0.284
        35 -12.1711    232.9227     10.4968   1.6544673807e+01   2.4804237728e+01    0.4475543    0.2418944 -65.96  0.002013093    2.043    0.511
        36 -12.1213    234.2042      5.5411   1.5187831930e+01   2.5017500133e+01    0.3173953    0.2807107  45.78  0.001161027    1.319    0.242
        37 -11.2339    164.7001      7.6698   2.4131263678e+01   4.2964160625e+01    0.6897376    0.2043566 -19.27  0.002187852    4.105    0.756
        38 -12.0038    145.7679      7.8258   2.7393459737e+01   4.7853484016e+01    0.4227495    0.3140747   7.05 0.0007267494    1.504    0.335
        39 -10.7635    148.6157      1.9376   2.4802465391e+01   4.7669996909e+01     0.259628    0.1791055  52.22 0.0004485776    1.273    0.215
        40  -9.9249    107.3921     10.6837   3.6925694386e+01   5.6695101601e+01    0.2124177    0.1579947   0.72 0.0004184283    1.348    0.258
        41 -10.7036      5.2042     10.8441   7.6555301037e+01   7.1206936041e+01    0.2056551    0.1535757 -52.81  0.001260253    1.377    0.274
        42 -11.0021      9.8354      9.1800   7.3628042319e+01   7.1189505788e+01    0.2985777    0.1930366  25.47  0.001949906    1.905    0.475
        43  -9.5877    150.5479      5.5359   2.5733525185e+01   4.6849189602e+01    0.2160745    0.1147848  55.11 2.908717e-05    1.623    0.384
        44 -11.4266    240.9036      8.9812   1.5425875477e+01   2.2998551357e+01    0.2450009    0.1771927 -77.89 0.0005278597    1.314    0.239
        45 -12.7615    212.9871      5.3398   1.7215038186e+01   3.0432777217e+01     1.009344    0.6289057 -83.20  0.004878502    1.683    0.406
        46 -10.6607     24.0235      7.6479   6.6098261878e+01   7.0298945700e+01    0.3029488    0.1465944  41.63  0.001593563    3.323    0.699
        47  -9.4570     16.0000      9.0667   7.0570571643e+01   7.0759293350e+01    0.2217606   0.08006094 -43.95  0.001164562    2.086    0.521
        48 -11.4911     19.1679      4.0640   6.6806771422e+01   7.1276928298e+01    0.5583844    0.2828592   9.88  0.003227904    2.387    0.581
        49 -11.0763     11.0642      2.8990   7.0334125704e+01   7.2104707659e+01    0.2932644    0.1711569  -7.46 0.0004806907    1.772    0.436
        50 -10.9823    190.4506      6.5688   2.0164133564e+01   3.6240640250e+01    0.4387882    0.3576938 -80.02  0.002415309    1.230    0.187
        51 -10.6506    194.5817      1.5345   1.8194903456e+01   3.5631983840e+01    0.3249881     0.148288  64.00  0.001386815    1.892    0.471
        52 -10.2923    100.3854      6.9882   3.7224871967e+01   5.8587316298e+01    0.2533877    0.1741706  14.01 0.0006003929    1.464    0.317
        53  -9.3117    113.4044      7.4366   3.4078039552e+01   5.5697546830e+01    0.1325643     0.120932  25.67 0.0001286134    1.060    0.057
        54  -9.5375    156.3144      6.2647   2.5010052764e+01   4.5291247046e+01    0.1475621   0.09447096  40.16 0.0002101247    1.544    0.352
        55 -10.4606     68.3564      4.4917   4.6040369587e+01   6.4936072141e+01    0.2621944    0.1731296 -35.63  0.001526654    1.676    0.403
        56  -9.5349    109.4692      5.5008   3.4242942924e+01   5.6770544271e+01    0.1363119    0.1172182  26.79 0.0001385101    1.010    0.010
        57  -9.9132     97.8814      3.6407   3.6453183330e+01   5.9450791966e+01    0.3422283    0.1711759  20.19  0.001453399    2.555    0.609
        58  -9.1319     58.3118      5.2960   5.0137331664e+01   6.6440737618e+01    0.1248405   0.07960486   5.90 0.0004205887    1.597    0.374
        59 -11.4760    243.2542      2.8252   1.3740156161e+01   2.3086012534e+01    0.2860794     0.198345 -51.99  0.001253813    1.322    0.243
        60 -10.8030    178.5746      3.5420   2.0798192124e+01   3.9686696410e+01    0.2876173    0.2292331 -77.08 0.0006149283    1.318    0.241
        61 -11.3146     29.1372      2.2667   6.1144048016e+01   7.0583533332e+01    0.4995891    0.2194892  23.17  0.002662096    2.610    0.617
        62  -9.5586    111.0561      2.0056   3.2404019940e+01   5.6746947711e+01    0.1593201    0.1382895  24.41 0.0002909281    1.031    0.030
        63  -9.5837     88.8669      1.2739   3.7930048328e+01   6.1518862140e+01    0.1855523   0.09283047  43.72 -0.000275831    1.774    0.436
        64  -9.4491    216.0713    154.9693   5.5598628791e+01   7.1434828733e+00    0.1736183     0.152892  30.46 0.0003619556    1.047    0.045
        65 -10.4928    247.4762    250.1071   6.7252934642e+01  -1.0412153837e+01    0.1783395    0.1288211  38.95  0.001289441    1.343    0.256
        66 -12.7551    234.2671    246.0868   6.8795535018e+01  -8.0206183512e+00    0.5149895    0.4190066  17.65  0.003922625    1.167    0.143
        67 -12.3749    226.5455    245.1505   6.9929785511e+01  -6.7144749971e+00    0.5664986    0.3200034  11.68  0.003158512    2.308    0.567
        68 -11.7730     88.9241    249.3741   9.3492008214e+01   1.4672122679e+01    0.3221509    0.1851692  48.38 0.0009835964    1.370    0.270
        69 -10.2472     72.3853    250.1538   9.6168754186e+01   1.6816385029e+01    0.1738126    0.1257074  43.61 0.0009615052    1.547    0.353
        70 -12.6628     19.3461    237.1863   1.0349125982e+02   2.5205021620e+01    0.4449716    0.2475342  56.23   0.00342522    1.338    0.253
        71 -12.0587     29.1274    247.4583   1.0254684518e+02   2.2495187487e+01    0.4665718    0.2060642  77.07  0.003069852    1.943    0.485
        72 -12.8694      6.1411    245.2679   1.0573070938e+02   2.5228714967e+01    0.6164079    0.3109371  84.88  0.003497904    1.510    0.338
        73 -11.7599     22.4404    248.7519   1.0357267093e+02   2.3013336155e+01    0.2983639    0.1622215  57.72  0.001284015    1.293    0.226
        74 -12.7985     15.7194    245.9130   1.0440699166e+02   2.4166524548e+01    0.6336129    0.2277529  62.51  0.003234553    2.023    0.506
        75 -11.1952      9.5260    152.0717   1.0006517548e+02   4.2079827959e+01    0.3770935    0.1664057  57.10  0.002170517    2.189    0.543
        76  -9.2721    222.7106    152.3087   5.3781392446e+01   6.1749615149e+00    0.1315996    0.1148586 -77.91 0.0003242434    1.578    0.366
        77  -9.5445    169.9608    152.0000   6.4248678388e+01   1.7561306038e+01    0.2476809   0.07926504  46.54 0.0007967652    2.903    0.656
        78  -9.9789    176.8912    150.1139   6.2378789490e+01   1.6418821906e+01    0.2293038    0.1991597  75.27 0.0008828812    1.302    0.232
        79 -10.6230    206.9342    146.6256   5.5519009646e+01   1.0471134038e+01    0.2418461    0.2020578  -9.48 0.0007030109    1.269    0.212
        80 -10.1164     20.4276    146.1115   9.7262801056e+01   4.2415191708e+01    0.2247983    0.1122187  53.50  0.001310591    1.983    0.496
        81 -10.8593     10.4267    144.0002   9.9221964946e+01   4.3687489082e+01    0.3262061    0.1368547 -51.54  0.001693144    2.849    0.649
        82  -9.2801    204.5165    141.5452   5.4847956337e+01   1.1867979671e+01    0.1470148    0.1389043  30.01 0.0001253766    1.034    0.033
        83  -9.4112    240.3010    140.3066   4.7967714395e+01   4.3708861180e+00    0.1445453    0.1023058  11.86  0.000333445    1.596    0.374
        84 -10.7268     17.5064    137.1202   9.7047612893e+01   4.4575468807e+01    0.2513582    0.1606725  66.98 -1.787704e-05    1.500    0.333
        85  -9.6612     21.0072    134.9611   9.6037268637e+01   4.4746598811e+01    0.1660124    0.1085707  82.75 0.0006236068    1.356    0.262
        86 -10.6186    219.3246    144.3384   5.2645561663e+01   8.1656509206e+00    0.3551784    0.1633579  36.73   0.00136227    2.364    0.577
        87 -11.7932      9.2320    136.2596   9.8809156765e+01   4.5407760700e+01    0.2110405    0.1429457 -79.75 0.0002514389    1.122    0.109
        88  -9.2633    143.7564    137.0531   6.6881424382e+01   2.6101251643e+01    0.1851887    0.1263449 -50.16 0.0004206776    1.522    0.343
        89 -10.4228     43.9608    136.9203   9.0918396269e+01   4.2125968554e+01    0.1827957    0.1460845 -84.59 0.0004029541    1.022    0.022
        90 -10.6256      2.7196    135.7692   1.0019441457e+02   4.5981103964e+01    0.2968407   0.09997715 -74.89  0.001520137    2.214    0.548
        91  -9.8660    249.2373    133.7745   4.4979750929e+01   3.5174373214e+00    0.1923942    0.1506139   9.80 0.0004247939    1.306    0.234
        92 -10.0049    240.8613    134.1541   4.6473896992e+01   5.1902267786e+00    0.1978369    0.1572189  11.85 0.0005328939    1.289    0.224
        93 -10.7346     79.6416    132.4129   8.1535099935e+01   3.8639616302e+01    0.2236639    0.2043379 -72.30 0.0004028543    1.099    0.090
        94 -11.3549     54.2178    132.3633   8.7824619850e+01   4.1986846163e+01    0.2941253    0.2265625  48.27  0.001014911    1.390    0.280
        95 -10.1021     47.7992    133.2408   8.9512541745e+01   4.2521538907e+01    0.1814523    0.1433699  81.47 0.0006152728    1.164    0.141
        96 -11.3723     36.9706    130.2816   9.1741746563e+01   4.4306502303e+01    0.3099268    0.2422342 -45.28 0.0009550697    1.534    0.348
        97 -11.1718     74.0499    128.9831   8.2345102682e+01   4.0205182478e+01    0.2932818    0.2558877 -86.96 0.0007652144    1.037    0.035
        98 -10.8102     23.7833    126.1134   9.4415850332e+01   4.6427909190e+01    0.2941249    0.1610029  42.93  0.001760781    1.987    0.497
        99 -10.6952     15.7851    125.5421   9.6263307197e+01   4.7198800229e+01    0.3067333    0.1640141  25.31  0.001829223    2.461    0.594
       100 -11.3725     10.7712    122.9903   9.7185776488e+01   4.8121514357e+01     0.263267    0.2108239  89.65  0.001979794    1.095    0.087
       101  -9.7104    219.9755    123.7469   4.7730471750e+01   1.1412696474e+01    0.2043917    0.1908968  28.26 0.0004369655    1.044    0.042
       102  -9.8864    243.7736    122.5716   4.3295453044e+01   6.3497467236e+00    0.1800688    0.1401592  62.41 0.0003873368    1.523    0.343
       103 -10.2828     20.0282    121.6759   9.4811953414e+01   4.7703084047e+01    0.1546028    0.1296542 -78.81 0.0008634641    1.107    0.097
       104  -9.4443    110.3365    121.3251   7.1573586550e+01   3.6072067175e+01     0.143588    0.1158308 -12.33 0.0007051341    1.719    0.418
       105  -9.0587     64.7278    119.7056   8.3129827909e+01   4.3539041350e+01    0.1233346   0.09337959 -40.82 0.0002509215    1.520    0.342
       106 -10.1514      1.3518    118.7428   9.8999773318e+01   4.9660859295e+01    0.1865232   0.08000799 -78.04 0.0003652121    1.790    0.441
       107  -9.9758     72.7238    116.8703   8.0498527635e+01   4.3115596503e+01    0.3164763    0.1502618 -76.75  0.001083937    3.311    0.698
       108  -9.9166     32.9877    117.7603   9.1073083563e+01   4.7451097856e+01     0.182276    0.1129451  87.90 0.0007973141    1.634    0.388
       109 -11.7611     15.6155    115.4106   9.5172447486e+01   4.9404059213e+01    0.2677583    0.1641214 -71.29  0.000253158    1.258    0.205
       110  -9.7495      9.4899    111.5236   9.6262285598e+01   5.0676966539e+01    0.1549509    0.1037771 -55.72 -1.470274e-05    1.416    0.294
       111 -11.9258     14.8894    108.5430   9.4528147813e+01   5.0947821519e+01    0.3807402    0.3426173  -5.85  0.002286458    1.526    0.345
       112 -10.0713     23.2875    117.5838   9.3511095566e+01   4.8332306186e+01    0.1319888    0.1147079  -6.57 0.0009465317    1.623    0.384
       113  -9.5663    179.3982    115.7787   5.3822004314e+01   2.2337643570e+01    0.2115295     0.150386 -26.51 0.0009385416    1.576    0.365
       114 -10.2299    213.9985    115.0923   4.6719652173e+01   1.4248540316e+01    0.2298923    0.2151626  13.38 0.0004588099    1.048    0.046
       115 -10.0907     85.8985    115.9549   7.6807993520e+01   4.1397596563e+01    0.2085226    0.1867309 -73.80 0.0005487062    1.024    0.024
       116 -10.9473    249.4008    112.2718   3.9949352412e+01   6.7182226591e+00    0.2532524    0.2343115 -40.87 0.0005440285    1.145    0.127
       117 -10.3951     94.4478    112.3177   7.3748107933e+01   4.0843668540e+01    0.2676206    0.2364464 -88.01 0.0009325565    1.144    0.126
       118 -12.4703     54.7933    109.6433   8.4004861978e+01   4.7012729451e+01    0.3019694    0.2245017 -56.51  0.000305094    1.209    0.173
       119 -10.8266     51.9419    103.7839   8.3726847240e+01   4.8649450623e+01    0.2191049    0.1853838  72.87 0.0008265418    1.267    0.211
       120 -11.2919     35.7828    108.8038   8.9032627740e+01   4.9178519969e+01    0.2951632    0.1968727 -78.63  0.001563864    1.333    0.250
       121  -9.9633     38.3178    103.4647   8.7482847928e+01   5.0126084829e+01    0.2441662    0.1713043 -67.66  0.001515136    1.171    0.146
       122 -10.9330      2.2779    106.6062   9.7541620784e+01   5.2187355237e+01    0.4014983    0.1888904 -66.21   0.00240961    1.570    0.363
       123  -9.8716     81.9963    105.4751   7.5639596257e+01   4.4340668345e+01    0.3758049     0.174346 -71.23  0.001115019    3.648    0.726
       124 -11.0050     23.5419    106.7284   9.2011454816e+01   5.0691953502e+01    0.2412774    0.1740915 -17.86  0.001233196    2.019    0.505
       125 -10.8086     26.1813    102.6474   9.0707881136e+01   5.1376226875e+01    0.4297323     0.207612  78.84  0.001853381    3.399    0.706
       126  -9.3689    103.4551    105.4105   6.9726933109e+01   4.0822053515e+01    0.1408971    0.1347119 -70.15 8.679085e-05    1.012    0.012
       127 -10.5499    119.0914    102.8603   6.4912682397e+01   3.8422926936e+01    0.4552996    0.2736783 -37.92  0.001977623    1.792    0.442
       128 -10.8947     19.2088    100.9197   9.2366468579e+01   5.2294852676e+01    0.1792538    0.1475758 -52.62 0.0002637172    1.251    0.201
       129 -11.2638    143.9642     98.3491   5.7372596282e+01   3.4060375847e+01    0.4764221    0.3876633  74.99  0.001896354    1.433    0.302
       130 -11.0173     66.0605     93.1629   7.7466940926e+01   4.9314726981e+01    0.3643454    0.2039764  31.68  0.001805173    2.091    0.522
       131 -11.3463     62.0230     98.6866   7.9846778799e+01   4.8601224369e+01    0.2884277     0.234727 -62.19 0.0009127132    1.070    0.066
       132 -11.2980     66.3515     98.0292   7.8455314869e+01   4.8197319505e+01    0.2595808    0.2303539  34.13 0.0006235429    1.293    0.226
       133 -10.8300     51.0137     98.4458   8.2978470947e+01   4.9943680096e+01    0.4200445    0.2493163 -27.17  0.002018046    2.596    0.615
       134  -9.9207      9.9509     99.0512   9.4632721555e+01   5.3336756738e+01    0.1691908    0.1105461  82.14 0.0008522264    1.547    0.354
       135 -11.5761     14.4904     96.7165   9.3074619979e+01   5.3542567518e+01    0.3471304    0.1601779 -60.31  0.001959417    1.648    0.393
       136 -11.0510      2.4991     96.3784   9.6312215020e+01   5.4357818966e+01    0.3832019    0.2148938  72.42  0.001728219    2.043    0.511
       137  -9.9724    205.9514     97.0066   4.3590128292e+01   1.9285143451e+01    0.2338612    0.2266936 -18.94  0.000525881    1.027    0.027
       138  -9.8847    101.0187     95.5217   6.7935415230e+01   4.3412160924e+01    0.2108131    0.1425925  42.07 0.0007536357    1.560    0.359
       139 -11.4901    161.7665     93.4600   5.1795259529e+01   3.0849021851e+01    0.3470531    0.2949378 -23.97  0.001706162    1.254    0.202
       140 -12.3992    165.8814     84.1527   4.8217686782e+01   3.1591493458e+01    0.9172104    0.7357329  37.85   0.00365109    1.278    0.218
       141 -12.0626    158.0526     87.5457   5.0975186469e+01   3.2876437252e+01    0.7585145    0.3010551 -42.25  0.002578555    2.541    0.606
       142 -11.1773    156.5414     82.3700   4.9822727170e+01   3.4218540844e+01    0.8132291    0.3949138  30.85  0.002476109    3.569    0.720
       143  -9.7148     31.1821     92.8446   8.7710956212e+01   5.3115174626e+01    0.1692387    0.1120006 -52.63 0.0004147149    1.317    0.241
       144 -10.5625     37.5966     90.4914   8.5391556899e+01   5.3062225555e+01    0.3918968    0.1418834 -47.13  0.001709399    2.618    0.618
       145 -12.6534     10.4872     90.4837   9.3319576831e+01   5.5148469513e+01    0.2768369    0.1966239 -73.46  0.001925508    1.104    0.094
       146 -11.6283     22.1628     87.6448   8.9479096649e+01   5.4967890750e+01    0.3936355    0.1654661 -59.01  0.001586459    1.783    0.439
       147  -9.8367     25.7759     90.2512   8.8850786158e+01   5.4125193501e+01    0.1912968    0.1521168 -63.22 0.0009126602    1.036    0.035
       148 -10.2980    152.8991     90.6552   5.3072046103e+01   3.3514324809e+01     0.321965    0.1342077  43.22  0.001088395    2.510    0.602
       149 -10.3112     97.1912     89.1357   6.7345915034e+01   4.5459798067e+01    0.1967987    0.1698827  87.57 0.0007270573    1.349    0.259
       150 -10.3782     83.0747     88.5042   7.1300301158e+01   4.7917717447e+01    0.2276001    0.1734178 -42.53 0.0005494277    1.246    0.197
       151 -10.7449     78.3657     87.6398   7.2481905412e+01   4.8817207509e+01    0.3154142    0.2945717  19.19  0.001842342    1.197    0.164
       152 -10.5015     65.4961     87.3478   7.6291512495e+01   5.0666365953e+01    0.2371038    0.2088366  85.34 0.0007591487    1.270    0.213
       153 -10.2988     67.9843     83.5143   7.4598523326e+01   5.1172647128e+01    0.2266932    0.1575978 -20.32  0.001027981    1.899    0.474
       154  -9.9641     47.6906     88.0213   8.1859555409e+01   5.2607287479e+01    0.1804817    0.1332982 -61.38 0.0003084313    1.145    0.127
       155  -9.6455    120.9702     86.6511   6.0022561776e+01   4.1441405312e+01    0.2076835    0.1936509  43.61 0.0005078472    1.097    0.088
       156 -10.5843    112.9988     86.6819   6.2208220312e+01   4.3042967231e+01    0.3043964    0.2430902  73.59  0.001100575    1.552    0.356
       157 -10.9236      4.9508     85.9960   9.4275260881e+01   5.6435154334e+01    0.1694685    0.1271444 -67.85 0.0004672686    1.022    0.021
       158 -11.3365      7.3451     81.8627   9.2970144906e+01   5.7180342292e+01    0.3077622    0.1646197 -35.95  0.001817206    2.166    0.538
       159 -12.9639      4.7111     62.4826   9.0570458414e+01   6.1389959055e+01    0.6555042    0.4910477 -63.23   0.00324926    1.043    0.041
       160 -12.2602     13.4153     77.3347   9.0390135915e+01   5.7781549784e+01     0.658033    0.2939138 -71.34  0.003501193    1.903    0.475
       161 -12.1597      6.4741     73.4932   9.1915786137e+01   5.9000763336e+01      0.51895    0.3581518  -2.13  0.003591743    1.960    0.490
       162 -14.1611     16.5364     67.4159   8.7552695144e+01   5.9679529218e+01    0.5205148    0.3649838 -69.74   0.00118133    1.241    0.194
       163  -9.8993     74.3662     81.8537   7.2210529940e+01   5.0647337786e+01    0.2069583    0.1084628 -43.68 0.0009477048    1.787    0.440
       164  -9.8034     62.6288     82.5332   7.6013787236e+01   5.2080194516e+01    0.1589024    0.1253383  49.21 0.0008286667    1.475    0.322
       165  -9.6762     42.3584     82.2195   8.2274492663e+01   5.4416764843e+01    0.1910012    0.1431347  65.27 0.0007183038    1.673    0.402
       166 -11.4631     30.7469     80.9604   8.5647337545e+01   5.5742249871e+01    0.3647742    0.2148684 -50.75  0.002149412    1.420    0.296
       167  -9.4921    122.5033     79.5304   5.7528411522e+01   4.2555916353e+01    0.1480633    0.1448112 -24.96 0.0001169474    1.008    0.008
       168 -10.1649    113.8975     79.5551   5.9897467711e+01   4.4322287069e+01    0.4038222    0.1452068  45.12  0.001390857    2.872    0.652
       169 -10.3428     59.8474     78.5776   7.5910354382e+01   5.3278166953e+01    0.3515484    0.2240629  -4.62  0.001679009    2.565    0.610
       170 -12.9267     45.0736     75.0576   7.9801975326e+01   5.5689176563e+01     0.362219    0.2722249  69.94 0.0009507883    1.770    0.435
       171  -9.7783    135.4115     94.3241   5.8402668336e+01   3.6788262292e+01    0.2691152    0.1931029  70.31 0.0009587978    1.770    0.435
       172  -9.1238     70.2678     76.3532   7.2031282803e+01   5.2394746662e+01    0.1373596   0.09347286 -29.83 0.0001770025    1.628    0.386
       173 -10.1085    145.5609     74.7568   5.0152331886e+01   3.8278956016e+01    0.2950176    0.1535114 -32.07  0.001059341    2.072    0.517
       174 -10.7797     75.7689     74.3583   6.9746320164e+01   5.2030358040e+01    0.3740627     0.234357  18.90   0.00148186    2.158    0.537
       175 -10.9975     78.3443     69.8728   6.7642105517e+01   5.2572603941e+01       0.2401    0.1919606  32.64 0.0003958007    1.372    0.271
       176  -9.7864     56.4897     66.5530   7.3850606847e+01   5.6218738053e+01    0.1705089    0.1221569  46.26 0.0005820296    1.710    0.415
       177 -10.5045     52.0239     62.1750   7.4150719926e+01   5.7638380153e+01    0.3173297    0.1975595 -36.77  0.001749926    1.512    0.339
       178 -10.3252     47.3356     60.3751   7.5274043953e+01   5.8522212377e+01     0.308913    0.2589649 -23.14  0.001019191    1.202    0.168
       179 -10.8029     54.1449     74.0900   7.6615422391e+01   5.4912780623e+01    0.2415308    0.1830985  46.07   0.00145086    1.579    0.367
       180 -10.7134    207.5019     73.0845   3.6831427453e+01   2.2882166101e+01    0.2721454    0.2191826  57.16 0.0003663855    1.237    0.191
       181 -10.7520    101.1054     71.8261   6.1239804499e+01   4.8338446898e+01    0.3801869    0.2467201  72.59 0.0009270306    2.813    0.645
       182 -10.8046     93.6290     72.7016   6.3740392327e+01   4.9505956575e+01    0.3794523    0.2480549  -9.58  0.001624626    2.441    0.590
       183 -11.7618     50.5274     68.0885   7.6266776873e+01   5.6584400428e+01    0.4094034    0.2419568 -47.20  0.001147152    1.423    0.297
       184  -9.5269    152.1425     71.8378   4.7683190270e+01   3.7223799124e+01    0.2110322    0.1782875  21.16 0.0003134854    1.293    0.226
       185 -10.0087     68.5319     70.6006   7.1004092487e+01   5.3838267803e+01    0.2791306    0.1557642 -39.63  0.001356016    1.710    0.415
       186 -10.9412     42.3925     68.6339   7.9139837202e+01   5.7319853600e+01    0.4455774    0.2151015 -35.11  0.002098185    2.402    0.584
       187  -9.9950    167.9070     69.6301   4.3469737784e+01   3.3669479100e+01    0.2150954    0.1920845  56.10 0.0003601337    1.105    0.095
       188  -9.3485    194.5903     69.5326   3.8134464514e+01   2.6787713254e+01     0.151373    0.1508407 -65.53 0.0001027612    1.015    0.014
       189 -10.1271    130.6548     68.7788   5.2045879782e+01   4.2839163001e+01    0.2736317    0.1832571 -34.72  0.001242638    1.499    0.333
       190  -9.8314    127.7032     66.3642   5.2049797802e+01   4.3944374262e+01    0.2152123    0.2085262 -80.51  0.001182147    1.132    0.116
       191  -9.1011    230.3190     68.6702   3.1975987850e+01   1.7822725899e+01    0.1564999    0.1092193 -63.83 0.0004916455    1.687    0.407
       192 -10.7521     36.1198     68.1137   8.1126637194e+01   5.8020774648e+01    0.2626681    0.1677579  36.76  0.001071121    1.894    0.472
       193 -10.3983    184.5322     66.1233   3.9035917461e+01   2.9961324863e+01    0.3509099    0.2199004 -43.50  0.001296951    1.644    0.392
       194 -10.7046     93.6742     66.6212   6.1859206767e+01   5.0710545073e+01    0.2407141     0.224211 -45.80 0.0003063702    1.100    0.091
       195 -10.7417     98.9644     64.6555   5.9628229728e+01   5.0138270687e+01    0.5213561    0.1907013  39.99  0.001879232    2.966    0.663
       196 -11.9130     44.8222     38.4591   6.9365916875e+01   6.3038489110e+01    0.3569122    0.3384406  69.90  0.002530261    1.483    0.326
       197 -11.8801     26.7781     50.2293   7.9922681760e+01   6.2472983021e+01    0.7525245    0.3496709 -63.21  0.003831638    2.111    0.526
       198 -11.6601     30.8417     64.7311   8.2123530837e+01   5.9185829142e+01    0.4555866     0.255867 -15.84   0.00233894    2.667    0.625
       199 -11.0098     28.8524     60.4393   8.1787413090e+01   6.0238311428e+01    0.3990504    0.2310267  24.59   0.00225652    2.103    0.525
       200 -12.0439     37.0188    243.0636   1.0115271295e+02   2.2316928362e+01    0.4990138    0.2153324  84.42  0.002371825    2.246    0.555
       201 -10.2123    119.0023     65.2683   5.4045170242e+01   4.6039020494e+01    0.2371573     0.206168 -25.46 0.0003562823    1.133    0.117
       202 -12.2401    122.9932     63.7670   5.2467478878e+01   4.5456626522e+01    0.4156963    0.3247209 -64.95 0.0002518603    1.613    0.380
       203 -10.4482     69.6752     64.1119   6.8743563789e+01   5.5007328798e+01    0.3571359   0.08556641 -42.59  0.001085317    4.206    0.762
       204 -10.1010    152.1601     63.5938   4.5103001651e+01   3.8666520794e+01    0.3717135    0.1202501  45.80  0.001027325    3.141    0.682
       205 -10.2728     77.4401     62.9185   6.5828296537e+01   5.4109762033e+01     0.239959    0.1929255  60.19 0.0009877997    1.609    0.379
       206 -10.6294    113.1446     60.9667   5.4272330857e+01   4.8056968440e+01    0.2155798    0.2060663 -26.52 0.0005156863    1.055    0.052
       207 -11.8406     87.7178     54.5815   5.9786624280e+01   5.4043134435e+01    0.7737111    0.2996343 -34.38   0.00246729    2.870    0.652
       208 -10.8090     97.8901     59.7191   5.8341233619e+01   5.1273781619e+01    0.3854253    0.2456836  64.72 0.0009735067    2.485    0.598
       209 -10.3158    169.0237     60.0818   4.0305968841e+01   3.4976100888e+01     0.228561    0.2204495  43.18            0    1.013    0.013
       210  -9.6898     62.2414     53.6814   6.8035622790e+01   5.8077358244e+01    0.3200495     0.122736 -42.62  0.001103862    2.298    0.565
       211 -11.3122     59.1411     58.5306   7.0627010784e+01   5.7523700250e+01     0.369603    0.2719381 -40.39  0.001228382    1.170    0.145
       212 -10.5210    202.2759     61.9479   3.4604515873e+01   2.5985654189e+01    0.3072494    0.2282534 -11.20  0.001415247    1.599    0.375
       213 -11.5891      6.4232     51.1361   8.7695407409e+01   6.3616447203e+01    0.3995724    0.3340787 -54.49  0.002901314    1.119    0.106
       214 -11.2597     12.1021     57.2703   8.6978465083e+01   6.2056287950e+01    0.2536521     0.182015  85.54 0.0003414339    1.767    0.434
       215 -11.7534     12.9737     49.9222   8.5001322204e+01   6.3492603377e+01    0.4129398    0.2757486 -61.28  0.002159705    1.231    0.188
       216 -10.8335     11.2453     44.5542   8.4345625749e+01   6.4661692295e+01    0.2659806    0.1681108 -61.03 0.0008370078    1.309    0.236
       217 -11.1431    147.2228     56.6818   4.4023887697e+01   4.1047088811e+01    0.2996368     0.249407 -49.85 0.0003712528    1.298    0.229
       218 -11.5105    132.2631     56.0726   4.7478554021e+01   4.4725297423e+01    0.4809875    0.3676011 -20.66  0.001059196    1.382    0.276
       219 -13.0275    105.3305     52.3511   5.3599078874e+01   5.1180687856e+01    0.4187096    0.3934504  33.74 0.0005035033    1.121    0.108
       220 -10.7309     75.3101     55.5028   6.4156013149e+01   5.5875730233e+01    0.2888696    0.1764573 -43.49 0.0005062472    1.480    0.324
       221 -10.2739    230.8478     54.3071   2.8126971659e+01   1.9793573392e+01    0.2639991    0.2104038 -23.34 0.0004477827    1.316    0.240
       222 -10.3385    104.5030     46.9710   5.1935844932e+01   5.2267612305e+01    0.2720648    0.2223027  10.90 0.0006210611    1.270    0.213
       223 -11.3036     34.2123     42.6767   7.4887409070e+01   6.3315447583e+01    0.4867373    0.2627591 -10.19  0.002383426    2.840    0.648
       224  -9.2367     82.2721     54.0269   6.1359366598e+01   5.5057632265e+01    0.1923285     0.154996 -34.24 0.0005273895    1.127    0.113
       225 -10.5100    119.8157     52.7731   4.9637015134e+01   4.8085964115e+01     0.236034    0.2141959  12.51  0.000334028    1.080    0.074
       226 -12.4045     59.1916     48.0658   6.7275442940e+01   5.9545782032e+01    0.4552118     0.303203 -36.58 0.0009791409    1.306    0.234
       227  -9.9230     72.6276     51.5125   6.3729115593e+01   5.7032898747e+01     0.269814    0.1746495  -2.64  0.001287919    2.198    0.545
       228 -11.9413    129.3958     49.2667   4.5889048285e+01   4.6514642348e+01    0.4844472    0.3734515  -0.58 0.0007897669    1.483    0.326
       229 -11.2596    131.2702     41.4888   4.2685022535e+01   4.7288378710e+01    0.3590836    0.2835906 -44.75 0.0008541775    1.384    0.277
       230  -9.8891    237.3078     50.3442   2.6235939738e+01   1.8748770349e+01    0.1454252    0.1102402  23.41 0.0003908104    1.695    0.410
       231 -10.3143     78.1881     47.9940   6.0629066897e+01   5.6822774450e+01    0.4026958    0.1473444 -35.04 0.0009783318    2.931    0.659
       232  -9.6020    181.5436     49.5140   3.4598915467e+01   3.3329643506e+01    0.1523896    0.1474911  81.51 4.247879e-05    1.033    0.032
       233  -9.2959    167.7355     48.9763   3.7076590765e+01   3.7043897104e+01    0.1857762    0.1352746 -28.63 0.0002186439    1.430    0.301
       234 -10.0194    151.4529     46.2047   3.9592537226e+01   4.1646305060e+01     0.265394    0.1525523 -25.59  0.001003496    1.880    0.468
       235  -9.9236    120.0674     46.6675   4.7428539202e+01   4.9041230996e+01    0.2022345    0.1707133  42.08 0.0002022084    1.171    0.146
       236 -10.4080    143.0468     45.2152   4.1159256226e+01   4.3890466260e+01     0.247055    0.2145897 -27.44 0.0005565316    1.177    0.150
       237 -10.0141    112.4946     45.3693   4.9051286661e+01   5.0888180791e+01    0.2741269      0.16087  24.45  0.001132227    2.254    0.556
       238 -11.2863     99.4712     36.1265   4.9406921013e+01   5.5010819472e+01    0.5043943    0.3860169  41.22  0.001825022    1.315    0.240
       239 -11.0710     91.7726     43.5465   5.4581872619e+01   5.5277079414e+01    0.4778445    0.2206722 -44.37  0.001785747    2.253    0.556
       240 -10.5304     95.8131     42.7267   5.3014151750e+01   5.4663683263e+01     0.389747    0.2260155 -23.68  0.001122577    1.883    0.469
       241 -11.3532     51.7272     42.2923   6.8056736651e+01   6.1546070178e+01     0.515518    0.2010658 -40.82  0.002317442    2.223    0.550
       242  -9.5735    187.1808     43.1329   3.1657627354e+01   3.2748678188e+01    0.2093001    0.1750951 -76.23 0.0005211839    1.303    0.232
       243 -11.8328    158.1723     42.6516   3.6972844712e+01   4.0455988537e+01    0.2909949    0.2525228  64.12  0.000311085    1.152    0.132
       244 -11.2668     92.5263     60.8021   6.0347139815e+01   5.2038721662e+01    0.3957828    0.2162248  36.12  0.001360366    1.990    0.498
       245 -10.9476     79.5933     28.5007   5.2743583393e+01   5.9832720077e+01    0.4841226    0.2311045 -22.98  0.001938661    2.453    0.592
       246 -11.2936     69.8759     37.2220   5.9561575334e+01   5.9996411161e+01    0.5511068    0.2862782 -48.68  0.002598955    2.136    0.532
       247 -11.7472     74.6984     35.6197   5.7252582367e+01   5.9516206021e+01    0.5495105    0.3328159 -25.99  0.001123226    1.616    0.381
       248 -11.5345      7.0895     40.7895   8.5019723093e+01   6.5631423866e+01    0.2613459    0.1377536 -51.20  0.001039942    1.366    0.268
       249  -9.8584    109.5587     41.8848   4.8613486793e+01   5.2063798037e+01    0.4605503    0.1300618  44.09  0.001468954    3.552    0.718
       250 -10.6832     81.2831     41.8677   5.7373848920e+01   5.7394193040e+01     0.250335    0.2206659 -15.98 0.0005896739    1.012    0.012
       251 -11.1148     82.4772     36.0073   5.4754015004e+01   5.8165741934e+01    0.4466403    0.3046801   8.12  0.002307542    1.734    0.423
       252 -10.0975     18.3489     42.2489   8.0971344576e+01   6.4663079867e+01    0.4696693   0.09061398 -49.71  0.001765676    3.126    0.680
       253 -10.0552     32.9121     32.6853   7.2108642705e+01   6.5292982797e+01    0.5271468    0.2277111  23.13  0.002529464    2.790    0.642
       254 -11.1773     23.9304     41.1874   7.8467048325e+01   6.4464029954e+01    0.5859253    0.3783633 -89.70  0.003007445    3.131    0.681
       255 -12.8167     27.6357     37.9029   7.5986495485e+01   6.4793588962e+01    0.3033963    0.2543837   2.47  0.001305242    1.333    0.250
       256 -11.9540     24.6997     34.5592   7.6113023700e+01   6.5657343671e+01    0.2182091    0.1717521 -25.80 0.0004394194    1.154    0.133
       257 -10.0395    148.6029     40.3456   3.8239813907e+01   4.3225739978e+01    0.3334048    0.1420105 -31.57  0.001235255    2.382    0.580
       258  -9.4261    121.2983     41.3024   4.5172817173e+01   4.9610151182e+01    0.1488636    0.1078137  16.22 0.0002964913    1.583    0.368
       259 -11.4436    224.9972     37.7042   2.4502133518e+01   2.3543153362e+01    0.3885255    0.2764671 -82.57 0.0004660682    1.548    0.354
       260 -11.2866    221.7348     31.9583   2.3375733982e+01   2.5119839868e+01    0.2896334    0.2295228 -41.06 0.0002977673    1.243    0.195
       261  -9.3003    152.4630     38.5641   3.6801438711e+01   4.2500386568e+01    0.1508181    0.1402876  38.12  6.15766e-05    1.025    0.024
       262 -10.4610    110.1273     36.4659   4.6431685987e+01   5.2778948488e+01    0.3424631    0.2683967  55.66  0.001500793    1.407    0.289
       263  -9.3804      1.4619     37.5219   8.6441461568e+01   6.6546127187e+01    0.1116601   0.07867096 -49.31   7.6574e-05    1.042    0.040
       264 -12.8054     57.6719     34.1076   6.2847323483e+01   6.2255077292e+01    0.2999363    0.2398463 -26.13 0.0006756607    1.050    0.048
       265  -9.5766    134.5340     34.7379   3.9479797771e+01   4.7485330518e+01    0.2020013    0.1341134 -41.48 0.0009379426    1.632    0.387
       266 -12.0981      8.3578     31.9214   8.2111851689e+01   6.7259938988e+01    0.3557106    0.1932975 -61.71  0.002195935    1.642    0.391
       267 -11.3979     16.6516     31.0125   7.8336993259e+01   6.6910966888e+01    0.3088095      0.18611  18.69  0.002011657    1.977    0.494
       268 -10.6530    226.0620     33.0175   2.3121684654e+01   2.3876446249e+01    0.2117194    0.1972476 -74.53 0.0002973372    1.006    0.006
       269 -10.0581    205.6931     32.0693   2.5532112936e+01   2.9296849912e+01    0.1971217     0.188534 -32.92 0.0003790601    1.112    0.101
       270 -10.0188    166.6197     32.2256   3.1881692275e+01   3.9678768903e+01    0.2075082    0.1454868  -9.57 0.0009511975    1.684    0.406
       271 -11.2300    101.9259     29.5836   4.6130040437e+01   5.5486910871e+01    0.5636104    0.2842903  41.67  0.002127852    1.936    0.484
       272 -10.3285     49.6614     29.3774   6.4118740078e+01   6.4076119999e+01     0.473018    0.1942539 -31.24  0.002061597    2.622    0.619
       273  -9.6200     44.0324     31.4531   6.7150954774e+01   6.4376130819e+01    0.1519739    0.1147834  23.24 -1.643227e-05    1.471    0.320
       274 -10.4020    237.2113     29.5669   2.0923293830e+01   2.1505517093e+01    0.2024476    0.1187788  55.60 0.0009472336    1.746    0.427
       275  -9.6160    191.3157     29.3494   2.6834033241e+01   3.3465257778e+01    0.1572161    0.1081915  31.69 0.0007047325    1.728    0.421
       276 -11.1692     65.5155     27.9346   5.7486378790e+01   6.2169192494e+01     0.295581    0.2124406   4.00 0.0005981661    1.452    0.312
       277 -10.1961     70.3182     25.2793   5.4648213680e+01   6.1843228841e+01    0.2420765    0.1785741  22.49 0.0007101162    1.346    0.257
       278 -10.6820    197.9944     28.0245   2.5456086749e+01   3.1846367719e+01    0.2461294    0.1664689  36.22  0.001133803    1.714    0.416
       279 -10.3246    250.1245    246.1281   6.6227685639e+01  -1.0438401906e+01    0.1796754    0.1156711  20.55 0.0007913589    1.251    0.201
       280 -10.6706    128.7912     18.9259   3.4977592908e+01   5.0878508977e+01    0.3124144    0.2136927   4.53 0.0007949009    1.680    0.405
       281 -10.3550    128.3024     26.3245   3.7875989842e+01   5.0095224219e+01    0.2838286    0.2091189  36.56 0.0005438047    1.297    0.229
       282 -10.9095    128.6596     23.1912   3.6617246626e+01   5.0402132153e+01     0.326348    0.2473937  -8.30 0.0007305794    1.393    0.282
       283  -9.6595    107.7528     27.6019   4.3681484470e+01   5.4551313870e+01    0.1814116    0.1329719  58.91 0.0006840455    1.552    0.356
       284 -13.3430     74.3483    238.1449   9.4970127042e+01   1.8467825031e+01    0.7225755    0.5293047  85.57  0.005495499    1.255    0.203
       285  -9.7628    109.7743    242.5731   8.9473443587e+01   1.2658827203e+01     0.163294   0.07868706  53.58 0.0003877644    1.609    0.378
       286 -11.1962     88.7247    240.9961   9.2838973723e+01   1.6009944246e+01    0.1911657    0.1385346 -60.45  0.001372306    1.811    0.448
       287  -9.5503     98.0401    242.0000   9.1382484381e+01   1.4502931127e+01    0.1828852   0.04986461  43.54 0.0005352593    2.897    0.655
       288 -10.8728     22.5307     24.4458   7.3582051158e+01   6.7659696283e+01    0.3007055    0.1736087 -34.12   0.00181977    1.411    0.291
       289 -10.3976     24.4243     21.2297   7.1554384106e+01   6.8061440259e+01    0.2433698    0.1891083 -53.69  0.001690048    1.461    0.316
       290 -10.0621    195.6296    238.2864   7.4171967207e+01  -8.7068243704e-01     0.184571    0.1490012  -2.29  0.001277703    1.493    0.330
       291 -10.7600    244.1570    237.1057   6.5800684595e+01  -8.6604093124e+00    0.1827592    0.1490623 -10.90  0.001017429    1.381    0.276
       292  -9.7328    134.6346    238.1846   8.4771403318e+01   9.4011178032e+00    0.1401381    0.1098787 -43.38 0.0009538888    1.801    0.445
       293 -10.3172    159.9872    235.7013   8.0043309837e+01   5.5330741519e+00    0.1755778    0.1240252  44.97 0.0004387219    1.098    0.090
       294  -9.6198    184.0167     29.0000   2.7864663002e+01   3.5460752022e+01     0.237234   0.08079457  64.23 0.0003625423    2.765    0.638
       295 -10.1123    194.3139     26.6654   2.5588409832e+01   3.2994158439e+01    0.1566554    0.1062834 -64.48 0.0007046196    1.687    0.407
       296 -10.7484    173.3397     25.6866   2.8577856481e+01   3.8715550053e+01    0.3867609    0.2648925  42.86  0.001116904    1.470    0.320
       297  -9.6188    117.5314     26.4611   4.0605501220e+01   5.2565628001e+01    0.1415328    0.1290238  19.75 -4.590634e-06    1.008    0.008
       298 -10.0616      1.4747     25.5860   8.3225001330e+01   6.8799765314e+01    0.2068396   0.07996049 -57.70 0.0004833273    1.937    0.484
       299  -9.4403    219.4318     25.4618   2.1909497929e+01   2.6517937970e+01    0.1412965    0.1319441 -83.97 0.0001137159    1.016    0.015
       300  -9.9005    213.8573     25.1799   2.2519631714e+01   2.8001531065e+01    0.1959857    0.1621476  45.48 0.0004634786    1.300    0.231
       301  -8.8982     89.2965     25.6064   4.8376063980e+01   5.8518234341e+01    0.1302979    0.1039317 -58.61 0.0007007339    1.795    0.443
       302 -11.1720     30.5788    234.4737   1.0166526604e+02   2.4452828401e+01    0.3549643    0.1213383  86.41  0.001724339    3.550    0.718
       303  -9.8258    177.1739    234.8438   7.6909869161e+01   2.7127938345e+00    0.1634111    0.1258607  25.96  0.001075775    1.342    0.255
       304  -9.7388    221.4626    234.4791   6.9184942650e+01  -4.7461525802e+00     0.120869   0.09031127  29.27 0.0001589761    1.032    0.031
       305  -9.7884    166.3296    233.3256   7.8618535515e+01   4.7812997525e+00    0.1188526   0.08442641  22.81 0.0007050502    1.703    0.413
       306 -10.7300      7.5299     24.8334   8.0327168327e+01   6.8617998835e+01    0.2482543    0.1536384   9.76  0.001534288    1.915    0.478
       307 -11.5760     13.7845     23.1347   7.6986338501e+01   6.8535303802e+01    0.2888229    0.1646722 -15.64 0.0002860063    1.931    0.482
       308 -10.9584     86.7319    232.8161   9.2472358960e+01   1.7622820348e+01    0.2421667    0.1152219  54.03  0.001409012    1.633    0.388
       309 -10.1288     38.4138    232.4426   1.0033822056e+02   2.3913522300e+01    0.1629826    0.1160108  82.68 0.0003862905    1.168    0.144
       310 -10.0850     24.2481    232.1290   1.0250838627e+02   2.5531041274e+01    0.1504161     0.114043  60.51 0.0006111385    1.309    0.236
       311 -10.0915     82.6694     17.1016   4.6916920876e+01   6.0893728651e+01    0.1806884    0.1416922 -13.69 0.0003748429    1.162    0.139
       312  -9.3010     58.4917    229.4915   9.6923268455e+01   2.1993255759e+01    0.1103331   0.07787617  68.62 3.215067e-05    1.015    0.015
       313 -11.2144      4.1672    226.5864   1.0526916175e+02   2.8479884288e+01    0.2538582    0.1123686  87.64    0.0017331    1.785    0.440
       314 -11.3025    121.2096    226.3187   8.5810293801e+01   1.3427411302e+01    0.2601392    0.1680877  73.21  0.001553818    1.666    0.400
       315  -9.2808    190.3430    226.3132   7.3373049594e+01   1.5579657193e+00    0.1259056   0.08318371  22.01 0.0007046971    1.706    0.414
       316 -10.2449    124.9666    220.9954   8.4518948973e+01   1.3682374057e+01    0.3071409    0.1558111  33.90   0.00148182    2.413    0.586
       317 -10.8802    102.6071     20.8899   4.2439677370e+01   5.6517421736e+01    0.5781747    0.3219266  44.76  0.002787253    1.692    0.409
       318 -10.1264     97.7098     23.4490   4.4908434071e+01   5.7184097412e+01    0.2318949    0.1556768  44.43 0.0004734189    1.457    0.313
       319 -10.3927     94.2984     21.6819   4.5203548719e+01   5.8095515793e+01    0.2546864    0.2245163  54.18 0.0007653672    1.351    0.260
       320 -10.5728     84.6197     21.5864   4.8202482997e+01   5.9940816369e+01    0.2901772    0.2256467  30.59  0.001717895    1.234    0.190
       321  -9.4781     60.7258     28.6958   5.9576871114e+01   6.2739372702e+01    0.1263454   0.08548502 -11.16 0.0001838828    1.541    0.351
       322  -9.7420    191.7701    217.7718   7.1825164179e+01   2.4546542566e+00    0.1709833    0.1016515 -53.87 0.0008866955    2.466    0.594
       323  -9.8029     38.2180    217.2041   9.9426502025e+01   2.6580971334e+01    0.1540941   0.08856727  67.62 0.0007144982    1.335    0.251
       324  -9.6687    139.0111     19.5013   3.2946473713e+01   4.8321101901e+01    0.2284187     0.133539  58.41  0.001036063    1.599    0.375
       325 -10.7393    177.9816     17.9842   2.5387076772e+01   3.8369527384e+01    0.2138929    0.1968426  62.45  0.001201119    1.017    0.016
       326 -10.7400     11.0956    207.7184   1.0331619888e+02   3.1120360838e+01    0.2417163    0.1162564 -82.83 0.0007371844    1.685    0.407
       327 -10.1108    108.3649     17.2138   3.9353969629e+01   5.5744984062e+01    0.2320712    0.1813194  16.92 0.0006520337    1.231    0.187
       328 -10.7000    194.9192     16.7963   2.2593349136e+01   3.3978720379e+01    0.2266694    0.2086678  70.49  0.000322689    1.032    0.031
       329 -10.2515    143.5092     16.1880   3.0823707112e+01   4.7566425879e+01    0.2382306    0.1754426  38.18  0.001067186    1.301    0.231
       330 -11.3220    247.2264     15.0438   1.6317242544e+01   2.0790081434e+01    0.2515787    0.1606224 -83.40  0.001285352    1.608    0.378
       331  -9.7980    202.4478     15.5008   2.1242690539e+01   3.2122055857e+01    0.3267814    0.1296254  67.29  0.001244092    2.296    0.564
       332 -11.6127     10.4026    216.7919   1.0388003133e+02   2.9571869389e+01    0.2829756     0.204548  38.64  0.002280722    1.817    0.450
       333  -9.5920     12.6846    212.6589   1.0331499604e+02   3.0081663616e+01    0.1674776   0.07604238 -71.52  0.001090313    2.030    0.507
       334 -11.4877     29.3624    215.5172   1.0077919576e+02   2.7863272735e+01    0.2483663    0.1689788  48.81  0.001532697    1.461    0.316
       335 -10.4717    229.5402     14.4908   1.7894754531e+01   2.5210977845e+01    0.1374742    0.1248233 -80.76 6.040634e-05    1.018    0.018
       336 -11.5569    235.9350    214.3838   6.3455717427e+01  -4.8671257466e+00    0.2275257    0.1675999  -7.24  0.000777529    1.406    0.289
       337  -9.5073    110.0000    212.0546   8.6236073360e+01   1.7646311840e+01    0.1743418   0.06790538 -59.84 0.0007977669    2.910    0.656
       338 -10.4877     20.6837    212.1216   1.0199798821e+02   2.9382123283e+01    0.1726504    0.0911149  77.66  0.001171114    1.487    0.328
       339 -10.9881      1.4867    211.0110   1.0500243731e+02   3.1421318028e+01     0.204568    0.1067564  87.66 0.0009396331    1.433    0.302
       340 -11.8764      5.3609    208.4460   1.0427283167e+02   3.1525713203e+01    0.3423083    0.1697109 -78.87  0.002352984    1.680    0.405
       341  -9.5629    176.2078    218.8493   7.4823735727e+01   5.0978936826e+00    0.1739029    0.1286138  30.75 0.0006634854    1.305    0.234
       342 -10.3912    246.4822    202.4759   5.9553351528e+01  -5.2536104168e+00    0.2154104    0.1790193 -63.23  0.001285319    2.156    0.536
       343 -10.8651     20.4774    199.4886   1.0129149096e+02   3.1717904718e+01     0.292858    0.1592775 -82.65    0.0018708    1.507    0.336
       344 -10.6848    175.3250    202.3217   7.2442483781e+01   7.7437653637e+00    0.2353721    0.1913266  50.70 0.0004568545    1.115    0.103
       345  -9.7560     96.2639     12.4316   4.0715243437e+01   5.8846060992e+01    0.1626337    0.1268785  59.62 0.0007819331    1.512    0.338
       346 -10.0993    117.1004    201.5121   8.3599327266e+01   1.8367771051e+01    0.1934293    0.1072199  46.36 0.0007912575    1.544    0.352
       347  -9.2584    188.2209    204.9832   7.0439253746e+01   4.9243210989e+00    0.1475714    0.1090508 -39.19 0.0005362506    1.617    0.382
       348 -11.4249     16.1655    193.0496   1.0164032398e+02   3.3351217698e+01    0.3382806    0.1869239  40.39  0.002116129    1.912    0.477
       349 -10.2758    244.7005    188.0251   5.7161807444e+01  -3.1673895145e+00    0.1798136    0.1479066   1.47 0.0004448116    1.116    0.104
       350  -9.2992    211.6908    187.6686   6.3006788351e+01   3.0114243028e+00    0.1386052   0.09501325  14.80 0.0003074356    1.668    0.401
       351 -10.2708    175.9822     10.5374   2.3345778529e+01   3.9693593880e+01    0.2277116    0.1305729  66.34 0.0006404127    1.580    0.367
       352  -9.4666      2.3319    187.3219   1.0370119660e+02   3.5686920213e+01   0.09213717   0.06777342 -63.14  0.000452546    1.700    0.412
       353  -9.6468     61.6398    184.7912   9.2544100316e+01   2.9889939472e+01    0.1672029   0.09498974 -84.40 0.0009446506    1.685    0.407
       354 -11.6580     15.8157    181.9997   1.0100020555e+02   3.5510381233e+01    0.3953891    0.1778574  77.12  0.002272109    2.032    0.508
       355 -10.5382    168.2587    183.6584   7.0689235976e+01   1.2171837196e+01    0.2739457    0.2022072  73.82  0.001418451    1.720    0.419
       356  -9.7222     58.8477    181.6880   9.2781705479e+01   3.0870391801e+01    0.1622338    0.1438971  49.89 0.0007067192    1.379    0.275
       357  -9.7199    244.4990    177.9923   5.5237236295e+01  -1.8254174930e+00    0.1937273    0.1049235  -5.39 0.0008099204    2.758    0.637
       358 -10.4871     46.6806    177.4925   9.4781042923e+01   3.3195531584e+01    0.2338661     0.177913  83.71  0.001335985    1.033    0.031
       359 -10.6792     18.5042    173.0354   9.9877382515e+01   3.7033342359e+01    0.2111987    0.1146508  58.24  0.001364824    1.620    0.383
       360 -12.4415     37.0880    165.6862   9.5598179413e+01   3.6689090949e+01    0.5463561    0.5240408 -47.75  0.002750397    1.522    0.343
       361 -10.2329     35.4702    161.4825   9.5531715778e+01   3.7735903542e+01    0.1773892    0.1491034  61.97 -1.176997e-05    1.250    0.200
       362 -11.7703     51.9184    162.6733   9.2195822115e+01   3.5656231264e+01     0.629281    0.3595941  81.90  0.003472536    1.783    0.439
       363 -10.5922     55.4931    161.4531   9.1293836341e+01   3.5485243158e+01    0.2403283    0.1593353  75.64 0.0007592482    1.405    0.288
       364  -9.4175     77.3253    167.9700   8.7395470000e+01   3.1220615041e+01    0.2111735     0.093229 -86.44 0.0006154194    4.456    0.776
       365 -10.4798      5.0072    168.5012   1.0211440076e+02   3.9115767232e+01    0.1380509   0.09515124  44.95 0.0008697406    1.591    0.371
       366  -9.3475    177.2607    168.6423   6.6086913936e+01   1.2980879388e+01    0.1369607    0.1110322 -89.05 0.0002592521    1.624    0.384
       367 -10.3410    186.3995    164.7892   6.3466353213e+01   1.1754317569e+01    0.3027245    0.1713191  71.92 0.0009634322    4.307    0.768
       368  -9.7900     67.6470    165.3170   8.9140480459e+01   3.3114591589e+01    0.1345921   0.08007167  71.35 0.0007046635    1.741    0.426
       369  -9.4269    111.7733    164.0295   7.9294772232e+01   2.6596050402e+01    0.1730284    0.1091213 -60.38 0.0005928276    1.629    0.386
       370  -9.6285    186.1633     22.6231   2.5579258752e+01   3.5654832806e+01    0.2044157    0.1785235 -67.13  0.001101813    1.189    0.159
       371 -11.4353     19.1408    157.9447   9.8575433752e+01   4.0049959179e+01    0.3529044    0.2066505 -67.55 0.0003763819    1.510    0.338
       372 -11.6565     23.9999    156.9919   9.7495822590e+01   3.9804611030e+01    0.4303297    0.2180179 -83.65   0.00190771    1.660    0.397
