#   1 NUMBER                 Running object number                                     
#   2 MAG_AUTO               Kron-like elliptical aperture magnitude                    [mag]
#   3 X_IMAGE                Object position along x                                    [pixel]
#   4 Y_IMAGE                Object position along y                                    [pixel]
#   5 X_WORLD                Barycenter position along world x axis                     [deg]
#   6 Y_WORLD                Barycenter position along world y axis                     [deg]
#   7 A_WORLD                Profile RMS along major axis (world units)                 [deg]
#   8 B_WORLD                Profile RMS along minor axis (world units)                 [deg]
#   9 THETA_WORLD            Position angle (CCW/world-x)                               [deg]
#  10 FWHM_WORLD             FWHM assuming a gaussian core                              [deg]
#  11 ELONGATION             A_IMAGE/B_IMAGE                                           
#  12 ELLIPTICITY            1 - B_IMAGE/A_IMAGE                                       
         1 -12.9077     30.7284      9.9763   8.2455870990e+01   7.0370706765e+01     1.424003    0.4962434 -34.12  0.006636707    2.585    0.613
         2 -14.9422      6.0385     76.6844   1.1492535424e+02   5.9445567741e+01      3.23691     2.025985  62.40   0.01849859    2.183    0.542
         3 -13.6764     24.0616     49.8764   1.0143127102e+02   6.4060482595e+01     1.246687    0.7360606 -29.98  0.006337695    1.596    0.374
         4 -15.4795      9.0200     27.2693   1.0109893603e+02   6.9506107692e+01     2.761634      1.04675 -49.52   0.01441503    1.974    0.493
         5 -14.4098     96.6346     71.4680   8.1005510919e+01   4.9724191269e+01     1.828952     1.358711  -1.23   0.00182846    1.688    0.407
         6 -14.3873     44.3340     42.2816   9.0078474696e+01   6.3510899089e+01     2.112313     1.304444 -31.28  0.009554024    1.452    0.311
         7 -15.7810     57.6726     71.2376   9.4376472173e+01   5.6061875153e+01     3.595284     2.519099  18.64   0.01696312    1.616    0.381
         8 -14.4044     80.0856     69.7002   8.5897887355e+01   5.3051117096e+01     2.983083      1.78854  -5.69   0.01127491    3.129    0.680
         9 -13.8755     69.5216     55.7198   8.4947284516e+01   5.7522744521e+01     1.239843      1.16135 -17.80  0.004435584    1.106    0.096
        10 -12.6267     80.3202     31.9590   7.1902601289e+01   5.9686845620e+01    0.8626337    0.6112261  49.32  0.004084422    1.554    0.356
        11 -12.7387    138.3905      4.2860   4.6557422562e+01   4.9813901112e+01     1.211636    0.3314694  60.72  0.004443762    2.787    0.641
        12 -11.7055     73.3734      1.5192   6.0618188265e+01   6.4626966460e+01    0.2706076    0.1409544  52.06 0.0005895242    1.821    0.451
        13 -13.2054     83.4495     22.6379   6.6923988718e+01   6.0361721229e+01    0.8320301     0.501271  52.70 0.0006336705    1.771    0.435
        14 -13.6705    120.5503     10.8572   5.2274218688e+01   5.3543161444e+01     1.589645    0.6071751  56.20  0.006600462    2.177    0.541
        15 -14.8340     87.6351      6.9254   5.8775650740e+01   6.1269026626e+01     2.422073      1.12635  54.73   0.01146234    2.002    0.500
        16 -11.8941    151.1915     21.2568   5.0047549746e+01   4.4939771605e+01    0.6262137      0.42261  51.55  0.003034446    1.375    0.273
        17 -11.0886    208.9957     19.2691   4.1581565847e+01   3.0646764052e+01    0.3664105     0.253199 -53.69  0.001462897    1.364    0.267
        18 -12.3470    176.3320     12.5917   4.3604533824e+01   3.9496783902e+01     1.092808    0.5825613  17.62  0.004088577    3.779    0.735
        19 -13.1207    185.8956     12.8852   4.2498479194e+01   3.7059333767e+01    0.9326353    0.6207009 -31.74   0.00496966    1.599    0.375
        20 -12.4059    192.8220      5.7467   3.9788849426e+01   3.6064591548e+01    0.5577492    0.4007492 -42.05  0.002445168    1.411    0.291
        21 -11.5038    188.3165      5.6246   4.0236912790e+01   3.7192622680e+01    0.3972782    0.2747743 -38.08  0.001046611    1.496    0.332
        22 -11.6146     64.6115     18.0112   7.1494179514e+01   6.4397542250e+01    0.4037655    0.2773486  23.63  0.001232553    1.358    0.263
        23 -12.5016     75.9110     13.5417   6.5398646291e+01   6.2906272783e+01    0.3808523    0.3134635  25.34   0.00107311    1.066    0.062
        24 -11.7952    169.4932     10.5674   4.3911902652e+01   4.1430173088e+01    0.3266313    0.2658122  89.94  0.001190891    1.168    0.144
        25 -10.5965    155.8534     10.2537   4.5754544992e+01   4.4907322995e+01    0.2602134      0.17954 -88.31  0.001319067    1.566    0.362
        26 -11.8493    149.6443      8.4824   4.6139926865e+01   4.6636924006e+01    0.6994465    0.3611299  76.00  0.002847996    1.986    0.496
        27 -13.0941    104.4615      5.1076   5.3618060720e+01   5.7792499392e+01    0.6997165    0.5154359 -25.34  0.003028934    1.486    0.327
        28 -11.5479    168.0436      2.6698   4.1761613043e+01   4.2542628535e+01    0.3045848    0.2820812 -77.76  0.001938814    1.099    0.090
        29  -9.7121     49.2181      4.2505   7.0948313832e+01   6.8564876887e+01    0.1471868    0.1369681   5.55  0.001053532    1.376    0.273
        30  -9.8375    211.9790      1.4966   3.6893103922e+01   3.1841040736e+01    0.1902545    0.1122007  78.08 0.0004724152    1.523    0.343
        31 -12.7591    141.2868     96.0891   7.5839238774e+01   3.5168702579e+01    0.8219207    0.7098337 -68.84  0.003589067    1.285    0.222
        32 -12.4403    135.3256     93.8861   7.6741914450e+01   3.6981791050e+01     1.001938     0.470484 -38.83  0.002361124    2.177    0.541
        33 -10.9702     18.3440    153.8917   1.2122922760e+02   4.0548729862e+01    0.2091912    0.1513733  57.74  0.001145312    1.364    0.267
        34 -10.9754    114.2091     97.0921   8.3447158448e+01   4.0836840341e+01     0.379266    0.2872382 -48.35 0.0009748256    1.293    0.227
        35 -11.2320    233.5074    153.5143   7.0662183085e+01   3.9450108724e+00    0.2778613    0.1353407  44.84  0.001216864    2.187    0.543
        36 -10.8355    188.6542     94.5958   6.4828579593e+01   2.4210135748e+01    0.3014274    0.2541492 -68.03 0.0004906042    1.296    0.228
        37 -12.2201    126.3302     72.8893   7.2762721375e+01   4.3213911459e+01    0.9134815    0.3928824  53.96  0.003215738    2.574    0.612
        38 -12.0462    120.6248     90.3748   7.9695689483e+01   4.0950463267e+01    0.8700171    0.6096117  42.47   0.00399616    1.457    0.314
        39 -11.6406    128.2856     82.0813   7.5105001620e+01   4.0980522803e+01     0.464345     0.402168 -33.22  0.001315714    1.152    0.132
        40 -13.3291    119.3387     79.6681   7.6823478795e+01   4.3437417506e+01     1.119929    0.8764679 -87.36  0.004671305    1.786    0.440
        41 -11.3299    115.9663     68.5201   7.4216722547e+01   4.6339593277e+01    0.4441929    0.3368196 -19.04   0.00130665    1.462    0.316
        42 -10.8817    118.7942     63.6708   7.1812232183e+01   4.6612253150e+01    0.4749568    0.2449069 -34.29 0.0006026768    1.996    0.499
        43 -11.4287    249.1833     86.1207   5.2953122859e+01   1.2032679113e+01     0.460932    0.2831787 -37.58  0.002336641    1.420    0.296
        44 -10.1203    236.0154     87.7652   5.5142843108e+01   1.4537703873e+01    0.2453853    0.1833887 -37.25 0.0006192162    1.213    0.176
        45  -9.8714    152.2707     88.2799   7.0896397502e+01   3.4178196513e+01    0.2155455    0.1853041 -86.66  0.001042292    1.347    0.258
        46 -11.5624    113.0269     82.1777   7.9405897198e+01   4.4267017847e+01    0.4509858    0.3430622  75.05  0.001414903    1.801    0.445
        47 -12.5599    145.6467     77.1040   6.9156254922e+01   3.7908722786e+01    0.8247542    0.6839417 -76.94  0.004002369    1.441    0.306
        48 -11.4340    152.2566     73.4502   6.6490157674e+01   3.6983223892e+01    0.5613051    0.4087837  74.71  0.002003141    1.668    0.400
        49  -8.8752    164.6852     81.7329   6.6178441168e+01   3.2422207924e+01    0.1539818     0.121501  20.69 0.0001970399    1.549    0.354
        50  -9.7661    234.0360     76.2770   5.2665689201e+01   1.6813925852e+01    0.1948927    0.1814143 -74.99 0.0008118803    1.087    0.080
        51  -9.8201    250.0952     73.6051   4.9966125351e+01   1.3782697830e+01    0.2463185    0.1609552 -46.53  0.001076006    1.337    0.252
        52 -10.5475    171.0048     72.4064   6.2144249740e+01   3.2534686261e+01     0.447469    0.2932934  75.38  0.001885989    1.906    0.475
        53  -9.2949    182.5769     71.7695   5.9716063587e+01   2.9762787784e+01    0.2023658    0.1379211 -47.72 0.0002745876    1.472    0.321
        54  -9.0777    198.0075     69.9512   5.6491277033e+01   2.6256032833e+01    0.1718221     0.162928 -66.87 0.0009447137    1.002    0.002
        55 -12.0385     23.9357     66.8999   1.0611106502e+02   6.0480861806e+01    0.4444148     0.218502 -43.34  0.002291999    1.720    0.419
        56 -10.1511    146.5072     66.6583   6.5720139471e+01   3.9594537630e+01    0.3283628    0.2592706  24.03  0.001564845    1.461    0.315
        57 -11.1002    214.4011     61.0699   5.1620992703e+01   2.3699224000e+01    0.4413925    0.3185994 -23.40  0.001120362    1.561    0.359
        58 -10.1120    210.1105     62.5646   5.2629202069e+01   2.4495781938e+01    0.2839119    0.2042012 -29.02 0.0009751451    1.456    0.313
        59 -10.6761    169.2041     62.9794   5.9728851056e+01   3.4579132465e+01     0.536374    0.2001228  57.57  0.001830808    2.645    0.622
        60 -10.3827    227.3779     57.4280   4.8960250984e+01   2.1207134083e+01    0.2667333    0.2186318 -59.42 0.0006387242    1.121    0.108
        61 -11.4937    124.7925     57.3090   6.8043549230e+01   4.6365833578e+01     0.406068    0.2790913  44.31 0.0006708596    1.423    0.297
        62 -11.4048    174.5905     56.4827   5.6784357257e+01   3.4258831118e+01    0.2719555    0.2550685 -89.96 0.0004413809    1.045    0.043
        63 -11.7032    152.5387     53.6487   6.0263018983e+01   4.0259926083e+01    0.4205725    0.2802851  37.66 0.0003198375    1.649    0.394
        64  -9.9650    137.3116     55.3500   6.4245628616e+01   4.3733790501e+01    0.3076487    0.2011872  38.77 0.0008363795    1.602    0.376
        65 -11.4535    133.1173     53.5973   6.4675217283e+01   4.5023987809e+01    0.3979113    0.2784922  45.99 0.0008909442    1.385    0.278
        66 -10.0985    175.4953    103.5132   6.9906662315e+01   2.5639007479e+01    0.1552933    0.1525242 -38.76 -9.092468e-05    1.006    0.006
        67 -10.7681     96.4183     50.4179   7.3789247839e+01   5.3667928116e+01    0.6720038    0.4069436  68.72  0.002595454    3.148    0.682
        68  -9.8191    100.5136     49.5037   7.2181162470e+01   5.2989739805e+01    0.2665938    0.1684759  36.13 0.0007338808    1.599    0.374
        69 -11.3221    145.4032     50.4000   6.0759080440e+01   4.2537075484e+01    0.3940878    0.2945183 -38.29  0.001069491    1.376    0.273
        70 -11.2166    137.5991     48.3548   6.1844341211e+01   4.4764488959e+01    0.3796291    0.2838302 -55.74  0.001080073    1.552    0.356
        71 -10.7219    140.1560     43.7904   5.9729911435e+01   4.4817073099e+01    0.4427389    0.2630523  61.79  0.001356289    1.703    0.413
        72 -10.5832    176.1352     44.9802   5.3122197187e+01   3.5578859251e+01     0.404497    0.3041273 -19.93  0.002020669    1.525    0.344
        73 -10.9218    181.6519     43.2301   5.1704324369e+01   3.4423801096e+01    0.3525095      0.25238  64.42 0.0003946068    1.341    0.254
        74 -12.3336    122.1541     43.9187   6.4071951390e+01   4.9110558701e+01     0.315941     0.275879  -5.17 0.0007874514    1.186    0.157
        75 -11.4500    157.0386     43.6514   5.6176410949e+01   4.0620076729e+01    0.3598977    0.2681273  52.69  0.000723974    1.283    0.220
        76 -10.7057    202.9714     43.7744   4.8694742834e+01   2.9004951960e+01    0.4103163    0.2686571  48.73  0.001879853    1.674    0.402
        77 -12.5343    216.7477     38.7658   4.5632139098e+01   2.6341571485e+01    0.7437826    0.3136663  58.41  0.003119828    2.330    0.571
        78 -11.1024    197.0432     40.9627   4.8760492208e+01   3.0861987695e+01    0.3846693    0.2770422 -50.26  0.001102103    1.354    0.261
        79 -11.8146    202.7304     38.3737   4.7290712554e+01   2.9801210379e+01    0.7271848    0.3921884  67.24   0.00331091    1.805    0.446
        80 -10.5423    159.8247     36.2372   5.3313245500e+01   4.0929457440e+01    0.2458325    0.2109768  58.32  0.000331298    1.102    0.092
        81  -9.8974    240.4774     34.3258   4.1999602859e+01   2.1446135896e+01    0.2042264     0.182654 -17.80 0.0005606961    1.389    0.280
        82  -9.6081    140.4128     34.8134   5.6639405490e+01   4.5994297559e+01    0.1976827    0.1395381  -7.61 0.0004586459    1.727    0.421
        83  -9.4516    139.2385    152.0068   9.0213279927e+01   2.3282687526e+01    0.2036225    0.1279059 -49.41 0.0008829922    1.619    0.382
        84 -11.4559    247.2665    146.1952   6.6746911834e+01   2.6461073532e+00    0.4308899    0.3174303  76.59  0.002157969    2.351    0.575
        85 -11.1966     58.7658    144.5476   1.0976991152e+02   3.8546030245e+01    0.6887888    0.3738624  54.92  0.003184254    2.051    0.513
        86 -11.8395     51.5223    141.5384   1.1126555208e+02   4.0160264099e+01    0.6530647    0.2602475 -68.82  0.002669718    2.324    0.570
        87 -12.8913     47.0694    142.1832   1.1255499216e+02   4.0515076296e+01    0.5596415    0.4967391 -73.37  0.003539368    1.090    0.082
        88  -9.7378     90.3778    145.8140   1.0150765292e+02   3.3688298948e+01    0.2126297     0.125707 -50.27 0.0009503688    1.686    0.407
        89 -10.8999    176.4675     33.4371   4.9668504176e+01   3.7053335487e+01    0.3105136    0.2403931  67.53  0.000609142    1.215    0.177
        90 -10.1836     97.5440     33.5593   6.7010883099e+01   5.6053285529e+01    0.2422451    0.2091019  25.79 0.0005861128    1.065    0.061
        91 -10.6582    150.8990     31.8696   5.3565169581e+01   4.3753018614e+01     0.453747    0.2542685  59.52  0.002043972    1.642    0.391
        92 -10.1328    216.3666     28.7148   4.3157019369e+01   2.7734445220e+01    0.2170554    0.1810586  74.63  0.000742509    1.177    0.150
        93  -9.8891    104.5199     29.4759   6.3386882929e+01   5.5114630062e+01    0.2912376    0.1604854  29.68 0.0009803992    2.116    0.527
        94 -10.0914    109.1026     28.0968   6.1605208088e+01   5.4277553424e+01     0.294823    0.1874699  46.26   0.00100148    1.444    0.307
        95 -11.6317    241.6665     22.6866   3.9252000874e+01   2.2645407002e+01    0.4237463    0.2634708 -79.68  0.001138233    1.597    0.374
        96 -10.1897    235.7637     21.2228   3.9441237975e+01   2.4141062784e+01    0.2553914    0.1678243  64.10  0.001432475    1.576    0.366
        97 -11.0585    213.4994    142.4985   7.1864587297e+01   9.7429563125e+00    0.2771509    0.2147011  19.72  0.001409588    1.422    0.297
        98 -11.7523     76.5025    137.5078   1.0375257821e+02   3.7849222866e+01     0.436635    0.2209935 -59.08  0.001894209    1.814    0.449
        99 -10.2930    139.3616     20.7890   5.2053290530e+01   4.7951170603e+01    0.2679353    0.2118958  54.35 0.0007102235    1.146    0.127
       100 -10.5126    196.7988     19.6686   4.3048514865e+01   3.3593640788e+01    0.2495437    0.1645926  85.40 0.0007207363    1.480    0.324
       101 -11.6142     33.6370    135.5972   1.1527652245e+02   4.3512114838e+01    0.2765553    0.2154105  70.80  0.001327839    1.283    0.221
       102 -11.7912     82.5206    133.8495   1.0138577261e+02   3.7836075184e+01    0.3048409    0.2455484 -49.30  0.001620686    1.240    0.194
       103 -11.3671    248.1098    129.8180   6.3025307348e+01   5.1574612029e+00    0.3177236      0.23011 -61.04  0.001639335    1.811    0.448
       104 -11.0353    122.1104    127.2950   8.9055477678e+01   3.2363696661e+01    0.4083711    0.3818826  70.50  0.001449287    1.095    0.087
       105 -10.5768    192.4598    113.2874   6.8941657558e+01   1.9783868534e+01    0.6165526    0.1844731  53.84  0.001770169    3.881    0.742
       106 -10.6503    245.5095    249.5029   8.6468605313e+01  -1.1388210363e+01    0.1141938   0.08387979  11.89 4.734391e-05    1.002    0.002
       107 -10.0523    194.3448    249.3160   9.5500847237e+01  -4.0908782761e+00    0.1237717    0.0792329  12.72 0.0007048202    1.717    0.418
       108  -9.3958    246.4698    183.4982   7.4598032664e+01  -3.0084809198e+00     0.130774    0.1078776  -4.26 0.0008098751    1.014    0.014
       109 -10.2346     33.7814    177.4145   1.1984731645e+02   3.3650853730e+01    0.1517157    0.1217626  19.56 0.0009605173    1.712    0.416
       110 -10.5674    203.0000    172.5143   8.0429981226e+01   6.4017507407e+00     0.308098   0.07864466 -40.57 0.0009363306    3.948    0.747
       111  -9.8187      2.3254    171.6470   1.2624416360e+02   3.7823234904e+01    0.1267509   0.06445968  68.32 0.0007047342    1.763    0.433
       112 -10.2435     29.6503    153.5098   1.1843869657e+02   3.9610723638e+01    0.2262632    0.1004819 -72.55  0.001018952    1.893    0.472
