#   1 NUMBER                 Running object number                                     
#   2 MAG_AUTO               Kron-like elliptical aperture magnitude                    [mag]
#   3 X_IMAGE                Object position along x                                    [pixel]
#   4 Y_IMAGE                Object position along y                                    [pixel]
#   5 X_WORLD                Barycenter position along world x axis                     [deg]
#   6 Y_WORLD                Barycenter position along world y axis                     [deg]
#   7 A_WORLD                Profile RMS along major axis (world units)                 [deg]
#   8 B_WORLD                Profile RMS along minor axis (world units)                 [deg]
#   9 THETA_WORLD            Position angle (CCW/world-x)                               [deg]
#  10 FWHM_WORLD             FWHM assuming a gaussian core                              [deg]
#  11 ELONGATION             A_IMAGE/B_IMAGE                                           
#  12 ELLIPTICITY            1 - B_IMAGE/A_IMAGE                                       
         1 -12.0003      2.5013     75.5075   1.2444593841e+02   5.9257630644e+01    0.7376584    0.1408055 -74.74  0.002616195    4.177    0.761
         2 -13.5549    215.8586     18.1947   4.9986189218e+01   2.8445701774e+01     1.308153    0.9406073  32.95  0.006568125    1.644    0.392
         3 -11.8003      2.1832     19.0920   1.1353249532e+02   7.1327631706e+01    0.7114749    0.1428261 -64.55  0.002626275    4.136    0.758
         4 -10.7725      2.2494      4.2335   1.0822617287e+02   7.4194581897e+01    0.5122631   0.09642524 -58.67  0.001928086    4.120    0.757
         5 -11.6999     89.9008    245.7468   1.2075678480e+02   1.6642604571e+01     0.301577    0.1333775  55.68  0.001435589    1.806    0.446
         6 -11.2127    161.7589    249.7029   1.0931762129e+02   5.9591997213e+00    0.2881194    0.1326023  40.08  0.001732352    1.595    0.373
         7 -11.9321    140.8896    249.2433   1.1268873231e+02   9.0788385830e+00    0.4326804    0.1728674  44.94  0.002465684    1.790    0.441
         8 -12.0341    126.9718    249.0267   1.1495330968e+02   1.1110064786e+01    0.4678475    0.1883339  40.51  0.002652558    1.906    0.475
         9 -11.1215    101.0175    249.0609   1.1919738881e+02   1.4702559149e+01    0.1904514    0.1584814  55.76  0.001604208    1.219    0.180
        10 -11.1450     83.1759    248.8275   1.2206129917e+02   1.7072355508e+01    0.2181608    0.1419969  48.27  0.001406706    1.180    0.152
        11 -11.5015     62.9253    249.4294   1.2531155143e+02   1.9478834555e+01    0.3224526    0.1462115  48.95  0.002197557    1.519    0.342
        12 -15.5005     10.6397    241.1128   1.3295558502e+02   2.6295631380e+01     9.437893     3.882157 -85.15   0.06662437    2.230    0.552
        13 -11.6693     50.2443    238.4780   1.2671515174e+02   2.2589579736e+01    0.4199069    0.1543222  74.86  0.002102341    3.563    0.719
        14 -12.6446    102.9550    240.5581   1.1819703143e+02   1.5633682257e+01    0.4394123    0.2155435  43.68  0.002632869    1.536    0.349
        15  -9.7732    250.0000    247.9891   9.5192519555e+01  -6.6218381023e+00    0.1377595   0.05463023 -26.97 0.0008080369    2.981    0.665
        16 -10.0731    151.5040    229.0163   1.0873719822e+02   1.0096361812e+01    0.1410878    0.1153944 -52.25 0.0008488852    1.609    0.378
        17  -8.9782     70.6778    229.2988   1.2277883509e+02   2.1580859498e+01    0.1119134   0.05761546  62.12 0.0003960392    1.625    0.384
        18 -10.1553    110.8103    225.6141   1.1551418283e+02   1.6724987709e+01    0.1698614   0.07719397  49.51  0.000722851    1.702    0.412
        19 -11.0790     56.6040    240.4060   1.2580179384e+02   2.1562475824e+01     0.210247       0.1295  71.87 0.0009885322    1.341    0.254
        20 -10.7291    224.7574    198.8651   9.1731658276e+01   1.9120820977e+00    0.2702287    0.2203132 -51.54 0.0009557336    1.906    0.475
        21 -12.4865     28.3769    223.0208   1.2948632633e+02   2.7416522637e+01    0.2658991    0.2205003  70.30 0.0007500921    1.305    0.234
        22 -11.3371     57.1094    191.3513   1.2239127172e+02   2.9768098399e+01    0.2687928    0.2212645 -49.12  0.001272634    1.781    0.438
        23  -8.3933    181.5018    192.4711   9.8311803838e+01   1.0172272507e+01    0.1272442    0.1047633  36.06 6.424348e-05    1.003    0.003
        24 -11.3966     63.3483    184.1061   1.2054287464e+02   3.0364006158e+01    0.2156012    0.1988286  87.69 0.0005316967    1.306    0.234
        25 -13.9607     34.8578    215.2767   1.2801880703e+02   2.8032411573e+01    0.8767006    0.5380681  60.46   0.00298686    1.177    0.151
        26 -10.5742     74.0132    172.4660   1.1718524259e+02   3.1238337650e+01    0.2041247    0.1729632 -88.81  0.000390177    1.148    0.129
        27 -12.8810     60.5043    169.8027   1.1977506231e+02   3.3507617129e+01    0.4169791    0.2513228 -49.59  0.001533333    2.222    0.550
        28 -11.4199     81.8711    164.1845   1.1452603529e+02   3.1807181089e+01    0.4552737    0.4140748  63.76  0.003136132    1.165    0.142
        29 -13.9349     10.0776    207.0942   1.3184400680e+02   3.1870764218e+01     1.388407     1.231536 -23.78   0.01181142    2.150    0.535
        30  -9.5863     95.6145    149.0999   1.0932601502e+02   3.2852650101e+01    0.2384708     0.187749  40.04 0.0008644441    1.324    0.245
        31 -11.6770     83.9858    147.7729   1.1185467386e+02   3.4891494197e+01    0.2576195    0.2189162 -59.54 0.0004245003    1.290    0.225
        32 -12.1332     67.6692    143.8380   1.1518716134e+02   3.7989517292e+01    0.6379367    0.3687913  64.77  0.002755911    1.821    0.451
        33  -8.6680     98.8376    145.1988   1.0795625493e+02   3.3154965742e+01    0.1631475    0.1568245 -27.70 0.0003348584    1.305    0.234
        34  -9.1578    108.4480    134.8512   1.0386677081e+02   3.3728308756e+01    0.2414812    0.1817519  -5.46  0.001117398    2.249    0.555
        35 -10.2463     95.1947    131.9861   1.0661384812e+02   3.6549186441e+01    0.2232296    0.2119037 -41.36  0.000421159    1.250    0.200
        36 -14.2066     43.6772    205.4791   1.2590736655e+02   2.8767019049e+01     1.695575    0.7176855  56.21  0.009264464    1.862    0.463
        37  -8.8684    105.8854    122.3299   1.0209280216e+02   3.6843396308e+01    0.1809413    0.1645828  54.15 0.0002805301    1.099    0.090
        38  -9.5356    167.9476    113.0598   8.5192069923e+01   2.6107491737e+01    0.3306443    0.2434667 -81.35  0.001472292    2.020    0.505
        39  -8.4088    203.3088    111.6874   7.7755198817e+01   1.8345610498e+01    0.1428754    0.1169736 -72.32 0.0002932894    1.625    0.385
        40 -11.5212      1.6690     88.2840   1.2616008753e+02   5.6479435678e+01    0.6108531    0.1189228 -75.54  0.002254125    3.908    0.744
        41 -10.1813    229.1563    248.8847   9.8473546445e+01  -3.8211234412e+00    0.1543003    0.1159735  35.16 0.0005913688    1.250    0.200
        42 -10.6093      1.6700     62.5748   1.2298671619e+02   6.2145791782e+01     0.273234    0.1086042 -73.42  0.001009154    1.945    0.486
        43 -11.9346    197.3554     37.5419   5.8071982893e+01   3.0991997963e+01    0.5364787    0.4277957 -62.99  0.002708056    1.348    0.258
        44 -12.4808    202.0042     33.5534   5.6203297246e+01   3.0273368779e+01    0.6058903    0.5103579 -65.15  0.003200699    1.235    0.190
        45 -11.6154    171.1044    248.1863   1.0762558117e+02   4.7457596688e+00      0.45175     0.199025  29.56  0.002284873    2.722    0.633
        46 -11.1013     18.4858     26.2825   1.0758906675e+02   6.8904797175e+01    0.3659544     0.188275  44.45  0.001927715    2.857    0.650
        47 -11.1437    114.6829    248.9615   1.1696140536e+02   1.2847993860e+01    0.2300382    0.1613752 -65.30  0.001764865    1.858    0.462
