#   1 NUMBER                 Running object number                                     
#   2 MAG_AUTO               Kron-like elliptical aperture magnitude                    [mag]
#   3 X_IMAGE                Object position along x                                    [pixel]
#   4 Y_IMAGE                Object position along y                                    [pixel]
#   5 X_WORLD                Barycenter position along world x axis                     [deg]
#   6 Y_WORLD                Barycenter position along world y axis                     [deg]
#   7 A_WORLD                Profile RMS along major axis (world units)                 [deg]
#   8 B_WORLD                Profile RMS along minor axis (world units)                 [deg]
#   9 THETA_WORLD            Position angle (CCW/world-x)                               [deg]
#  10 FWHM_WORLD             FWHM assuming a gaussian core                              [deg]
#  11 ELONGATION             A_IMAGE/B_IMAGE                                           
#  12 ELLIPTICITY            1 - B_IMAGE/A_IMAGE                                       
         1 -14.4433    153.8320     51.7374   8.8352405473e+01   3.9855986654e+01     1.521046     1.225199  42.37  0.003724966    1.247    0.198
         2 -14.5880    165.0896     35.7583   8.0824968043e+01   3.9232564653e+01     1.266179     1.026629   1.04  0.004265811    1.362    0.266
         3 -13.9802    178.5150      4.7324   6.8480587262e+01   3.9105465155e+01     1.014866    0.6689135  72.94  0.003994343    1.478    0.324
         4 -10.6297      6.9020    248.5536   1.5264267278e+02   2.5188279140e+01    0.1000998   0.06623248  46.42 0.0004016207    1.212    0.175
         5 -19.8426     71.1697    168.7931   1.3568012421e+02   3.2178472272e+01     16.12376     6.528652 -69.82   0.07507505    2.706    0.630
         6 -11.9139    159.1399    195.1569   1.2039414068e+02   1.4427019473e+01     0.329098    0.2004825 -58.77  0.001632588    2.485    0.598
         7 -12.1233    135.3595    195.8132   1.2515040588e+02   1.8056488736e+01    0.2720124    0.1959361  73.22  0.001014758    1.900    0.474
         8 -12.0068    110.1451    231.6095   1.3392021625e+02   1.6315792927e+01    0.3425423     0.225218 -82.65  0.002324966    2.147    0.534
         9 -10.7153     39.6883    194.6458   1.4463851145e+02   3.0889690126e+01    0.3398187    0.1609136  35.48  0.001336751    1.861    0.463
        10 -13.5814    207.5887    183.7711   1.0964933665e+02   8.1514061555e+00    0.6643059    0.4371121 -48.56  0.001287485    2.316    0.568
        11 -12.9762    210.4939    181.5354   1.0875966650e+02   7.9600060695e+00    0.4146699    0.2714722 -15.94  0.001807023    1.611    0.379
        12 -10.2003    164.3010    250.3356   1.2633232057e+02   6.7020019635e+00    0.1024433    0.0664125  16.63 0.0007035359    1.659    0.397
        13 -10.5275    125.6858    186.5415   1.2588428970e+02   2.1052328771e+01    0.3617686     0.180546  62.24  0.001045072    3.457    0.711
        14 -10.1001     32.6009    188.1356   1.4569975528e+02   3.2807971649e+01    0.1808039    0.1444922 -47.01 0.0009635955    1.802    0.445
        15 -12.6562     28.0938    183.7929   1.4638800643e+02   3.4062706961e+01     0.262175    0.1938168  54.15 0.0007628341    1.114    0.102
        16 -11.0319    157.7018    184.7555   1.1912063338e+02   1.6198855198e+01    0.1905474    0.1543305 -35.46 0.0006487371    1.444    0.307
        17 -10.8970    220.1633    227.4523   1.1430800874e+02   1.4975682457e+00    0.1514999    0.1167953 -16.69  0.000842531    1.478    0.323
        18 -10.5719    101.0686    224.4392   1.3494469963e+02   1.8555651638e+01     0.155688      0.11443  47.85  0.001134626    1.043    0.041
        19 -12.0248    197.7125    176.3204   1.1011525870e+02   1.0723398140e+01    0.3697607    0.3010471 -51.20  0.001500529    1.749    0.428
        20 -10.5417    110.0970    222.9529   1.3312212693e+02   1.7573554272e+01    0.1624866    0.1220119  49.58 0.0004476053    1.091    0.083
        21 -12.4360    178.9617    174.7018   1.1333017391e+02   1.4121524207e+01    0.3860637    0.2749293  -5.71  0.001444806    1.668    0.400
        22 -10.8132    177.3972    169.2370   1.1267771472e+02   1.5193117726e+01     0.237357    0.1250663 -43.64  0.001052123    2.224    0.550
        23 -10.7165    148.6865    173.3458   1.1914840491e+02   1.9501734311e+01    0.2129225    0.1825073  26.97  0.000841421    1.092    0.084
        24 -12.1738    145.9660    169.3106   1.1906031332e+02   2.0633052418e+01    0.3777422    0.3472615 -80.71  0.001915585    1.318    0.241
        25 -11.7214    137.8112    171.7579   1.2117964917e+02   2.1597713587e+01     0.379775    0.2439861  64.15  0.001919716    2.086    0.521
        26 -11.0227    205.9413    170.3044   1.0756235157e+02   1.0133017807e+01    0.4606858    0.2217619  23.38  0.002016224    2.647    0.622
        27 -11.7203    226.6457    168.2095   1.0362633908e+02   6.9615126512e+00    0.3770212    0.2481216 -53.31  0.001933825    2.923    0.658
        28 -11.7543    229.9735    165.9845   1.0266397276e+02   6.6858334899e+00    0.1795748    0.1608965   8.76 0.0007269668    1.238    0.192
        29 -11.6766    112.8947    169.0411   1.2620999604e+02   2.6135141057e+01    0.2777646    0.2119627  59.31 0.0004547719    1.285    0.222
        30 -11.0035     34.8889    168.1910   1.4392485716e+02   3.6442463235e+01    0.1989272    0.1342391  61.40 0.0009313749    1.227    0.185
        31 -10.1659    123.9067    166.8876   1.2344065902e+02   2.4759787518e+01      0.19876    0.1424503  66.09 0.0005895261    1.628    0.386
        32 -11.1351    200.1858    164.0476   1.0743998138e+02   1.1955522912e+01    0.2702896    0.2595396 -61.22  0.001350237    1.462    0.316
        33 -10.5255     15.0561    157.0227   1.4775168727e+02   4.0521395090e+01    0.1665875    0.1360332  69.10 0.0005770712    1.067    0.063
        34 -12.6974    134.2336    148.2291   1.1798028440e+02   2.6422353074e+01    0.6229628    0.2649507 -58.36  0.002324831    3.428    0.708
        35 -13.3136    133.6077    143.3928   1.1722476708e+02   2.7442699068e+01    0.7596075    0.3221905 -58.60  0.002759151    3.511    0.715
        36 -10.8378    174.2681    148.3777   1.0938012611e+02   1.8984309893e+01    0.3122819    0.2516337 -52.48  0.001219847    1.531    0.347
        37 -12.4534    153.5648    145.7875   1.1320740594e+02   2.3314241659e+01    0.3955797    0.2624163  52.10  0.002007014    1.555    0.357
        38 -10.5521     20.7151    219.1372   1.4944345477e+02   2.8505450907e+01    0.1516121   0.08964705  50.54 0.0006406307    1.216    0.178
        39 -10.2240    139.3744    216.5895   1.2695950720e+02   1.4376630338e+01    0.2516104    0.1601558  77.38  0.001326363    3.065    0.674
        40  -9.7699    154.3062    213.6290   1.2381758013e+02   1.2585868551e+01     0.112219   0.08137377  61.70 0.0007033359    1.760    0.432
        41 -10.2503    113.3847    212.5005   1.3144781130e+02   1.8696643129e+01    0.1105253   0.09249834  32.88 -0.001411885    1.192    0.161
        42 -12.2237      8.0880    139.3875   1.4842767965e+02   4.4765549162e+01    0.3416997    0.2353463  16.44  0.002263954    1.875    0.467
        43 -11.1723    134.7372    112.2204   1.1033548744e+02   3.3274182031e+01    0.3810562    0.1855032 -44.94  0.001550167    2.124    0.529
        44 -11.4587    134.5711    104.4079   1.0847084947e+02   3.4848225066e+01    0.6339831    0.1450275 -44.55  0.001745216    4.482    0.777
        45 -13.3822    135.3637    122.5562   1.1254827583e+02   3.1121806669e+01    0.8194644    0.2996163 -49.50  0.002908855    3.026    0.670
        46 -13.4845    143.9083    144.5583   1.1510000590e+02   2.5334819682e+01    0.7246068    0.4629746 -73.97  0.003107032    2.826    0.646
        47 -12.2578    130.9770    120.7512   1.1321776684e+02   3.2332742473e+01    0.3576696    0.2546154 -42.26  0.001462174    1.480    0.324
        48 -11.8070    160.5866    128.3889   1.0805879303e+02   2.5015507778e+01    0.3668131     0.311656 -36.55  0.002053773    1.239    0.193
        49  -9.6898     13.1600    211.9247   1.5054861666e+02   3.0392781729e+01    0.1093488   0.09350687  76.35            0    1.293    0.227
        50 -10.9118    239.2239    126.5970   9.3214741914e+01   9.9171715379e+00    0.1756728     0.108258  33.40 0.0005047126    1.595    0.373
        51 -12.1166      4.7314    120.2411   1.4814379809e+02   4.9179593566e+01    0.3635292    0.2339588  16.36  0.002301144    1.969    0.492
        52 -11.0571    140.4351    249.6560   1.3028323306e+02   9.9484577403e+00     0.188961     0.146248  60.81 0.0005231702    1.516    0.340
        53 -11.8194      4.3889    112.1638   1.4769582747e+02   5.1011508911e+01    0.3189098    0.2286089   3.13  0.002084397    1.913    0.477
        54 -10.0097     30.8876    204.8576   1.4693727193e+02   2.9956920893e+01    0.1363117    0.1129338  46.98 0.0006040201    1.260    0.206
        55 -10.8515    205.4775    110.1667   9.4967878542e+01   1.8692711441e+01    0.2982453    0.1898873  38.50 0.0008506492    1.557    0.358
        56 -10.0957     13.8212    110.1809   1.4476931078e+02   5.0840785702e+01    0.1494082    0.1263327 -55.42 0.0003830343    1.317    0.241
        57  -9.7326     22.8827    239.8752   1.4980673644e+02   2.5031800542e+01    0.1196799   0.07070787  56.65 0.0002823434    1.165    0.142
        58 -10.4034    155.8503    105.1729   1.0361683708e+02   3.0177996355e+01    0.2170326    0.1987552  78.34    0.0006035    1.250    0.200
        59 -10.8675    124.3669     94.8448   1.0862490200e+02   3.8875919846e+01    0.2423127    0.2004511  55.56 0.0004776764    1.245    0.197
        60 -11.7212    209.3968    234.7732   1.1703590114e+02   2.2399584355e+00    0.1359496   0.08834459  -8.95 0.0009572709    1.708    0.415
        61 -10.3334     12.5886    248.7295   1.5174662463e+02   2.4662214808e+01    0.1068401   0.07826257 -80.84 0.0009598171    1.657    0.397
        62 -12.0963     13.6939    243.7000   1.5143396607e+02   2.5302637875e+01    0.2271045   0.09415019 -77.07  0.001567526    2.610    0.617
        63 -12.8860    168.3420     28.6396   7.7875828820e+01   3.9275169710e+01    0.4535964    0.3758138   1.17  0.001044166    1.315    0.240
        64 -10.5602     13.6288     60.0234   1.3856908873e+02   6.2586451518e+01    0.1800641    0.1599645  70.98  0.000418899    1.225    0.184
        65 -11.4912     21.5431    234.7151   1.4985666786e+02   2.5944824249e+01    0.1279851    0.1007656  55.88 0.0005281692    1.196    0.164
        66 -10.9014    144.3616     33.9064   8.4068501610e+01   4.4879800930e+01    0.3156928    0.2147964  81.56 0.0008576461    1.824    0.452
        67 -10.9501    189.6961     14.9832   7.0514363384e+01   3.5189405024e+01    0.2021241    0.1816238 -31.73 0.0006086441    1.100    0.091
