#   1 NUMBER                 Running object number                                     
#   2 MAG_AUTO               Kron-like elliptical aperture magnitude                    [mag]
#   3 X_IMAGE                Object position along x                                    [pixel]
#   4 Y_IMAGE                Object position along y                                    [pixel]
#   5 X_WORLD                Barycenter position along world x axis                     [deg]
#   6 Y_WORLD                Barycenter position along world y axis                     [deg]
#   7 A_WORLD                Profile RMS along major axis (world units)                 [deg]
#   8 B_WORLD                Profile RMS along minor axis (world units)                 [deg]
#   9 THETA_WORLD            Position angle (CCW/world-x)                               [deg]
#  10 FWHM_WORLD             FWHM assuming a gaussian core                              [deg]
#  11 ELONGATION             A_IMAGE/B_IMAGE                                           
#  12 ELLIPTICITY            1 - B_IMAGE/A_IMAGE                                       
         1 -11.7381     67.2193     21.1070   8.7435321831e+01   6.2908286067e+01    0.7512734    0.5299322  -8.86  0.003365042    1.475    0.322
         2  -9.6120     73.1362     17.2801   8.3601191158e+01   6.2499527741e+01    0.5268956    0.4342962 -57.21  0.003100737    1.672    0.402
         3 -10.2097     67.5940     13.0604   8.3582223767e+01   6.4053230184e+01    0.2711094    0.2181303  -4.60  0.001106841    1.107    0.097
         4 -12.6423     64.7844     30.9848   9.2505862070e+01   6.1656813537e+01     1.745044    0.6203975  38.32  0.007116616    3.168    0.684
         5 -12.1220     71.1773     29.9654   8.9810750777e+01   6.0833739590e+01      0.95418    0.4354031 -30.48   0.00320505    2.244    0.554
         6 -11.8136    211.0026     31.2855   5.9050766654e+01   2.7825131729e+01     0.810598    0.4523568 -27.65  0.003188691    1.724    0.420
         7 -11.6313    229.2425     29.0703   5.6207494297e+01   2.3426973825e+01    0.5175018    0.4993493 -87.69  0.002594494    1.086    0.079
         8 -10.2242    141.0304     10.4235   6.2824994689e+01   4.8408893162e+01     0.460234    0.2410814 -53.21 0.0008167056    2.787    0.641
         9 -11.6349    136.5126     30.5274   7.1514353217e+01   4.7234739709e+01      1.04667    0.3707106 -22.78   0.00345593    3.126    0.680
        10 -12.8339    131.2457      3.9704   6.2103189024e+01   5.1494517788e+01     1.452398    0.4403684  62.45   0.00494187    3.069    0.674
        11 -12.2219    126.3979     14.0254   6.7248275954e+01   5.1682939523e+01     1.784067    0.8483143  57.09  0.007463444    2.014    0.504
        12 -12.6274    112.2055     22.2973   7.4067744943e+01   5.4009994118e+01    0.8054507    0.6125913 -36.56  0.002165344    1.380    0.276
        13 -13.7673    100.6936      6.6179   7.0200637050e+01   5.8429964363e+01    0.8551621    0.6274638 -37.28   0.00276898    1.508    0.337
        14 -12.4369     93.0840      8.1549   7.3004434198e+01   5.9881960806e+01    0.6043765    0.4238626  41.47  0.002644175    1.378    0.274
        15 -12.0444    112.1037      7.6540   6.7806329382e+01   5.5752464481e+01    0.8300622    0.3603986  59.55  0.003217652    2.355    0.575
        16 -10.8212     30.7120     14.6899   9.9522069620e+01   6.8824262349e+01    0.3900168    0.2017354 -24.30  0.001992267    2.244    0.554
        17 -10.4649     31.5234     11.5348   9.7733295137e+01   6.9278126109e+01    0.2230442    0.1676684 -14.39 0.0007338143    1.253    0.202
        18 -11.9860     30.1354     23.6028   1.0343436577e+02   6.7283938459e+01    0.6594837    0.3155504 -44.76   0.00253928    1.646    0.392
        19 -10.5772    160.5242     23.5179   6.4160855379e+01   4.1978347998e+01    0.7389332    0.5913935  -6.80  0.002639606    1.275    0.215
        20 -11.4641    147.3544     25.6977   6.7426658769e+01   4.5130445624e+01    0.7910889    0.4749003   5.53  0.002515628    2.104    0.525
        21 -10.8041     89.5791     21.6525   8.0186074145e+01   5.8843064955e+01    0.3890541    0.2474483  -6.86  0.001498177    1.796    0.443
        22 -11.1022      9.3658     19.3632   1.1133915766e+02   6.9779402639e+01    0.3483049    0.3114153  22.95  0.002609791    1.452    0.311
        23 -11.4347     25.5851      4.5658   9.7240186853e+01   7.1060191217e+01    0.5746841    0.2643927 -38.05  0.003138599    1.728    0.421
        24 -11.4939     18.7190      4.9739   1.0088205995e+02   7.1656839782e+01    0.5357692    0.4050406 -68.45  0.003471008    2.039    0.510
        25 -10.8750     12.8382     24.3284   1.1139587500e+02   6.8590757507e+01    0.6553941    0.1884464 -37.80  0.002555548    4.029    0.752
        26 -12.0099     18.7751     13.2228   1.0451307554e+02   7.0211673731e+01     0.465648    0.3420792  16.82  0.003267778    1.599    0.375
        27 -12.2325     13.4041      8.7409   1.0528739778e+02   7.1450879010e+01    0.4335777    0.3237309 -50.57 0.0005856476    1.256    0.204
        28 -12.4878      2.9545     17.6162   1.1381186598e+02   7.0506130672e+01    0.3643116    0.1837346 -51.33 0.0004497772    1.417    0.294
        29 -13.1038      4.3602      8.8673   1.0998685633e+02   7.2065488539e+01    0.7185309    0.3106778 -58.69 0.0001866478    2.010    0.502
        30 -11.4041    117.0479     15.2450   6.9901271881e+01   5.3769470552e+01    0.2868128    0.2598388  64.54 0.0002797437    1.263    0.208
        31 -12.3831     43.9022     14.4402   9.3577928467e+01   6.7339354287e+01    0.7250412     0.443581  32.81  0.004243727    1.849    0.459
        32 -11.1947    210.6974     13.5288   5.3787333869e+01   2.9690065106e+01    0.4552871    0.3775865 -16.96  0.002297855    1.219    0.180
        33 -11.1688    202.6324     18.8198   5.6337967995e+01   3.1298384570e+01    0.5397443    0.4145309  23.41  0.002577495    1.393    0.282
        34 -10.8055    198.4618     19.5394   5.7087474169e+01   3.2328265829e+01    0.5866677    0.2837256 -43.35  0.002346059    2.223    0.550
        35 -10.6638    168.4962     23.9419   6.2939602319e+01   3.9833207155e+01    0.6574597     0.283906  43.42  0.002431716    2.341    0.573
        36 -11.4856    150.0287     16.2991   6.3408700143e+01   4.5495968858e+01    0.7413704    0.4256558  26.47  0.003114636    1.999    0.500
        37  -9.6086    146.3181     11.6130   6.2308690824e+01   4.6933437363e+01    0.3123302     0.181468 -51.72  0.001181611    2.239    0.553
        38  -9.3779    185.7417     18.6899   5.8524582442e+01   3.5795914433e+01    0.9107867    0.3811991 -46.13  0.003219388    2.882    0.653
        39 -10.0264    193.0133      6.7650   5.3730387178e+01   3.4969939512e+01    0.9906529    0.2323043  69.27  0.002901756    3.994    0.750
        40 -10.4908    187.2859     13.6473   5.6666369134e+01   3.5875398896e+01    0.3267341    0.2676138  75.04  0.001251641    1.244    0.196
        41 -10.8507    188.3209     10.6724   5.5563896630e+01   3.5875393589e+01    0.5776774    0.2927078 -45.74  0.001700922    2.207    0.547
        42 -11.7424    247.4555     13.5553   5.0196129992e+01   2.0499545047e+01    0.4906412    0.2897545  -2.28  0.002325619    1.992    0.498
        43 -10.5230    167.8084      3.2070   5.5777616637e+01   4.2028260813e+01    0.5480165    0.2954402 -71.30  0.002070778    2.831    0.647
        44 -10.5686    163.5409      5.5127   5.7212006526e+01   4.2971098633e+01    0.3700664    0.2263298 -29.19  0.001069171    1.671    0.402
        45 -10.8305    170.2645     14.0995   5.9236540341e+01   4.0384763294e+01    0.4681872    0.2289239 -39.98  0.001448282    2.191    0.544
        46 -11.1221    165.3976     11.8101   5.9179130608e+01   4.1902209666e+01    0.5150633    0.3374404 -61.94  0.001945755    1.961    0.490
        47 -11.5100    221.1371     12.1811   5.2283170739e+01   2.7119472859e+01    0.9594595    0.3673483  76.41  0.003468897    2.982    0.665
        48 -11.7141    231.5349      9.2916   5.0466388385e+01   2.4757427858e+01    0.6424243    0.3759603  82.81   0.00221008    1.874    0.466
        49  -9.5759    224.4970      8.4861   5.0900021558e+01   2.6597037564e+01    0.2432562    0.1091736  57.65  0.000708872    2.105    0.525
        50  -9.6458    155.8923     11.3420   6.0539359022e+01   4.4463102873e+01    0.2334481    0.1636387  -7.18 0.0004962205    1.493    0.330
        51 -11.6965     50.4170      9.9419   8.8693452512e+01   6.7170691778e+01    0.4850329    0.3625492   6.50  0.002547087    1.347    0.258
        52 -11.9838     68.2528      4.2581   7.8975699505e+01   6.5122890881e+01    0.9305983    0.3788169  39.21  0.004114133    2.540    0.606
        53 -10.5134     60.4052      3.2238   8.1306999360e+01   6.6587004633e+01    0.2451626    0.1566092 -23.99 0.0006900275    1.364    0.267
        54 -12.1387     55.3899      2.3619   8.2790502111e+01   6.7504057324e+01    0.3752407    0.3469132  -3.66 0.0009917783    1.263    0.208
        55 -11.4079    200.0955      5.3419   5.2474518265e+01   3.3209322216e+01    0.6836749    0.3292563 -33.84  0.002360002    2.027    0.507
        56 -11.6571     82.4783      5.7508   7.5008475258e+01   6.2302706695e+01     0.654711    0.3138354 -32.70   0.00256283    1.998    0.500
        57 -10.8843     77.3533      8.9599   7.8223513795e+01   6.2884259594e+01    0.3323968    0.2376758 -19.68 0.0009158091    1.256    0.204
        58  -9.7608     77.4729      4.4988   7.5976549804e+01   6.3412876488e+01    0.2096701    0.1533014   0.15 0.0006859355    1.273    0.215
        59 -10.7688    157.6888      4.6530   5.7785250810e+01   4.4600687783e+01    0.5303874    0.2316111 -16.80  0.001628552    2.388    0.581
        60 -10.5553    154.3534      4.7008   5.8325817149e+01   4.5477814483e+01    0.2937906    0.2489297  73.46  0.000943661    1.227    0.185
        61 -11.2856    208.1933      3.2784   5.0990087906e+01   3.1250587617e+01     0.523682    0.3677739 -80.60  0.001800102    1.576    0.365
        62 -10.6612    176.8163      4.2623   5.4924276419e+01   3.9524428226e+01    0.5781782    0.2349962  77.40  0.001340271    2.891    0.654
        63 -10.7602     43.4690      3.3974   8.8303372226e+01   6.9103559143e+01    0.4130913    0.2939908  11.46  0.002605366    1.440    0.305
        64 -11.9375    130.4969     19.8503   6.8703883545e+01   5.0026145021e+01     1.217784    0.3153359  54.97  0.003899465    3.296    0.697
        65 -10.4310    224.4116      1.9868   4.9077382694e+01   2.7177524365e+01    0.2980695    0.1882105  66.27  0.001490487    1.540    0.351
        66  -9.8698    191.7963      1.5955   5.2223811921e+01   3.5730240938e+01     0.226122    0.1700411  85.08 0.0002866524    1.381    0.276
        67 -11.8043    246.9177      2.6655   4.7406324064e+01   2.1589589064e+01    0.4893321      0.23243  54.83  0.000855368    2.141    0.533
        68  -9.6603    229.7169      1.3691   4.8445760478e+01   2.5894132675e+01    0.1801221    0.1201378  63.40 0.0005812641    1.474    0.322
        69  -9.7478    217.2794      1.4242   4.9564252029e+01   2.9045429944e+01    0.2590263      0.12471  67.69   0.00111788    1.968    0.492
        70  -9.4162    183.4532      1.3943   5.3130418357e+01   3.7980333108e+01    0.1413127    0.1334658  63.57 7.630143e-05    1.030    0.029
        71 -11.5736    244.1943     96.7467   7.2243661593e+01   1.2054498610e+01    0.7602352    0.4502752  79.10  0.002993008    3.402    0.706
        72 -10.3862    133.0756    111.6726   9.7292263702e+01   3.4251064576e+01    0.2853099    0.2131777 -35.60  0.001487936    1.425    0.298
        73 -10.7262     37.2733    109.7485   1.2113088041e+02   4.8839274503e+01    0.3144964    0.1540578  50.09 0.0004132542    2.209    0.547
        74 -10.4102     68.6732    105.6526   1.1219377428e+02   4.6153034143e+01    0.2973101    0.1514822 -39.85  0.001349008    2.581    0.613
        75 -11.5360     22.2984     95.8312   1.2320597755e+02   5.3083491433e+01    0.2964715     0.238892 -76.87 0.0009821694    1.007    0.007
        76  -9.6789     73.9643    107.5606   1.1115868236e+02   4.5045324732e+01    0.1830445    0.1230591  39.15  0.001027928    1.599    0.374
        77 -10.7773    230.4118    105.0431   7.6407107799e+01   1.4002539605e+01    0.3288689     0.243369  40.20  0.001199844    1.290    0.225
        78 -10.7336    133.9069    102.8891   9.4974681987e+01   3.5731818378e+01    0.4018326    0.1821867 -45.62  0.001610495    2.262    0.558
        79 -11.2528     48.8613    100.7992   1.1666481011e+02   4.9547861189e+01     0.619487    0.1671175 -49.04  0.002253547    3.995    0.750
        80  -9.4302     46.4579     98.4869   1.1693104528e+02   5.0295841672e+01    0.2043841    0.1227987  28.05  0.001160203    2.039    0.509
        81 -10.5759    184.5838    101.0226   8.3519321670e+01   2.4940509268e+01    0.3767555    0.2361356  -4.44  0.001560949    2.235    0.552
        82  -9.7972     80.7539    101.9758   1.0824235831e+02   4.5252144072e+01    0.2285999    0.1556766  55.23 0.0008885991    1.614    0.380
        83  -9.6861     75.8318    101.8342   1.0953187750e+02   4.5984895504e+01     0.180507    0.1453575  81.47  0.001077696    1.356    0.263
        84  -9.9898     28.4843    101.8360   1.2234993066e+02   5.1305474040e+01     0.162169     0.143846  23.54   0.00120832    1.444    0.307
        85 -11.1782      4.1627     99.6467   1.2853846344e+02   5.3563438140e+01    0.3195201    0.1800286 -69.62  0.001915462    1.381    0.276
        86 -10.6060    177.7816     99.5742   8.4491063355e+01   2.6731612640e+01    0.2490501    0.2042368 -13.24 0.0006521649    1.272    0.214
        87 -11.4696    174.4809     96.4851   8.4343450514e+01   2.7988522574e+01    0.3999731    0.3464502  33.36  0.001427143    1.105    0.095
        88  -9.9444     34.6030     99.0343   1.2028491759e+02   5.1351937396e+01     0.184571    0.1474274  66.32 0.0006115953    1.304    0.233
        89 -10.8487    226.7790     95.5570   7.4616154884e+01   1.6038575698e+01    0.5465541    0.2433982 -30.88  0.002237666    2.149    0.535
        90 -10.6477    220.9641     92.1035   7.4667395430e+01   1.7815929596e+01    0.4098399    0.2831681 -69.46  0.001790374    2.434    0.589
        91  -9.5364     64.1587     97.8283   1.1190972992e+02   4.8383327931e+01    0.1751969    0.1429466 -38.48  0.001090277    1.360    0.265
        92 -11.3684    158.2745     96.3610   8.7731756569e+01   3.1695822368e+01    0.4593358    0.3590634  67.80  0.002288614    1.508    0.337
        93 -10.7877    193.6086     91.9409   7.9393928181e+01   2.4226560469e+01    0.4426911    0.2892385 -29.00  0.002064549    1.538    0.350
        94 -10.3783    188.3729     93.9427   8.0918681133e+01   2.5155508015e+01    0.2869495    0.2110025  42.60 0.0008258671    1.302    0.232
        95 -11.2293     35.6589     91.5808   1.1880328372e+02   5.2837944111e+01    0.4720798    0.2784504  30.28  0.002807006    2.019    0.505
        96 -10.7877    213.3750     90.2016   7.5427387384e+01   1.9829760059e+01    0.4710843    0.2789823  18.48  0.001477821    2.218    0.549
        97 -10.9978      2.7865     89.4004   1.2780510877e+02   5.5774059132e+01     0.365087    0.2049693 -69.51  0.002401759    1.358    0.263
        98 -10.6428      2.3187     83.9846   1.2730641776e+02   5.6931201212e+01    0.2488811    0.1722666 -88.50 0.0009708068    1.240    0.194
        99 -11.9236      5.7352     79.5888   1.2575028457e+02   5.7653623913e+01    0.6418566    0.2364864 -75.77  0.002828457    2.287    0.563
       100 -11.5228    200.4848     89.6941   7.7533315417e+01   2.2932120146e+01    0.5280951    0.3112021  62.24  0.001790827    1.963    0.491
       101 -10.2708     87.8636     90.2205   1.0365706702e+02   4.6608844540e+01    0.3075981    0.1735483 -48.51  0.001111773    1.662    0.398
       102  -9.7463    187.1357     89.8233   8.0042685025e+01   2.6076198283e+01    0.2182131    0.2056092 -60.79 0.0006837457    1.229    0.186
       103 -10.9562     50.7430     87.5884   1.1369758943e+02   5.2151261189e+01     0.462377    0.3444932  13.71  0.002829721    1.793    0.442
       104 -11.0094     57.9401     84.5156   1.1093478242e+02   5.1970358533e+01    0.3950182    0.2644677 -21.27  0.002078854    2.226    0.551
       105 -11.6050     14.6417     88.3810   1.2433714689e+02   5.5226413002e+01    0.3040243    0.2869199  73.26  0.002460926    1.248    0.199
       106 -10.7855     98.0592     77.3023   9.7429499685e+01   4.7518136991e+01    0.2697444    0.2405442  68.75 0.0008919205    1.270    0.213
       107 -11.1406    106.5116     86.2006   9.7552512527e+01   4.4246385483e+01    0.5379506     0.454815   3.37  0.002992833    1.405    0.289
       108 -11.0195    102.6965     80.9871   9.7169786332e+01   4.5965919198e+01    0.4377694    0.2896688 -32.15  0.001398307    1.649    0.394
       109 -11.3610     17.8321     81.5125   1.2241047311e+02   5.6452060899e+01    0.2385115    0.2076196  -3.74 0.0004746968    1.516    0.340
       110 -10.7133     28.9257     77.0176   1.1825987768e+02   5.6537757858e+01    0.2220699     0.173481 -77.76 0.0007946068    1.161    0.139
       111 -12.4239     24.6181     83.1852   1.2064527365e+02   5.5580288686e+01    0.6585747    0.3780612 -89.35  0.003708757    1.943    0.485
       112 -11.0950     29.5233     82.0122   1.1897368123e+02   5.5423944357e+01    0.2782222    0.2598402 -69.38  0.001295063    1.155    0.134
       113 -10.1662    242.4551     85.5032   6.9682603855e+01   1.3801325855e+01    0.3087667     0.235729 -27.98  0.001157351    1.267    0.210
       114 -11.4711    238.8714     82.6227   6.9462088802e+01   1.4953031025e+01    0.6919021    0.3322837 -22.70  0.002931535    2.014    0.503
       115 -10.7672    222.1401     85.0179   7.2623673285e+01   1.8482623262e+01    0.4445562    0.3600775 -81.07  0.002269489    1.712    0.416
       116 -11.5586    217.4322     82.0784   7.2595188298e+01   1.9975984132e+01    0.6480269    0.3443145 -23.94  0.002075401    1.871    0.466
       117 -10.4868    219.8661     74.3572   7.0120178943e+01   2.0412895008e+01    0.3292519    0.2650512 -36.34  0.001005099    1.282    0.220
       118  -9.6815    223.2987     74.6572   6.9673176794e+01   1.9556289602e+01    0.2126075    0.1668273 -68.05 0.0004981464    1.694    0.410
       119 -10.2706    146.4755     86.5361   8.7686791178e+01   3.6040687416e+01    0.2748024    0.2024991  12.63  0.001281802    1.712    0.416
       120 -10.1365     82.0887     86.4091   1.0434922861e+02   4.8287668727e+01    0.2995066    0.1625666 -41.10  0.000429071    1.917    0.478
       121  -9.8984     42.5384     86.7231   1.1594315542e+02   5.3205850965e+01    0.2372521   0.09301223 -57.89  0.001023755    2.070    0.517
       122  -9.8141    205.4476     85.9676   7.5651980284e+01   2.2286486842e+01    0.2240023    0.1412721 -27.59 0.0008817243    1.568    0.362
       123 -10.1008    165.8870     85.7488   8.3183356050e+01   3.1738310280e+01    0.2910661     0.191024 -58.94 0.0008983458    2.118    0.528
       124 -10.5484    118.9146     86.0930   9.4274770047e+01   4.1915035533e+01    0.4032902    0.1894253  39.74  0.001342259    2.294    0.564
       125 -10.8981    248.8226     84.0425   6.8418638758e+01   1.2578230479e+01    0.3043171    0.2622436 -58.96   0.00106275    1.460    0.315
       126 -10.5613    140.3152     84.2973   8.8490952626e+01   3.7795518413e+01    0.2849776    0.2127261 -78.24 0.0009841782    1.973    0.493
       127 -10.9498    154.2033     87.6650   8.6254453656e+01   3.4109620032e+01    0.4601989    0.2498134  56.99  0.001864175    2.027    0.507
       128  -9.7669    186.5253     84.4898   7.8688481481e+01   2.7032396735e+01    0.2429177    0.2274275  15.16   0.00109787    1.003    0.003
       129 -11.4105    188.8103     80.4918   7.7134934727e+01   2.7080413932e+01    0.4770521    0.4020106 -79.05  0.002410746    1.532    0.347
       130 -11.0045    192.1330     73.1131   7.4417140386e+01   2.7344760736e+01    0.4310912    0.3562071  57.62  0.002211088    1.257    0.204
       131 -10.4321    160.6868     80.9928   8.2932975314e+01   3.3740324639e+01    0.4273877    0.2412276  48.51  0.001820792    1.722    0.419
       132 -10.3074     41.0701     81.6800   1.1541407878e+02   5.4427643452e+01    0.2043025    0.1400237 -49.18  0.001256559    1.354    0.261
       133  -9.4644     43.5779     78.2264   1.1394600028e+02   5.4908831804e+01    0.1680781     0.130264 -39.64  0.001075193    1.348    0.258
       134 -10.8509    135.4882     80.0046   8.8409888485e+01   3.9615721836e+01     0.309492    0.2158518 -30.82 0.0009598741    1.472    0.320
       135 -10.8912    138.4980     77.0484   8.6814877099e+01   3.9483028308e+01      0.26206    0.2101884  45.85 0.0003638128    1.245    0.197
       136  -9.5529    123.8063     80.4157   9.1428226224e+01   4.2004979705e+01    0.2076624    0.1328297  34.45 0.0009439259    1.728    0.421
       137 -10.0184     63.2158     79.4278   1.0819840088e+02   5.2386719073e+01    0.2878645    0.2019675  84.42  0.001533078    1.970    0.492
       138 -11.0742    170.5140     70.4914   7.7772096906e+01   3.3061080594e+01    0.4154645    0.2954338 -58.80  0.001864863    1.828    0.453
       139 -10.1452    176.8285     77.8311   7.8678323775e+01   3.0390910718e+01    0.2866813    0.2314915  62.24  0.001235636    1.341    0.254
       140 -10.2888    174.8384     73.6763   7.7856656026e+01   3.1514267138e+01    0.4977133     0.258587 -54.29  0.001343377    3.000    0.667
       141 -10.9472    167.7911     76.6205   8.0154525649e+01   3.2762675476e+01    0.6414891    0.3879018  72.68  0.002502172    2.471    0.595
       142 -11.4438     68.1092     75.7956   1.0582055578e+02   5.2498497369e+01    0.5039386    0.3019342 -62.75  0.002577862    1.709    0.415
       143 -11.9532     59.1661     69.5617   1.0701587644e+02   5.4960643263e+01    0.4462599    0.3928021  24.57   0.00131141    1.312    0.238
       144  -9.5137    246.9614     77.5795   6.7035961269e+01   1.3752594058e+01    0.2042499    0.1312075  51.81   0.00101389    1.594    0.373
       145 -10.0083    229.3167     83.2006   7.1029271134e+01   1.7056129574e+01    0.4477039    0.2055114  33.65  0.001665789    2.699    0.629
       146 -10.3044    234.1699     73.3476   6.7716919150e+01   1.7167504507e+01     0.323561    0.2122137 -55.71  0.001000496    2.034    0.508
       147  -9.6840    234.6531     69.6984   6.6679578996e+01   1.7501081145e+01    0.2118226    0.1395387  -1.20 0.0006790744    1.677    0.404
       148  -9.5581    182.0604     83.4984   7.9270197793e+01   2.8255618277e+01    0.2178385    0.1463336  53.68 0.0004242559    1.488    0.328
       149 -10.3953    202.3759     78.0595   7.4011356984e+01   2.4135597914e+01    0.2954716    0.1956404 -85.23  0.001165257    2.686    0.628
       150 -11.0985    125.7131     75.0795   8.9376250311e+01   4.2593550025e+01    0.5333976    0.2881204  56.35  0.002210168    2.160    0.537
       151 -12.0077    125.8169     69.7149   8.7713372521e+01   4.3540711114e+01    0.6101596    0.3772793  59.87  0.002398388    1.950    0.487
       152 -10.3916    122.7362     64.9916   8.7013755136e+01   4.5035942757e+01    0.3365081    0.2625268  46.99  0.001328043    1.314    0.239
       153 -11.7381     82.0907     74.8521   1.0136196525e+02   5.0655448470e+01    0.2358472    0.2129595 -45.92 0.0002809895    1.016    0.016
       154  -9.6213    144.7749     75.4043   8.4844133953e+01   3.8361595288e+01    0.2138388    0.1345143  39.68  0.000553509    1.629    0.386
       155 -10.9960    214.3899     57.1137   6.6135390544e+01   2.3948212218e+01    0.9485179    0.5765836 -56.06  0.003999212    2.190    0.543
       156 -10.4518    233.3864     46.0112   6.0425240414e+01   2.0581339942e+01    0.6255362    0.3857045 -39.79  0.001925078    1.619    0.382
       157 -11.0523    221.9166     55.9765   6.4720757655e+01   2.2224205534e+01    0.5295917    0.3557202 -45.44  0.001775367    1.619    0.382
       158 -11.3256    224.0721     45.3133   6.1418666269e+01   2.2947013947e+01    0.8616082    0.6371413 -35.32  0.003280153    1.331    0.249
       159 -11.8229    250.2109     67.4417   6.4009758339e+01   1.4210692174e+01      1.05483    0.2135565 -22.62  0.002746674    5.468    0.817
       160 -12.3263    246.4768     56.3137   6.1581966523e+01   1.6325442075e+01    0.9179161    0.5379331 -63.08  0.002055138    2.599    0.615
       161 -11.6112    235.0938     56.5353   6.3081655284e+01   1.8966306109e+01    0.5869079    0.3960145  51.43  0.001964217    1.491    0.329
       162 -10.7100    238.1498     51.8108   6.1412150945e+01   1.8783042377e+01    0.2553518    0.2296299  78.08  0.001250832    1.250    0.200
       163 -10.3081     25.5366     66.0466   1.1722257960e+02   5.9143497036e+01    0.3154137    0.1029091 -50.30  0.001202324    2.512    0.602
       164  -9.7476     28.9623     63.1836   1.1546272062e+02   5.9463828527e+01    0.1754211    0.1371486  16.03 0.0007669344    1.608    0.378
       165 -10.4218     18.4399     73.7325   1.2096332928e+02   5.8057139316e+01    0.2535546    0.1584928 -58.04 0.0009982241    1.298    0.230
       166 -10.2242     22.9761     70.9831   1.1902570143e+02   5.8300896687e+01    0.2964032    0.1609099 -39.42  0.001447309    2.043    0.510
       167 -10.7023    214.6242     71.9603   7.0283928305e+01   2.1988188346e+01     0.446368    0.2480223  26.73  0.001614779    2.289    0.563
       168  -9.8442    206.9282     61.1468   6.8443388986e+01   2.5298211350e+01    0.3043809    0.2021989 -24.26  0.001350604    1.477    0.323
       169 -10.6007    205.2581     65.3390   6.9920985501e+01   2.5164020399e+01    0.3509468    0.2784874 -72.22  0.001115926    1.633    0.387
       170 -11.1970    202.8921     71.7774   7.2154406193e+01   2.4880039680e+01    0.3857661    0.2880149 -47.78 0.0003921354    1.517    0.341
       171 -10.6108    206.6065     70.8566   7.1272475085e+01   2.4092136464e+01    0.3947895    0.2331797 -42.94  0.001228396    1.850    0.460
       172 -10.2189    198.4897     70.3118   7.2487896010e+01   2.6168686248e+01    0.2513808    0.2348372  22.98  0.001373768    1.023    0.022
       173 -10.8246     51.8912     71.6300   1.0985225937e+02   5.5400417286e+01     0.271172    0.2237022 -66.63  0.001754435    1.136    0.120
       174 -10.8341    150.0352     71.8609   8.2566012969e+01   3.7749375234e+01    0.2318262    0.2130142 -80.59  0.001023852    1.275    0.216
       175 -11.3244    116.3099     69.3390   9.0068994187e+01   4.5584279825e+01      0.45929    0.3125606 -31.00  0.002230717    1.494    0.331
       176 -10.7527    102.2166     69.8128   9.4073033606e+01   4.8225758997e+01    0.3172399    0.2012923 -60.84  0.001441816    2.015    0.504
       177 -11.2518     36.2475     56.2781   1.1129250242e+02   6.0248987075e+01    0.3370139    0.2795397  20.82  0.002313961    1.456    0.313
       178 -10.3009     46.9847     68.1736   1.1060366460e+02   5.6673060226e+01    0.2646734    0.1884737 -56.17   0.00162194    1.186    0.157
       179 -10.6107     42.2414     68.9889   1.1234509724e+02   5.7000757070e+01    0.3074874    0.2439257  42.23  0.001303255    1.479    0.324
       180 -12.0730     35.9094     62.8856   1.1303339695e+02   5.8904425288e+01    0.6565968    0.4749909  69.68  0.003447569    1.816    0.449
       181 -10.5261      6.8353     71.0224   1.2419471979e+02   5.9389913934e+01    0.2328142    0.1532308  23.54  0.001364899    1.948    0.487
       182 -10.3845    226.2511     68.5285   6.7568913659e+01   1.9628641900e+01    0.4439967    0.1614569 -29.83  0.001621939    2.514    0.602
       183 -10.4518    152.9338     44.9212   7.3159668979e+01   4.1215518434e+01    0.4298343    0.2481825 -15.42  0.001285154    1.982    0.495
       184 -10.1050    158.7828     57.7216   7.6202296557e+01   3.7894360809e+01    0.4873629    0.2727907  12.51  0.001637084    3.245    0.692
       185 -11.1349    163.0833     67.2097   7.8298535632e+01   3.5384516026e+01    0.6705732    0.2790255 -45.06  0.002294841    2.853    0.650
       186 -11.8772    159.8056     49.1522   7.3175506635e+01   3.8894616007e+01    0.8657067    0.4632099 -45.59  0.003328654    2.160    0.537
       187 -10.7973    165.8463     62.4407   7.6244519824e+01   3.5437411781e+01    0.4441624    0.2915842  49.83  0.001496313    1.481    0.325
       188 -11.4190    166.8940     56.0078   7.3993354647e+01   3.6127970209e+01    0.6373119    0.5068167 -38.26  0.003177345    1.303    0.232
       189 -10.7336    132.9321     67.6604   8.5291175093e+01   4.2357221587e+01    0.3713602    0.2992524  34.10  0.001914948    1.261    0.207
       190 -10.9574    109.4740     67.3943   9.1310985315e+01   4.7303339596e+01    0.3503226    0.2258111   2.38  0.001412169    2.721    0.632
       191 -10.1971    145.6377     62.3173   8.0570550287e+01   4.0348232262e+01    0.2938986    0.2045316  82.26 0.0009407541    2.202    0.546
       192 -11.9189    151.5228     66.5022   8.0573169389e+01   3.8279222081e+01    0.5766751    0.2437109  50.72  0.002131388    2.298    0.565
       193 -11.2990    148.5914     64.7459   8.0676126977e+01   3.9258056839e+01    0.4548345    0.2465779 -35.79  0.001217829    1.825    0.452
       194 -10.7261    180.0642     68.8859   7.5414852730e+01   3.0947965750e+01    0.5639631    0.2197726  55.65  0.001921246    2.525    0.604
       195  -9.7804    190.0556     65.1193   7.2448885075e+01   2.8995253618e+01    0.2430259    0.1930442  24.48 0.0008783216    1.294    0.227
       196 -10.8016     10.4656     62.6202   1.2162680509e+02   6.0937824277e+01    0.4422437    0.1909074 -78.59  0.002195042    2.411    0.585
       197  -9.7230    234.3223     63.5337   6.5075180038e+01   1.8322411876e+01    0.2668417    0.1726714 -16.93 0.0006561956    1.514    0.340
       198 -10.4941    185.5588     62.0965   7.2350106543e+01   3.0550566818e+01    0.5175005    0.2234147 -31.95  0.001771089    2.242    0.554
       199 -10.1861     54.2781     63.2330   1.0694078854e+02   5.6868861409e+01    0.3361785    0.1613904 -63.86  0.001512054    2.347    0.574
       200 -10.5666     57.0821     60.0509   1.0512703754e+02   5.7178122336e+01    0.2827012    0.2721899  52.74  0.001937975    1.212    0.175
       201 -10.7265     77.1749     69.7997   1.0144336716e+02   5.2430604070e+01    0.4872286    0.1867232  33.16  0.001867203    3.338    0.700
       202 -11.2877     67.2974     61.8795   1.0228406344e+02   5.5459652765e+01    0.2748962    0.2290782 -36.82 0.0007061971    1.115    0.103
       203 -12.7605     19.6092     58.5706   1.1769472232e+02   6.1171297337e+01     0.469294     0.285154 -44.10  0.002930628    1.527    0.345
       204 -10.6165     32.7424     70.0427   1.1567438377e+02   5.7686547150e+01    0.3824257    0.1903228 -43.21  0.002012356    2.024    0.506
       205 -11.2107    200.1878     58.9268   6.8881113991e+01   2.7282949079e+01    0.6260982    0.3953399 -69.01  0.002483035    2.544    0.607
       206 -10.2602    202.4540     53.3454   6.6863162486e+01   2.7429286235e+01    0.6603984      0.14706 -27.91  0.001861073    4.011    0.751
       207 -10.2548    200.6623     45.3632   6.4744877392e+01   2.8881628010e+01    0.3832734    0.2005102 -18.77  0.001061412    2.008    0.502
       208 -11.7974    206.2545     43.3555   6.3308027315e+01   2.7682873874e+01    0.6654356    0.5417582  22.90  0.003444808    1.266    0.210
       209 -10.7398    178.3577     59.6137   7.2916896882e+01   3.2719866081e+01    0.5464896    0.3610357   6.40  0.002057741    1.922    0.480
       210 -10.9499    171.4836     49.5872   7.1032681462e+01   3.5869599805e+01    0.8225559    0.1676342 -31.50  0.002239679    4.201    0.762
       211 -10.6429    174.1299     57.4950   7.3055901210e+01   3.4090133331e+01    0.4464602    0.2744849  -9.66  0.001060501    1.962    0.490
       212 -11.1066    175.4884     52.9367   7.1357905620e+01   3.4385128006e+01    0.3318703    0.2729069  37.72 0.0007999837    1.185    0.156
       213 -10.5062    175.5367     49.4504   7.0234435091e+01   3.4849149830e+01    0.2664258    0.2637599  24.31 0.0004965415    1.072    0.067
       214  -9.8319     78.7256     60.6904   9.8272770956e+01   5.4007477467e+01    0.2846068    0.1955705  57.24  0.001471911    1.891    0.471
       215 -10.2581     85.2085     59.1248   9.5759890710e+01   5.3264628342e+01    0.2646594    0.2132804 -20.67  0.001497653    1.294    0.227
       216 -10.6163    191.9849     57.7539   6.9904571703e+01   2.9518972223e+01    0.5276896    0.3201892 -14.95   0.00225657    1.804    0.446
       217  -9.9172    138.3283     59.0816   8.1217978238e+01   4.2579877444e+01     0.271129    0.1945503  38.17  0.001296266    1.409    0.290
       218 -10.4869      3.4895     57.5362   1.2311994645e+02   6.2405906284e+01    0.3148539    0.1747353  78.01  0.001780902    2.366    0.577
       219 -10.8162    115.7319     50.6040   8.4024508297e+01   4.9002495723e+01    0.5903424     0.434191 -47.91  0.002966439    1.479    0.324
       220 -11.2359    123.2544     54.6449   8.3452077304e+01   4.6706550412e+01    0.5201615    0.3571216  15.04  0.001503092    1.877    0.467
       221 -10.7198    119.6871     53.6666   8.4043171094e+01   4.7644097948e+01    0.3397119    0.2253094  -9.82  0.001510888    1.919    0.479
       222 -10.6220     92.1676     57.3414   9.3058879558e+01   5.2406052893e+01    0.3958877    0.2066265  27.56  0.001599601    2.749    0.636
       223 -10.6201    134.7382     52.0081   7.9691087945e+01   4.4547297979e+01    0.4151417    0.2840293  26.17  0.001901867    1.667    0.400
       224 -11.8119    150.4957     51.9937   7.6085039908e+01   4.0790676913e+01     0.731437    0.4425715   0.81  0.002843585    2.413    0.586
       225 -11.4963    141.1984     51.0926   7.7859208568e+01   4.3171843966e+01    0.5271428    0.4698581  46.55  0.001210833    1.132    0.117
       226 -11.2145    146.1701     48.0928   7.5707115744e+01   4.2426411457e+01    0.4181929    0.3597266 -85.33 0.0009617405    1.449    0.310
       227 -10.4789     12.4503     56.3259   1.1975313756e+02   6.2132121682e+01    0.2746947    0.1610038  38.33  0.001726037    2.104    0.525
       228 -10.4652     71.1335     53.5591   9.8462818203e+01   5.6553578465e+01    0.3233018    0.1821049 -42.69  0.001614955    1.582    0.368
       229 -10.6779     76.1737     51.8854   9.6255851867e+01   5.6106358264e+01     0.307262    0.2452589  50.41  0.001142874    1.484    0.326
       230 -11.8072    186.5918     46.9908   6.7505862475e+01   3.2319061367e+01    0.8072461    0.4012261 -29.63  0.002596834    1.957    0.489
       231 -11.5395    183.1634     49.3576   6.8839450938e+01   3.2897669726e+01     0.703174    0.4245708   4.47   0.00280192    2.228    0.551
       232 -11.0955     99.7105     54.2863   8.9795157097e+01   5.1583276967e+01    0.3227141     0.235771  29.75 0.0004882971    1.492    0.330
       233 -10.2056    104.9459     53.5669   8.8039456778e+01   5.0700317375e+01    0.3333668    0.2447351  -4.91  0.001651328    1.651    0.394
       234 -11.6606     85.7486     52.2592   9.3323016400e+01   5.4468926561e+01    0.5067238    0.3592616   3.48  0.002407505    1.886    0.470
       235 -10.9019     60.7167     52.6307   1.0167844927e+02   5.8199417995e+01    0.3917073    0.2308156 -59.62  0.001982085    1.838    0.456
       236  -9.6521     55.2457     50.0084   1.0275877256e+02   5.9424401886e+01    0.2068731      0.16278  53.69 0.0008223933    1.621    0.383
       237 -11.5690     25.7053     52.8407   1.1421584218e+02   6.1895065065e+01    0.2529059    0.1991966 -25.16 0.0005732922    1.412    0.292
       238  -9.7235     29.2539     49.0091   1.1193279671e+02   6.2385294277e+01    0.1716847    0.1433213 -70.17 0.0004364459    1.218    0.179
       239 -11.9421     42.6343     49.6571   1.0717868287e+02   6.0958091196e+01    0.5404255    0.2337923  32.70   0.00218728    2.697    0.629
       240 -10.8814     38.3036     43.9100   1.0706655384e+02   6.2562206599e+01    0.3752419    0.2539926 -74.75  0.002127887    1.914    0.477
       241 -11.1593     31.7882     43.0029   1.0928860574e+02   6.3376379259e+01     0.328197    0.3069628 -67.45  0.001674971    1.220    0.180
       242 -10.3703    195.4143     47.6175   6.6251195057e+01   2.9957303110e+01    0.4187917    0.2331693 -17.95  0.001341176    1.903    0.474
       243  -9.8556      7.0200     48.4407   1.2012017754e+02   6.4101785266e+01    0.1841825    0.1194416 -51.66 0.0007322632    1.248    0.198
       244 -10.3269     94.5446     47.9819   8.9122130814e+01   5.3675088132e+01    0.3155155    0.2052389  41.77  0.001582333    1.625    0.385
       245  -9.9080    129.2670     46.9725   7.9258073672e+01   4.6598081346e+01    0.2365532    0.1919133   5.51  0.001208489    1.302    0.232
       246  -9.5615     75.3292     46.3370   9.4626919156e+01   5.7279416546e+01    0.1389232   0.09797017 -11.63 0.0003974959    1.731    0.422
       247 -10.4452     54.8607     45.8493   1.0155541540e+02   6.0288314566e+01    0.2144073    0.1884579  30.13 0.0007754075    1.314    0.239
       248 -10.7710    141.9758     43.6390   7.5087099767e+01   4.4097349608e+01    0.4261338    0.3380095  34.80  0.001613042    1.242    0.195
       249  -9.1855    126.2402     45.3324   7.9420956834e+01   4.7543207407e+01    0.1468057    0.1091369   5.47 0.0001337364    1.540    0.351
       250  -8.9490    100.0769     46.0000   8.6760948427e+01   5.2966971274e+01    0.2101611    0.1737091  46.10 0.0009429831    1.306    0.234
       251 -10.4335     97.6061     42.1825   8.6078226861e+01   5.4091941192e+01    0.3432341    0.2631846 -30.03  0.001359688    1.215    0.177
       252  -9.9451     99.9169     37.8479   8.3744116214e+01   5.4349625554e+01     0.367941    0.2478225 -19.02  0.001527935    1.542    0.352
       253 -10.8416     87.2210     41.5731   8.9031950580e+01   5.6128605321e+01    0.4492724    0.2990449 -40.65  0.002334622    1.416    0.294
       254 -10.4955    249.7092     43.3807   5.7808310907e+01   1.6999246195e+01    0.2938423    0.2104526  57.94  0.001569636    1.461    0.316
       255  -9.7581    249.8489     39.1616   5.6686364431e+01   1.7413272225e+01    0.2728681    0.1616668 -40.25 0.0008203061    1.639    0.390
       256 -10.6982    118.3576     42.0245   8.0225689360e+01   4.9819333227e+01    0.4945967    0.2695594 -39.03   0.00215531    1.827    0.453
       257  -9.7471    107.1699     44.0540   8.4010721000e+01   5.1875179409e+01    0.2458482    0.1597012 -56.60  0.001097917    2.098    0.523
       258 -10.1853     67.0262     43.5085   9.6445695699e+01   5.9070876383e+01    0.2248174     0.164059 -53.42 0.0005951362    1.425    0.298
       259  -9.9099    213.8569     42.7798   6.2062335746e+01   2.5806630706e+01    0.2306341    0.1871752  27.75 0.0007778195    1.263    0.208
       260  -9.7131     22.6887     42.8451   1.1277869533e+02   6.4187567178e+01    0.2736812    0.1218355 -55.18  0.001460472    1.709    0.415
       261  -9.5671      9.7233     42.2304   1.1770493731e+02   6.5219927246e+01    0.1892402    0.1190104 -45.56 0.0006416508    1.348    0.258
       262 -11.0691     16.1413     39.6111   1.1449817036e+02   6.5331870642e+01    0.4801415    0.3637994 -14.33  0.003376535    1.544    0.353
       263 -10.7831    194.1139     38.7284   6.3705653012e+01   3.1379799464e+01     0.605922    0.4765981 -39.28  0.003059674    1.315    0.240
       264 -11.0645    194.4715     30.6935   6.1133326447e+01   3.2208090920e+01    0.3870877    0.3742679 -33.98   0.00180932    1.073    0.068
       265 -11.7296    180.8555     38.7501   6.5838913824e+01   3.4848839874e+01    0.6570945    0.3751472 -60.43   0.00248152    2.638    0.621
       266  -9.9685    186.8408     38.1738   6.4670869132e+01   3.3350313845e+01    0.3017978    0.2071375  51.01  0.001413646    1.399    0.285
       267  -9.8201    161.7110     41.0031   7.0047606550e+01   3.9530246657e+01    0.2461401    0.1976019  53.79 0.0009177144    1.227    0.185
       268  -9.9829    161.5365     37.5000   6.8880537520e+01   4.0032514249e+01    0.2573468    0.2347766 -31.04 0.0007532881    1.138    0.121
       269  -9.6569    130.3000     40.0674   7.6508800051e+01   4.7401047680e+01    0.2000408    0.1821115 -11.67 0.0004609706    1.058    0.055
       270  -9.2928     77.0152     40.7686   9.2043529183e+01   5.8018427361e+01    0.1592692      0.11137  38.93 0.0005014423    1.562    0.360
       271  -9.7936    173.0867     38.7106   6.7165629917e+01   3.6884199523e+01    0.2187817      0.18257  58.44  0.001111279    1.200    0.167
       272  -9.3832    142.5772     38.5046   7.3119408736e+01   4.4677060723e+01    0.2504096    0.1807337 -30.23 0.0005479685    1.378    0.274
       273 -11.5053    147.6356     34.9692   7.0761908130e+01   4.3897760898e+01    0.7897643    0.3538905  62.65  0.002923739    2.449    0.592
       274 -10.2022     46.0108     36.9451   1.0182138627e+02   6.3078789819e+01    0.2575293    0.1449085 -47.15 0.0007480608    1.487    0.328
       275 -11.5511     54.1270     36.5870   9.8603156567e+01   6.2144760936e+01     0.768835    0.4562435  45.75  0.004098954    2.152    0.535
       276 -10.1213     51.3809     30.7162   9.7435145528e+01   6.3576204518e+01     0.239746    0.1574616 -35.50 0.0006319004    1.304    0.233
       277 -10.8520     55.0288     29.9303   9.5720428658e+01   6.3235372394e+01    0.2230035    0.2030536  -7.45 0.0003288173    1.139    0.122
       278 -10.3794    202.6731     37.6828   6.2114192506e+01   2.9270922112e+01    0.3006649    0.2614132  33.01  0.001134583    1.138    0.121
       279 -10.1712    201.0080     35.0000   6.1532633966e+01   3.0010756311e+01    0.3993422    0.2324106  57.40  0.001274207    1.651    0.394
       280 -10.7217    123.9226     36.3158   7.6665809384e+01   4.9424924809e+01    0.5501435    0.4152723 -37.54  0.002803526    1.360    0.265
       281 -10.5286    120.0221     33.5514   7.6585160791e+01   5.0712062446e+01    0.2504993     0.195994 -26.06 0.0001518507    1.239    0.193
       282 -10.3727    109.8531     36.9158   8.0568193369e+01   5.2449022785e+01    0.4476383    0.1890691 -35.06  0.001201003    2.245    0.555
       283 -10.0563     38.3519    240.7016   1.3168303648e+02   2.5378909230e+01   0.09941978   0.04438966  61.49 0.0007035991    1.691    0.409
       284 -10.4060     16.2065    240.1753   1.3484504868e+02   2.7621000220e+01    0.1282052   0.06679487  63.90  0.000647556    1.323    0.244
       285 -10.0874     53.3128    237.6981   1.2930437209e+02   2.4206344731e+01   0.09929929    0.0490636  62.84 0.0002580877    1.611    0.379
       286 -11.1645     81.1738     33.3883   8.7805044151e+01   5.8583923983e+01    0.6071345    0.3328816  48.34  0.002040887    2.094    0.522
       287  -9.7981     12.9952    232.2539   1.3500873287e+02   2.9050669706e+01    0.1124529   0.05723364  45.34 0.0008957716    1.595    0.373
       288  -9.5702    110.4069    224.7980   1.1926984582e+02   1.8895248199e+01    0.1227971    0.0988139 -49.76 0.0009547846    1.721    0.419
       289 -10.5448    222.1626     36.4024   5.9125991226e+01   2.4421769570e+01    0.3178036    0.2514011  58.48  0.001189345    1.275    0.216
       290 -11.3033    217.5989     29.0374   5.7560158997e+01   2.6368992601e+01    0.4075593    0.3054885 -66.39  0.001733532    1.546    0.353
       291  -9.9402    201.2180     25.2331   5.8496338608e+01   3.1019908226e+01    0.2602573    0.1961293 -25.40 0.0006807695    1.320    0.242
       292  -9.9281     52.6792    224.6442   1.2862875950e+02   2.6174860077e+01   0.07808713   0.07597211 -38.86 0.0007045895    1.758    0.431
       293  -9.7041    204.1518     29.1067   5.9295188415e+01   2.9840052571e+01    0.3570749     0.235928  63.21   0.00168663    1.498    0.332
       294 -10.7951     88.6527     33.6315   8.5498265304e+01   5.7196463388e+01    0.3609797    0.2681441   7.87  0.001924973    1.505    0.335
       295 -10.3839     93.3658     31.1928   8.3055724171e+01   5.6687584576e+01    0.4233063    0.2082317  58.80  0.001685219    2.940    0.660
       296 -11.5823    236.2367     31.9797   5.6235922575e+01   2.1403283301e+01    0.7628553     0.347274  71.90  0.003091414    2.486    0.598
       297  -9.5389    126.4149    216.2448   1.1570437712e+02   1.7781253083e+01    0.1302547   0.09932381 -86.89 0.0005601895    1.601    0.375
       298  -9.7469    160.8026     32.8018   6.7389083754e+01   4.0813973201e+01    0.2823768    0.1843578  43.35  0.000741667    1.484    0.326
       299 -10.5483     26.1617    212.4579   1.3214555818e+02   3.0806659653e+01    0.1605382    0.1362105 -78.39  0.001479898    1.514    0.340
       300  -9.7871    247.6789    203.3210   9.3754923902e+01  -2.9870308550e-01   0.09677481   0.08846591  49.84 0.0003711304    1.671    0.402
       301 -10.2998    247.9658    191.4903   9.1696930782e+01   7.5416491244e-01    0.1823038   0.09434243  40.57 0.0008000288    1.594    0.373
       302 -10.0581    245.4859    187.4677   9.1374717668e+01   1.5529888314e+00    0.1219378   0.09152873  21.71 0.0002699092    1.013    0.013
       303  -9.7445     37.4542    179.5224   1.2818355193e+02   3.5184923298e+01    0.2026107    0.0904416  37.35  0.001222683    2.213    0.548
       304 -11.7234    245.9142    177.5362   8.9506138333e+01   2.4730877313e+00    0.2665192    0.1983611   5.86 0.0009156661    1.192    0.161
       305 -11.6890    247.1977    172.2977   8.8322559523e+01   2.7885768409e+00    0.2824223    0.1636656 -30.43   0.00144132    1.915    0.478
       306  -9.2056      1.6828    178.3091   1.3454567409e+02   3.8632195773e+01    0.1024515    0.0495133  65.59 0.0007031882    1.636    0.389
       307  -9.8807     36.5610     26.9353   1.0195978984e+02   6.6011730778e+01    0.1660638    0.1450285 -15.72 0.0003355186    1.161    0.139
       308 -10.6870     24.4262     33.7434   1.0940777159e+02   6.5865232853e+01    0.6196252    0.2202803 -64.37   0.00239284    3.762    0.734
       309 -10.9762     13.9616    165.0117   1.3158837995e+02   3.9997072278e+01    0.1850161    0.1251342  47.77  0.001249152    1.432    0.302
       310 -11.3298    249.4441    161.9431   8.5965169293e+01   3.4763843512e+00    0.2945934    0.1809616 -28.64  0.001437975    1.739    0.425
       311 -11.3327     28.3988     28.8422   1.0610518826e+02   6.6464736879e+01    0.3986666    0.3113202  -7.48  0.002733483    1.416    0.294
       312 -10.4052      9.0649    162.7279   1.3237693411e+02   4.0819723157e+01    0.1359909    0.1041143  68.28 0.0003793492    1.127    0.113
       313  -9.5968     12.5216     34.0029   1.1445380380e+02   6.6707665759e+01     0.155352    0.1378621  -5.79 0.0008459566    1.347    0.257
       314 -10.2329    178.4143     30.8528   6.3649139384e+01   3.6431745841e+01    0.4670422    0.1643849  55.23   0.00162922    2.510    0.602
       315 -11.0602    182.7945     27.7065   6.1916788137e+01   3.5628005506e+01    0.7139976    0.2941464 -41.04  0.002572995    2.615    0.618
       316  -9.7886    177.3402     27.3024   6.2639142496e+01   3.7119035150e+01    0.3062865    0.2028307  44.57  0.001412902    1.462    0.316
       317 -11.5631    170.8450     30.6336   6.4840192674e+01   3.8452662753e+01    0.6139146    0.3273289  74.44  0.002374957    2.332    0.571
       318 -10.0414      2.4846    161.3111   1.3353961785e+02   4.1595520594e+01    0.1709097    0.1173755 -70.84  0.001361074    1.460    0.315
       319 -11.1761    153.2939     28.3762   6.7243635339e+01   4.3290871093e+01    0.6597486     0.265678 -19.38  0.001767384    2.762    0.638
       320 -10.7750    249.5506    155.4364   8.4645314787e+01   4.1532484498e+00    0.2280612    0.1817451  16.87 0.0005932311    1.008    0.008
       321 -10.4195     16.1367     31.2004   1.1210986174e+02   6.7014290694e+01    0.1811626    0.1554842 -67.25 0.0004369377    1.256    0.204
       322 -10.5140    248.4507     29.3893   5.4261668405e+01   1.8743020959e+01    0.3929832    0.2121234  73.39  0.001807894    2.080    0.519
       323 -10.2819     77.0083    156.0083   1.1799068538e+02   3.4892708154e+01    0.2488299    0.1146394  70.62 0.0009547346    4.098    0.756
       324 -10.6979     33.2997    155.9515   1.2711264223e+02   3.9931657936e+01    0.1623388    0.1435293  56.78 0.0002630147    1.286    0.222
       325 -11.1031    229.5260    153.8695   8.7557509047e+01   8.0549947899e+00    0.2662648    0.2230524 -25.48  0.000753432    1.350    0.259
       326 -12.5015     19.4548    148.0806   1.2931340794e+02   4.2704577987e+01     0.528049    0.3555365 -51.59  0.003705049    1.866    0.464
       327 -11.5319      5.6562     26.5753   1.1531104629e+02   6.8609066172e+01    0.4123057    0.2640499  -3.78  0.001669907    1.965    0.491
       328 -10.3478     35.0958    150.5245   1.2625870384e+02   4.0796224540e+01    0.2687353    0.1257175  57.87  0.001537551    2.069    0.517
       329 -11.5116    236.2701    135.0237   8.2446442681e+01   9.0153141845e+00    0.3581845    0.2188201  30.68   0.00116608    1.539    0.350
       330 -12.1127    242.0617    147.3505   8.4161675687e+01   6.4391306851e+00    0.4144316    0.3308692 -36.18  0.002438122    1.549    0.354
       331 -12.6156    235.2464    143.8112   8.4515898772e+01   8.1579295860e+00     0.595442    0.4461569 -49.55  0.003296381    1.936    0.484
       332 -11.4498    247.9942    144.8601   8.2699522257e+01   5.6050379808e+00    0.3253437    0.2350191  -0.60  0.001396971    1.279    0.218
       333 -11.8760    246.0023    140.1479   8.2007629223e+01   6.5161880990e+00    0.4153027    0.2657021  42.14  0.001958271    1.457    0.314
       334  -9.6806     40.5667     26.7793   1.0023286905e+02   6.5600054522e+01    0.2492514   0.09461441 -43.93  0.001142457    2.144    0.534
       335 -10.2977     40.7024     21.4545   9.8026113173e+01   6.6538312654e+01    0.2403631     0.150282 -43.13 0.0003584605    1.348    0.258
       336 -10.8041     51.3659     24.9476   9.5120349983e+01   6.4599929296e+01    0.3829339    0.2481581  19.74   0.00113143    1.818    0.450
       337 -10.2138     55.2877     17.4860   9.0311470291e+01   6.5302105519e+01      0.28781    0.1985755 -16.48 0.0008855966    1.406    0.289
       338 -11.1569     50.2296     19.4207   9.3202967135e+01   6.5690655040e+01    0.3505933    0.2364455  45.61  0.001732273    1.923    0.480
       339 -10.8365     39.4800    146.5137   1.2494312667e+02   4.1138369861e+01     0.230413    0.2073854  85.80  0.001523354    1.187    0.157
       340  -9.6966    244.9301     25.5611   5.3597207895e+01   1.9957159000e+01    0.1920423    0.1345926  73.18 0.0005286227    1.531    0.347
       341 -11.7413     98.3128     21.8959   7.7689396840e+01   5.7056129175e+01    0.3191012    0.2632031  21.87 0.0007808893    1.163    0.140
       342  -9.6516    218.1252     22.0735   5.5468755811e+01   2.6946106209e+01    0.2390623    0.1598853 -57.86  0.001130047    1.701    0.412
       343 -10.5559     38.4849    143.0814   1.2481282129e+02   4.1913017060e+01    0.2167167    0.1715778 -80.89 0.0003108993    1.121    0.108
       344  -9.6690    207.5554     16.5089   5.5040463579e+01   3.0229712198e+01    0.2642058    0.1598901 -69.41  0.001001762    2.126    0.530
       345  -9.2536     61.3002    147.2868   1.2029153537e+02   3.8568963047e+01    0.1022469   0.08801326 -39.73 0.0002423205    1.556    0.357
       346 -10.0276      4.9756    147.2883   1.3222206060e+02   4.4017071452e+01    0.1396383    0.1080189  78.20 0.0006819871    1.069    0.065
       347 -10.7966      6.7178    142.8620   1.3157111931e+02   4.4731671287e+01     0.268314    0.1502545  55.40  0.001877105    1.618    0.382
       348  -9.6561     24.5598     21.3359   1.0503893835e+02   6.8226174661e+01    0.2746742    0.1620414 -10.17  0.001532724    2.256    0.557
       349 -10.3009    244.4775     20.5465   5.2307828910e+01   2.0553270168e+01    0.2645162    0.2127875 -66.04 0.0008529019    1.329    0.248
       350 -10.0609    240.6502     19.5478   5.2404358738e+01   2.1569681002e+01    0.2605626    0.1962348 -39.28 0.0007493078    1.274    0.215
       351  -9.3589    164.6192     33.7698   6.7018407403e+01   3.9704269265e+01    0.2065973     0.132542 -36.40 0.0005070837    1.601    0.375
       352 -11.1770    213.1169    137.6695   8.6948102667e+01   1.3354136381e+01    0.3448863    0.3049547 -25.04  0.001385402    1.247    0.198
       353 -10.7590      2.8503    138.8692   1.3210681670e+02   4.5784084167e+01    0.1472071    0.1108509 -74.78 0.0002850268    1.256    0.204
       354 -10.2057    158.9844     15.3167   6.1475279037e+01   4.3256448576e+01     0.291863     0.195656  65.23 0.0003442912    1.485    0.326
       355  -9.6812    155.7070     15.6771   6.2167017884e+01   4.4080794552e+01    0.2389142    0.1512821 -12.72  0.000772895    1.655    0.396
       356  -9.6241     54.6672    137.3127   1.2054461492e+02   4.1326499369e+01    0.1221721   0.07600377  71.18 0.0003821009    1.680    0.405
       357 -11.3219     14.8238    132.6545   1.2905031850e+02   4.6101138533e+01    0.3073108    0.2045379  22.80  0.002155297    2.034    0.508
       358 -12.1079     12.3737    129.7556   1.2935154058e+02   4.6867940890e+01    0.5158616    0.2229543 -69.75  0.002698621    1.867    0.465
       359 -11.2484    249.4068    132.1066   7.9725737196e+01   6.7844445043e+00    0.4182262     0.250883   6.96  0.002074388    1.850    0.459
       360 -12.1424    109.0096     29.5975   7.7908734746e+01   5.3715638154e+01    0.7520293    0.3514176  61.66  0.001537324    2.934    0.659
       361  -9.3496    232.6213     18.2329   5.2830420989e+01   2.3662434039e+01    0.1832378    0.1288154  -5.17 0.0007099333    1.527    0.345
       362  -9.8136     80.4505     18.6930   8.1774791726e+01   6.0991355417e+01     0.213278     0.191072  37.75  0.001319415    1.262    0.208
       363  -9.4860     78.9895     15.4927   8.0790822728e+01   6.1710833913e+01    0.2121418    0.1453307 -64.46  0.000968388    2.802    0.643
       364 -11.1592    242.4615    129.2712   8.0177606231e+01   8.4776853559e+00    0.3382278    0.1636419  43.60  0.001570586    1.905    0.475
       365  -9.8985    242.4467     12.8240   5.0440377828e+01   2.1764226664e+01    0.3090307    0.1905538  71.69  0.001467331    1.676    0.403
       366 -11.9851    225.9942    126.6757   8.2269644914e+01   1.2146384984e+01    0.5436332    0.3722471  11.77  0.001680121    1.545    0.353
       367  -9.7787     72.7008    128.9945   1.1516986738e+02   4.0786917853e+01    0.1684585    0.1463424 -80.27 0.0006325403    1.052    0.050
       368 -11.0675     57.2134    125.8823   1.1842173899e+02   4.3355075277e+01    0.3203342    0.2525877  26.40  0.002109334    1.592    0.372
       369 -11.2179     24.4146    128.2498   1.2647228251e+02   4.6190927977e+01    0.2820845    0.1728455  33.59  0.001869485    1.874    0.466
       370  -9.9538     92.4762     15.7601   7.6688787221e+01   5.9070836403e+01    0.2203639    0.1807804  40.58 0.0002927158    1.252    0.201
       371  -9.6293    237.5717     14.0615   5.1213347703e+01   2.2834554800e+01    0.2964095    0.1606265 -78.57  0.001254518    2.457    0.593
       372 -10.4696     67.4325    123.0543   1.1551233040e+02   4.2687983841e+01    0.4599656    0.2195214 -37.21  0.001790397    4.153    0.759
       373 -10.4319    246.9682    121.6922   7.7759842898e+01   8.4783655212e+00     0.190708    0.1613439  20.80 0.0009952888    1.069    0.065
       374 -10.1776     19.8158    119.4253   1.2665749618e+02   4.8369137936e+01    0.2235754     0.132919 -47.83  0.001211008    1.988    0.497
       375  -9.5311    178.4856     14.5514   5.8178249385e+01   3.8143640858e+01    0.1468388     0.138517  40.87  8.73156e-05    1.006    0.006
       376 -10.5038    217.0039    120.2121   8.2302307278e+01   1.4898801615e+01    0.2515639    0.1996541 -15.97 0.0007279852    1.243    0.195
       377  -9.8301     10.5118     99.8367   1.2688982546e+02   5.3109449223e+01    0.1725723    0.1250178  72.46 0.0005565537    1.342    0.255
       378 -10.4761     22.6786    107.8278   1.2464950227e+02   5.0534165476e+01    0.2178887    0.1544988  42.03  0.001255309    1.573    0.364
       379 -11.0285      5.6953    117.6588   1.2985473841e+02   4.9778743831e+01    0.4516215    0.1577612 -75.23  0.002392727    2.238    0.553
       380 -11.0415     25.4227     93.2327   1.2196727859e+02   5.3381801667e+01    0.2300157    0.1442656 -78.53  0.001237788    1.390    0.280
       381 -12.2975     17.3641    102.0725   1.2534017438e+02   5.2151894532e+01    0.6429036    0.3445503 -82.59  0.003843568    1.649    0.394
       382 -11.4173      8.4282    109.6048   1.2845030738e+02   5.1232108995e+01    0.3851358    0.1666487 -51.16  0.001944036    2.474    0.596
       383 -10.8053     11.7171    104.9722   1.2714188746e+02   5.1959063383e+01    0.2158428    0.1585024 -70.05 0.0009342844    1.155    0.134
       384 -11.5493    238.0090    113.4314   7.7226634673e+01   1.1316020938e+01    0.4323521    0.2816076 -22.61  0.001438572    1.476    0.323
       385 -12.0824    226.4418    112.6728   7.8909487027e+01   1.3872852282e+01    0.5893307    0.4534991  61.60  0.003012786    1.558    0.358
       386 -11.5134    231.5403    111.6666   7.7835445060e+01   1.2908266535e+01     0.377285     0.305421  51.92  0.001583308    1.342    0.255
       387 -10.0788     13.1522    117.1711   1.2803294523e+02   4.9346120857e+01    0.1586357    0.1263291 -69.47   0.00105194    1.208    0.172
       388  -9.1839     17.6672    116.6571   1.2689039265e+02   4.9106760315e+01    0.1091936   0.07029632 -49.63 0.0007050756    1.756    0.431
       389 -11.7831    207.4380    112.6055   8.2161573687e+01   1.8041040570e+01    0.5174252    0.2954668 -50.39  0.001598561    2.478    0.596
       390 -11.6505    194.7408    112.7651   8.4532759387e+01   2.0840169679e+01    0.3745824    0.3255424  -8.05  0.002034964    1.144    0.126
       391 -11.3369    201.4920    107.9504   8.2087181760e+01   2.0040473382e+01     0.587461    0.1701279 -32.35   0.00189827    3.453    0.710
       392  -9.8620    245.1809     93.1683   7.1214183670e+01   1.2275760965e+01      0.21006    0.1946277  -0.29  0.000463803    1.091    0.084
       393 -10.8412    232.9830     99.0311   7.4511153320e+01   1.4209537955e+01    0.3767429    0.2902318  70.20  0.001966081    1.679    0.405
       394 -11.7959    245.5874    109.7190   7.5177102745e+01   1.0189432597e+01    0.4355228    0.2743377  -3.45   0.00201901    1.680    0.405
       395 -12.2503    242.2776    101.3686   7.3663430693e+01   1.1901107898e+01     1.030798    0.5872022 -58.15    0.0039111    3.594    0.722
