#   1 NUMBER                 Running object number                                     
#   2 MAG_AUTO               Kron-like elliptical aperture magnitude                    [mag]
#   3 X_IMAGE                Object position along x                                    [pixel]
#   4 Y_IMAGE                Object position along y                                    [pixel]
#   5 X_WORLD                Barycenter position along world x axis                     [deg]
#   6 Y_WORLD                Barycenter position along world y axis                     [deg]
#   7 A_WORLD                Profile RMS along major axis (world units)                 [deg]
#   8 B_WORLD                Profile RMS along minor axis (world units)                 [deg]
#   9 THETA_WORLD            Position angle (CCW/world-x)                               [deg]
#  10 FWHM_WORLD             FWHM assuming a gaussian core                              [deg]
#  11 ELONGATION             A_IMAGE/B_IMAGE                                           
#  12 ELLIPTICITY            1 - B_IMAGE/A_IMAGE                                       
         1 -13.9734    249.1031     98.0420   1.3563863769e+01   1.4324580933e+01    0.9806057    0.1473831 -36.41  0.003318987    4.597    0.782
         2 -15.2085    243.4430     11.2477   3.5679635661e+02   2.5542086703e+01     1.926604    0.7853315 -45.99   0.01149841    1.691    0.409
         3 -12.8582     11.1094     14.9035   5.4752151846e+01   7.6258343047e+01    0.4538136    0.2623875 -22.10  0.002219999    1.950    0.487
         4 -11.9355      9.5921      2.0649   4.7551819499e+01   7.8757428358e+01    0.5537484    0.2324559  28.48  0.002541688    2.245    0.555
         5 -12.7088      4.1628     16.4497   6.2296973326e+01   7.6603758473e+01    0.5465761    0.3049349 -28.03  0.002784227    1.776    0.437
         6 -11.8410      2.1753      4.0112   5.7236958977e+01   7.9232809477e+01    0.4732209    0.2655623 -53.54  0.002519504    1.861    0.463
         7 -12.0488      3.7999     10.5373   5.9508613183e+01   7.7831892850e+01    0.4006112    0.2646092 -14.73  0.002014416    1.465    0.318
         8 -12.3055      9.0420      7.6043   5.2181519618e+01   7.7859958041e+01    0.3638162    0.2640105 -17.41  0.002024738    1.322    0.244
         9 -13.0217      8.5450     26.0897   6.2668230042e+01   7.4198857615e+01    0.6333905    0.2345493 -54.06  0.002694055    2.383    0.580
        10 -11.5860     31.6774      9.0141   3.4219607076e+01   7.4161709690e+01    0.2871896    0.1443765  25.22  0.001173518    2.707    0.631
        11 -12.6798     16.3342      7.8607   4.5351711026e+01   7.6876960590e+01    0.4349907    0.2621664   3.75  0.002110348    2.144    0.534
        12 -12.1481     18.8045      3.0948   3.9576551866e+01   7.7259883495e+01    0.3996467    0.2328829  20.61   0.00201374    1.878    0.467
        13 -12.0961     26.6112      4.4822   3.4454396609e+01   7.5728654199e+01    0.4474437    0.2683403   3.76  0.002056048    2.500    0.600
        14 -12.1925     15.4883     19.5380   5.3458457350e+01   7.4856118682e+01    0.3519029    0.2233566 -21.79  0.001814335    1.707    0.414
        15 -12.0061    242.1718    237.3601   3.8239911378e+01  -2.7748004874e+00    0.4193456    0.1714715 -17.84   0.00211986    2.551    0.608
        16 -12.0817    247.4021    226.5441   3.5913377209e+01  -2.0155763623e+00    0.4344747     0.170986 -24.49  0.002364402    2.220    0.550
        17 -11.1840    248.1908    233.5359   3.6808365985e+01  -2.8633343083e+00    0.2343557     0.134592 -20.78 0.0009091755    1.300    0.231
        18 -11.4888    248.9027    249.8216   3.8972273008e+01  -4.6616466779e+00    0.2783829     0.151226  -3.38  0.001763754    1.435    0.303
        19 -12.3048    243.3534    245.0855   3.9142575907e+01  -3.7159268410e+00     0.505713    0.1781481 -24.75  0.002834005    2.627    0.619
        20 -12.2310    249.1729    240.4708   3.7645267100e+01  -3.6980902702e+00    0.4580875    0.1736866 -33.27  0.002864887    2.224    0.550
        21 -11.3287    233.4867    250.5081   4.1381180785e+01  -3.4814597280e+00    0.1911015   0.07820045  23.22  0.001202977    2.138    0.532
        22 -11.0882    212.9898    250.4939   4.4667161029e+01  -1.6887507302e+00    0.2564366   0.08217957  26.07  0.001352973    2.689    0.628
        23 -11.3794    201.4978    249.1712   4.6440130478e+01  -4.6253717376e-01    0.3997579     0.172772   6.69  0.001991415    2.877    0.652
        24 -10.9569    184.2981    250.3980   4.9663729175e+01   1.0661332940e+00    0.2689069   0.08260319  28.52  0.001303983    2.680    0.627
        25 -11.8945     64.9399    249.0551   7.4615456280e+01   1.4204997710e+01    0.4062315    0.1653777  36.10  0.002067697    1.803    0.445
        26 -11.0403     51.3053    249.9959   7.7765791401e+01   1.5427888161e+01    0.2965545    0.1127303  32.72  0.001482974    1.851    0.460
        27 -10.4211     27.4592    250.2008   8.3126660523e+01   1.7655981174e+01    0.2520536   0.09056746  38.06  0.001285612    1.887    0.470
        28 -11.5232     21.3564    248.6816   8.4422334789e+01   1.8476154591e+01    0.3952957    0.1500427  39.33  0.002086552    1.809    0.447
        29 -11.7537    135.7897    243.4446   5.8355960783e+01   7.2591623400e+00    0.3261847    0.1490695  48.06  0.001375815    3.775    0.735
        30 -12.1782    149.0051    243.0732   5.5563818713e+01   5.8243624932e+00    0.3107138    0.1369439  25.92  0.001631876    1.830    0.453
        31 -12.4523    107.9807    240.5611   6.4093655113e+01   1.0919934988e+01    0.4156143    0.2088985  51.15  0.001966147    2.743    0.635
        32 -11.5839     53.7210    240.1478   7.6588136855e+01   1.6988455206e+01    0.3405676    0.1676407  64.27  0.001677435    2.540    0.606
        33 -11.0844     38.4180    241.4216   8.0227075428e+01   1.8267303739e+01    0.2929748    0.1104096  50.91   0.00137797    2.388    0.581
        34 -11.2972     29.3503    241.8294   8.2336909607e+01   1.9040219769e+01    0.4070176    0.1012032  31.58  0.001755947    2.522    0.603
        35 -12.0258     16.8956    239.2119   8.5082241267e+01   2.0644811928e+01     0.668674    0.1224576  37.57  0.002783267    2.816    0.645
        36 -10.7452    170.7985    239.7947   5.0803442377e+01   3.8884721317e+00    0.2034203    0.1005188  -6.99  0.000956624    2.841    0.648
        37 -12.1674    123.8131    239.5155   6.0468996356e+01   9.2569575548e+00    0.4458692   0.09286183  28.98  0.001571882    3.670    0.727
        38 -10.7692     45.1428    236.8785   7.8396651005e+01   1.8476076133e+01    0.2589916     0.145567  62.74  0.001423821    1.909    0.476
        39 -12.0589    231.8962    234.6840   3.9425735905e+01  -1.5705464202e+00     0.346707    0.1832443  -6.63  0.002266935    1.725    0.420
        40 -12.1903    236.9432    227.8052   3.7654451090e+01  -1.2287479562e+00    0.3892807    0.1507811 -26.36  0.002200795    2.288    0.563
        41 -12.0237    158.3100    245.3004   5.3966885424e+01   4.4735503387e+00    0.3703976    0.1542547  19.75  0.001845362    2.182    0.542
        42 -10.6284    196.3883    236.3867   4.5585572769e+01   1.6429357321e+00    0.2210822   0.08216949  16.06 0.0009565076    3.381    0.704
        43 -11.0600     45.2747    244.7714   7.8831864941e+01   1.6975415471e+01    0.3257079    0.1253931  31.01  0.001611592    1.868    0.465
        44 -11.4417     76.6624    248.0296   7.1877493570e+01   1.3142265009e+01    0.3811953    0.1567767  39.61  0.001903875    1.948    0.487
        45 -10.6143      6.8676    235.1177   8.7242032387e+01   2.2271860217e+01    0.1994228    0.1155437  48.43  0.001219496    1.336    0.252
        46 -11.8460    193.3312    244.1218   4.7197124805e+01   9.6007862589e-01    0.3394158    0.1583575   3.78  0.001731004    2.606    0.616
        47 -11.5348     82.6538    238.8344   6.9720152176e+01   1.4113804997e+01    0.4123664    0.1143036  32.78  0.001697309    2.536    0.606
        48 -11.7905     32.4170    232.0567   8.1146839393e+01   2.0650028402e+01    0.4064333    0.1873153  59.20  0.002036669    2.173    0.540
        49 -10.7439     11.6762    232.0668   8.6039993827e+01   2.2481917966e+01    0.2453644    0.1511982  45.33  0.001301657    1.253    0.202
        50 -12.3129      3.9395    242.5728   8.8095413556e+01   2.1069934095e+01    0.4988454    0.2208881  58.77  0.002782735    1.921    0.479
        51 -11.0521     62.1813    241.3770   7.4698348829e+01   1.5880202123e+01    0.3478948     0.132124  40.92  0.001651206    2.076    0.518
        52 -11.4927     72.3489    240.5268   7.2264056571e+01   1.4946491098e+01    0.3577886    0.1951042  61.08  0.001834842    2.355    0.575
        53 -10.3530     40.0447    229.0203   7.9143936865e+01   2.0521643941e+01     0.219611    0.1087513  48.77  0.001135499    1.749    0.428
        54 -11.5152     21.4504    228.5928   8.3602470774e+01   2.2342778661e+01    0.3769424    0.1551403  35.45  0.001906656    1.771    0.435
        55 -10.5858    230.0125    227.2149   3.8637655920e+01  -5.1911080933e-01    0.2008627       0.1018 -20.87  0.001280901    1.678    0.404
        56 -10.9011     11.7247    226.2657   8.5832844293e+01   2.3645501714e+01    0.2868593    0.1305515  50.07   0.00151444    1.755    0.430
        57  -9.9351    206.3151    224.0185   4.2059473939e+01   2.2302943827e+00    0.1834562   0.06466114 -24.09 0.0007046668    4.263    0.765
        58 -11.5394     19.2562    221.5043   8.3829544670e+01   2.3989013576e+01     0.447565    0.1154866  42.17  0.001865887    2.604    0.616
        59 -10.3865    216.3816    221.4243   3.9971956509e+01   1.5287217516e+00    0.2159346   0.07142967 -28.04 0.0009558896    3.317    0.698
        60 -11.4926      5.7322    227.4638   8.7287121181e+01   2.3886257472e+01    0.3912967    0.2106556  71.40  0.002238856    1.790    0.441
        61 -10.9152     43.9141    221.0782   7.7689094564e+01   2.1751821879e+01    0.2999573    0.1277521  51.64  0.001367048    2.241    0.554
        62 -11.3553      2.2269    220.5148   8.7924461483e+01   2.5584972320e+01    0.3314852    0.1749433  73.54  0.001847018    1.823    0.451
        63 -12.1105    239.9437    219.4000   3.5957087085e+01  -5.1630357975e-01    0.3279866    0.1727469 -10.15  0.002103167    1.768    0.434
        64 -11.0088    227.0851    218.7113   3.7831502575e+01   7.9884875275e-01    0.2747505    0.1301407 -15.01  0.001518821    2.268    0.559
        65 -11.5082     11.9599    216.5188   8.5425647191e+01   2.5655284343e+01    0.3859614    0.1569559  42.20  0.001906519    1.845    0.458
        66 -12.2363    248.3003    213.7784   3.3883668444e+01  -6.2525154255e-01    0.4177243    0.1986915 -24.57  0.002696614    1.676    0.403
        67 -10.4495     33.5298    215.5166   7.9957935746e+01   2.3947403052e+01     0.221387    0.1092027  80.25  0.001040224    2.430    0.588
        68 -10.6905    232.4733    213.4571   3.6189799922e+01   9.1998714163e-01    0.2154837   0.08549023 -35.26  0.001209939    2.167    0.539
        69 -11.3740      3.0753    212.1746   8.7481572999e+01   2.7286490204e+01    0.3438617    0.1851907  45.53  0.001924236    1.457    0.314
        70 -10.3340     45.7853    212.2057   7.6590518604e+01   2.3431115219e+01    0.2382288   0.08984665  52.79 0.0009483921    2.768    0.639
        71 -11.2546     25.6564    209.7275   8.1649573348e+01   2.5936381801e+01    0.3565909    0.1298595  55.98   0.00147636    2.697    0.629
        72 -11.1620    236.4497    206.8217   3.4555860210e+01   1.3511430148e+00    0.3415585    0.1255746 -34.10  0.001856271    2.258    0.557
        73 -10.9747    247.0230    206.1049   3.2889897939e+01   4.0694405610e-01    0.2551343    0.1197323 -29.70   0.00137646    1.675    0.403
        74 -11.2060    250.3483    200.5860   3.1556375437e+01   7.5450598590e-01    0.3190616    0.1111966 -32.67  0.001738945    2.277    0.561
        75 -11.9909     13.0730    204.4980   8.4664474157e+01   2.8183155975e+01    0.5224781    0.2189583  49.58  0.002474895    1.974    0.493
        76 -10.7321      2.5815    206.1726   8.7424771545e+01   2.8631648832e+01    0.2657123    0.1469967  51.35  0.001469213    1.477    0.323
        77 -10.0732     51.6513    206.3163   7.4592736127e+01   2.4085947523e+01    0.1470233   0.08110912  51.09 0.0007047715    1.728    0.421
        78 -10.9499    228.2710    201.9308   3.5035950367e+01   2.8146683830e+00    0.3487765     0.123624 -23.98  0.001440933    3.786    0.736
        79 -11.1153    243.7808    199.4847   3.2317643656e+01   1.5330272848e+00    0.3241458    0.1083874 -30.93  0.001648795    2.521    0.603
        80 -10.4848     30.0059    201.0263   7.9995422776e+01   2.7472804615e+01     0.233177    0.1211347  52.11  0.001137617    1.741    0.426
        81 -10.1274     44.6787    199.3256   7.5896395786e+01   2.6392686282e+01    0.1469165   0.08316591  52.72  0.000490631    1.683    0.406
        82 -10.8478    237.2549    197.1042   3.2893879735e+01   2.4968083180e+00    0.2689938    0.1144252 -33.08   0.00153892    1.920    0.479
        83 -12.2225      5.5678    195.5729   8.6290097501e+01   3.0795472509e+01    0.5294407    0.2431411  51.85  0.002592217    1.830    0.454
        84 -11.8470      3.6665    188.1415   8.6531488076e+01   3.2665212872e+01     0.360325    0.2056772  72.54  0.001892144    1.648    0.393
        85 -11.7777     17.9507    192.9730   8.2813280882e+01   3.0409871092e+01    0.4655475    0.2108093  68.80   0.00206514    2.325    0.570
        86 -11.7099    246.2854    192.1034   3.0777424127e+01   2.2014793851e+00    0.3045839    0.1368672 -32.18  0.001834619    1.758    0.431
        87 -10.2380     33.0000    193.9685   7.8708613378e+01   2.8808627258e+01    0.2038584   0.07504039 -76.39  0.000801222    2.934    0.659
        88 -11.6233     11.0179    188.9020   8.4530319088e+01   3.1932580528e+01    0.3626214    0.1956101  58.01   0.00183056    1.671    0.401
        89 -10.1613    237.6032    187.1622   3.1219427302e+01   3.7460507233e+00     0.166318   0.07949345 -26.18 0.0009540131    1.780    0.438
        90 -11.0957     27.2685    186.8254   7.9832248370e+01   3.1038881689e+01    0.4654422   0.08629526  35.24  0.001570859    3.289    0.696
        91 -11.1695    249.7569    184.4370   2.9045102694e+01   2.8086728033e+00    0.2824502    0.1064283 -33.66  0.001515949    2.083    0.520
        92  -9.8396    230.4982    186.4934   3.2168000981e+01   4.6175479656e+00    0.1140143   0.08528715 -14.35 0.0002395547    1.004    0.004
        93 -10.9663     16.3903    181.9535   8.2656866110e+01   3.3164903785e+01    0.3672354    0.1661859  64.38  0.001592535    2.249    0.555
        94 -13.1185      6.8710    174.3866   8.5048657766e+01   3.5753889711e+01    0.8093767     0.334579 -87.89  0.003448817    2.435    0.589
        95 -11.5504     31.1708    172.7896   7.7638513279e+01   3.4109183387e+01    0.4746831    0.1846668  89.16   0.00167416    3.360    0.702
        96 -11.8571     19.6731    172.2303   8.1096158102e+01   3.5288843553e+01    0.4250219    0.2326984  78.23  0.001981162    1.904    0.475
        97 -10.6082     40.6763    172.0099   7.4662546714e+01   3.3343943498e+01    0.2346143   0.09498525  75.67 0.0007050689    4.323    0.769
        98 -10.8801    249.5052    176.9615   2.7840908124e+01   3.7849855858e+00    0.1689009   0.08269576 -33.17   0.00103404    1.594    0.373
        99 -10.7559    250.5581    157.2446   2.4328717447e+01   6.2303578686e+00    0.2681788   0.08400221 -34.69  0.001280488    2.495    0.599
       100 -12.7810     11.6370    153.5739   8.2417004726e+01   4.0707505132e+01    0.9025412     0.182742  34.39  0.003001548    3.401    0.706
       101 -12.4726      7.6258    147.1429   8.3350259960e+01   4.2678864767e+01    0.4885748    0.2383514 -87.48  0.002139703    2.003    0.501
       102 -10.6646    247.3041    155.3413   2.4416093853e+01   6.8638195050e+00    0.1145671   0.07049875 -11.99 0.0006934454    1.680    0.405
       103 -10.9877    249.3875    149.2052   2.3059830928e+01   7.4334135052e+00     0.273954   0.08216251 -37.64  0.001209591    2.589    0.614
       104 -11.6677    243.5800    149.2328   2.3812784381e+01   8.1384169883e+00    0.2814385   0.08751041 -34.93  0.001287816    2.568    0.611
       105 -10.1391    234.0000    146.9815   2.4687933232e+01   9.6696925331e+00    0.1974586   0.05364769 -37.14 0.0008057162    2.965    0.663
       106 -10.4498    247.6349    143.4809   2.2253451725e+01   8.4147680859e+00    0.2018064   0.08340713 -35.14  0.001079893    1.869    0.465
       107 -11.5806     20.6224    141.0284   7.8362541350e+01   4.3345013752e+01    0.4046064    0.1981846  67.44  0.001619702    2.306    0.566
       108 -11.6047     10.1071    137.2117   8.1810075156e+01   4.5163184552e+01    0.6110619    0.2185157 -77.09  0.002289963    2.608    0.617
       109 -11.4813    248.8636    134.8774   2.0535095536e+01   9.4193165733e+00    0.2152672     0.118393 -36.95  0.001027125    1.419    0.295
       110  -9.8737     17.5260    134.4746   7.8881982135e+01   4.5365972565e+01    0.1420965    0.1320493  71.96 6.649234e-05    1.006    0.006
       111 -10.8845    247.4149    129.7411   1.9762186994e+01   1.0300598561e+01    0.2211158   0.08340072 -38.79 0.0009651065    2.061    0.515
       112 -11.8694      5.7774    125.4451   8.2541626005e+01   4.8622732131e+01    0.6821258    0.3113846  65.95  0.002740092    2.364    0.577
       113 -11.5693     10.3060    113.1583   7.9673191233e+01   5.1710467168e+01    0.7143627    0.2812774  87.49  0.002517105    2.948    0.661
       114 -11.4776    152.2241    249.5931   5.5713205063e+01   4.5257990172e+00    0.2931617   0.09220041  24.85  0.001295892    2.689    0.628
       115 -10.8623    242.6596    109.3142   1.6437188810e+01   1.3739342746e+01     0.114123   0.07660771 -55.84 0.0007047383    1.702    0.412
       116 -11.5208      4.5788     76.0684   7.7997911738e+01   6.2121300173e+01    0.6162321    0.2529494 -86.77  0.002313576    2.749    0.636
       117 -11.2897      2.5977     95.2807   8.1287526933e+01   5.7029390149e+01    0.5499831    0.2309856  86.30  0.002085605    2.626    0.619
       118 -11.8248      3.0509     63.3516   7.6901354010e+01   6.5535646661e+01    0.5820019    0.2434258 -76.42  0.002368254    2.339    0.572
       119 -11.2764     16.9326     53.2762   6.5884414730e+01   6.7180363441e+01    0.5046245    0.2037148 -74.43  0.001784745    3.269    0.694
       120 -12.0224      3.0972     51.7335   7.4679391679e+01   6.8496756142e+01    0.5716154     0.198373 -54.23  0.002303545    2.324    0.570
       121 -12.1050     12.2639     40.9936   6.5309747004e+01   7.0522250995e+01    0.6056486    0.2366469 -48.67  0.002510766    2.253    0.556
       122 -11.8918      1.4837     38.9499   7.2840456689e+01   7.1707705782e+01    0.4889572    0.1236772 -70.96  0.001625883    3.862    0.741
       123 -12.4452    143.0028    248.4321   5.7445338635e+01   5.7019080246e+00    0.4236269    0.1777856  19.69  0.002086758    2.153    0.536
       124 -11.7959    127.8313    248.8519   6.0662238477e+01   7.3253559219e+00    0.2789859    0.1323024  29.00  0.001495978    1.642    0.391
       125 -12.4015     99.4973    245.9705   6.6543521433e+01   1.0976413340e+01    0.5230538    0.2974899  62.38   0.00258588    2.964    0.663
       126 -11.2122     34.9926    248.1913   8.1351137233e+01   1.7331674647e+01    0.3032886    0.1443634  39.32  0.001618988    1.540    0.351
       127 -12.0976    168.5521    247.9776   5.2304661470e+01   3.0033535858e+00    0.3395506    0.1399008  21.75  0.001776035    2.064    0.516
       128 -11.5040     89.5738    247.3365   6.8899133353e+01   1.1852057999e+01    0.3026227    0.1551522  40.76  0.001650739    1.703    0.413
       129 -11.9214    234.1928    244.4252   4.0439847765e+01  -2.8748925784e+00    0.3583435    0.1787592  -9.92  0.002335508    1.824    0.452
       130 -11.2990    219.0085    245.5481   4.3004010227e+01  -1.6625608900e+00    0.2865032    0.1288061 -23.96  0.001748785    2.018    0.505
       131 -11.9960     23.8205     20.8448   4.7455288852e+01   7.3509340744e+01    0.4036471    0.2029054 -26.49  0.001647859    2.783    0.641
       132 -11.8930     21.6662     14.2097   4.5115211840e+01   7.5018543955e+01    0.4403456    0.1783663  26.28  0.001712593    2.880    0.653
       133 -12.0720     19.3100     29.8837   5.5599625433e+01   7.2303823387e+01    0.5100974    0.1925751 -40.94  0.001974694    2.771    0.639
       134 -10.9085     83.5418    246.8701   7.0221204422e+01   1.2596113931e+01    0.2659842    0.1116555  38.39  0.001325905    1.906    0.475
       135 -12.2478    224.1190    241.7828   4.1656645955e+01  -1.6895147612e+00    0.4936432    0.1819898 -35.88   0.00283583    2.498    0.600
       136 -12.1707    210.8569    244.3241   4.4185916484e+01  -7.6564500185e-01    0.3069573    0.1358218 -27.17  0.001832044    2.080    0.519
       137 -12.1209    178.0784    243.0072   4.9844236162e+01   2.6706549657e+00    0.3447622     0.156856  10.41  0.001721625    2.468    0.595
