#   1 NUMBER                 Running object number                                     
#   2 MAG_AUTO               Kron-like elliptical aperture magnitude                    [mag]
#   3 X_IMAGE                Object position along x                                    [pixel]
#   4 Y_IMAGE                Object position along y                                    [pixel]
#   5 X_WORLD                Barycenter position along world x axis                     [deg]
#   6 Y_WORLD                Barycenter position along world y axis                     [deg]
#   7 A_WORLD                Profile RMS along major axis (world units)                 [deg]
#   8 B_WORLD                Profile RMS along minor axis (world units)                 [deg]
#   9 THETA_WORLD            Position angle (CCW/world-x)                               [deg]
#  10 FWHM_WORLD             FWHM assuming a gaussian core                              [deg]
#  11 ELONGATION             A_IMAGE/B_IMAGE                                           
#  12 ELLIPTICITY            1 - B_IMAGE/A_IMAGE                                       
         1 -13.7200     30.2616     59.5495   1.1668687852e+02   6.1123309001e+01      1.27327    0.7981356  41.74  0.005992329    2.169    0.539
         2 -13.0238     42.3353     20.9855   9.8196663312e+01   6.5821326983e+01    0.5647918     0.302066  24.02   0.00143881    1.797    0.444
         3 -12.0801    216.4831     14.3673   5.8882801887e+01   3.0001252932e+01    0.4142247    0.3286781 -89.41  0.001468381    1.036    0.035
         4 -13.5718    185.9821      6.9600   6.0414401244e+01   3.7830468164e+01    0.8086572    0.5278077 -75.79  0.004622344    1.530    0.347
         5 -12.1885     43.9069      8.6447   9.2359685799e+01   6.7026422589e+01    0.2550626    0.1905832  24.96 0.0004632865    1.202    0.168
         6 -10.4982    109.9901      9.0032   7.3010786583e+01   5.5096200988e+01    0.1554648    0.1223974  49.72 0.0004654438    1.067    0.062
         7 -11.7911     59.0273      7.2305   8.6267333111e+01   6.4893781658e+01    0.3294541    0.1755734  40.31  0.001946073    1.613    0.380
         8 -11.7626    166.8679      1.9146   6.1449032034e+01   4.2778122736e+01    0.4441417    0.1569537  70.95  0.001885374    2.435    0.589
         9 -11.2043     95.6098    223.7075   1.2972499764e+02   1.5149744304e+01    0.3459401    0.2470767 -51.65  0.001907298    1.640    0.390
        10 -11.0278    149.3572    222.1842   1.1807172560e+02   6.1550171279e+00    0.4006949     0.231323 -55.02  0.001894332    1.950    0.487
        11 -12.5899    227.1298    221.1040   1.0213002739e+02  -7.2346167843e+00    0.4130493    0.3387834 -44.27  0.002537196    1.442    0.307
        12 -10.1919    173.6897    221.4657   1.1282765445e+02   1.8803773915e+00    0.2392557     0.127203 -46.44  0.001088646    2.056    0.514
        13 -10.4629    211.2296    217.9043   1.0459488315e+02  -4.0977575150e+00    0.2662404     0.181024 -50.75  0.001309376    1.784    0.440
        14  -9.9899    132.0000    213.0029   1.2035272804e+02   1.1172705902e+01    0.2229606   0.08099575 -54.05 0.0008041605    2.954    0.662
        15 -10.6122    232.6597    211.3020   9.9277303543e+01  -6.5488502724e+00    0.1181969    0.1068307  84.49  0.000703809    1.672    0.402
        16 -10.9169    115.6575    209.4623   1.2340626824e+02   1.4850882088e+01    0.2931345    0.2057256  82.65  0.001439929    1.689    0.408
        17 -11.4939    222.5351    213.8274   1.0165662034e+02  -5.3111362772e+00    0.3359189    0.2658941  15.79  0.001985344    1.198    0.165
        18 -10.0689    185.5985    203.8516   1.0717066059e+02   3.0109155267e+00    0.1973046    0.1355931 -56.45 0.0009508345    1.732    0.422
        19  -9.7259     41.5107    201.5365   1.3857964218e+02   2.7786384731e+01    0.1284727    0.1030149  84.85 0.0008094562    1.004    0.004
        20 -10.9551      5.0245    199.5208   1.4577273112e+02   3.2089416643e+01    0.2873839     0.149014  55.88  0.001020018    1.784    0.440
        21 -10.9913    148.9265    196.9886   1.1386096013e+02   1.1417506415e+01    0.5133759    0.1952764 -58.46  0.001645009    3.604    0.723
        22 -10.6599    112.1619    197.3137   1.2229567866e+02   1.8177697293e+01    0.3181683    0.1682787 -81.72  0.001093559    3.428    0.708
        23 -12.3232    159.4219    191.5642   1.1049979109e+02   1.0536187466e+01      0.76294    0.5078991 -85.72  0.002793912    2.574    0.611
        24 -10.5477    183.1716    183.4791   1.0369990524e+02   7.5201816913e+00    0.4068414    0.1971149 -40.10  0.001605961    2.160    0.537
        25 -10.1035    215.1842    193.3885   9.9141953356e+01  -4.8901129895e-01    0.3976698   0.09914362 -46.25  0.001154576    4.556    0.781
        26 -10.1986    133.1677    195.7605   1.1721402600e+02   1.4687371230e+01     0.261528    0.1981185 -73.59  0.001298497    1.474    0.322
        27  -9.6104     28.3156    177.2639   1.3890027579e+02   3.4887163716e+01    0.1156017   0.08877926 -48.63 0.0002859845    1.545    0.353
        28 -10.3431    210.4827    182.4964   9.7869679275e+01   2.4040709700e+00    0.2703567    0.1288526 -31.85  0.001040575    2.441    0.590
        29 -11.1757    223.9014    183.1114   9.5398405071e+01  -1.9093299966e-01    0.3012844    0.1968596 -56.90  0.001418198    1.970    0.492
        30 -10.3526    193.0186    188.5064   1.0263656168e+02   4.5813386638e+00    0.2100743    0.1255534  63.59 0.0008103626    2.686    0.628
        31 -11.2029     34.3371    172.5884   1.3699237436e+02   3.5354111143e+01    0.2681769    0.1379091 -68.40  0.001354296    1.625    0.385
        32 -11.2048    121.3276    164.5151   1.1418758560e+02   2.4170631095e+01    0.4333339    0.2405872 -28.31  0.001417605    3.525    0.716
        33 -10.1245    167.5114    168.5106   1.0402822075e+02   1.3883642882e+01     0.152661    0.1482559  82.07 0.0008100283    1.048    0.046
        34 -10.6988     55.6101    167.5828   1.3123443507e+02   3.4049533990e+01    0.2704606    0.2150693  80.62  0.001065885    1.202    0.168
        35 -10.2670    138.2805    162.0966   1.0951668333e+02   2.1385546326e+01    0.6063432    0.1368643 -50.13  0.001565756    4.437    0.775
        36 -11.8089    105.9665    156.8727   1.1655033127e+02   2.8878310527e+01    0.7039496     0.435175 -75.92  0.002887514    2.084    0.520
        37 -11.2950     24.3611    159.3443   1.3778231987e+02   3.9507680932e+01    0.2332705    0.1654388  -5.37 0.0009092538    2.250    0.556
        38 -11.1757    167.3169    157.1000   1.0159132960e+02   1.6431588183e+01    0.4189392    0.2674907 -74.20  0.001574414    2.510    0.602
        39 -10.2332     23.4818    153.5547   1.3729078499e+02   4.0962097006e+01    0.1279726    0.1028207 -82.75 0.0001361192    1.051    0.048
        40 -10.5281    232.0000    152.0052   8.7385879525e+01   4.0781986348e+00    0.2447098   0.07498775 -41.07 0.0008076132    2.978    0.664
        41 -10.8339    189.5697    149.9407   9.5116506402e+01   1.3185896452e+01    0.4451855    0.2240987 -56.51  0.001600749    2.509    0.601
        42 -10.6506    218.4619    155.9701   9.0711699844e+01   5.9670000929e+00    0.3996988    0.1355996 -42.01  0.001367495    2.763    0.638
        43 -11.1184    233.9743    146.9706   8.5956918426e+01   4.6416415324e+00    0.2248944    0.1706112 -69.58 0.0009965134    1.665    0.399
        44 -10.7281    118.3119    156.5159   1.1331476414e+02   2.6662406449e+01     0.283268    0.1374295 -52.85   0.00107977    2.018    0.504
        45 -11.2358    106.8060    145.0176   1.1387526612e+02   3.1597290370e+01    0.4646891    0.2760568  83.35  0.001523248    3.548    0.718
        46 -10.2170    148.4898    145.0010   1.0325881425e+02   2.3201848438e+01    0.3243758    0.1969164  79.03  0.001035611    3.423    0.708
        47 -10.2353     55.3391    145.6633   1.2788552528e+02   3.9426190467e+01    0.1448269   0.09839433  75.74 0.0007051157    1.756    0.431
        48 -10.4357    181.5114    141.4917   9.4886561965e+01   1.6731395305e+01    0.2911431    0.1414826 -54.07  0.001032562    2.369    0.578
        49  -9.9676    124.3221    142.6577   1.0876482542e+02   2.8788171755e+01    0.1635376    0.1223533  85.73 0.0007050419    1.726    0.421
        50 -10.6297     83.1744    132.0224   1.1755176201e+02   3.8799905167e+01    0.2472969    0.1673044 -85.65  0.001086693    1.996    0.499
        51 -10.3639    131.4941    131.0028   1.0418517890e+02   3.0037931151e+01    0.2304557    0.1374941 -71.09 0.0008106022    2.608    0.617
        52 -12.0444     98.1888    127.6624   1.1234916519e+02   3.7313622950e+01    0.7068409    0.3882477 -77.93  0.002192473    4.003    0.750
        53 -10.9121     43.5720    124.0134   1.2735385389e+02   4.6005772325e+01    0.2790456    0.1642642 -81.94  0.001296402    2.094    0.523
        54 -11.2816     26.9100    120.5042   1.3158281731e+02   4.8455216718e+01    0.5155694    0.2437305  86.99  0.001697622    5.012    0.800
        55 -11.6301    193.1025    118.4051   8.6988835306e+01   1.8915158331e+01    0.5686023    0.4221383 -73.15  0.001935986    1.622    0.383
        56 -10.7426     71.2145    120.6088   1.1851725059e+02   4.3331968071e+01    0.2948458     0.166535 -87.46 0.0009585489    4.135    0.758
        57 -11.3846    140.7999    116.4011   9.8171036317e+01   3.1311013923e+01    0.4997073     0.227993 -49.12  0.001795583    2.233    0.552
        58 -10.8335      2.0090    115.9056   1.3800815180e+02   5.1325544107e+01     0.259863    0.1296315 -66.61  0.001093497    1.518    0.341
        59 -10.6305    108.1137    112.5272   1.0584909621e+02   3.8971534463e+01    0.4406342    0.1962115 -58.80    0.0014666    2.973    0.664
        60 -10.8687     78.3108    112.0223   1.1441412140e+02   4.4269701877e+01    0.4016239    0.2229574 -74.78  0.001440261    3.236    0.691
        61 -10.5534    174.1954    111.1251   8.9069639702e+01   2.4770761325e+01    0.3582686    0.2018948 -49.93   0.00110191    1.808    0.447
        62 -11.6200    159.9525    110.8731   9.2154550767e+01   2.8143214418e+01    0.5807095    0.2793676 -51.55  0.002104478    2.265    0.558
        63 -11.3611    121.6329    110.9915   1.0173203584e+02   3.6609824444e+01    0.3668544    0.1442364 -46.53  0.001255716    2.500    0.600
        64 -11.5778     13.7103    109.0253   1.3355832516e+02   5.2120262221e+01     0.496498     0.175683 -65.21  0.002225235    2.248    0.555
        65 -12.4971    141.0804    102.3158   9.4382471633e+01   3.4243586934e+01    0.6789508    0.4391317 -39.03  0.002972685    1.585    0.369
        66 -12.0953     44.3059    100.8674   1.2240698628e+02   5.1257454877e+01    0.5655077    0.3532763 -87.91  0.002557572    2.675    0.626
        67 -11.7765    150.2277    102.3013   9.2163795226e+01   3.2160161974e+01    0.4054559    0.1755703 -50.13  0.001395716    2.534    0.605
        68 -11.9709    127.6629    101.3187   9.7532975916e+01   3.7410085230e+01    0.4249191    0.2594939 -56.77  0.001764016    1.886    0.470
        69 -12.0441    108.1249     98.6170   1.0213277263e+02   4.2000368628e+01    0.7492899    0.5009218 -86.27  0.002868968    2.897    0.655
        70 -10.7458     81.8932    100.3417   1.1037914046e+02   4.6321171840e+01    0.2215885    0.1810451  56.97 0.0009985764    1.444    0.308
        71 -10.3119     63.3248     96.6491   1.1526585913e+02   4.9879656344e+01    0.1354651     0.107482  84.28 0.0007048354    1.756    0.431
        72 -12.6440    170.3652     90.8829   8.4638109600e+01   2.9651752856e+01    0.4375991    0.3531062 -88.60  0.001023704    1.396    0.283
        73 -10.1406     82.6713     93.6496   1.0833991985e+02   4.7633371241e+01    0.1505268    0.1065037 -15.63 0.0007048302    1.765    0.433
        74 -11.7750     42.2102     87.8368   1.2002926484e+02   5.4316808783e+01    0.3917226    0.2391346 -13.12  0.001599429    2.173    0.540
        75 -11.2333     86.5088     87.2470   1.0535002064e+02   4.8320531339e+01     0.386949    0.2604355  80.30  0.001526311    3.201    0.688
        76 -11.1118     45.9408     82.6940   1.1744324906e+02   5.4988024296e+01      0.47681    0.3150043  76.22  0.002106755    3.320    0.699
        77 -10.4822    118.5402     87.5150   9.6088561062e+01   4.2147370558e+01     0.146163    0.1439859  -1.01  2.37733e-05    1.011    0.011
        78 -11.1493    104.2238     83.0726   9.8806958956e+01   4.5911603012e+01    0.3808345    0.2272117 -63.78  0.001496751    2.688    0.628
        79 -10.6312    140.5792     82.7521   8.9066029594e+01   3.8195629807e+01    0.2876057    0.1484079 -36.08   0.00114065    2.063    0.515
        80 -10.4680     24.3894     81.1802   1.2456266557e+02   5.7377895176e+01    0.1758037    0.1054968 -66.97 0.0009519347    1.774    0.436
        81  -9.5800      1.6995     77.6701   1.3171660393e+02   5.9612532671e+01    0.1240772   0.06272223 -40.90 0.0007031849    1.645    0.392
        82 -11.1305     81.9558     72.7560   1.0246685256e+02   5.1912207667e+01    0.3227785     0.190756 -59.08  0.001407994    2.424    0.587
        83 -10.3723     62.3193     74.6502   1.0955188564e+02   5.4556920347e+01    0.1257455    0.1067277  89.46 0.0007048241    1.738    0.425
        84 -10.3303    115.9603     72.9777   9.2471119862e+01   4.5406053348e+01    0.2302724    0.1834949 -82.97  0.001137177    1.741    0.426
        85 -11.4218    223.5043     71.6068   7.0741985485e+01   2.0470515922e+01    0.2625749    0.2327014 -74.01 0.0001966068    1.025    0.024
        86 -10.6332     51.8921     70.3418   1.1190602765e+02   5.6750205395e+01    0.2176158    0.1674571 -48.74  0.001075042    1.299    0.230
        87 -10.5110    194.6050     67.2007   7.4034097811e+01   2.7943264107e+01    0.1955567    0.1399248 -27.62 0.0009541502    1.669    0.401
        88 -11.4847     39.6082     52.6398   1.1093993925e+02   6.1407983224e+01    0.5184164     0.147706 -39.36  0.001875709    3.244    0.692
        89 -11.7495    220.1179    248.5659   1.0823288852e+02  -1.0275833951e+01     0.259158    0.2410581 -71.97  0.001766866    1.655    0.396
        90 -11.6982     19.5830     59.3675   1.2075285801e+02   6.2071505816e+01    0.2720309    0.2079702 -11.35  0.001054248    1.265    0.210
        91 -11.6138    237.1697     63.6974   6.7215803499e+01   1.8692613662e+01    0.2178763    0.1542152 -84.74  0.001191524    1.412    0.292
        92 -11.3822    149.6349     52.4610   7.8271473344e+01   4.1081896167e+01    0.2833495    0.2167125  55.98 0.0007642505    1.209    0.173
        93 -11.4799     11.1894     59.3749   1.2400964954e+02   6.2672962800e+01    0.2135724    0.1320509  27.93  0.001348309    1.949    0.487
        94 -10.4431     82.2188     47.2028   9.3959003641e+01   5.6150802094e+01    0.1646773    0.1589188 -58.17 0.0006250329    1.348    0.258
        95 -10.4396    157.0128     44.9717   7.4680514374e+01   4.0368352773e+01    0.2139622    0.1879526  63.03 0.0004627145    1.040    0.038
        96 -10.9462    141.5147     45.5021   7.7903076920e+01   4.3978807737e+01    0.1390267    0.1276825  58.74 0.0001570213    1.013    0.013
        97 -11.1175      7.3694     43.1827   1.2099027579e+02   6.5856529509e+01    0.4400018    0.2379982  37.70  0.002577012    2.681    0.627
        98 -11.5359     71.2677     42.6470   9.5927338442e+01   5.8673865377e+01    0.5233489    0.2557434  51.03  0.002351618    2.714    0.632
        99 -12.0588     42.1747     37.3390   1.0462348287e+02   6.3587227425e+01     0.467776    0.2714099   2.36  0.001273221    2.062    0.515
       100 -11.7838     46.3867     35.8723   1.0243552011e+02   6.3279728632e+01      0.28958    0.1972224   9.42 0.0007605249    1.409    0.290
       101  -9.5615    177.6240     38.8237   6.9498329637e+01   3.6201771863e+01    0.1821146    0.1193551 -48.65 0.0004209513    1.586    0.370
       102 -10.2960     83.5262     38.4791   9.0459551981e+01   5.7152107790e+01    0.1294769    0.1115169  14.23 1.794845e-05    1.010    0.010
       103 -10.7976    119.8150     34.0125   7.9112141693e+01   5.0391087073e+01    0.2680576    0.2268791  69.63 0.0008329221    1.271    0.213
       104 -10.3776     73.4781     32.5867   9.1499893643e+01   5.9686025068e+01    0.2767412    0.1893176  74.38  0.001247584    3.561    0.719
       105 -11.2191    104.8349     30.3340   8.1545334576e+01   5.4028505882e+01    0.5272173    0.1861858  55.04  0.001690325    2.717    0.632
       106  -9.8023    101.3079     27.2937   8.1402986147e+01   5.5102108093e+01    0.2093758    0.1170444 -27.00 0.0002726525    1.940    0.484
       107  -9.3599    154.2929     24.3062   6.9318328161e+01   4.3552825533e+01    0.1321328   0.09255603  37.92 0.0003154572    1.580    0.367
       108 -11.8633     22.9109    240.1410   1.4535384997e+02   2.1684534185e+01    0.2654737    0.1556448  76.01  0.001684321    1.374    0.272
       109 -10.9970    239.8556     20.6936   5.8024482778e+01   2.4092365897e+01    0.2268924    0.1754399 -87.79 0.0005571777    1.092    0.084
       110 -10.4302    134.2790     18.0581   7.1028058526e+01   4.8880826337e+01     0.174225    0.1574852  60.41 0.0004289614    1.054    0.051
       111 -10.0432     88.6804     18.3320   8.1567035700e+01   5.8565387413e+01    0.1127464   0.09801918 -75.62 0.0007048687    1.694    0.410
       112  -9.7884      2.3366    240.3008   1.4884225209e+02   2.3848842655e+01   0.09435277   0.07625318 -65.55 0.0007035602    1.661    0.398
       113 -10.8976      7.8407    240.8434   1.4796213150e+02   2.3180056797e+01    0.1608594    0.1258534  87.61 0.0008937499    1.221    0.181
       114 -10.8046      6.1571    235.6230   1.4794057188e+02   2.4391571161e+01    0.1856399    0.1110372  83.53 0.0005182233    1.266    0.210
       115 -10.8392     12.6515    227.4347   1.4630691831e+02   2.5389463257e+01    0.2035838    0.1523846 -89.73 0.0005944992    1.139    0.122
       116 -10.0370    104.4734    225.0172   1.2803064861e+02   1.3425528129e+01    0.1954524    0.1295494 -65.25  0.001029765    1.585    0.369
