#   1 NUMBER                 Running object number                                     
#   2 MAG_AUTO               Kron-like elliptical aperture magnitude                    [mag]
#   3 X_IMAGE                Object position along x                                    [pixel]
#   4 Y_IMAGE                Object position along y                                    [pixel]
#   5 X_WORLD                Barycenter position along world x axis                     [deg]
#   6 Y_WORLD                Barycenter position along world y axis                     [deg]
#   7 A_WORLD                Profile RMS along major axis (world units)                 [deg]
#   8 B_WORLD                Profile RMS along minor axis (world units)                 [deg]
#   9 THETA_WORLD            Position angle (CCW/world-x)                               [deg]
#  10 FWHM_WORLD             FWHM assuming a gaussian core                              [deg]
#  11 ELONGATION             A_IMAGE/B_IMAGE                                           
#  12 ELLIPTICITY            1 - B_IMAGE/A_IMAGE                                       
         1 -13.4692    194.8624    195.7383   5.3545954625e+01   4.0032589204e+00     2.785245     1.825082 -64.96  0.008523224    2.706    0.630
         2 -13.4639     53.7743     34.5096   4.8444914521e+01   6.2686861914e+01     1.868301     1.187613 -34.33   0.00387937    1.500    0.333
         3 -13.1551    171.1365     56.0573   2.4680172609e+01   3.4782835035e+01     1.899461    0.9818327  32.83  0.005281697    3.182    0.686
         4 -12.5011     81.5548     51.1464   4.4920484333e+01   5.5512180906e+01     1.499869     1.140213  60.26  0.007501666    1.760    0.432
         5 -11.2789     64.8544     25.3726   4.0595803247e+01   6.2188089899e+01    0.6920565    0.4969881 -42.51  0.001395768    1.733    0.423
         6 -13.3394     72.9404     59.2463   5.0649447361e+01   5.5625959524e+01     1.573914     1.152687  51.84   0.00713841    1.711    0.416
         7 -11.9993    186.2102     43.0535   1.8716765180e+01   3.2945868187e+01    0.5449974    0.4839777  35.84  0.003206704    1.298    0.230
         8 -11.7697     25.7326     27.7294   5.7501831228e+01   6.7292793519e+01    0.9697559    0.5733863 -37.22  0.005751941    1.471    0.320
         9 -11.8288     29.1003     17.2514   5.1454374777e+01   6.8455744627e+01    0.6231824    0.4381945   6.47  0.002578374    1.252    0.201
        10 -12.0360     40.5634     18.7578   4.7095003710e+01   6.6783753784e+01    0.8317155     0.436002  -0.08   0.00385539    2.827    0.646
        11 -11.4435     57.5612      8.7681   3.5914009078e+01   6.5338048960e+01    0.8407709    0.5100247   2.60  0.004780652    1.746    0.427
        12 -11.0964     44.9671     10.4147   4.1442090851e+01   6.7173237349e+01    0.4327031    0.2589352  41.95  0.002583881    1.728    0.421
        13 -11.4779     46.5029      3.3940   3.7480647134e+01   6.7685264594e+01    0.9058318    0.4102451  42.92   0.00442893    2.031    0.508
        14  -9.8966     75.0358     17.0599   3.3725672615e+01   6.1343705634e+01    0.2047507    0.1667923 -21.06            0    1.296    0.228
        15 -11.8875    193.4252     11.4761   9.7131685365e+00   3.4909824732e+01    0.6868196    0.4077308  48.64  0.003617048    1.883    0.469
        16  -9.1282    142.3307      7.3317   1.5078869276e+01   4.7513501516e+01    0.1385613   0.08465987  39.16 0.0007052004    1.721    0.419
        17  -9.8805     21.4721      7.8022   5.0616424226e+01   7.0591973774e+01    0.3907677    0.1936305 -21.82  0.002041089    1.917    0.478
        18  -9.5161    130.6014      2.1747   1.5305780497e+01   5.0707562417e+01    0.1653805    0.1186791   7.62 0.0009469936    1.676    0.403
        19  -8.5189    117.7872    195.3851   7.0098529447e+01   1.7887373845e+01    0.1917792    0.1287064  31.11 0.0005102953    1.580    0.367
        20 -12.7541    185.6149    239.3012   6.2893455346e+01  -1.5385219271e+00     1.518131    0.9657559 -21.84  0.008418321    1.902    0.474
        21 -11.7681    187.5147    233.0668   6.1542400292e+01  -8.9417033800e-01    0.7268925    0.4509265 -21.99  0.003568389    1.963    0.491
        22 -12.1037    163.6399    227.6692   6.5403825519e+01   3.8709354977e+00     1.008632    0.8807752 -16.70  0.006415616    1.252    0.202
        23 -10.9473    139.8832    248.7083   7.3110602573e+01   4.2108315973e+00    0.5041962     0.428342  84.97  0.002789867    1.449    0.310
        24 -11.3185    109.2242    189.3043   7.1086722045e+01   2.0651234115e+01    0.4099886    0.3159498  14.28  0.002115808    1.690    0.408
        25  -9.3076     15.6511    187.6799   9.2055404535e+01   3.3387455972e+01    0.1140093    0.0818743 -48.97 0.0007048651    1.738    0.425
        26 -10.7749     54.3808    176.5423   8.2185514007e+01   3.1704396404e+01    0.3176637    0.2561125  -9.29  0.001616198    1.833    0.455
        27 -10.7673     62.6310    174.7003   7.9966603190e+01   3.1068699396e+01    0.2632581    0.1975101 -34.83  0.001425784    1.756    0.431
        28 -12.9582     32.2824    158.1394   8.5274590747e+01   3.8541556064e+01     1.572479     1.020288 -20.32  0.007948016    2.574    0.612
        29 -10.2869     83.3574    160.7667   7.2654645124e+01   3.1390034291e+01    0.2710279    0.1636942  49.08  0.001264651    1.710    0.415
        30 -14.0042    208.8573    189.8275   4.9661019564e+01   2.5632049751e+00     3.812937      2.00433 -56.87    0.0145299    3.527    0.716
        31  -7.8909    237.2807    226.2934   5.1175401423e+01  -7.4768721187e+00    0.1215314   0.07892471   1.68 0.0001817911    1.532    0.347
        32 -12.3095     24.0396    155.1880   8.6976743200e+01   4.0038220812e+01    0.6425323    0.3265973 -59.85  0.002848597    1.707    0.414
        33 -11.4307    212.8327    151.1038   4.0838337736e+01   8.6704068804e+00    0.8678813    0.6686443  -8.59  0.004448598    1.439    0.305
        34 -10.8501    133.8238    145.3728   5.6701513105e+01   2.5973107358e+01     1.173965    0.3138183 -54.36  0.002775988    5.699    0.825
        35  -9.5204    115.1373    152.6267   6.2959750873e+01   2.7916370665e+01    0.5102978    0.3262313  77.64  0.001974035    2.632    0.620
        36 -10.4121     36.6437    224.9898   9.0802568640e+01   2.3265170662e+01    0.2071519    0.1742783  74.01 0.0003478134    1.118    0.106
        37 -10.3535    201.0446    152.0157   4.3287502513e+01   1.0818033015e+01    0.3644925    0.2064569  36.27  0.001587241    1.911    0.477
        38 -12.2549    144.4256    146.6039   5.4395776268e+01   2.3556751612e+01     1.124361    0.5024961 -60.90  0.003338674    3.930    0.746
        39 -12.1927     67.3665    137.0164   7.2680066413e+01   3.9435396605e+01     1.683018    0.7833649 -75.10  0.005859649    3.316    0.698
        40 -10.1903    175.1668    149.3907   4.8020233479e+01   1.6604034144e+01    0.2548838    0.1830844 -47.35 0.0009713296    1.413    0.292
        41  -8.9597     47.1372    165.7954   8.2558148743e+01   3.5104520891e+01     0.169739    0.1467604 -44.12 0.0004636956    1.355    0.262
        42 -11.8056     73.5955    161.8035   7.5324709181e+01   3.2597160996e+01    0.4986944    0.3250814 -59.48  0.002522976    1.441    0.306
        43 -11.7248     28.6532    144.9103   8.4531972462e+01   4.2036990353e+01    0.5620844    0.3918472 -36.50  0.003201022    1.747    0.427
        44 -10.1699      2.0000    143.9814   9.1265454447e+01   4.4433202608e+01     0.299048   0.05504067 -73.17 0.0009783831    4.295    0.767
        45  -8.5353     85.8956    140.3802   6.8192667269e+01   3.5860541467e+01    0.1897947    0.1876782  47.93 0.0005271067    1.087    0.080
        46 -10.3884    173.0740    137.5504   4.5737653167e+01   1.9450070535e+01    0.9205798    0.5110686  21.78  0.003059355    3.379    0.704
        47 -10.8389     67.9270    148.1950   7.4538776870e+01   3.6661596855e+01    0.4793082    0.3257226  69.99  0.001340071    1.768    0.434
        48  -9.4554     86.1228    134.2151   6.6863003945e+01   3.7295866164e+01    0.3899295    0.1580525 -41.72  0.001334333    2.970    0.663
        49 -10.0773    220.9515    129.7767   3.4605292309e+01   1.0903964828e+01    0.4861439    0.2836565 -49.91  0.002196118    1.813    0.448
        50  -9.3527    149.2119    131.0319   4.9603129259e+01   2.5935785539e+01    0.3003018    0.2220712 -64.26  0.001357561    1.603    0.376
        51  -9.7507     41.0096    126.8593   7.8392538887e+01   4.5113411969e+01    0.4254093     0.183267 -66.01   0.00133976    2.100    0.524
        52  -9.3504    216.3645    123.7455   3.4015303945e+01   1.2912027683e+01     0.265099    0.2186761 -71.12 0.0007385035    1.456    0.313
        53 -10.7918     35.4071    118.4566   7.8592163242e+01   4.7690599848e+01    0.5070462    0.3339369 -70.41  0.002765554    1.388    0.280
        54  -9.0773    186.9559    118.5715   3.8250985317e+01   2.0182542561e+01    0.2834559    0.2126245 -19.60 0.0007697506    1.533    0.348
        55  -9.9356     78.2280    115.9472   6.5107220129e+01   4.2862373698e+01      0.46863    0.3375134 -51.84  0.002374378    1.285    0.222
        56 -10.8947    120.5915    111.3715   5.1862433596e+01   3.6227306737e+01     0.761089    0.5192659  38.52  0.003470275    1.519    0.342
        57 -11.1235    122.8056    102.6285   4.8919006722e+01   3.7641349451e+01    0.6976162    0.5190019  33.15  0.003310272    1.433    0.302
        58 -10.2059    116.4932    100.5145   5.0040980628e+01   3.9395053164e+01    0.3167174    0.2675641  44.34  0.001089849    1.212    0.175
        59 -11.0313    111.8598     96.9239   5.0320025045e+01   4.1090647508e+01    0.5313143    0.4847853 -80.17  0.002176192    1.253    0.202
        60  -8.9502    203.0033    111.5061   3.3478112008e+01   1.7965497661e+01    0.2213718    0.1469974  52.53  0.001035087    1.596    0.374
        61  -9.6341    134.3363    106.7132   4.7035440912e+01   3.4322514484e+01    0.7366316    0.1951619 -45.36  0.002061681    3.787    0.736
        62 -11.4212     67.6758    104.3716   6.5595761738e+01   4.7112478080e+01    0.8148795    0.4505092  43.26  0.003046918    2.033    0.508
        63 -11.1001     65.4847    100.4828   6.5337102999e+01   4.8308141546e+01    0.5829955    0.3012407  35.40  0.002615148    2.091    0.522
        64  -9.5052    156.6999    103.6816   4.0851995345e+01   2.9940602968e+01    0.3868125    0.2505373  34.43  0.001651069    1.776    0.437
        65  -8.1105     22.7778     48.7912   6.6473361434e+01   6.3948880662e+01    0.6311122    0.3195935 -43.58  0.003456214    1.599    0.375
        66 -12.5703     50.0594     77.4775   6.4480476170e+01   5.5367604096e+01     2.054764      1.23542 -79.46  0.007932607    3.778    0.735
        67 -12.3782     38.0534     64.0699   6.5041625797e+01   5.9494749127e+01    0.9067887    0.5957806 -48.54  0.005180333    1.360    0.265
        68 -10.0943     25.7429     59.2383   6.8460634322e+01   6.1673786631e+01    0.4504535    0.3218626 -43.65  0.002821451    1.161    0.139
        69 -12.8419     34.5720     85.3312   7.2048428130e+01   5.5385637031e+01     2.135892      1.42417  60.59   0.01106143    2.270    0.559
        70 -12.3092     27.9378     73.1657   7.1441517654e+01   5.8629673888e+01     1.516579     1.264144  41.85  0.009843052    1.507    0.336
        71 -13.0382    182.9579     85.2071   3.0487549993e+01   2.7242204182e+01     1.509273    0.9214763  71.61   0.00637706    2.066    0.516
        72 -11.3793    188.2988    100.7475   3.3519368263e+01   2.3226403687e+01     1.026315    0.7682909   3.36  0.004716264    1.873    0.466
        73 -10.3450    225.6723     96.3850   2.6128493741e+01   1.5711316299e+01    0.6327726     0.424224  19.36  0.002831783    2.450    0.592
        74 -12.1592    186.8758     91.1303   3.1312234373e+01   2.5285994146e+01    0.8105432    0.5130394 -39.76  0.003706794    1.527    0.345
        75 -10.8203    153.4748     97.6179   3.9942931732e+01   3.1867762705e+01    0.4057634    0.2924622  38.12 0.0007391406    1.473    0.321
        76  -9.6447    208.4750     97.4810   2.9113954108e+01   1.9253340407e+01    0.1441051    0.1354394 -46.18 0.0008098012    1.016    0.016
        77 -10.6812    102.8859     88.0522   5.0330827780e+01   4.4701295493e+01     0.573993    0.4171484  86.93  0.002483049    2.328    0.570
        78  -8.3881    105.7625     85.9784   4.8881733810e+01   4.4554381344e+01    0.2051191    0.1718512 -11.42 0.0003105373    1.288    0.223
        79 -11.0081    205.1051     86.6945   2.7015463122e+01   2.1853006157e+01    0.3076385    0.2704105  16.45 0.0003485896    1.367    0.269
        80 -11.0782    210.4734     85.8177   2.5940575893e+01   2.0787541190e+01    0.3921434    0.2770903  34.13  0.001909332    1.795    0.443
        81  -8.7325    106.0690     81.6898   4.7502696511e+01   4.5341226654e+01    0.2032136    0.1866205  26.52 0.0004601277    1.087    0.080
        82  -8.2483    109.4229     85.8113   4.7785199417e+01   4.3852782551e+01    0.2017738    0.1384278 -29.29 0.0004191938    1.556    0.357
        83  -9.8007    185.4669     77.9291   2.8107959335e+01   2.7888077458e+01    0.2841527    0.2013906  42.60  0.001057424    1.544    0.352
        84 -10.5468    175.5154     76.5587   2.9557482049e+01   3.0487552298e+01    0.3250032    0.1440585 -36.09  0.001235037    2.251    0.556
        85 -11.8148     87.5722     72.4006   5.0188365884e+01   5.0666607966e+01    0.7105398    0.6083597 -15.81  0.002002795    1.136    0.120
        86 -10.8248     94.6074     66.9968   4.6253308832e+01   5.0355971998e+01    0.6575406    0.3790775  41.19  0.002091256    1.739    0.425
        87 -11.0539    202.9977     70.5154   2.3304079357e+01   2.4968733807e+01    0.3001425     0.210332  56.11  0.001523854    1.464    0.317
        88 -11.1933    169.4630     69.7469   2.8822237154e+01   3.3066560163e+01    0.3511291    0.2758646 -45.36  0.001799006    1.276    0.217
        89 -10.6067     35.8237     40.8540   5.8176494811e+01   6.4037034948e+01     1.380571    0.5807871  10.84  0.004164872    6.682    0.850
        90 -10.7933    225.8606    238.9470   5.5355544737e+01  -7.5409775908e+00    0.4101802    0.2681847 -25.19   0.00241525    1.519    0.342
        91 -10.3393    190.1673     36.5605   1.6461773795e+01   3.2834140692e+01    0.2594543    0.2336308  78.20 0.0006090155    1.058    0.055
        92 -12.4061    149.0783    243.6399   7.0641808192e+01   3.5866102266e+00     1.099565    0.7723982 -53.35  0.006614075    1.723    0.420
        93 -12.8075    214.5474    226.7251   5.5357035765e+01  -4.1815636897e+00     1.133131    0.7636679 -28.11  0.001776096    1.498    0.333
        94  -8.9894     94.8734     51.9960   4.1068530384e+01   5.2846017926e+01    0.2014352     0.184515   9.35 0.0003686406    1.009    0.008
        95 -12.8667    232.8032    209.9957   4.9050541489e+01  -4.5277006104e+00     1.280731     1.251883  35.99  0.004911077    1.466    0.318
        96 -13.2015    237.9874    145.9832   3.5313863486e+01   4.8461172473e+00     3.151299     2.206644  36.69    0.0170464    1.570    0.363
        97 -10.0064    143.3351     58.3170   3.0776460206e+01   4.1154101410e+01     0.319573    0.1784779 -41.75  0.001393309    1.859    0.462
        98  -9.7893    230.6057     44.1826   1.3450241251e+01   2.2538081444e+01    0.2471094   0.09710088  70.28  0.001025403    2.728    0.633
        99 -14.1147    228.6253    174.4344   4.2900227075e+01   1.7217259584e+00     4.059212     2.459012   1.57  0.004592459    2.479    0.597
       100  -8.8779     19.8319     35.4490   6.3183151705e+01   6.6605432438e+01    0.2884194     0.148363  -6.34  0.001359439    2.569    0.611
       101 -11.3818    197.2184    187.2979   5.1442091604e+01   5.0671363688e+00       0.4579    0.3849235  30.41 0.0004766867    1.150    0.130
       102 -10.7026    227.4009    247.1370   5.6418039276e+01  -8.8133563437e+00     0.419877    0.3950988  80.85  0.002996966    1.917    0.478
       103 -10.0796    183.2356     36.4037   1.7375255982e+01   3.4521552880e+01    0.2402609    0.1901924 -35.48 0.0008198434    1.331    0.249
       104 -10.5280    133.4891     29.0128   2.3543195183e+01   4.7440960500e+01    0.4255092    0.1992193 -29.58  0.001871758    2.276    0.561
       105  -9.7823    131.9918     65.9721   3.5740614425e+01   4.2579284940e+01    0.3577434    0.2961881  -8.28  0.001858142    1.349    0.259
       106 -10.3225    219.0005     29.7525   1.1394749978e+01   2.6956809619e+01    0.2539395    0.1411177 -50.24  0.001307155    1.669    0.401
       107  -8.3598     79.2282     23.2259   3.4962535560e+01   5.9855637763e+01    0.1983899    0.1031788  58.86 0.0008947668    2.477    0.596
       108 -10.0625    122.0256    213.5057   7.1932529152e+01   1.3454279454e+01     0.353101    0.1576989 -37.95  0.001297951    3.706    0.730
       109 -10.4670     32.5401    214.2368   9.0753540180e+01   2.5934330689e+01     0.290245   0.09592875 -69.72  0.001324013    2.702    0.630
       110 -10.4272     77.6795    208.6701   8.0862803529e+01   2.1369156188e+01    0.3972018    0.1958621 -43.34  0.001694306    3.060    0.673
       111  -9.7683      6.3264    208.4376   9.5409705116e+01   2.9804253739e+01    0.2708917    0.1899565  45.15  0.001181688    1.456    0.313
       112  -8.4409      3.3607     22.3440   6.6155394839e+01   7.0126150209e+01    0.1242943   0.06188067 -24.38 0.0007031927    1.840    0.457
       113  -7.8459     85.0000     20.9702   3.2323513461e+01   5.8991673081e+01    0.1858606   0.07080617 -27.14 0.0003991535    2.744    0.636
       114 -10.1006    206.6479     17.3970   9.7792908140e+00   3.1205047387e+01    0.2405136    0.2128877  72.06  0.001157489    1.174    0.148
       115 -10.5448     11.2566    205.9983   9.4305609532e+01   2.9853180443e+01    0.5198475    0.2512646  38.45  0.003022718    2.039    0.510
       116 -11.5414    173.1885     64.8089   2.6755920201e+01   3.2955181549e+01    0.3680213    0.3551671 -65.97  0.001198175    1.031    0.030
       117 -11.1029    118.9854    205.6756   7.1430529701e+01   1.5538304365e+01    0.6775514    0.4682818   8.21  0.003179373    2.309    0.567
       118 -12.1451     89.9685    205.1255   7.7745015780e+01   2.0309148226e+01    0.5118889    0.3863818  40.78  0.002948702    1.290    0.225
       119 -10.2516     47.2578    200.6321   8.6512081959e+01   2.7136127653e+01    0.2251102    0.2187694  57.72 0.0004522234    1.303    0.233
