#   1 NUMBER                 Running object number                                     
#   2 MAG_AUTO               Kron-like elliptical aperture magnitude                    [mag]
#   3 X_IMAGE                Object position along x                                    [pixel]
#   4 Y_IMAGE                Object position along y                                    [pixel]
#   5 X_WORLD                Barycenter position along world x axis                     [deg]
#   6 Y_WORLD                Barycenter position along world y axis                     [deg]
#   7 A_WORLD                Profile RMS along major axis (world units)                 [deg]
#   8 B_WORLD                Profile RMS along minor axis (world units)                 [deg]
#   9 THETA_WORLD            Position angle (CCW/world-x)                               [deg]
#  10 FWHM_WORLD             FWHM assuming a gaussian core                              [deg]
#  11 ELONGATION             A_IMAGE/B_IMAGE                                           
#  12 ELLIPTICITY            1 - B_IMAGE/A_IMAGE                                       
         1 -16.3680      8.4674    125.4200   1.4746536110e+02   4.7781114949e+01     1.258287    0.8447091 -85.00  0.008269317    1.242    0.195
         2 -15.5535    220.6666     98.6974   8.9666186894e+01   1.7169214517e+01     1.075212     0.883032  88.08   0.00590656    1.734    0.423
         3 -15.5471    169.0223     39.5867   8.1427924900e+01   3.7704636322e+01    0.9203345    0.8082128 -15.54  0.004900742    1.159    0.137
         4 -14.1573    169.8899     27.5920   7.7279016639e+01   3.8993547822e+01    0.5849511    0.3014652 -12.24  0.001701652    2.390    0.582
         5  99.0000     18.7632    211.0604   1.4949129929e+02   3.0036323806e+01    0.6067419    0.4222032  71.30  0.004864707    1.157    0.136
         6 -15.3085    247.5945    239.5635   1.1177451030e+02  -3.1115696184e+00     1.138342    0.3499471 -27.78  0.006196521    3.630    0.725
         7 -16.9446    199.4876    234.8780   1.1866406037e+02   3.5754086938e+00     1.713106     1.216066 -29.70   0.01296965    1.767    0.434
         8 -17.5362    203.3344    185.1177   1.1062424299e+02   8.6673508482e+00     3.272335     1.559345 -39.00    0.0169304    2.465    0.594
         9 -15.7566    160.0812    246.8499   1.2666823109e+02   7.6536272539e+00     1.004267    0.4349879  47.42  0.005724401    2.173    0.540
        10 -15.2116    166.2732    228.8496   1.2355181507e+02   8.8969018398e+00     1.178989    0.8735049   1.74  0.008420797    1.600    0.375
        11 -19.6945     67.4153    153.1346   1.3480659055e+02   3.5853096858e+01     18.03582     4.092508 -68.47   0.05640245    5.400    0.815
        12 -13.7356    244.7649    195.6758   1.0555394751e+02   1.2127441066e+00     0.359448    0.2821788 -29.12   0.00256212    1.662    0.398
        13 -12.0588    100.5074    191.4569   1.3174635763e+02   2.3959994983e+01    0.2129223   0.08527461  45.97 0.0008457365    2.090    0.521
        14 -15.8180    143.7827    246.5033   1.2940367047e+02   9.8801169594e+00    0.7744549    0.5306368  37.99  0.005164127    1.047    0.045
        15 -16.6269     88.8553    165.9375   1.3126246430e+02   3.0341646317e+01     3.164143     1.921576   7.74   0.01324031    3.713    0.731
        16 -15.2871     25.8135    156.7905   1.4522359384e+02   3.9636213645e+01     1.213924    0.6721459  32.46  0.007310345    1.812    0.448
        17 -14.7164     39.8906    164.0473   1.4247023094e+02   3.6772043821e+01     0.736673    0.6146532  -6.77  0.004183694    1.797    0.444
        18 -11.8974     29.5605    215.9816   1.4770942521e+02   2.8187254694e+01    0.1175212   0.07468454 -53.42 0.0008028861    2.348    0.574
        19 -15.5405     47.6348    144.0977   1.3876201985e+02   4.0142226421e+01    0.6180398    0.4790397  71.88  0.003134734    1.140    0.123
        20 -12.8721    159.8263    153.3583   1.1332417083e+02   2.0853738709e+01     0.343422    0.2159853  50.91  0.001699583    1.629    0.386
        21 -13.3293      2.5199    144.1877   1.5004540135e+02   4.4141735290e+01    0.4417305     0.203174 -72.71  0.002546225    1.936    0.483
        22 -15.5986     16.4148    141.0598   1.4644422724e+02   4.3769900392e+01     1.374698    0.7157105 -86.41  0.007930549    1.684    0.406
        23 -14.2765      3.2399    134.1739   1.4936048170e+02   4.6224192548e+01     1.510023    0.4172188 -82.94   0.00649322    3.133    0.681
        24 -12.6952     26.8080    226.1675   1.4863285582e+02   2.6789278828e+01    0.3312052    0.2049977  57.34  0.002423658    1.150    0.130
        25 -13.3049    106.4814    139.0414   1.2296486530e+02   3.3044754118e+01    0.2140657    0.1722488  44.81 0.0005355123    1.162    0.139
        26 -15.8465    206.1943    131.1943   9.9669474684e+01   1.5482560139e+01     1.006368    0.7946531 -50.24   0.00529846    1.624    0.384
        27 -13.4026    188.0602    129.8737   1.0274842186e+02   1.9247463994e+01    0.3532483    0.3088177 -68.31  0.002004225    1.540    0.350
        28 -15.9120    218.9500    112.3279   9.3198973514e+01   1.5638894084e+01    0.9072295    0.5019925 -27.77  0.004350232    1.723    0.420
        29 -15.2704    136.0676    235.7995   1.2966746480e+02   1.2254391707e+01    0.6274949    0.5139211  -8.11  0.003800885    1.640    0.390
        30 -13.8905    185.6621    209.0943   1.1750750058e+02   8.4522715084e+00    0.4958492    0.2976285  28.28  0.002630974    1.401    0.286
        31 -15.6989    135.5645     78.8300   1.0120885487e+02   3.9588136197e+01     1.402985    0.9688145  54.56  0.005833158    1.502    0.334
        32 -16.4110    233.1980    131.2647   9.5153918248e+01   1.0414532300e+01     1.286878      0.97655  57.63  0.007493489    1.729    0.422
        33 -14.2366    142.4326    216.0934   1.2632951962e+02   1.4000119147e+01    0.7316089    0.5034969 -79.37  0.004451902    2.492    0.599
