#   1 NUMBER                 Running object number                                     
#   2 MAG_AUTO               Kron-like elliptical aperture magnitude                    [mag]
#   3 X_IMAGE                Object position along x                                    [pixel]
#   4 Y_IMAGE                Object position along y                                    [pixel]
#   5 X_WORLD                Barycenter position along world x axis                     [deg]
#   6 Y_WORLD                Barycenter position along world y axis                     [deg]
#   7 A_WORLD                Profile RMS along major axis (world units)                 [deg]
#   8 B_WORLD                Profile RMS along minor axis (world units)                 [deg]
#   9 THETA_WORLD            Position angle (CCW/world-x)                               [deg]
#  10 FWHM_WORLD             FWHM assuming a gaussian core                              [deg]
#  11 ELONGATION             A_IMAGE/B_IMAGE                                           
#  12 ELLIPTICITY            1 - B_IMAGE/A_IMAGE                                       
         1 -13.1954    218.9795     41.6998   2.3259072042e+01   2.8067755022e+01     0.610604    0.5665677 -83.06  0.001714495    1.406    0.289
         2 -11.3710    248.7703     21.7521   1.7945542116e+01   2.5526370884e+01    0.3254989    0.2839446  80.21  0.002961429    1.596    0.373
         3 -12.2697    246.3072     15.7379   1.7139523317e+01   2.6562811669e+01    0.5044567    0.4606816 -67.16  0.004703183    1.570    0.363
         4 -10.9090      2.6950     10.6228   6.9597899457e+01   7.4346036051e+01    0.3089687    0.1533336 -36.45  0.001745766    2.073    0.518
         5  -9.0231    158.0350      8.7759   2.2060037935e+01   4.3522926163e+01    0.1519175   0.07725884  76.58 0.0006977686    1.636    0.389
         6 -10.2938    111.8570    241.3110   8.0657040212e+01   7.7787144394e+00    0.2537294     0.207663 -52.60 0.0005559342    1.390    0.281
         7 -10.1351     75.3987    247.7985   9.0532615206e+01   1.0732603463e+01    0.3981338    0.2194749 -46.10  0.001919625    2.020    0.505
         8 -11.3654     72.1944    242.3225   9.0771305246e+01   1.2289120894e+01    0.6621701    0.4161409  49.25  0.001931857    1.677    0.404
         9 -13.4541     46.0301    177.5678   9.0610470046e+01   3.1416100457e+01     2.688493     1.447932  75.51  0.009728679    2.842    0.648
        10 -15.9845     32.5013    185.4186   9.5802037493e+01   3.0730863465e+01     12.81089     6.138679  73.97   0.02555207    3.149    0.682
        11 -16.1749      8.5831    228.0025   1.0597853191e+02   2.2049309269e+01     6.135314     1.888394  11.41   0.01699508    4.806    0.792
        12 -10.6675    155.2837    230.1896   6.8834284226e+01   4.7157822491e+00    0.3238198    0.2078785 -35.07  0.001348478    1.459    0.315
        13 -13.4625      6.5150    179.6158   1.0326042664e+02   3.4497477682e+01     1.221594     0.804943 -76.58  0.003210595    1.441    0.306
        14  -9.8298    167.3872    224.8499   6.5363398583e+01   4.2838409310e+00    0.2648854     0.133818 -34.56  0.001099898    1.881    0.468
        15  -9.3303    128.3274    223.3041   7.4071153399e+01   9.4755239498e+00    0.1472837   0.09811153 -14.39  0.000450632    1.648    0.393
        16  -8.5411    123.2978    223.6818   7.5363636107e+01   1.0047053080e+01    0.1341524     0.107876  55.90 0.0005911764    1.614    0.380
        17  -9.7998    141.4971    222.4732   7.0790945699e+01   7.9523872378e+00    0.1385629    0.1205607  -3.53 4.058932e-05    1.017    0.017
        18  -9.1116    142.1247    216.2837   6.9667783951e+01   9.1454055194e+00    0.1872608    0.1676327   2.87 0.0005406914    1.072    0.067
        19 -10.6761     82.4292    196.1937   8.2182784941e+01   2.1958194787e+01     0.571139    0.3922435 -41.54  0.002384524    1.517    0.341
        20 -10.7720    117.5273    196.4932   7.2540632684e+01   1.6917412448e+01    0.3695948    0.2184289 -29.19  0.001268612    1.984    0.496
        21 -11.6120    114.7838    195.2249   7.3051478829e+01   1.7612868046e+01    0.6427449    0.3554979 -10.48  0.002240529    3.156    0.683
        22 -11.0822    148.2587    229.0114   7.0235349940e+01   5.7963938596e+00    0.3900306    0.2685181 -47.70  0.002130843    1.525    0.344
        23 -10.2386    191.4777    192.0715   5.5025368192e+01   7.4854078436e+00    0.5724347    0.3109633 -66.92  0.001928028    5.287    0.811
        24  -9.4382    162.7860    190.9462   6.0668060090e+01   1.1575281213e+01    0.2115159    0.1648934 -77.75    0.0010809    1.955    0.489
        25 -10.4807     76.5233    183.5102   8.1992841015e+01   2.6000941116e+01    0.4546525    0.3265485  72.93  0.001424849    1.820    0.451
        26 -10.1363     79.9870    181.7407   8.0671379653e+01   2.5978342927e+01    0.2685837     0.213086 -51.83 0.0003216314    1.273    0.215
        27 -10.7426     99.0292    180.9574   7.4954400899e+01   2.3403480029e+01    0.3293087    0.3071274   4.15 0.0006816787    1.028    0.027
        28 -10.0885    126.4244    177.2136   6.6809832703e+01   2.0060717613e+01    0.2059826    0.1455062 -63.75 0.0008940818    1.657    0.397
        29 -10.8035    181.3181    174.5880   5.3865281137e+01   1.2218125957e+01    0.4307478    0.3099415 -13.96  0.002336723    1.562    0.360
        30  -9.8832    114.0015    172.8384   6.9297272369e+01   2.3070968127e+01    0.2631395    0.1756814  -5.83  0.001096958    2.009    0.502
        31 -15.6356      7.7915    207.7460   1.0493569475e+02   2.7076221648e+01     2.056787     1.745721 -43.77  0.009152977    1.308    0.235
        32 -10.5888    102.8691    171.0545   7.2082407953e+01   2.5274365403e+01    0.3997488    0.3068285  54.27  0.001892547    1.506    0.336
        33  -9.1279    197.6346    168.7544   4.9763268499e+01   1.1027483749e+01    0.1838045    0.1074107 -50.52 0.0009457694    1.625    0.385
        34 -13.0919     64.8386    125.1448   7.5070448763e+01   4.2965537201e+01     3.012474      2.04276  71.49   0.01052875    2.208    0.547
        35 -13.2152     75.9446    153.9337   7.7103123489e+01   3.3827190225e+01      2.36357     1.752506  73.18  0.004503057    1.766    0.434
        36 -11.3760     62.2542    165.0475   8.3523005486e+01   3.2807005665e+01    0.4763846      0.30198 -23.95  0.001957249    1.975    0.494
        37 -11.8469     67.1914    160.8978   8.1214639066e+01   3.3248383835e+01    0.8306767    0.6184078 -24.89 0.0007106798    1.500    0.333
        38 -12.7798     64.1405    148.4999   8.0020020464e+01   3.6976615323e+01    0.7545615    0.6335683   7.98  0.001356989    1.226    0.184
        39 -13.1528     69.9530    145.0471   7.7389061206e+01   3.7050493426e+01      1.73772    0.8704606  58.63  0.005342898    3.531    0.717
        40  -9.1680    110.5953    167.7467   6.9276447042e+01   2.4852758308e+01    0.2048476    0.1495476 -66.80 0.0004735176    1.591    0.371
        41 -10.8152    247.0580    164.0285   4.1387179055e+01   5.6335498291e+00    0.3344713    0.1437792 -40.78  0.001392634    1.768    0.434
        42 -11.0559    245.5246    158.9303   4.0754563833e+01   6.6246371941e+00    0.3665685    0.1699457 -46.38  0.001035506    1.689    0.408
        43 -10.2395    230.1351    166.1687   4.4084408748e+01   7.2593548246e+00    0.1555491    0.1256017 -53.39 0.0007161892    1.306    0.235
        44 -10.6095     51.0764    157.7728   8.6075728654e+01   3.6195350523e+01    0.6025138    0.3609447  57.13  0.001904218    2.083    0.520
        45 -10.6690    133.9747    146.0876   5.8696347580e+01   2.5940303337e+01     1.204027    0.3106829 -55.46  0.002801966    6.201    0.839
        46 -13.3362     12.8336    218.3937   1.0428174072e+02   2.4013651208e+01    0.5934576    0.3357551  50.94  0.001264232    1.665    0.399
        47 -11.6188     82.6998    148.7753   7.3921441691e+01   3.4125789564e+01    0.7449167    0.5094256 -54.25  0.001029895    1.465    0.317
        48 -11.3484     85.4908    145.4797   7.2362705653e+01   3.4521832363e+01    0.5659726    0.4598144 -86.84  0.002690015    1.509    0.337
        49 -15.4297     12.7924    243.9134   1.0583889426e+02   1.8015927871e+01     1.568307     1.046175  33.70  0.006404921    1.304    0.233
        50  -9.5695     28.5019    142.4813   9.1716983744e+01   4.2833236044e+01    0.2622325    0.2424023 -61.48 0.0006176053    1.058    0.055
        51  -9.7967     17.5251    140.7132   9.5520776810e+01   4.4269133092e+01    0.2923096    0.2184443  46.72 0.0006190588    1.443    0.307
        52 -10.6679     99.6511    135.3451   6.5790028724e+01   3.4626027132e+01    0.5818139     0.374921 -11.75  0.002215986    2.490    0.598
        53 -10.1259    105.3397    130.4540   6.2998004932e+01   3.4762500532e+01    0.4920333    0.3254041  42.24  0.001852478    1.511    0.338
        54  -9.4120    109.4774    127.4973   6.1123055396e+01   3.4682877122e+01    0.2945219    0.2469618 -15.77 0.0008054914    1.354    0.261
        55 -11.6155     86.4502    134.0874   6.9638930639e+01   3.7230721565e+01    0.3192165    0.2882042 -29.38 0.0004400108    1.120    0.107
        56  -8.2146    149.7204    130.3955   5.1626474495e+01   2.6458975918e+01    0.1476396    0.1106843 -79.42 0.0005618091    1.754    0.430
        57 -13.8201      1.9336    247.4181   1.0859460265e+02   1.8155150181e+01    0.4743392    0.3198186 -78.28  0.001377638    1.547    0.354
        58  -9.3964    136.0000    128.9746   5.4481014439e+01   2.9332601197e+01     0.245894   0.08152616 -47.93 0.0007905475    2.938    0.660
        59  -9.7005     19.0714    134.5894   9.4104717736e+01   4.5811528562e+01     0.285549    0.2151892 -72.78 0.0008521612    1.317    0.241
        60 -10.9637     96.4269    123.0118   6.3955609776e+01   3.8148638412e+01    0.3676557    0.2963953  -1.40 0.0008668912    1.469    0.319
        61 -10.0143     41.3688    124.2046   8.3720882742e+01   4.6382346840e+01    0.2853913    0.2272709  44.29 0.0006530684    1.351    0.260
        62 -10.2717     55.3299    168.5457   8.6332641550e+01   3.2752706164e+01     0.285318    0.2321656  32.94 0.0007129204    1.211    0.175
        63 -10.0929     32.7217    118.1982   8.6008214797e+01   4.8921191999e+01    0.3897438    0.2439827  11.55 0.0007829598    1.675    0.403
        64  -9.5742     24.0874    118.1205   8.9520130113e+01   4.9787660728e+01    0.3496657    0.1972982   0.54   0.00138459    2.029    0.507
        65  -9.0783    106.4647    116.9564   5.9499982119e+01   3.7650314565e+01    0.2133335    0.1970355  36.62 0.0003873717    1.067    0.063
        66  -8.1759    183.3418    116.3277   4.2146262879e+01   2.3063222599e+01    0.1280831    0.1028368  -8.08 0.0007051303    1.739    0.425
        67 -10.5087     35.9504    111.7075   8.3394984316e+01   5.0245027123e+01    0.4780165    0.3032277 -14.56   0.00198389    1.848    0.459
        68 -10.0859     32.4743    109.4854   8.4387171446e+01   5.1194050819e+01     0.364314    0.3125505 -43.50  0.001968569    1.113    0.101
        69  -9.8645    205.4706    110.3943   3.7579545060e+01   2.0311766552e+01    0.2211416    0.2123065   1.14 0.0007874374    1.325    0.246
        70  -9.6211    134.4046    105.1237   4.9334340361e+01   3.4581706310e+01    0.3445718    0.1274543 -53.18  0.001143304    3.242    0.692
        71 -10.3448     24.4638    105.2776   8.6963432464e+01   5.3069874911e+01     0.408762    0.2100265  39.34  0.001715072    2.134    0.531
        72  -9.7135     66.3414    104.9051   6.9750447078e+01   4.7685696648e+01    0.3394326    0.1969562  46.26   0.00126513    1.871    0.466
        73  -9.3066     46.0751    105.0364   7.7740548436e+01   5.0671613743e+01    0.2318242    0.1771075  58.92 0.0008823067    1.633    0.388
        74  -9.9924    120.5348    102.9903   5.2203161066e+01   3.7835076760e+01    0.2245869    0.1432815 -46.18   0.00103101    1.592    0.372
        75 -10.6091     53.2448     93.8928   7.2019557946e+01   5.2301239285e+01    0.4098354     0.245454 -55.00    0.0018334    1.767    0.434
        76  -9.4993    244.4998     94.5202   3.0118210955e+01   1.6775192164e+01    0.1103971   0.08343177 -54.34 0.0008102818    1.018    0.018
        77  -9.5676     22.0803     92.4279   8.5340318220e+01   5.6477762353e+01    0.3880919    0.2064942  32.73  0.001733183    1.916    0.478
        78  -9.8397     47.9354     92.1514   7.3766029094e+01   5.3478265814e+01    0.2203032    0.1997696  50.96 0.0005833253    1.257    0.204
        79  -9.0759    121.9705     90.8408   4.8760591751e+01   3.9919409257e+01    0.2392109    0.1616334  76.21 0.0007136786    2.002    0.500
        80  -8.9959    154.7819     76.1827   3.8262314313e+01   3.5567059665e+01    0.2251291    0.1290648 -76.64  0.000750397    2.745    0.636
        81  -9.5060     37.0175     70.5023   7.2546422063e+01   5.9732630540e+01    0.2012777    0.1033689  47.15 0.0008103586    2.560    0.609
        82  -8.8969     83.3525     67.3279   5.3028499908e+01   5.2296254512e+01     0.147079     0.107776  13.52 0.0004040239    1.769    0.435
        83 -12.2396     14.5436     61.8139   8.1434568790e+01   6.4108964865e+01    0.8527842    0.3478258  33.67  0.002934407    2.503    0.600
        84 -12.9678    207.6316     50.2588   2.5828633388e+01   2.8983577947e+01     0.787752    0.6676525 -66.61  0.003165208    1.157    0.136
        85  -8.6092    148.6606    244.2860   7.2406685276e+01   2.8288624568e+00    0.1219802   0.09690784  43.72 0.0007017461    1.635    0.388
        86  -8.7133     83.4484     61.5307   5.1182835333e+01   5.3268262252e+01    0.1395934    0.1258986  43.18 8.828297e-05    1.005    0.005
        87  -9.8296     67.6357     60.9783   5.6457573538e+01   5.6505158649e+01    0.3055932    0.1844541  54.64 0.0009883946    1.875    0.467
        88 -12.1280    196.5110     57.8001   2.8426165840e+01   3.0014470715e+01    0.4429565    0.4167409  25.61 0.0007678536    1.603    0.376
        89  -9.8758    195.1129     49.8151   2.6991579757e+01   3.1352599143e+01    0.1834293    0.1307833 -73.01 0.0006389955    1.207    0.172
        90  -8.6327     32.5857     41.7710   6.4925075492e+01   6.5735698922e+01    0.1585627    0.1274998 -54.39  0.000515379    1.662    0.398
        91  -9.0913    106.9705     37.8362   3.7447526987e+01   5.1607597118e+01    0.2252267    0.1409442  89.09   0.00108319    2.141    0.533
        92  -8.2898    165.2478     35.3626   2.7280405351e+01   3.9131227283e+01    0.1033286   0.09271113  32.70 0.0004020198    1.611    0.379
        93 -10.0778     19.9609     30.4776   6.7335401020e+01   6.9312679516e+01    0.2445737     0.135943  40.88 0.0004514091    1.970    0.492
        94 -10.5238    119.0580    241.9986   7.8992638699e+01   6.7669873380e+00    0.3938523    0.1971788 -56.19   0.00180535    2.267    0.559
        95 -14.5891      4.0774    236.9603   1.0758244550e+02   2.0329745498e+01    0.6422431    0.4432549 -56.74  0.002632032    1.629    0.386
        96 -10.5841      2.1981     23.8041   7.5975306591e+01   7.2368704181e+01    0.2968517    0.1262642 -48.43  0.001492552    2.433    0.589
        97  -9.3900     60.5246     21.0457   4.4435463541e+01   6.3618793333e+01    0.2321208     0.140518  41.58 0.0003721903    1.400    0.286
        98  -8.9560    189.4852     15.0447   2.0630516908e+01   3.6548795250e+01    0.1527743   0.09307998 -45.98 0.0006495863    1.553    0.356
        99  -9.1343     90.1746    238.2988   8.5714865908e+01   1.1048722577e+01    0.2317834    0.1730321 -44.24 0.0007029367    1.433    0.302
