#   1 NUMBER                 Running object number                                     
#   2 MAG_AUTO               Kron-like elliptical aperture magnitude                    [mag]
#   3 X_IMAGE                Object position along x                                    [pixel]
#   4 Y_IMAGE                Object position along y                                    [pixel]
#   5 X_WORLD                Barycenter position along world x axis                     [deg]
#   6 Y_WORLD                Barycenter position along world y axis                     [deg]
#   7 A_WORLD                Profile RMS along major axis (world units)                 [deg]
#   8 B_WORLD                Profile RMS along minor axis (world units)                 [deg]
#   9 THETA_WORLD            Position angle (CCW/world-x)                               [deg]
#  10 FWHM_WORLD             FWHM assuming a gaussian core                              [deg]
#  11 ELONGATION             A_IMAGE/B_IMAGE                                           
#  12 ELLIPTICITY            1 - B_IMAGE/A_IMAGE                                       
         1 -14.7328    249.3888     45.3728   2.9929076720e+00   1.9755255045e+01     1.332717     0.425301 -40.21  0.006165979    2.791    0.642
         2 -11.8241    226.0951     54.1568   6.8235172075e+00   2.3003675605e+01    0.2136782    0.1571645 -52.41  0.000669126    1.222    0.182
         3 -10.3628    219.0000    245.9621   4.5110059936e+01  -8.7786936187e+00    0.3120412   0.06265573 -42.50  0.001046603    4.891    0.796
         4 -10.0083    201.5854    241.2498   4.7728653774e+01  -5.8058353195e+00    0.2245319    0.1180386 -45.24  0.001131456    2.098    0.523
         5 -10.4394    169.5032    241.6225   5.4461500693e+01  -1.3415856875e+00    0.2740088    0.1762954 -21.90  0.001411297    1.769    0.435
         6 -10.6054    160.8329    240.9491   5.6241186733e+01   7.0188112688e-02    0.2855812    0.1903719 -77.86  0.001248081    3.189    0.686
         7  -9.9372    153.5781    240.6836   5.7801259112e+01   1.2161267607e+00    0.2441412    0.1254544 -43.17  0.001134529    2.114    0.527
         8 -10.0559    248.2827    239.6008   3.8757381044e+01  -1.1238109512e+01    0.2078555    0.1101367 -21.20  0.001175102    1.745    0.427
         9 -10.2462    212.4925    247.0154   4.6527856736e+01  -8.1305266835e+00     0.180876     0.108164 -34.02  0.001032405    1.597    0.374
        10 -10.1161    194.4557    238.9678   4.8791990718e+01  -4.4590953383e+00    0.1854489    0.1190846 -38.15 0.0006664076    1.575    0.365
        11 -10.0009    243.4440    237.0430   3.9172959098e+01  -1.0331852590e+01     0.178771   0.09650157 -34.49  0.001032295    1.610    0.379
        12  -9.7950    209.4161    237.5161   4.5560910779e+01  -6.2429010533e+00    0.1265405    0.1031157  -4.68 0.0001772486    1.016    0.015
        13  -9.7515    204.0000    236.0185   4.6378683299e+01  -5.2767417767e+00     0.195442   0.06763112 -43.02 0.0007944732    2.888    0.654
        14 -10.4071    113.7987    232.6054   6.5742348910e+01   9.0020131456e+00    0.2572035    0.1069821 -53.63  0.001036611    2.604    0.616
        15 -10.1480     77.5029    232.9897   7.4351732775e+01   1.4365608339e+01    0.1908226    0.1026367 -40.95 0.0008106183    2.645    0.622
        16  -9.9976    202.0000    231.5087   4.6017027946e+01  -4.2526749365e+00    0.2660328   0.06880939 -44.05 0.0009254338    3.860    0.741
        17 -10.2505    194.5659    231.2544   4.7480343460e+01  -3.1659769713e+00    0.2322804    0.1234879 -45.55  0.001131514    2.015    0.504
        18 -10.2889    188.0366    231.5455   4.8879224149e+01  -2.2780948009e+00     0.225126    0.1670264 -12.15  0.001282234    1.317    0.241
        19  -9.8536    123.0000    231.9739   6.3488948945e+01   7.6904841227e+00    0.2194854   0.08106191 -55.17 0.0001733078    3.022    0.669
        20 -10.1791     99.3912    231.8164   6.9042534022e+01   1.1392422264e+01    0.1944144    0.1248816 -47.12 0.0009567929    1.778    0.438
        21 -10.4367    230.8849    236.5291   4.1332948765e+01  -8.7928577530e+00    0.2233503    0.1561852 -50.89  0.001315289    2.035    0.508
        22 -10.1238    132.5874    231.1861   6.1131649073e+01   6.3352336464e+00     0.194066    0.1275192 -38.70 0.0009556873    1.715    0.417
        23 -10.4310    236.1891    229.4438   3.9176049673e+01  -8.3476400140e+00    0.2768578    0.1203448 -41.30  0.001374517    2.161    0.537
        24 -10.4169    249.0000    228.9676   3.6857347853e+01  -9.7680011211e+00    0.2189968    0.1301514 -42.49    0.0012962    1.744    0.427
        25 -10.2965    248.5734    224.7460   3.6213335312e+01  -9.0877353701e+00    0.2424378    0.1000641 -42.38  0.001191383    2.279    0.561
        26  -9.9455    151.6178    228.7771   5.6373461327e+01   3.7949133567e+00    0.1790058    0.1359514 -59.70 0.0008194766    1.619    0.382
        27  -9.9934    212.5730    227.8110   4.3298597784e+01  -5.0785481394e+00    0.1718333    0.1162764 -47.22 0.0009561033    1.730    0.422
        28 -10.1199    184.4974    227.5015   4.8937206830e+01  -1.0392366084e+00    0.2571795    0.1274807 -44.15  0.001135809    2.075    0.518
        29  -9.6848    244.2882    226.6736   3.7277910497e+01  -8.8834297809e+00    0.1020736    0.0924987 -44.36 0.0004268032    1.611    0.379
        30 -10.0645    126.5142    225.9727   6.1770130387e+01   8.3846724155e+00    0.2075367    0.1415375 -52.72  0.001038145    1.608    0.378
        31 -10.1130    216.5759    222.3531   4.1580182510e+01  -4.7106672861e+00    0.2401809    0.1153519 -45.21  0.001140138    2.163    0.538
        32 -10.4009    181.0555    222.0495   4.8732574707e+01   4.7698458449e-01    0.3439926    0.1900969 -15.50  0.001384068    2.805    0.643
        33 -10.4514    148.6746    221.8762   5.5924359888e+01   5.6444383985e+00    0.4123704    0.1537052 -42.38  0.001507026    2.977    0.664
        34 -10.0883    114.0000    222.9898   6.4319677191e+01   1.1031247765e+01     0.221746   0.08249766 -56.68 0.0008025439    2.943    0.660
        35 -10.3417    173.0075    220.9201   5.0279752278e+01   1.9374494884e+00    0.3013754    0.1800646 -32.86  0.001445533    1.766    0.434
        36 -10.2350    238.6722    220.5122   3.7199265406e+01  -7.2598157026e+00    0.2174633   0.09700506 -39.19   0.00108297    1.976    0.494
        37 -10.0469    225.5230    220.5103   3.9573935103e+01  -5.5942911460e+00    0.1269824    0.1036179 -12.02 0.0008101122    1.014    0.014
        38 -11.0385    192.2247    218.2816   4.5718090345e+01  -5.2550524502e-01    0.4831732     0.163671 -42.52  0.001849425    2.881    0.653
        39  -9.9699    210.1710    217.2414   4.1917616256e+01  -2.9575958859e+00    0.2934687   0.07941253 -38.82  0.001010346    3.617    0.724
        40 -11.0365    249.6343    214.2533   3.4226997912e+01  -7.6040752693e+00    0.4422713    0.1672098 -46.22  0.001955918    2.862    0.651
        41  -9.7356    180.0000    215.9702   4.7894864414e+01   1.7825093900e+00    0.2248887   0.07621628 -46.17 0.0008110717    3.003    0.667
        42  -9.9957    118.3850    215.8217   6.2170478570e+01   1.1900402684e+01    0.2080991    0.1306559 -43.23 0.0009559641    1.763    0.433
        43 -10.5472    232.6275    213.5864   3.7059433548e+01  -5.3854206698e+00    0.3684399    0.1718851 -47.26  0.001736979    2.356    0.576
        44 -10.6335    198.4858    214.1834   4.3701661133e+01  -7.1905708118e-01    0.3054549    0.2027388 -25.69  0.001614822    1.477    0.323
        45 -10.3609    169.4766    213.5089   4.9764340110e+01   3.9393677816e+00    0.2639575    0.1198192 -36.30  0.001040298    2.465    0.594
        46 -10.2237    185.4699    212.5269   4.6110098296e+01   1.5781993143e+00    0.2829902    0.1296209 -44.07  0.001209687    2.170    0.539
        47 -10.2442     76.0000    211.9895   7.2177692789e+01   1.9398465176e+01    0.2289299   0.07986648 -63.68 0.0008074084    2.977    0.664
        48 -10.4192    161.8659    210.2253   5.0895884359e+01   5.8483542334e+00    0.3666798    0.1698845 -34.06  0.001388048    2.678    0.627
        49 -10.6931    192.2314    208.2286   4.3909954087e+01   1.3329718548e+00    0.3550635    0.1913171 -46.17  0.001459411    1.895    0.472
        50 -10.4003    177.1530    208.6510   4.7201124553e+01   3.6506139376e+00    0.3957994   0.08396049 -43.39  0.001117239    4.701    0.787
        51 -10.8154    236.7590    207.3689   3.5220301007e+01  -4.9004856577e+00    0.3297361    0.2334736 -62.19  0.001763531    2.417    0.586
        52 -10.3348    215.6454    205.6931   3.8778902090e+01  -1.7199368198e+00    0.1977753    0.1168884 -27.00 0.0004795443    1.661    0.398
        53 -10.9022    205.0024    206.2121   4.0944781737e+01  -2.4749365282e-01    0.4808767    0.1587735 -35.56  0.001680158    3.374    0.704
        54 -10.0958    246.6982    205.5615   3.3193566185e+01  -5.8720137882e+00    0.2219177   0.09360234 -40.42  0.001071092    2.026    0.506
        55  -9.1981    156.3254    206.3145   5.1472338491e+01   7.5869404763e+00     0.150614    0.1093223  -6.93 0.0005211416    1.666    0.400
        56 -11.5733     99.7182    201.7946   6.4678818719e+01   1.8187730893e+01    0.6818714    0.2924265 -39.35  0.002240941    3.504    0.715
        57 -10.9166    184.4019    201.8440   4.4382534311e+01   3.8060092035e+00    0.4532843    0.2466631 -27.26  0.001920356    2.214    0.548
        58 -10.5592    250.2491    200.3503   3.1679054895e+01  -5.4756428726e+00    0.3234046    0.1311033 -35.86  0.001533839    2.092    0.522
        59 -10.6509    243.7408    200.0835   3.2713516296e+01  -4.6058627118e+00    0.3684177     0.137312 -42.88  0.001641485    2.374    0.579
        60 -10.3655    210.7404    199.9788   3.8667618206e+01   2.4667819544e-02    0.3013213    0.1424973 -39.36  0.001362878    1.943    0.485
        61 -10.0536    163.3992    200.4134   4.8766083847e+01   7.6150530926e+00    0.2978224    0.1134034 -36.25 0.0009596478    3.420    0.708
        62 -11.2848    237.3843    196.5950   3.3166260433e+01  -3.1845866385e+00     0.543194   0.09977207 -40.87  0.001665477    4.695    0.787
        63 -10.9106    123.6533    196.5022   5.7666749573e+01   1.5407864466e+01    0.4859347    0.1654447 -48.93  0.001616133    2.988    0.665
        64  -9.9207     79.3176    198.3345   6.9474757956e+01   2.2215500146e+01    0.1476466    0.1126929 -25.79 0.0003845812    1.696    0.410
        65 -10.3044    202.6556    196.6560   3.9634453110e+01   1.8790432568e+00     0.296432     0.160924 -48.10  0.001367512    1.912    0.477
        66 -11.0089    148.6419    195.2822   5.1272622262e+01   1.1287780184e+01    0.5029074    0.1801736 -46.23   0.00173048    2.825    0.646
        67 -11.0635    111.9001    195.1526   6.0445691028e+01   1.7748921054e+01    0.5339738    0.1578777 -48.46  0.001638809    3.512    0.715
        68 -10.5549    215.8960    194.9205   3.6736822728e+01   1.6929505967e-01     0.295387    0.1820542 -53.13  0.001456223    1.951    0.487
        69 -10.5033     88.6593    194.1239   6.6381590556e+01   2.1818646212e+01    0.4560388    0.1786493 -45.90   0.00155778    3.005    0.667
        70 -11.3788    245.9530    192.5924   3.0992460838e+01  -3.6549230303e+00    0.3951438    0.2486559 -50.28  0.002201356    1.783    0.439
        71 -11.1209    224.7342    192.1949   3.4591066526e+01  -6.4770833825e-01    0.4758621    0.2129448 -42.44  0.002170368    2.005    0.501
        72 -10.8403    185.4689    192.5985   4.2406129214e+01   5.4579116138e+00    0.5090916    0.2189056 -34.20  0.001888751    2.698    0.629
        73 -10.3934    160.9934    191.7745   4.7695572308e+01   9.8633196294e+00    0.3833325    0.1719604 -38.15  0.001422149    2.475    0.596
        74 -10.7642    197.4776    203.1024   4.1885450292e+01   1.4781562009e+00    0.3817666    0.2081438 -42.96  0.001804388    1.769    0.435
        75  -9.9562    172.0000    190.0112   4.4847898321e+01   8.2980775146e+00    0.2422374   0.08109938 -46.97 0.0008057871    2.966    0.663
        76 -10.5122    138.7519    187.1703   5.2165535681e+01   1.4881604775e+01    0.4375185     0.161144 -42.30  0.001419921    3.049    0.672
        77 -10.3298    139.8684    198.4650   5.3979715411e+01   1.2127028178e+01    0.3137164    0.1856726 -35.97  0.001332154    1.926    0.481
        78 -10.0285    230.4205    186.2605   3.2466205778e+01  -4.2434476733e-01     0.260967    0.1078265 -37.88  0.001134995    2.144    0.534
        79 -10.6049    216.6818    186.0789   3.4915666433e+01   1.6642542783e+00    0.3499886      0.20804 -24.58  0.001685642    1.829    0.453
        80 -10.8940    129.3107    185.6545   5.4259219013e+01   1.6941385389e+01    0.5085664     0.232317 -35.10  0.001654454    3.213    0.689
        81 -11.3366    249.4706    184.1086   2.8878301693e+01  -2.7051812255e+00    0.4109057    0.1381013 -36.16   0.00168288    2.699    0.630
        82 -10.7170    155.6618    183.8417   4.7409531587e+01   1.2549752723e+01     0.534048     0.165639 -46.62   0.00169047    3.191    0.687
        83 -10.5018     95.0018    180.2377   6.2390537323e+01   2.4252307443e+01     0.351379    0.1538638 -38.63  0.001111519    3.366    0.703
        84 -10.0787    202.5873    182.7379   3.6975362629e+01   4.5430675148e+00      0.28629    0.1215538 -39.34  0.001148912    2.225    0.551
        85 -10.1722    182.6894    182.8712   4.1104465787e+01   7.9032842450e+00    0.2958716    0.1193684 -39.58  0.001084058    2.504    0.601
        86  -9.8690    209.5460    194.2533   3.7825910195e+01   1.2560316193e+00    0.1948779    0.1155439 -31.73 0.0009503691    1.610    0.379
        87 -10.0536    196.8579    181.6696   3.7911514508e+01   5.7069712091e+00    0.2082333    0.1641662 -27.65  0.001125216    1.196    0.164
        88 -10.4835    174.0003    181.2106   4.2672956362e+01   9.7901348863e+00    0.3751281    0.1869709 -32.12  0.001417965    2.449    0.592
        89 -10.4181    242.6440    180.4741   2.9314037424e+01  -1.1578048212e+00    0.2596264    0.1633163  -3.67  0.001305706    2.242    0.554
        90 -10.0847    235.2850    180.9364   3.0627678428e+01  -1.9209178660e-01    0.1895068    0.1436405 -32.35 0.0005334947    1.111    0.100
        91 -10.2502    137.4214    177.2230   5.0570647115e+01   1.7427594892e+01    0.3061022    0.1442824 -46.09  0.001143197    2.146    0.534
        92 -10.3609    191.2290    185.5334   3.9824496809e+01   5.8941069785e+00    0.2827453     0.190075 -43.13  0.001407662    1.427    0.299
        93 -10.4268    191.8479    175.6102   3.7728628380e+01   7.7752703281e+00    0.4609526    0.1659228 -33.11   0.00134397    4.275    0.766
        94 -10.5243    119.7083    179.7090   5.5630692598e+01   2.0091080068e+01     0.315692    0.1851458 -37.36  0.001265626    1.994    0.499
        95 -10.1468    217.4252    175.7810   3.2791042940e+01   3.4561280652e+00     0.272462    0.1194408 -46.55  0.001146282    2.166    0.538
        96 -10.3296    101.0021    175.9877   5.9983851131e+01   2.4305710597e+01    0.2147785    0.2113117  -4.55  0.001159496    1.057    0.054
        97 -11.0905    147.4214    177.8800   4.8214000982e+01   1.5409309981e+01     0.540309    0.2454741 -43.81   0.00200953    2.244    0.554
        98 -10.2395    182.7413    174.4403   3.9403327790e+01   9.6324688214e+00    0.3763749    0.1611327 -35.60  0.001349099    2.658    0.624
        99 -10.3268     58.7836    175.0454   7.1696269068e+01   3.1037070817e+01    0.2036174    0.1144792 -66.62 0.0008799099    1.726    0.421
       100 -10.5917    164.8770    183.9975   4.5288188005e+01   1.0840738266e+01    0.3802769    0.1950885 -37.30  0.001518038    2.088    0.521
       101 -10.4210    175.9942    169.9742   3.9951746692e+01   1.1803875758e+01    0.4386438    0.1653831 -36.06  0.001386439    3.332    0.700
       102  -9.9028    142.7431    170.9783   4.7974477100e+01   1.7876984760e+01    0.2094002    0.1327013 -48.53 0.0008955881    1.584    0.369
       103 -10.5908    120.5037    169.0065   5.3336656217e+01   2.2543179155e+01    0.3584414     0.159518 -59.32  0.001214843    2.642    0.622
       104  -9.9495    205.5846    168.7810   3.3624203224e+01   6.7486792941e+00    0.2006609    0.1249604 -50.85 0.0009029132    1.645    0.392
       105  -9.1593    198.0000    168.9859   3.5146006653e+01   8.0236571500e+00    0.2385943   0.07582914 -44.38 0.0007997099    2.924    0.658
       106 -10.6392    134.7291    168.4361   4.9484352365e+01   2.0000024611e+01    0.2849471    0.1895752 -29.87  0.001195747    1.811    0.448
       107 -10.7160    168.0454    165.5085   4.0795859493e+01   1.4261353690e+01    0.4164605    0.2505424 -17.57  0.001526985    2.787    0.641
       108 -10.0870    184.6401    164.8516   3.7029543039e+01   1.1275814405e+01    0.2196019    0.1317446 -53.35 0.0009548506    1.790    0.441
       109 -11.2302    212.9309    161.4017   3.0764499884e+01   6.9176808264e+00    0.4846981    0.1878395 -42.79  0.001910933    2.312    0.567
       110 -10.5803    149.7867    167.3182   4.5476904728e+01   1.7368693234e+01    0.3386129    0.2101834 -38.29  0.001438936    1.689    0.408
       111 -10.0699    222.4759    160.4741   2.8880311977e+01   5.4925594318e+00    0.2434982    0.1136605 -34.10  0.000987308    2.181    0.541
       112 -10.3235    218.9209    166.4037   3.0679975352e+01   4.9684712487e+00    0.2979993    0.1632867 -29.45   0.00134564    1.981    0.495
       113 -10.2376    227.4423    157.5517   2.7455312508e+01   5.2202656117e+00    0.2909141    0.1154202 -42.25  0.001206983    2.182    0.542
       114 -10.0960    250.7121    155.5014   2.3393349607e+01   1.9860022621e+00     0.344131   0.09230603 -38.40  0.001209758    3.464    0.711
       115 -10.3863    218.1755    155.2640   2.8590166114e+01   7.1898112971e+00    0.3188457   0.08957327 -38.66  0.001008034    3.623    0.724
       116 -10.2751    196.6142    155.0731   3.2551047709e+01   1.1059279125e+01    0.3054121    0.1711368 -32.80  0.001311739    1.914    0.477
       117  -9.8111    247.2888    155.3338   2.3871922066e+01   2.5211554774e+00    0.1268022   0.08889907 -18.78 0.0003974232    1.629    0.386
       118  -9.9589    157.6677    154.5193   4.0842417949e+01   1.8716229370e+01    0.2892697    0.1411127 -47.14  0.001098042    2.016    0.504
       119 -10.0983    204.8005    153.0533   3.0561937423e+01   9.9648336034e+00    0.2377752    0.1550553 -21.11  0.001083566    1.948    0.487
       120 -10.9817    243.7380    150.2739   2.3445892050e+01   3.9428712391e+00     0.240977     0.134034 -43.59   0.00125453    1.499    0.333
       121 -10.6382    131.8610    150.1745   4.6329370510e+01   2.4892807579e+01    0.3847102    0.1745436 -40.60   0.00132694    2.441    0.590
       122 -10.9055    249.4409    149.0733   2.2372193902e+01   3.2820189209e+00    0.3520902    0.1037214 -42.33  0.001365821    2.777    0.640
       123 -10.8398    189.3110    147.7825   3.2453128892e+01   1.3916264690e+01    0.4200051    0.1865439 -43.87  0.001638951    2.109    0.526
       124 -10.4246    213.8504    147.2707   2.7725298473e+01   9.4610809061e+00    0.2806187    0.1718568 -21.87  0.001238797    2.221    0.550
       125  -9.8799    234.0000    145.9528   2.4108195755e+01   6.2607433856e+00    0.2267029   0.06516174 -42.67  0.000804559    2.957    0.662
       126 -10.0247    223.5733    145.2201   2.5646090196e+01   8.1458713410e+00    0.2015731    0.1154485 -33.89 0.0009542872    1.721    0.419
       127 -10.3469    147.7891    143.9855   4.0873830431e+01   2.3096278039e+01    0.2598167    0.1846402 -77.14   0.00107691    1.998    0.500
       128 -10.6001    239.3874    141.8987   2.2488220727e+01   6.1081634252e+00    0.3819774   0.08791763 -49.99 0.0009569947    6.576    0.848
       129 -10.4941    199.0754    147.2534   3.0428937093e+01   1.2165494642e+01    0.3515026    0.1910974 -31.46  0.001465215    2.105    0.525
       130  -9.4347    194.3182    143.2983   3.0500169694e+01   1.3860863581e+01    0.1432962    0.1129086  -5.38 0.0006493574    1.615    0.381
       131 -10.3780    243.5034    139.9931   2.1509511499e+01   5.7825003967e+00    0.1845809    0.1004614 -25.23 0.0008104768    2.547    0.607
       132  -9.9983    207.5022    136.9576   2.6701034480e+01   1.2600976071e+01    0.2237356    0.1272731 -43.89  0.001031714    1.587    0.370
       133 -10.5951    197.6384    134.5909   2.7989676550e+01   1.4951539573e+01    0.4554334    0.1595795 -40.19  0.001580801    2.794    0.642
       134 -10.2702    179.4943    132.2323   3.1022288745e+01   1.9071445030e+01    0.3819649    0.1414054 -41.61  0.001309878    2.655    0.623
       135 -10.0997    142.4900    130.5055   3.9044252443e+01   2.7247500820e+01    0.2878394    0.1484539 -57.28  0.001035417    2.331    0.571
       136 -10.3823     69.0651    135.9131   6.1721933580e+01   3.9732324490e+01    0.2220368    0.2127781 -43.67  0.000363302    1.017    0.017
       137 -10.3242     53.6749    130.3105   6.5643264173e+01   4.3300798569e+01    0.1492839    0.1114682  67.67 0.0005871208    1.656    0.396
       138 -10.2050    192.7601    128.5097   2.7575675726e+01   1.7119708759e+01    0.3183517    0.1690949 -32.79  0.001288837    2.186    0.543
       139 -10.0591    152.3815    128.2105   3.6083253488e+01   2.5644175869e+01     0.229453    0.1433832 -55.78 0.0009431611    1.732    0.423
       140 -10.2291    246.3341    127.7022   1.8747446239e+01   7.4607911905e+00    0.1261861   0.08966118 -68.64 0.0004714777    1.649    0.393
       141 -10.9714     82.7437    120.8978   5.3926323282e+01   4.1282436410e+01    0.3500668    0.2304391 -41.67 0.0009323961    1.536    0.349
       142  -9.9346    185.6708    114.4789   2.5761587482e+01   2.1335766565e+01    0.2743357    0.1292335 -42.56  0.001097827    2.028    0.507
       143  -9.9567     91.9964    112.7466   4.8923718769e+01   4.1567100691e+01    0.2727506    0.1735002  88.50 0.0008969602    3.566    0.720
       144  -9.9700    118.4920    105.4966   3.9079677152e+01   3.7884213862e+01    0.1531281    0.1500227  36.52 1.319049e-05    1.003    0.003
       145 -10.2441    127.6754    100.4889   3.5250851584e+01   3.6944308078e+01    0.2774811    0.1423069 -44.28  0.001086065    1.998    0.499
       146  -9.7601    107.5048     98.4719   4.0331638150e+01   4.1683518626e+01    0.1512888    0.1469838  50.51 0.0002811256    1.050    0.048
       147 -10.8396     94.9607     91.9411   4.2335345172e+01   4.5578801932e+01    0.3995297    0.2523116  -8.92  0.001497487    2.798    0.643
       148 -10.9332     58.0288     90.6955   5.4819263168e+01   5.2185452932e+01     0.202585    0.1811101   6.35 0.0006710237    1.084    0.077
       149 -10.6815     80.9946     85.8286   4.5158846698e+01   4.9475096881e+01    0.2394878    0.1681815  62.67  0.001079005    2.002    0.501
       150  -9.9802     34.4774     84.5194   6.2407841150e+01   5.6488491831e+01    0.1394475    0.1149924 -26.56 4.187875e-05    1.085    0.078
       151  -9.4762    175.6723     76.6629   1.8653443401e+01   3.0413799047e+01    0.1376538    0.1121828  21.42 0.0007051812    1.727    0.421
       152 -13.6307    238.3675     70.0072   8.6062235197e+00   1.8302847842e+01    0.4251257    0.2626375 -62.01  0.002469363    1.444    0.308
       153  -9.6492    157.8072     69.6330   2.0146412584e+01   3.5694530597e+01    0.1924011    0.1271596  69.79 0.0003438192    1.548    0.354
       154  -9.4124     95.3165     72.6329   3.6468114838e+01   4.9254491577e+01    0.1447492    0.1164397 -89.19 0.0007038131    1.777    0.437
       155  -9.6019    131.2558     57.6335   2.2350181396e+01   4.3782600255e+01      0.14024    0.1052233 -72.46 0.0004399566    1.633    0.388
       156  -9.7459    224.3558    248.1390   4.4456852295e+01  -9.7506600790e+00    0.1571944    0.1036076 -42.50 0.0009450133    1.749    0.428
       157  -9.6335    159.2340     54.9791   1.6088288523e+01   3.7608476358e+01    0.1696184    0.1138819 -40.23 0.0006963257    1.587    0.370
       158 -10.5471     86.5352     53.7876   3.3139515506e+01   5.4188955257e+01    0.2604246    0.1354068 -29.95  0.001148725    2.229    0.551
       159  -9.8298     62.3209     54.6573   4.1947043414e+01   5.8516874596e+01    0.1251636    0.1093806  77.50 0.0007050076    1.724    0.420
       160 -10.8106     28.1709     43.2764   5.2572848769e+01   6.5220047129e+01     0.353453    0.1613002 -35.08   0.00154792    2.097    0.523
       161 -12.0122    238.4306     42.3733   3.3870070639e+00   2.2205401619e+01    0.1994074    0.1600808 -89.03  0.000583519    1.177    0.150
       162 -10.0997     69.3294     41.6609   3.4675807951e+01   5.9291579777e+01    0.1226057    0.1063028  83.21 0.0007051802    1.737    0.424
       163 -10.8643     36.9729     40.9920   4.7606945375e+01   6.4519682096e+01     0.175584    0.1584439  55.04  0.001080331    1.682    0.406
       164 -10.7885    122.1739     36.6471   1.8124081968e+01   4.8749220510e+01    0.2690572    0.2222031  56.27 0.0008746875    1.054    0.051
       165  -9.8063     38.3408     35.2895   4.4784465945e+01   6.5214166857e+01    0.1295139   0.08277149   1.57 0.0003604573    1.646    0.392
       166 -10.3387    176.5865     33.2505   8.0819959867e+00   3.6472227970e+01    0.2207874    0.1515604  72.78 0.0003227265    1.271    0.213
