#   1 NUMBER                 Running object number                                     
#   2 MAG_AUTO               Kron-like elliptical aperture magnitude                    [mag]
#   3 X_IMAGE                Object position along x                                    [pixel]
#   4 Y_IMAGE                Object position along y                                    [pixel]
#   5 X_WORLD                Barycenter position along world x axis                     [deg]
#   6 Y_WORLD                Barycenter position along world y axis                     [deg]
#   7 A_WORLD                Profile RMS along major axis (world units)                 [deg]
#   8 B_WORLD                Profile RMS along minor axis (world units)                 [deg]
#   9 THETA_WORLD            Position angle (CCW/world-x)                               [deg]
#  10 FWHM_WORLD             FWHM assuming a gaussian core                              [deg]
#  11 ELONGATION             A_IMAGE/B_IMAGE                                           
#  12 ELLIPTICITY            1 - B_IMAGE/A_IMAGE                                       
         1 -15.6624    187.2103     83.9203   6.4115112495e+01   2.6597800153e+01     5.055043     2.055648 -53.26   0.01385469    3.746    0.733
         2 -15.0952    197.6684     69.3955   5.8184303001e+01   2.6540740192e+01     1.750904      1.45088  30.36  0.008940414    1.402    0.287
         3 -16.3727    248.6583     80.0978   5.3354430262e+01   1.3113410336e+01     6.072245     1.580998 -27.22   0.01121343   11.416    0.912
         4 -18.8818    237.9940     30.8222   4.2831237369e+01   2.2518969581e+01      9.98261      8.43973 -18.19   0.06044527    1.415    0.293
         5 -13.7040    105.7788     23.1818   6.2270739253e+01   5.5723107876e+01    0.6128651    0.3656233 -21.98  0.002666537    1.737    0.424
         6 -10.4826    189.7584     14.7301   4.3927942062e+01   3.6062140824e+01    0.2536933    0.1445916 -55.56 0.0007132161    1.863    0.463
         7 -10.1046    151.7138      9.1153   4.7458949666e+01   4.6250459010e+01    0.2165906     0.161396 -47.39  0.001171497    1.462    0.316
         8  -9.3819    209.3756      6.6628   3.9654916632e+01   3.2069990735e+01    0.2067781    0.1241209  57.01  0.001060345    1.701    0.412
         9 -11.4096     92.4482      6.2841   5.8747651338e+01   6.0432207988e+01    0.2409863    0.1239483 -14.14  0.001141772    2.111    0.526
        10 -10.1743    181.3328      4.7121   4.2076851431e+01   3.9199395671e+01    0.1601979    0.1276837  -9.42 0.0005515107    1.509    0.337
        11 -12.4611     70.3422      2.3256   6.3613224498e+01   6.5193229821e+01    0.6609508    0.1411025  40.85  0.002168169    4.467    0.776
        12 -12.6049     58.2472      2.5023   6.8050015042e+01   6.7309428864e+01    0.5056051    0.1742922  34.08  0.002056362    3.163    0.684
        13 -11.3538    197.2605      2.2609   3.9684492036e+01   3.5469693684e+01    0.1960498    0.1670024  -4.85 0.0008014609    1.461    0.315
        14 -11.9336    211.3085      1.6410   3.8206565129e+01   3.2113371816e+01    0.2167264    0.1529056  71.38 0.0006200763    1.327    0.246
        15 -12.4199    159.2589      2.1411   4.4084572173e+01   4.4991223448e+01    0.3127744    0.2571845  24.17  0.001830033    1.374    0.272
        16 -12.6694    192.4820    153.4530   8.0543589605e+01   1.2109223384e+01    0.4827538    0.2475305 -38.17  0.001924655    1.949    0.487
        17 -12.5744    189.7937    148.9209   8.0086731461e+01   1.3529321761e+01    0.3701709    0.2758603 -62.71  0.001404574    1.727    0.421
        18 -12.0390    172.5135    149.8052   8.3982794538e+01   1.6953094007e+01    0.3709618    0.3081307 -82.99  0.001674297    1.551    0.355
        19 -11.3543    134.0075    146.7378   9.2274204855e+01   2.5481590857e+01    0.9040545    0.2411622 -54.91  0.002281924    5.104    0.804
        20 -10.5008    132.4634    138.9533   9.0960736754e+01   2.7547257111e+01    0.2921923    0.2121427 -65.16  0.001344734    1.529    0.346
        21 -11.6111    181.8167    149.0086   8.1787244189e+01   1.5172466671e+01    0.2257196    0.2055165 -77.82 0.0005859543    1.295    0.228
        22 -11.0025    144.3151    146.5208   8.9734026387e+01   2.3471416281e+01    0.4488742    0.2962441 -86.00  0.001713092    2.670    0.625
        23 -11.7350    202.4875    172.4623   8.2578437651e+01   6.6659638820e+00    0.2811438    0.1955037  18.20  0.001385321    1.607    0.378
        24 -10.4682    166.0356    134.6660   8.1941145234e+01   2.1459003529e+01    0.2158217    0.1960023  38.74 0.0003893549    1.109    0.098
        25 -11.5576    136.0000    128.6090   8.7687192441e+01   2.9173134819e+01     1.069802    0.2066924 -49.48   0.00245826    5.593    0.821
        26 -10.5016    135.0860    120.8522   8.6026047456e+01   3.1110843369e+01    0.3510635    0.2019806 -46.99  0.001391244    1.700    0.412
        27 -12.2853    134.7162    108.2029   8.2849867903e+01   3.4007323759e+01     1.486601    0.2574855 -45.52  0.003332966    5.649    0.823
        28 -11.4652    132.7278     97.6762   8.0468819187e+01   3.6728694111e+01    0.5009354    0.2780718 -41.71  0.001386836    1.760    0.432
        29  -9.6803     98.0284    132.2593   9.8483049804e+01   3.5510282436e+01    0.1727771    0.1287448  39.48 0.0003200136    1.420    0.296
        30 -12.7416    161.2433    128.0542   8.1440684766e+01   2.3898777486e+01    0.5587437    0.4962595 -17.13  0.001824217    1.203    0.169
        31 -12.4394    172.3834    124.0315   7.7914729288e+01   2.2270702514e+01    0.6523892    0.3969736 -64.47  0.002433644    2.498    0.600
        32 -13.6659    167.0851    114.7415   7.6730131286e+01   2.5382559560e+01    0.9895768    0.7206862 -12.82   0.00172396    1.797    0.443
        33 -11.8936    174.6726    114.3482   7.4940439751e+01   2.3727404404e+01    0.3348905    0.2810549 -76.39  0.001350198    1.428    0.300
        34 -10.1339    138.3553    170.2854   9.5934645053e+01   1.9473958628e+01    0.1443052    0.1151483   3.05 0.0007021145    1.669    0.401
        35 -11.6701    156.4044    112.2179   7.8540767031e+01   2.8337740421e+01    0.3637085    0.2834439 -67.52 0.0003992784    1.525    0.344
        36 -11.2371    178.3628    110.0663   7.3023247044e+01   2.3735281625e+01    0.2594268    0.2187392  30.61 0.0006582356    1.273    0.215
        37 -12.9936     44.7457    171.4628   1.1795895147e+02   3.3615084900e+01     1.315839    0.5781472  75.12  0.005233931    3.248    0.692
        38 -11.2174    127.4098    105.2035   8.3965305956e+01   3.6225019368e+01    0.4301206    0.2994952 -59.34  0.001519263    1.583    0.368
        39 -11.6996    123.5018    102.5257   8.4289679811e+01   3.7635807584e+01    0.3513387    0.2007033  39.90  0.001431563    1.854    0.461
        40 -10.4056    140.5591    105.5951   8.0647013451e+01   3.3302268289e+01    0.2716169    0.2230755 -16.54 0.0006329493    1.404    0.288
        41 -11.6185    112.4546    104.4062   8.7859986696e+01   3.9438202481e+01    0.3487734    0.2893012 -54.58  0.001331145    1.178    0.151
        42 -11.2848    164.5978    102.6601   7.4066685029e+01   2.8430456917e+01    0.3622642    0.2022206  49.88  0.001438834    1.837    0.456
        43 -11.3134    145.6086    102.0767   7.8413280237e+01   3.2926759794e+01    0.3447759    0.2995224  18.82 0.0006458631    1.282    0.220
        44 -10.5017    122.5119     98.0672   8.3322907532e+01   3.8825570783e+01    0.2419917    0.1492577 -45.85 0.0008667164    1.565    0.361
        45  -9.8792    113.4990     95.0546   8.4992624991e+01   4.1329791694e+01     0.226345    0.1464098 -45.35 0.0003090862    1.477    0.323
        46 -11.8011    138.8476     91.9505   7.7236919492e+01   3.6576960952e+01    0.3486505    0.3107589  89.38 0.0009983502    1.284    0.221
        47  -9.7954    130.2875     87.6492   7.8198976766e+01   3.9380331241e+01    0.2320105    0.1347038 -62.32 0.0008096133    2.559    0.609
        48 -10.3601    128.7610     84.1330   7.7547891620e+01   4.0440722896e+01    0.2921847    0.2068711 -56.17 0.0004838207    1.575    0.365
        49 -10.4583     81.1405     81.6199   9.1017099671e+01   5.0166969239e+01    0.1910991     0.136946  19.33 0.0003183905    1.664    0.399
        50 -11.6170     87.3150     76.4368   8.7444018428e+01   5.0263374801e+01    0.6207221    0.3218955 -62.79  0.002223722    3.084    0.676
        51 -11.1075    149.4923     76.5446   6.9995409903e+01   3.7144299260e+01    0.2845467    0.2444617  -6.29 5.292516e-05    1.298    0.229
        52 -12.0065    153.6664     75.5224   6.8710472133e+01   3.6330120511e+01    0.4544552    0.3012988  53.58  0.001000678    1.533    0.348
        53 -10.3878    158.8841     74.3235   6.7168115833e+01   3.5280767524e+01    0.2555987    0.2068814 -48.66 0.0004087462    1.255    0.203
        54 -11.9174    184.6523     66.4401   5.9634169450e+01   3.0253070976e+01    0.5081778    0.2664166 -46.44  0.001349435    1.947    0.486
        55 -12.0617    246.8348    163.2558   7.2504963293e+01   1.2151682608e-01    0.5863711    0.3338547   1.99   0.00246222    2.774    0.639
        56 -12.3006    199.7182    163.3672   8.1227668811e+01   8.8214716741e+00    0.6104481    0.3743838 -70.47  0.002047802    4.293    0.767
        57 -14.2786     68.2527    144.7955   1.0874380080e+02   3.7006683459e+01      1.46117     1.101302  66.01  0.003623297    1.365    0.267
        58 -13.4524     50.3790    162.4713   1.1564800686e+02   3.5043410134e+01    0.4751694    0.3694391 -67.34  0.001022999    1.222    0.182
        59 -14.3721     57.8459    157.8474   1.1327001355e+02   3.5229376856e+01     0.867698    0.6568868  85.44  0.002646192    1.217    0.178
        60 -13.8266     63.6669    153.3222   1.1120637555e+02   3.5565232604e+01    0.6933327    0.4553419  79.36  0.001542549    1.650    0.394
        61 -11.6176    126.4972     48.7930   6.6511261255e+01   4.7427385688e+01    0.2867007    0.2059411  50.97  0.001064388    1.378    0.274
        62 -12.3956    109.6657     38.7584   6.7317777110e+01   5.2762931822e+01    0.3641269    0.2680958 -37.25  0.001883856    1.404    0.288
        63 -11.8890    190.1839     35.5991   4.9811637411e+01   3.3451002117e+01    0.2795772    0.2209908 -31.34 0.0005997354    1.309    0.236
        64 -11.5442    102.7001     34.0865   6.7487937160e+01   5.4941064910e+01    0.1982893    0.1739915  -5.36 0.0006143912    1.086    0.079
        65 -10.0370    179.3366    209.3154   9.4074271678e+01   4.5791037590e+00    0.1354099   0.09646626   8.83   0.00070475    1.695    0.410
        66 -11.3986    159.4229     22.2411   5.0513203109e+01   4.2926122858e+01    0.3204035    0.2469445 -77.36  0.000751742    1.457    0.313
        67 -10.5152    223.5283    205.3374   8.4930694326e+01  -2.2818757315e+00    0.2290065    0.1071135  38.64  0.001091055    1.976    0.494
        68 -10.5097    193.2985    177.6626   8.5469147106e+01   7.4876248583e+00    0.1338279    0.1144852 -89.00 0.0003805708    1.658    0.397
        69 -12.1246    101.0595     26.0402   6.4734108698e+01   5.6384253455e+01    0.2392068    0.2351146  31.12 0.0007430275    1.181    0.154
        70 -13.2176    192.8086    194.6959   8.8832102427e+01   4.6332296849e+00     1.041952    0.5690783 -64.24   0.00339286    5.330    0.812
        71 -15.0261     23.5431    178.7406   1.2324746587e+02   3.4201333386e+01    0.9818149    0.8279446  64.80   0.00540023    1.213    0.176
        72 -14.4597      8.0700    191.2863   1.2721121125e+02   3.2934367024e+01     1.245843    0.6506844  75.28  0.007594397    1.586    0.369
        73 -13.3752      4.6208    175.5957   1.2692787541e+02   3.6569918831e+01     0.763807    0.4878159  83.39  0.004556666    1.203    0.169
        74 -14.1039    165.7119     74.5392   6.5751091137e+01   3.3565436368e+01     1.219559    0.6494345 -23.62   0.00338109    2.423    0.587
        75 -10.4733    202.1800    248.2191   9.5826253307e+01  -4.7352201340e+00    0.1748327    0.1291932  20.24 0.0004563285    1.144    0.126
        76 -11.2471    110.2692    224.0080   1.1000193910e+02   1.3524107428e+01    0.1761434    0.1526724  67.07  0.001177315    1.074    0.069
        77  -9.4001    205.2983    223.6917   9.1472602219e+01  -1.9540264467e+00    0.1111839   0.09673217  60.26 0.0003161089    1.594    0.373
        78 -10.2146     96.3100    221.6604   1.1248638806e+02   1.6078104960e+01    0.1311466   0.08057114  67.86 0.0004963112    1.689    0.408
