#   1 NUMBER                 Running object number                                     
#   2 MAG_AUTO               Kron-like elliptical aperture magnitude                    [mag]
#   3 X_IMAGE                Object position along x                                    [pixel]
#   4 Y_IMAGE                Object position along y                                    [pixel]
#   5 X_WORLD                Barycenter position along world x axis                     [deg]
#   6 Y_WORLD                Barycenter position along world y axis                     [deg]
#   7 A_WORLD                Profile RMS along major axis (world units)                 [deg]
#   8 B_WORLD                Profile RMS along minor axis (world units)                 [deg]
#   9 THETA_WORLD            Position angle (CCW/world-x)                               [deg]
#  10 FWHM_WORLD             FWHM assuming a gaussian core                              [deg]
#  11 ELONGATION             A_IMAGE/B_IMAGE                                           
#  12 ELLIPTICITY            1 - B_IMAGE/A_IMAGE                                       
         1 -11.7269     17.4386     32.9577   1.0535387508e+02   6.6078810855e+01    0.7198181    0.3156802 -18.19  0.002882587    4.144    0.759
         2 -13.5520      6.0055     50.7225   1.1419357579e+02   6.3289475840e+01    0.4603125    0.2895985 -32.44 0.0008529325    1.652    0.395
         3 -10.5262    181.1690     41.3375   6.0193109940e+01   3.4964036730e+01    0.3539752    0.3231162  -7.46  0.001082627    1.144    0.126
         4 -11.7425     76.5710     21.5248   7.8589732601e+01   6.1158099577e+01    0.4948372    0.4000685 -14.33  0.002499647    1.062    0.059
         5 -10.7266     22.1426      9.6299   9.4868006990e+01   6.9812863067e+01    0.2663822    0.1773143  -1.58  0.001036469    1.588    0.370
         6 -11.6107     30.0320      7.1533   9.0227642421e+01   6.9462277191e+01    0.3127687    0.2641104  -0.42  0.001780385    1.258    0.205
         7 -12.0092     34.9950     12.8919   9.0632206192e+01   6.8067647106e+01    0.4555051    0.2459665 -49.12  0.001244951    1.986    0.497
         8 -12.1165     40.2344      9.6933   8.6991477494e+01   6.7980790763e+01    0.4126768    0.1792312 -32.81  0.001732456    1.951    0.487
         9 -10.9864     92.8160      9.1741   6.8128412571e+01   5.9854175747e+01    0.3298483    0.2343466   8.60  0.001247364    1.386    0.278
        10  -9.9301     89.0000      8.9952   6.9168631354e+01   6.0606097971e+01    0.3184064    0.1450593 -30.74  0.001478542    2.079    0.519
        11 -10.7370     88.5673     12.8389   7.0998326248e+01   6.0223575179e+01    0.4045868    0.2672672  62.72  0.002090645    2.134    0.531
        12 -10.5680    155.1633     14.7321   5.5994247997e+01   4.5032400508e+01    0.3504794    0.2113507  45.55  0.001133563    1.576    0.365
        13 -10.6888    203.1284     11.9956   4.7921800036e+01   3.2786661392e+01    0.2347403    0.1936107  73.70  0.001278032    1.152    0.132
        14  -9.8892      2.7832      2.6497   1.0111410888e+02   7.2360212294e+01     0.257167    0.1207284  36.33  0.001509399    3.283    0.695
        15 -10.4937     10.0079      1.9995   9.7262473689e+01   7.1986412276e+01    0.2797763    0.1462099 -34.82  0.001281266    1.420    0.296
        16 -10.5480     14.9439      8.8295   9.7836110580e+01   7.0525252666e+01    0.2578168    0.1384439 -34.19 0.0004330425    1.436    0.304
        17 -10.8460     11.0421      6.5382   9.8717141448e+01   7.1184979481e+01    0.2713951    0.2086816 -63.80   0.00169974    1.839    0.456
        18 -10.9613      4.1202      9.9673   1.0335881332e+02   7.1059736461e+01    0.1999025    0.1364021 -36.91 0.0003723756    1.063    0.059
        19 -10.5648      2.7046      6.5323   1.0271814705e+02   7.1723218552e+01    0.3049717    0.1532733  -5.89  0.001851702    2.508    0.601
        20 -11.2593     55.4915      7.4659   7.9830904212e+01   6.6342519008e+01    0.3748708    0.3070054 -29.68   0.00152758    1.301    0.231
        21 -11.2813     57.8466      2.1334   7.6362383117e+01   6.6688222076e+01    0.3392639     0.233892 -19.45 0.0003016869    1.225    0.184
        22 -11.4714    151.7456      7.9524   5.4200904736e+01   4.6603556135e+01     0.460722    0.2987361 -53.80  0.002170481    1.905    0.475
        23 -10.9492    210.6637      7.8144   4.5831310713e+01   3.1258883152e+01    0.2103663    0.1787324  14.77  0.001142714    1.384    0.278
        24 -11.1160     70.3677      5.2787   7.3405048383e+01   6.4346113971e+01    0.3466316    0.2555733 -32.73  0.001378784    1.426    0.299
        25  -9.7937     67.0649      1.5185   7.2736172916e+01   6.5330120280e+01    0.1692152    0.1361773   9.37 0.0003989449    1.075    0.069
        26 -10.1718     64.9219      7.0432   7.6142832417e+01   6.4999934444e+01    0.1888838    0.1506911  -7.12 0.0004436177    1.022    0.021
        27  -9.6041     50.3487      7.2319   8.1720573616e+01   6.7078238982e+01     0.179603    0.1446135  53.62 0.0008589585    1.972    0.493
        28 -10.2850    147.2206      2.6136   5.3070799219e+01   4.8249380965e+01    0.2022839    0.1488842  32.70 0.0002683441    1.337    0.252
        29 -11.0126    107.4459      4.7673   6.2275638600e+01   5.7343057318e+01    0.2980153    0.2064003  58.18  0.001615396    1.532    0.347
        30 -10.5681    199.4466      3.9670   4.6011710451e+01   3.4574212415e+01    0.2114107    0.1377709 -24.78  0.001037563    1.623    0.384
        31 -10.1145    120.9936      4.0080   5.8774120713e+01   5.4417338308e+01    0.2243375    0.1401792  27.81 0.0004208391    1.627    0.385
        32 -10.5735     16.7390      3.6440   9.4744278272e+01   7.1211772775e+01    0.2075538    0.1480271 -32.65 0.0006194482    1.075    0.069
        33 -10.7710     20.2962      2.3585   9.2466905572e+01   7.1106561518e+01    0.2202672     0.143329 -21.06 0.0007533267    1.266    0.210
        34 -10.3753    160.8450      2.6310   5.0823276669e+01   4.4790188655e+01    0.2004309    0.1767852  26.97 0.0009700229    1.142    0.125
        35 -11.0826    130.0913      3.2439   5.6540674989e+01   5.2370011736e+01    0.2990764    0.1803858  68.61  0.001253176    1.802    0.445
        36 -10.4996     90.1054      2.5331   6.5932057699e+01   6.1110727290e+01    0.2208046    0.1959588 -53.80 0.0006509365    1.544    0.352
        37 -10.2389    174.4816      2.6344   4.8804856540e+01   4.1251969812e+01     0.472217   0.08804496  62.93  0.001396806    3.842    0.740
        38  -9.0536    112.6311      2.7110   6.0147838359e+01   5.6420435567e+01    0.1473211   0.08648844  29.90 0.0007023215    1.710    0.415
        39 -10.1445    235.5086      4.5320   4.2422522159e+01   2.5280289119e+01    0.1343677    0.1225767 -76.72 0.0001159256    1.020    0.020
        40 -11.3971     80.1421      1.7576   6.8548792270e+01   6.3058884179e+01    0.3308546    0.1680629  47.04  0.001410465    1.950    0.487
        41  -9.8812    203.5323      1.5100   4.4830042036e+01   3.3744600242e+01    0.1386029    0.1282711  71.95 2.255815e-05    1.047    0.045
        42  -9.5096    187.0173      1.1658   4.6677935358e+01   3.8102518384e+01    0.1880826   0.09628087  69.30            0    1.803    0.446
        43  -9.7561     28.0251      1.1914   8.8315671057e+01   7.0544681317e+01    0.1263523   0.08041361  22.73 0.0003864796    1.708    0.415
        44 -10.8357      6.2079    142.3705   1.2619640705e+02   4.4062735306e+01     0.136703    0.0823833  53.08 0.0006754269    1.668    0.400
        45 -11.6323      1.8014    248.1666   1.3252448553e+02   2.5358789553e+01    0.3507166     0.165143  85.67  0.002752658    1.601    0.375
        46 -12.0499      6.1143    241.4418   1.3170342734e+02   2.5987999455e+01    0.2146207    0.1259374  86.25  0.001234143    1.289    0.224
        47 -12.3195     11.3264    244.3993   1.3111280817e+02   2.5021410017e+01     0.380549    0.3031509 -31.95  0.002789499    3.870    0.742
        48 -11.2180      9.0378    135.3896   1.2502411418e+02   4.5291458902e+01    0.2101701    0.1203691 -85.67  0.000535491    1.346    0.257
        49 -10.4266    213.6423    134.5104   7.9685526438e+01   1.1624114708e+01    0.4691385    0.2630994  68.12  0.001727569    3.054    0.673
        50 -10.8993      3.0100    133.3777   1.2612546893e+02   4.6147122173e+01    0.2746427    0.1400719  56.61  0.001748249    1.972    0.493
        51 -10.2031     35.1716    130.7144   1.1877240408e+02   4.4048752277e+01    0.2196769    0.1322278 -66.18 0.0005173764    1.372    0.271
        52 -11.5957     11.6521    129.5284   1.2392225695e+02   4.6320331123e+01    0.3681706    0.1790708  64.68  0.002112333    2.191    0.544
        53 -10.8098    248.0268    129.1945   7.2443050112e+01   5.1070671986e+00    0.2168933    0.1711357 -84.60   0.00109196    2.002    0.501
        54 -10.3044     28.9125    128.3834   1.1992771353e+02   4.5135444964e+01    0.2182079    0.1279895 -88.27 0.0003868529    1.531    0.347
        55  -9.4379     20.7092    125.5316   1.2148156659e+02   4.6454061215e+01    0.1429374   0.09264375  56.00 0.0009392611    1.620    0.383
        56 -12.0794     22.8209    120.5405   1.2042237768e+02   4.7351179585e+01    0.5437388    0.2498506  74.32  0.002335001    2.940    0.660
        57  -9.3383    119.4453    115.5393   9.5576718682e+01   3.5529566532e+01    0.1422241    0.1353139 -68.97  3.00832e-05    1.025    0.024
        58 -10.9361     72.2638    112.9952   1.0696867343e+02   4.3716562718e+01    0.2030206    0.1784572  71.37 0.0002927692    1.182    0.154
        59 -10.8964     65.5201    110.7606   1.0829519473e+02   4.5090889597e+01    0.3342328    0.1715671 -59.37  0.001218953    1.665    0.399
        60 -10.2018    249.0114    111.9963   6.8235085260e+01   7.4525040966e+00    0.1787021    0.1597568 -14.98  0.001015871    1.030    0.029
        61  -9.9704      8.0976    121.1556   1.2390000993e+02   4.8344726760e+01    0.1507481    0.1005786  83.14 0.0004513593    1.298    0.229
        62 -11.7889      3.5889    108.8472   1.2369199114e+02   5.1246872589e+01    0.2776622    0.1990542  63.11  0.002046088    1.485    0.326
        63 -11.3914     57.3503    107.9270   1.0991315640e+02   4.6711696580e+01    0.2783573    0.2089136   1.74  0.001447012    2.054    0.513
        64 -10.4049     40.3757    105.7251   1.1399576509e+02   4.9011091163e+01    0.1813207   0.08850519 -58.65 0.0008108872    1.655    0.396
        65 -10.2833     24.2944    106.6756   1.1829615250e+02   5.0231970112e+01    0.1166976   0.07495354  80.52 0.0004508733    1.620    0.383
        66 -10.4008     89.8321    104.8273   1.0069257915e+02   4.2979176355e+01    0.1895852     0.156135  88.89 0.0005216448    1.317    0.241
        67  -9.3445    186.9702    103.4406   7.7210387003e+01   2.3191168904e+01    0.2262682    0.1505558  52.65 0.0006206945    1.510    0.338
        68 -10.2317     18.1946    104.6456   1.1957686663e+02   5.1145158967e+01    0.1307156    0.1089181  -7.03 0.0009470466    1.734    0.423
        69 -10.0731    113.5300    102.4982   9.3961212135e+01   3.9433407192e+01    0.1435355    0.1352258 -59.16 9.372355e-05    1.012    0.012
        70 -10.5676     57.4120    102.0771   1.0881373862e+02   4.8002016137e+01    0.2526514    0.1543528  56.46   0.00134533    1.972    0.493
        71  -9.6100    139.0109     99.0327   8.6706887761e+01   3.5055870068e+01    0.1800548    0.1721227 -49.54 0.0003447976    1.024    0.024
        72 -10.6934     62.0234     98.7252   1.0689791310e+02   4.8194981256e+01    0.2465612    0.1636827 -60.99  0.001389022    1.281    0.220
        73 -10.4199    100.4279     95.9932   9.5783513298e+01   4.3171201437e+01    0.3266051    0.2494494  87.77  0.001663684    1.670    0.401
        74 -10.0856      3.6981     95.6109   1.2216082829e+02   5.4045281554e+01    0.1836706    0.1259509 -60.36 0.0005481777    1.250    0.200
        75 -10.4895     78.8563     94.7943   1.0138870939e+02   4.6829261222e+01    0.1925908    0.1659728 -42.06 0.0002608086    1.173    0.148
        76 -11.3264     18.2878     94.9479   1.1821178666e+02   5.3232129786e+01    0.2628028    0.1584096  35.93  0.001460803    2.029    0.507
        77 -11.4317     11.0000     90.4315   1.1953886902e+02   5.4699480657e+01    0.4776407    0.1447641 -65.11  0.002303038    2.260    0.557
        78  -9.8466     43.6340     89.7948   1.1028314129e+02   5.2192872802e+01    0.2512855    0.1355007  60.36  0.001211047    2.732    0.634
        79 -10.9011     28.1936     92.1781   1.1507036915e+02   5.3068993734e+01     0.297975     0.230727  19.88  0.001311308    1.721    0.419
        80 -10.2096     24.4788     88.9914   1.1558240238e+02   5.4056274352e+01    0.2886291    0.1914846  87.96  0.001262313    1.607    0.378
        81 -11.0785     57.7355     91.7814   1.0666238034e+02   5.0236696363e+01    0.2462696    0.2066061 -36.42  0.000729556    1.302    0.232
        82 -11.0608     76.5175     89.2888   1.0075108493e+02   4.8363882405e+01    0.2342832    0.2297985 -43.70 0.0005628313    1.132    0.117
        83 -11.1673     18.5415     87.4592   1.1700620223e+02   5.4827500222e+01    0.3637179    0.2117851 -68.13  0.001675021    1.309    0.236
        84 -10.7720    107.7053     89.0908   9.2040556455e+01   4.3355208849e+01    0.2364976    0.1985899  59.79 0.0004677085    1.316    0.240
        85 -10.3545     91.7580     95.7606   9.8069281923e+01   4.4658660566e+01    0.2517089    0.1559194 -50.23 0.0005909631    1.466    0.318
        86  -9.6738      1.6311     89.1961   1.2190833600e+02   5.5521371397e+01    0.1646602   0.06987713 -63.93 0.0009429209    1.661    0.398
        87 -10.5108     33.1554     88.1862   1.1297970632e+02   5.3518306596e+01    0.1726749    0.1277415 -56.25  0.000354573    1.148    0.129
        88  -9.6862    123.9824     86.9726   8.7166100594e+01   4.0654903003e+01    0.1817925    0.1731003 -43.95 0.0006565431    1.006    0.006
        89 -11.3111     54.8625     84.8458   1.0599601815e+02   5.2082421742e+01    0.3030472    0.2117441 -72.63  0.001150092    1.428    0.300
        90  -9.7291     72.3713     84.7794   1.0085188027e+02   4.9916173654e+01    0.2606747    0.1490067 -46.73  0.001302819    1.567    0.362
        91 -11.1143    146.0159     83.4282   8.0675681808e+01   3.6609767905e+01     0.271815    0.2185043 -39.34  0.000264771    1.221    0.181
        92 -10.8800      3.6551     82.0718   1.2039551589e+02   5.6914291158e+01    0.3544059    0.1559111 -73.84  0.001759275    1.774    0.436
        93  -9.7381    100.3198     83.2949   9.2485909548e+01   4.5889936631e+01    0.1397502    0.1094471 -12.64 0.0003174636    1.611    0.379
        94 -11.3095     64.5763     79.7280   1.0191304613e+02   5.2026697857e+01    0.5552258    0.2698299 -58.43  0.002608582    1.868    0.465
        95 -10.1113     89.2145     80.4761   9.4855835381e+01   4.8340005187e+01    0.2656399    0.1718754 -65.91 0.0007430047    1.834    0.455
        96  -9.4229    124.3945     79.1353   8.4802367428e+01   4.2146290332e+01    0.2088258    0.1333589 -52.96  0.000437202    1.664    0.399
        97  -9.5732     85.4349     79.0667   9.5566410338e+01   4.9232512332e+01     0.214155    0.1214819 -48.90   0.00101662    1.571    0.363
        98  -9.3804     23.3517     79.3061   1.1423015684e+02   5.6227659688e+01    0.1204124   0.07069612 -42.35 0.0007042112    1.709    0.415
        99 -10.5101    176.9614     76.9980   7.1911691776e+01   3.0382119649e+01    0.2439365    0.2411714 -63.50  0.001306004    1.036    0.035
       100 -10.0322     28.1072     77.0390   1.1237360773e+02   5.6345007831e+01    0.1712672    0.1350117 -64.30 0.0003218661    1.034    0.033
       101 -11.4130     56.1139     75.1016   1.0334562112e+02   5.4037857778e+01    0.3502606    0.3060646  20.50  0.001927235    1.375    0.273
       102  -9.1916    160.6934     75.2882   7.4881690273e+01   3.4683889708e+01     0.153534    0.1223813 -75.30 0.0001940066    1.571    0.364
       103 -10.1455     42.2010     81.8650   1.0910644332e+02   5.4059136980e+01    0.1752266    0.1426128 -70.06 0.0004520065    1.116    0.104
       104 -11.8090     32.1737     73.0408   1.1031056528e+02   5.6863887655e+01    0.2383626    0.1944656  70.01  0.001627082    1.497    0.332
       105 -11.2998     36.3790     71.8167   1.0872854349e+02   5.6757609717e+01    0.4923638    0.2308609 -61.92  0.001737601    1.762    0.433
       106  -9.6310    136.5197     74.4563   8.0313528764e+01   4.0457197770e+01    0.1494351    0.1452013 -23.88 7.276539e-05    1.003    0.003
       107 -10.6415     16.2956     75.5682   1.1567447285e+02   5.7523653303e+01    0.2799331    0.1382925  21.65  0.001611683    2.692    0.629
       108 -10.6798     92.3421     72.4177   9.1670070630e+01   4.9498395686e+01    0.3086798    0.2198177 -57.83 0.0005806282    1.460    0.315
       109  -9.2734    216.7984     72.0431   6.3153699597e+01   2.1168142775e+01     0.202008       0.1167 -32.30 0.0004549125    1.676    0.403
       110 -10.1294    105.7641     71.7101   8.7612713465e+01   4.7276593862e+01     0.230332    0.2043752  -8.44 0.0004678588    1.202    0.168
       111 -10.4386     79.3249     69.6440   9.4745796471e+01   5.2119989341e+01    0.2101715    0.1639421 -84.98  0.001129504    1.748    0.428
       112 -11.0075      6.5543     75.1526   1.1851947229e+02   5.8211032660e+01    0.2953805    0.1106134 -51.66  0.001578612    2.099    0.524
       113  -9.8146     46.3491     69.4031   1.0500631682e+02   5.6309634453e+01    0.2035367    0.1246575  20.38  0.001130647    2.137    0.532
       114 -12.7423      8.7649     61.2471   1.1539672511e+02   6.0988502871e+01     0.788617     0.307292 -66.62  0.003230018    1.977    0.494
       115 -11.4070      2.5599     60.1762   1.1721885777e+02   6.1540637604e+01    0.2859128    0.1984964 -72.96  0.001286463    1.212    0.175
       116 -10.9422     17.7211    249.1745   1.3044217439e+02   2.3645376210e+01     0.130664    0.1207036  41.63  0.001232027    2.062    0.515
       117  -9.7987    229.6692    248.0218   9.7676964250e+01  -6.4240997943e+00    0.1456399    0.1165503  22.68 0.0007133792    1.133    0.117
       118 -10.6090     25.9521     29.6542   1.0087849114e+02   6.6047382001e+01    0.1908963    0.1279948 -48.33 0.0003944676    1.209    0.173
       119 -10.8516     22.9336     38.5119   1.0487257823e+02   6.4623939660e+01    0.1982094    0.1886431 -33.04 0.0004261687    1.272    0.214
       120 -11.4242     26.6684     35.1055   1.0238297090e+02   6.4977858177e+01    0.3500633    0.1823613 -36.15  0.001356013    1.690    0.408
       121 -11.3335     14.0696     63.8912   1.1418839596e+02   6.0122876400e+01    0.2891309     0.168332 -79.42 0.0003323198    1.777    0.437
       122 -10.8127     34.3572     65.0280   1.0782465076e+02   5.8366984146e+01    0.2588015    0.1807309 -48.16 0.0006072623    1.179    0.152
       123 -10.8010     39.6523     62.1033   1.0536519431e+02   5.8494257100e+01    0.5284317    0.1577217 -44.81   0.00153565    2.988    0.665
       124 -11.3565     18.3532     44.6181   1.0830003642e+02   6.3763003064e+01    0.6024236    0.3940698  58.26  0.003658819    2.458    0.593
       125 -10.0784    133.6326     65.6846   7.8297262904e+01   4.2730350282e+01    0.1586796    0.1161953  12.19 0.0007037817    1.775    0.437
       126 -10.6064     75.7675     64.8258   9.4429871880e+01   5.3623577067e+01    0.1966251    0.1719971   3.87 0.0003146313    1.276    0.216
       127 -10.9193     62.6758     62.6563   9.7952848530e+01   5.5841195258e+01    0.2520326    0.1822226 -49.93  0.001476416    1.188    0.158
       128 -10.4943     65.9887     60.7317   9.6317626307e+01   5.5802519038e+01    0.2360269    0.2156923 -61.45  0.001106285    1.192    0.161
       129 -10.6721    100.6973     61.8348   8.5968984447e+01   5.0132940334e+01    0.2395856    0.2212508 -52.29 0.0003277042    1.146    0.127
       130 -10.5401     55.6261     60.2882   9.9577431245e+01   5.7180791765e+01     0.293581    0.1994529 -21.86   0.00140478    1.747    0.427
       131 -13.7023     20.0222     57.4340   1.1084262734e+02   6.1064433118e+01    0.3840532     0.286652 -59.32  0.001320062    1.066    0.062
       132 -11.8521     83.5722     56.8961   8.9520622387e+01   5.4000299579e+01    0.2352183    0.2233833  63.83  0.000345364    1.273    0.214
       133 -11.9040     88.2835     53.1857   8.6826289280e+01   5.3932228744e+01    0.5660425    0.4089724  33.91  0.002098849    1.509    0.337
       134  -9.6745     71.5201     56.5402   9.3239357651e+01   5.5878742960e+01    0.2256361    0.1161509 -55.99  0.001015646    2.120    0.528
       135 -10.4881     33.9880     54.3291   1.0527192474e+02   6.0601481223e+01    0.4009529    0.1535465 -43.29  0.001893837    2.268    0.559
       136  -9.2817    158.3243     56.6420   6.9598020471e+01   3.8478220932e+01    0.1616988    0.1186605 -67.15 0.0007044437    1.774    0.436
       137  -9.7889    225.3776     54.7860   5.7082477811e+01   2.1597919265e+01    0.3191909    0.1877449   3.18  0.001162617    2.956    0.662
       138 -11.3205    114.8085     53.8726   7.9326690949e+01   4.8869249452e+01    0.3139549    0.2993592 -15.90 0.0007468514    1.039    0.038
       139 -10.2008     96.9688     55.0145   8.4812912092e+01   5.2087686289e+01    0.1689235     0.150689 -27.71 0.0003841087    1.017    0.017
       140  -9.4603     54.3969     55.4770   9.8586982307e+01   5.8292362419e+01    0.1269035    0.1033971 -44.38 9.839311e-05    1.028    0.027
       141 -11.9549     66.2689     52.7211   9.3746031141e+01   5.7345353336e+01    0.4573453     0.228498  30.46   0.00210253    2.412    0.585
       142  -9.7563    105.6105     53.2346   8.1684217639e+01   5.0806061300e+01    0.2559405     0.173416  56.20    0.0012417    1.782    0.439
       143  -9.2835    144.6855     52.3327   7.1243861818e+01   4.2494425754e+01    0.1538887    0.1181786 -67.79 0.0007046019    1.684    0.406
       144  -9.4771     48.4753     58.1006   1.0134406825e+02   5.8425981158e+01    0.1858406    0.1027124 -52.34 0.0005481059    1.485    0.327
       145 -11.0879     77.1663     47.5415   8.8418251523e+01   5.6755351480e+01    0.4893782    0.2945061 -18.25  0.002282044    2.192    0.544
       146  -9.3850     53.4970     47.9762   9.6580719828e+01   5.9867436701e+01     0.180847    0.0847837 -33.16 0.0008069338    2.356    0.575
       147  -9.5283    154.5678     47.5553   6.7432121596e+01   4.0851120740e+01    0.1486754    0.1450554  10.32 6.810835e-05    1.011    0.010
       148  -8.8852     47.3236     47.3006   9.8542737671e+01   6.0692696913e+01    0.1262368   0.08112913 -26.64 0.0005117679    1.631    0.387
       149  -9.4754    135.3110     46.3666   7.1430941874e+01   4.5654115371e+01    0.1931509    0.1420413  62.92 0.0005601917    1.532    0.347
       150  -9.9551    104.5012     46.1096   7.9501057016e+01   5.2264871145e+01    0.2201482    0.1303788 -36.11  0.001030653    1.583    0.368
       151  -9.7333     30.5188     45.5181   1.0407447335e+02   6.2656863123e+01    0.1963695      0.13234 -70.80  0.001038769    1.738    0.425
       152 -10.8078     25.9102     43.5724   1.0521691253e+02   6.3413813882e+01    0.2686238      0.24424 -24.06  0.001838294    1.228    0.186
       153  -9.8988    106.3190    248.3428   1.1741356062e+02   1.2829550217e+01   0.09255731   0.08003823  30.41  0.000519068    1.720    0.418
       154  -9.5056     95.1557     42.2159   8.0843990209e+01   5.4679817946e+01    0.1725571    0.1569406 -48.56 0.0006731004    1.250    0.200
       155 -10.0201     70.2494     41.5127   8.8586270390e+01   5.8877316260e+01    0.2898543    0.1904127  -6.41  0.001215446    1.991    0.498
       156 -10.2633     35.5652     41.4629   1.0099431239e+02   6.2996589736e+01    0.2815184    0.1717192  -1.79  0.001319865    2.253    0.556
       157 -10.6151      3.5542     41.6977   1.1305743970e+02   6.5215330109e+01    0.3287289    0.1529507 -26.59  0.001842273    2.624    0.619
       158 -10.9539    139.8475     40.4653   6.8291958187e+01   4.5499509714e+01    0.3650117    0.2793986 -49.39  0.001143144    1.461    0.316
       159  -9.3405     43.1379     40.6470   9.7922600602e+01   6.2407400400e+01    0.1459528    0.1070406   1.96 0.0004914089    1.589    0.371
       160 -12.1201    121.6006     37.3687   7.1632597219e+01   5.0135105592e+01    0.4695486    0.4297088  45.99  0.001451306    1.153    0.133
       161  -9.8885    127.7061     38.7023   7.0574690407e+01   4.8576528271e+01    0.2121109    0.1812569  47.22 0.0003875831    1.189    0.159
       162  -9.3326     51.2772     39.6508   9.4601920227e+01   6.1695642052e+01    0.1150903    0.0929736 -68.41 0.0003588591    1.638    0.390
       163  -9.8016    131.7846     38.5614   6.9522647540e+01   4.7668468217e+01    0.2815465    0.1977261  55.71  0.001369089    1.480    0.324
       164 -10.8113    134.2495     34.2891   6.7388709892e+01   4.7718046047e+01    0.2462174     0.194996  21.25 0.0004504671    1.315    0.240
       165 -11.1412      3.4590     34.8916   1.1142092425e+02   6.6545956120e+01    0.3536649    0.1960134 -41.35  0.002351437    1.462    0.316
       166  -9.4127    145.0495     33.0262   6.4495760277e+01   4.5310917738e+01    0.1714506    0.1622576  21.70            0    1.004    0.004
       167 -10.6417     89.7643     32.2432   7.8706054340e+01   5.7274396411e+01    0.3323573    0.2407408  75.89 0.0007997622    2.529    0.605
       168 -11.1866     38.9143     30.9226   9.6177760797e+01   6.4627704639e+01    0.2530659     0.169837 -27.35 0.0004768652    1.343    0.255
       169 -11.5128     43.7884     30.0715   9.3975021157e+01   6.4265927128e+01    0.5984005    0.2948971 -34.83  0.002493412    1.790    0.441
       170 -10.0489    205.1782     30.7735   5.3158901115e+01   3.0057995775e+01    0.2715061    0.1383524 -62.85 0.0009624321    2.880    0.653
       171 -10.7080    166.3007     30.9013   5.9499328613e+01   4.0242668285e+01    0.2480226    0.2291656  48.92 0.0004168055    1.044    0.042
       172  -9.9922    128.6191     31.0639   6.7543156384e+01   4.9474548625e+01     0.395767    0.1792935  49.82  0.001444472    2.111    0.526
       173 -10.0497    110.8153     42.9245   7.6561915146e+01   5.1542558519e+01    0.2061237    0.1756119   0.35 0.0002771718    1.170    0.145
       174 -10.6071      8.1150     28.6910   1.0784266876e+02   6.7472288806e+01    0.2229672    0.1929738  83.93  0.001728727    1.634    0.388
       175  -9.5650     69.8086     28.7777   8.3894160670e+01   6.1109043382e+01    0.1641508    0.1417261 -42.23 0.0005138476    1.309    0.236
       176 -10.2272    147.0180     26.3781   6.1711017211e+01   4.5704937224e+01    0.2051809    0.1909198  -7.11 0.0001223682    1.077    0.071
       177  -9.3144    224.9707    246.5273   9.8208089963e+01  -5.5487935033e+00    0.1590269   0.07033464  28.95 0.0008068213    2.348    0.574
       178  -9.6383    229.5048     26.0178   4.8700281422e+01   2.4365891366e+01    0.2104427    0.1395908 -23.37  0.001016915    1.582    0.368
       179 -10.0637     77.0000     27.0110   8.0727335499e+01   6.0263931293e+01    0.2399177    0.1196095 -35.01  0.001036079    1.802    0.445
       180  -9.4639     18.3292     26.3299   1.0287767391e+02   6.7244418654e+01    0.1208098   0.06394917 -32.37 0.0007051515    1.713    0.416
       181  -9.8213    153.7372     25.4850   6.0040580472e+01   4.4139389564e+01    0.2659111    0.1460242  67.02  0.001104432    1.976    0.494
       182 -10.2745    113.6222     24.8122   6.8919409547e+01   5.3653570525e+01     0.246259    0.2266323  32.86 0.0006309258    1.112    0.101
       183 -10.4105     58.7040     24.5387   8.6154942342e+01   6.3376260343e+01    0.3066388    0.1968976   5.73  0.001680942    1.901    0.474
       184  -9.6024     89.5083     23.0346   7.5064469227e+01   5.8693659015e+01     0.204472    0.1199827 -29.55   0.00102888    1.578    0.366
       185 -10.4166      1.8906     21.8405   1.0839738633e+02   6.9078588258e+01    0.2239636    0.1182598 -58.07 0.0008706561    1.496    0.331
       186 -11.1018     14.1241     21.1786   1.0290084996e+02   6.8469050382e+01    0.2804363    0.2126675  41.68  0.001973417    1.937    0.484
       187  -9.4817     84.7871     21.3438   7.5833859310e+01   5.9781513022e+01     0.179451    0.1109441  33.09 0.0005129076    1.658    0.397
       188 -10.2775     30.8404     20.5121   9.5535100316e+01   6.7232213338e+01    0.2280383    0.1246046 -39.21 0.0007045341    1.418    0.295
       189  -9.7032    174.9541     20.7678   5.4645141806e+01   3.9234677694e+01    0.1956118     0.116504  62.56 0.0003888258    1.591    0.371
       190 -10.2000    100.2596     18.8863   7.0158407394e+01   5.7199082794e+01    0.3066531    0.1953558 -46.91  0.001511608    1.977    0.494
       191 -10.5674     41.6310     19.7281   9.0777589064e+01   6.6257699587e+01    0.3133973    0.2104159  14.09  0.001178126    1.653    0.395
       192 -10.3684     44.0000     15.9896   8.8240827406e+01   6.6584260161e+01    0.2184107    0.1478455 -43.50  0.001366972    1.472    0.321
       193  -9.6573      6.1740     19.4174   1.0576134408e+02   6.9285099291e+01    0.1290208   0.09728792  30.77 0.0009652954    1.816    0.449
       194  -9.3872     69.1174     18.3155   7.9765520402e+01   6.2814989277e+01    0.1595464    0.1141575  47.83 0.0005954096    1.751    0.429
       195  -9.7956    136.5796    245.7870   1.1237171506e+02   8.6532928056e+00    0.1300032   0.09703433  89.56 0.0005604109    1.573    0.364
       196  -9.3439     45.4300    244.4814   1.2632892942e+02   2.1360845524e+01   0.09970578   0.06737527  69.76 0.0001104518    1.015    0.015
       197  -9.9523     60.7312    240.9954   1.2385384478e+02   2.0076536107e+01    0.2146484    0.1064841  47.38  0.001138455    1.664    0.399
       198  -9.5281    202.4960    240.0922   1.0092912716e+02  -1.2712098096e+00    0.1368737    0.1134482 -25.89 0.0005527119    1.524    0.344
       199 -10.3219    199.5133     17.1540   4.9906663433e+01   3.3172138544e+01    0.2523164    0.1953884  69.42 0.0003994827    1.236    0.191
       200 -11.7139    108.5336     16.2728   6.6818128117e+01   5.5827149355e+01    0.2273727    0.2025617  15.81 0.0002856302    1.024    0.024
       201 -10.1420     20.1661     16.8550   9.8688383895e+01   6.8778924030e+01    0.1808594    0.1422411  -2.94 0.0005248755    1.347    0.258
       202 -10.9900     14.4325     16.0404   1.0091346631e+02   6.9349590256e+01     0.288332    0.1696336  20.70  0.001430021    2.045    0.511
       203 -11.3270     14.1581    238.6958   1.3048735151e+02   2.5636431175e+01    0.1589933   0.08690457  77.92  0.000458255    1.300    0.231
       204 -12.0543     26.5379    235.7257   1.2859515864e+02   2.4842635806e+01    0.2912498    0.1737893 -83.31  0.001978449    1.485    0.326
       205  -9.6558     90.3284     16.3057   7.1970519506e+01   5.9454429936e+01    0.1861014    0.1243234  -8.74 0.0003078912    1.511    0.338
       206  -9.2702     42.4647    235.9940   1.2627708083e+02   2.3048890058e+01    0.1355528   0.05824032  75.46 0.0003701891    2.216    0.549
       207 -10.1557     48.9700     15.8914   8.6212570110e+01   6.5997869037e+01    0.2086257    0.1565276 -38.22 0.0006840593    1.315    0.240
       208  -9.8861     26.8839     16.4110   9.5589171388e+01   6.8286029436e+01    0.1550526     0.121005 -22.04 0.0008528638    1.104    0.094
       209 -10.7191    234.8110     15.1972   4.5250036507e+01   2.4298091070e+01    0.1981957    0.1734465  89.39 0.0004577099    1.094    0.086
       210 -10.5551    231.7501     14.0498   4.5263058046e+01   2.5192370889e+01    0.2072144    0.1742002 -75.80 0.0003638397    1.137    0.120
       211 -10.1794    175.3914     14.8858   5.2657228716e+01   3.9780372240e+01    0.2523587    0.1941279  80.28 0.0006808132    1.351    0.260
       212  -9.8981    249.1952    234.0924   9.2532586987e+01  -8.0839485862e+00    0.1687822    0.1153581  22.12 0.0004414724    1.170    0.145
       213 -10.3685    190.7808     13.8360   5.0080038477e+01   3.5839940213e+01    0.2182848    0.1913766  41.41 0.0009442257    1.170    0.145
       214 -10.1076    162.3123     13.1576   5.4197495455e+01   4.3370656107e+01    0.2499576    0.1742989  51.48 0.0003212236    1.330    0.248
       215  -9.5841     95.0119     13.5270   6.9390747409e+01   5.8909117667e+01     0.181514    0.1243096  45.35 0.0009889812    1.466    0.318
       216  -8.9289     69.3311     12.9994   7.7335535739e+01   6.3525635017e+01    0.1992257   0.08409859 -48.00 0.0007052048    4.366    0.771
       217 -12.2759      4.2270    232.5263   1.3161488978e+02   2.7582624110e+01    0.3145889    0.1366619  70.64 0.0002402928    1.667    0.400
       218  -9.5102    118.8608     12.3604   6.2639423291e+01   5.4032099911e+01     0.193298    0.1120431  44.41 0.0003447405    1.604    0.377
       219  -9.7040      9.0588     10.0000   1.0105407875e+02   7.0747020669e+01    0.1510078   0.09291153 -16.28 0.0006590734    1.636    0.389
       220 -12.6959      9.8230    228.6472   1.3066456639e+02   2.7681705280e+01    0.4845457    0.2228249  62.98  0.003540262    1.546    0.353
       221  -9.1516    209.5303    229.5098   9.8265739593e+01  -1.2148341396e+00    0.1185186   0.09236473  35.81 0.0001224667    1.018    0.018
       222 -10.5559    140.1778    227.8916   1.0980496508e+02   1.0645837050e+01    0.2321907     0.159179 -77.57  0.001469964    1.865    0.464
       223  -9.8096    110.1522    226.8416   1.1478140392e+02   1.5535516883e+01    0.1427738    0.1268382  50.71 0.0009117972    1.339    0.253
       224 -10.0529     33.4269    225.4001   1.2702297518e+02   2.5802089489e+01    0.2420713   0.05697788  45.77  0.001249762    3.003    0.667
       225 -10.5735      2.1001    219.6448   1.3139138186e+02   2.9898777226e+01    0.1746486   0.08755724  81.61 0.0006782414    1.445    0.308
       226 -11.9936      8.1475    217.3539   1.3040350920e+02   2.9727110562e+01    0.3118854    0.1934596 -89.87  0.002546535    1.255    0.203
       227 -10.5213     15.6982    213.0915   1.2905703562e+02   2.9736584312e+01    0.1721143    0.1309289 -62.85  0.001409415    1.873    0.466
       228 -10.4071     20.6077    209.9537   1.2812758944e+02   2.9799683406e+01    0.1814326   0.09424789  61.66 0.0003607333    1.469    0.319
       229  -9.5768    246.7924    207.0691   8.8464092141e+01  -4.8921222449e+00    0.1474177   0.09125357 -26.74 0.0008714638    1.750    0.428
       230 -10.5203      3.2242    205.4296   1.3059230993e+02   3.2240055828e+01    0.1567355   0.08880892  37.06  0.001149994    2.156    0.536
       231  -9.4936    196.8585    203.8615   9.6468851374e+01   4.2740060619e+00    0.1664523    0.1415189  61.87 0.0006726791    1.339    0.253
       232 -11.1895      9.5358    203.7563   1.2953134971e+02   3.1962355293e+01    0.1709437    0.1128982  57.21  0.001027505    1.342    0.255
       233 -10.4399     23.0319    197.4448   1.2699878411e+02   3.1804914034e+01    0.1755824    0.1154563 -73.25 0.0005122506    1.489    0.329
       234 -11.0356     13.8642    193.0479   1.2824895787e+02   3.3498780388e+01     0.161012   0.09661575  75.03 0.0005211576    1.232    0.188
       235 -10.6156      6.3276    191.7869   1.2941534210e+02   3.4415009900e+01    0.1667835    0.1009831  63.47 0.0008529748    1.308    0.236
       236  -9.8683     15.4732    185.4659   1.2751967885e+02   3.4762992935e+01    0.1928922   0.07381643  89.66   0.00102974    2.409    0.585
       237  -9.9606    249.5124    168.9931   8.0832387117e+01  -7.4098441554e-01    0.1728733    0.1067699 -51.09 0.0006533922    2.565    0.610
       238 -11.2268      5.5301    167.8202   1.2814582697e+02   3.9020900405e+01    0.2432151    0.1268671  78.36  0.001282356    1.549    0.354
       239  -9.4286    226.5180    163.9829   8.3767761345e+01   4.3434180234e+00    0.1821745    0.1121772  -2.21 0.0006122185    2.286    0.563
       240 -10.0536     14.4872    164.0143   1.2623910526e+02   3.9011619520e+01     0.148058    0.0618955 -58.11 0.0008103937    2.554    0.608
       241  -9.2914     41.4886    157.9900   1.2043925021e+02   3.7619395912e+01    0.1644524   0.07860117  83.21 0.0008077098    2.364    0.577
       242 -10.0008    247.4865    155.5015   7.8367930803e+01   1.4546401255e+00    0.1364321    0.1167816   9.55 -7.193188e-06    1.028    0.027
       243  -9.9774    243.0000    154.9929   7.9015820773e+01   2.3941259535e+00    0.2137213   0.07374935 -32.42 0.0005254093    2.901    0.655
       244 -10.9595      3.2915    153.8749   1.2762961703e+02   4.1953727491e+01    0.1783037    0.1171432  62.83   0.00132996    1.385    0.278
       245 -10.8243     23.9113    150.8130   1.2331997451e+02   4.0849401855e+01    0.1637913     0.127745 -71.12 0.0006283984    1.278    0.218
       246 -10.1458     17.3246    150.3194   1.2460671621e+02   4.1534665629e+01    0.1034482   0.07117806 -56.08 0.0007045702    1.676    0.403
       247 -10.4975     22.4934    142.9846   1.2288250126e+02   4.2605765151e+01    0.1737849   0.08664961 -74.42 0.0006512224    1.567    0.362
       248 -10.8213     11.9721    141.2117   1.2491737564e+02   4.3855883302e+01    0.1923123    0.1185071 -80.89 0.0005102527    1.215    0.177
