#   1 NUMBER                 Running object number                                     
#   2 MAG_AUTO               Kron-like elliptical aperture magnitude                    [mag]
#   3 X_IMAGE                Object position along x                                    [pixel]
#   4 Y_IMAGE                Object position along y                                    [pixel]
#   5 X_WORLD                Barycenter position along world x axis                     [deg]
#   6 Y_WORLD                Barycenter position along world y axis                     [deg]
#   7 A_WORLD                Profile RMS along major axis (world units)                 [deg]
#   8 B_WORLD                Profile RMS along minor axis (world units)                 [deg]
#   9 THETA_WORLD            Position angle (CCW/world-x)                               [deg]
#  10 FWHM_WORLD             FWHM assuming a gaussian core                              [deg]
#  11 ELONGATION             A_IMAGE/B_IMAGE                                           
#  12 ELLIPTICITY            1 - B_IMAGE/A_IMAGE                                       
         1 -14.5022    245.9126    167.1718   9.3431148049e+01  -1.4621142702e+00     6.593709     1.797977 -36.12    0.0214861    3.612    0.723
         2 -11.0532      4.8861     41.2037   1.2551535932e+02   6.5757924918e+01    0.4499624    0.1711354 -62.15  0.002062293    3.309    0.698
         3 -12.9230    188.7021     20.1378   6.7242096659e+01   3.5727107695e+01    0.7475744    0.4576441 -45.13  0.003878844    1.691    0.409
         4 -10.4031     97.4924     14.6903   8.2625966551e+01   5.7295010145e+01    0.4227154    0.2295849 -27.39  0.002233831    1.941    0.485
         5 -13.5398    183.2874      3.4419   6.3624002173e+01   3.8763178017e+01     1.542131    0.4979948  74.12  0.005725729    3.101    0.678
         6 -10.6083    144.0251      4.6857   6.9490487146e+01   4.8024157895e+01    0.1908915    0.1507771  61.05 0.0008429649    1.083    0.077
         7  -9.7692    129.2420      2.2215   7.1275336265e+01   5.1625260076e+01    0.1997691    0.0971815  74.61 0.0005989023    2.433    0.589
         8 -11.3663    160.7751      3.4234   6.6555826046e+01   4.4171880374e+01    0.2878423     0.228083  73.35  0.001194633    1.108    0.098
         9  -9.9588    153.7097    233.4807   1.2364110662e+02   4.0748435081e+00     0.226325    0.2058214  -7.24 0.0008223837    1.354    0.262
        10 -12.3066    144.6563    246.0981   1.2713660574e+02   3.4934919198e+00    0.8676631    0.5768599  24.30  0.004677784    1.958    0.489
        11 -10.8863    154.6557    240.2683   1.2443559354e+02   2.7489173329e+00    0.6726107    0.3046093 -37.52  0.002840763    3.401    0.706
        12 -11.4786    166.0020    248.4474   1.2343981830e+02  -5.3344468878e-01    0.6263489    0.4691899 -15.60  0.003694054    1.892    0.471
        13 -11.1782    162.2289    245.0055   1.2366395144e+02   6.5915666684e-01    0.7795817    0.4679948 -27.11  0.003821596    2.723    0.633
        14 -11.4106    156.8999    246.6289   1.2489880988e+02   1.3127786977e+00      0.73169    0.5121117   6.10  0.003823495    2.373    0.579
        15 -12.3868    162.7955    235.1436   1.2211835254e+02   2.1840712118e+00     1.696632     0.932147  29.24  0.007962097    2.143    0.533
        16 -12.0754    163.8662    226.8866   1.2064543604e+02   3.4095695137e+00    0.9974527    0.5513306  25.77  0.003733026    2.487    0.598
        17  -9.4593     61.2641    250.1402   1.4263091207e+02   1.5749551143e+01    0.1969947    0.1269588  33.56  0.001193023    2.088    0.521
        18 -12.1660    127.9736    232.6557   1.2855002471e+02   8.7150371320e+00    0.5450144    0.3153828 -73.15   0.00267536    2.296    0.564
        19 -12.1506    125.6386    221.1221   1.2743601169e+02   1.1305682110e+01    0.4891841    0.3764977  38.27    0.0012538    1.330    0.248
        20 -12.0680    129.3442    226.5865   1.2745738035e+02   9.6122528196e+00    0.6934352    0.3517322  69.66  0.002560809    3.673    0.728
        21  -8.8439    195.2113    230.7465   1.1515767940e+02  -2.8162001665e+00    0.1742706    0.1391144  11.08  0.001038475    1.312    0.238
        22 -10.7970    115.0154    228.3233   1.3051480328e+02   1.1728204397e+01    0.3215571    0.1838872 -57.03  0.001347528    1.925    0.481
        23 -11.2569     98.2344    227.8004   1.3371606761e+02   1.4571695340e+01    0.3566316    0.2850029  77.65   0.00183988    1.112    0.101
        24  -9.2637    176.2342    228.2455   1.1842588173e+02   9.5092546698e-01    0.2571129    0.1935129  -7.69  0.001183169    1.780    0.438
        25  -9.2937    152.0757    227.9766   1.2314737470e+02   5.3367002237e+00    0.2007342    0.1604315   5.68  0.001057711    1.711    0.416
        26  -8.6742    185.2725    226.9826   1.1645414180e+02  -4.5746417664e-01    0.1735704    0.1634867  12.76  0.001117168    1.106    0.096
        27  -9.2943     88.2555    226.2318   1.3545701997e+02   1.6441185854e+01    0.2768907    0.1041422 -65.60  0.001192472    2.829    0.647
        28 -11.3637    100.1090    219.5224   1.3234088947e+02   1.5922417006e+01    0.5048587    0.2829119  62.06  0.002509884    1.808    0.447
        29 -10.7071    104.2641    224.8106   1.3217952842e+02   1.4190049522e+01    0.2957782    0.2077534 -68.78  0.001091795    1.483    0.326
        30 -11.2534    108.9916    222.4041   1.3094104219e+02   1.3888769634e+01    0.3606509    0.3007779  37.51  0.002212876    1.357    0.263
        31 -10.5734    115.0031    221.4232   1.2961321449e+02   1.3074720971e+01     0.268828    0.2228674  12.80  0.000961903    1.767    0.434
        32 -10.1650    157.1990    223.0595   1.2137411577e+02   5.2971235067e+00    0.3802272      0.26748 -19.30  0.001711786    2.194    0.544
        33  -9.5291     20.2843    222.6549   1.4751512884e+02   2.6041829782e+01    0.2021659    0.1324345  38.32   0.00136262    1.846    0.458
        34  -9.9903    148.7987    220.6779   1.2269407247e+02   7.2605727470e+00    0.2940901     0.190833 -45.64 0.0008762621    1.776    0.437
        35 -11.6530    131.5066    215.7253   1.2546371703e+02   1.1327446326e+01    0.4495455    0.3111078 -55.70   0.00158266    1.579    0.367
        36  -9.6230    183.1020    220.4573   1.1578764716e+02   1.0256102719e+00    0.2943492    0.2044798  17.91  0.001012787    1.731    0.422
        37  -9.7785    174.3603    220.4991   1.1752994898e+02   2.6163507684e+00    0.3128322    0.2236636  -6.34  0.001268426    2.062    0.515
        38  -8.7643    175.6986    216.3096   1.1655809455e+02   3.1066509785e+00    0.2122412    0.1606566  48.38 0.0006647066    1.236    0.191
        39  -9.0119    193.4380    219.5549   1.1360011280e+02  -6.9840870892e-01    0.2194087    0.1224673 -28.64  0.001002976    2.300    0.565
        40 -10.2402    218.3527    208.1951   1.0672899992e+02  -3.3083075792e+00      1.15989    0.6439316  -1.81  0.004118679    4.074    0.755
        41  -9.2278    179.9635    216.2239   1.1568910084e+02   2.3326513810e+00    0.2294921    0.1710684 -25.26  0.001107473    1.605    0.377
        42  -9.3800    193.6680    249.6649   1.1845458184e+02  -5.3846750332e+00    0.1269571   0.08699913  12.79 0.0007052196    1.733    0.423
        43  -8.6308    204.7092    216.6524   1.1089655818e+02  -2.2469883617e+00    0.1357326   0.09764156   3.93 0.0007027274    1.664    0.399
        44 -11.4746    144.7387    229.6423   1.2484326201e+02   6.3431566600e+00    0.4549775    0.2681935 -46.77  0.002254986    1.994    0.499
        45 -10.7964    112.5536    214.1258   1.2911751962e+02   1.4955308730e+01    0.3861755    0.3190309 -19.37  0.001571781    1.881    0.468
        46 -10.4389    115.9797    208.3704   1.2759470855e+02   1.5550184772e+01    0.5264846    0.2084287 -53.14   0.00215191    2.676    0.626
        47  -9.9630    118.4405    215.2166   1.2806560885e+02   1.3725067468e+01    0.1806436    0.1233967 -78.24 0.0008575157    1.656    0.396
        48  -9.1741    199.4334    213.3750   1.1133340773e+02  -7.5640119262e-01    0.2350496    0.1287759 -34.45  0.001100493    2.045    0.511
        49 -10.2522    186.2921    212.4196   1.1376097202e+02   1.8251437696e+00    0.4597318      0.27924 -20.15  0.002031917    2.506    0.601
        50  -9.0434    154.6884    212.6221   1.2021336458e+02   7.6934532197e+00    0.2082688    0.1640979   7.75   0.00109564    1.714    0.417
        51  -9.5846     79.0492    210.9837   1.3550959963e+02   2.0965271753e+01    0.2136085    0.1290365  69.71  0.000833618    1.664    0.399
        52  -9.4765    193.3886    208.7601   1.1168967507e+02   1.1426235065e+00    0.2880675    0.1945469 -26.91  0.001415761    1.726    0.420
        53 -12.0522    235.5014    154.0284   9.2445364055e+01   2.7917145492e+00     1.260086    0.7146893 -47.39  0.005686546    1.825    0.452
        54  -9.1556    202.4835    208.9678   1.0993359444e+02  -5.7326274131e-01    0.2408722    0.1744337  28.65  0.001150579    1.327    0.246
        55 -10.1092    206.3202    205.8877   1.0861188212e+02  -7.5713455942e-01    0.3625531    0.2306849 -12.10  0.001370333    2.216    0.549
        56  -9.2619    162.1940    208.5217   1.1798022571e+02   7.0638171996e+00    0.2470333    0.1774351  -2.71  0.001144743    2.220    0.549
        57  -8.8976    176.8625    207.2926   1.1475417771e+02   4.5134602655e+00    0.2628292    0.1790847 -13.81   0.00121325    2.209    0.547
        58  -8.5639     99.3410    206.6414   1.3081851193e+02   1.8718133416e+01    0.1470297   0.09138481  73.76 0.0007036622    1.825    0.452
        59 -10.1521    198.6249    201.9925   1.0939451158e+02   1.3440046603e+00    0.3630081    0.2613938 -12.48  0.001256081    1.717    0.418
        60  -9.8590    185.8300    202.2682   1.1201688970e+02   3.7234545885e+00    0.3319594     0.214706 -27.92  0.001417288    1.884    0.469
        61 -10.4142    164.3761    199.8866   1.1601423419e+02   8.3058829050e+00    0.4638422    0.2803547 -33.41  0.001967405    2.103    0.524
        62  -9.8379    211.4346    200.1771   1.0653322120e+02  -7.3102045523e-01    0.2832274    0.2502142  -2.37  0.001250031    1.098    0.089
        63 -11.1366    126.8725    198.1876   1.2372280519e+02   1.5744782958e+01    0.4644139    0.3104396 -71.85  0.002234006    1.707    0.414
        64  -9.1410     89.0192    199.6741   1.3204168270e+02   2.1871798355e+01    0.2512879    0.1641518  82.75 0.0008984088    1.657    0.396
        65  -9.2018    113.3596    198.5311   1.2668690787e+02   1.8082426828e+01    0.3511192    0.1640724  64.35  0.001207576    3.515    0.716
        66  -9.3684    203.0197    196.3366   1.0744127191e+02   1.5098137436e+00    0.2628093    0.1835952 -21.07  0.001312928    1.658    0.397
        67 -10.7445    173.0128    194.0888   1.1313748080e+02   7.7495792328e+00    0.6862198     0.293558 -45.68  0.002410926    2.489    0.598
        68  -8.9817    131.7384    195.5669   1.2224075660e+02   1.5403507320e+01    0.2051573    0.1236406  53.30  0.000946786    1.616    0.381
        69  -9.4760    215.5218    193.1487   1.0437215077e+02  -2.8699870868e-01    0.2969674    0.1327598 -37.27  0.001003316    2.304    0.566
        70  -9.1355    209.5140    194.0367   1.0571413439e+02   6.8539542192e-01    0.2013781    0.1329211 -31.45 0.0009969907    1.585    0.369
        71  -9.7013    136.2353    194.1346   1.2102261316e+02   1.4865292652e+01    0.2359999     0.161555 -89.24  0.001079011    1.979    0.495
        72  -9.6505    124.8009    191.9304   1.2314936043e+02   1.7459443709e+01    0.2041723    0.2002469 -10.10 0.0005939897    1.229    0.187
        73  -8.8709    179.4214    189.9820   1.1101331953e+02   7.2799319764e+00    0.2126005    0.1414955 -44.12 0.0006701053    1.584    0.369
        74  -9.3157    139.6527    190.3547   1.1962105835e+02   1.5015460512e+01    0.2259154    0.1637372  76.54 0.0007777726    1.671    0.402
        75  -8.6041    200.3102    189.3286   1.0660689144e+02   3.2900876254e+00    0.1457574    0.1084871   3.40 0.0007041016    1.664    0.399
        76  -8.7993    205.5643    189.8691   1.0566771716e+02   2.1757705439e+00      0.20633    0.1361341 -38.99 0.0008625245    1.554    0.357
        77  -8.9415    156.4849    188.0602   1.1553326363e+02   1.2219087974e+01    0.2113162    0.1447115 -52.07 0.0007504085    1.545    0.353
        78  -9.4008    120.7170    187.0131   1.2323057138e+02   1.9276634540e+01    0.3334209      0.16616 -62.14  0.001229664    2.211    0.548
        79  -9.5699     94.7312    186.8469   1.2898791084e+02   2.3802915919e+01    0.3456516    0.1968357 -87.89  0.001458131    2.428    0.588
        80  -9.3972    109.7193    186.4148   1.2558500063e+02   2.1370705501e+01     0.355738    0.1847265  62.55  0.001262155    2.481    0.597
        81  -8.8223    217.4522    185.7673   1.0252255990e+02   6.3259546434e-01    0.1910042    0.1278236 -23.32 0.0009259661    1.640    0.390
        82  -8.5828    198.1368    186.2472   1.0642932470e+02   4.2826602437e+00    0.2452649    0.1542293   4.29 0.0009470599    2.844    0.648
        83  -8.5964    144.3172    186.7235   1.1794557515e+02   1.4885656273e+01    0.1465679    0.1095294  74.27 0.0002460002    1.570    0.363
        84  -9.6594    203.8433    182.0697   1.0443747102e+02   3.9313614939e+00    0.3683006    0.2001092 -31.16 0.0009616494    2.099    0.524
        85 -10.1407    211.2365    182.3874   1.0304052617e+02   2.4260846531e+00    0.4339691    0.2955261 -16.50  0.002063488    1.792    0.442
        86  -9.1331    211.2155    175.1219   1.0153944174e+02   3.7550421029e+00     0.620768    0.3076131 -58.54  0.002075047    3.789    0.736
        87 -10.1116    205.1406    176.0949   1.0294434986e+02   4.7842367728e+00    0.3583809    0.3018368 -19.08  0.001421647    1.226    0.184
        88  -9.6372    205.8182    169.0302   1.0131665690e+02   5.9784240566e+00    0.4834654    0.2604096 -52.18  0.001974662    2.204    0.546
        89  -8.6104     74.6429    184.3453   1.3306637694e+02   2.7467692311e+01    0.1472408   0.08979182  73.83 -2.21409e-05    1.833    0.454
        90  -9.9901    225.2460    180.9553   1.0005598295e+02   1.5631774130e-03    0.5064135    0.2452071 -23.04  0.001849668    3.130    0.681
        91 -10.3910    174.5015    180.3810   1.1016336132e+02   1.0164941808e+01    0.4608823    0.2999809 -25.11  0.002007375    2.054    0.513
        92  -8.9910    165.0722    183.0341   1.1271427500e+02   1.1536975013e+01    0.2283024    0.1807922   2.36 0.0006501372    1.673    0.402
        93  -8.9354    197.2248    181.7202   1.0569870369e+02   5.3102546899e+00    0.1960006    0.1628299   0.50 0.0006082556    1.341    0.254
        94  -8.4844    183.3908    181.2695   1.0846145452e+02   8.1821000493e+00    0.1513711    0.1123344  13.14  0.000698692    1.717    0.418
        95  -9.1145    148.2261    181.4269   1.1609718595e+02   1.5244927737e+01    0.2094516    0.1326735  54.55 0.0005324504    1.617    0.381
        96  -8.1872    169.3156    179.3022   1.1106116031e+02   1.1440509911e+01    0.1472244    0.1173367   4.18 0.0005662647    1.618    0.382
        97 -10.3535    137.8628    177.3587   1.1765164403e+02   1.8164470876e+01    0.4614308     0.199824 -54.54  0.001734158    2.447    0.591
        98  -9.5705     77.2577    176.0284   1.3130633614e+02   2.8990718721e+01    0.4362184    0.1849125  55.83  0.001701365    2.841    0.648
        99 -10.1331    106.2693    175.8610   1.2462032359e+02   2.4356653090e+01    0.3365676    0.2007423  66.74  0.001454175    2.084    0.520
       100  -9.5054    192.6066    174.1834   1.0508775237e+02   7.6891775114e+00    0.3162259    0.2245726  -1.88  0.001358883    2.016    0.504
       101 -10.0596    183.3596    173.3236   1.0683858948e+02   9.7636822604e+00    0.4121677     0.257088 -22.50  0.001294457    2.272    0.560
       102  -8.9340    149.2202    175.5428   1.1474250898e+02   1.6308962574e+01    0.2164588    0.1408057  32.15 0.0009523983    1.747    0.428
       103  -8.2333    177.3136    171.6713   1.0778065800e+02   1.1352198282e+01    0.1511926    0.1194162  88.26 0.0003995241    1.672    0.402
       104  -9.5859    122.4247    170.4277   1.1989911107e+02   2.2674220298e+01     0.340949    0.2129009  77.42  0.001367735    2.406    0.584
       105  -9.2141    211.8574    167.8988   9.9882131548e+01   4.9667705033e+00    0.3840199    0.2406601 -65.95  0.001525415    2.718    0.632
       106  -9.7930    218.3174    174.6939   1.0007176310e+02   2.4368090505e+00    0.2974377    0.2022878 -27.01  0.001205033    1.536    0.349
       107  -9.6750    229.0369    165.7208   9.6148631512e+01   1.9622751880e+00    0.3777955    0.1937958 -26.09  0.001509041    2.389    0.581
       108  -8.9696    198.8456    167.7144   1.0243849741e+02   7.6624414937e+00    0.2373962    0.1546583   5.88 0.0009229177    2.605    0.616
       109  -8.9634    112.6445    168.3312   1.2180559774e+02   2.4956253570e+01    0.1573246    0.1084181  77.64 0.0007044654    1.786    0.440
       110  -9.4551     99.3795    166.3119   1.2458674744e+02   2.7746341001e+01    0.3278476    0.1860657  68.32  0.001314763    2.474    0.596
       111  -8.1915    222.3211    166.2875   9.7524370060e+01   3.1741726823e+00    0.1446268    0.1088044   5.52 0.0003781218    1.599    0.375
       112  -9.5901    185.2824    164.9967   1.0466665668e+02   1.1038058543e+01    0.3595481    0.2438465 -15.38  0.001094989    2.126    0.530
       113  -9.3444    139.8657    165.6992   1.1492010545e+02   2.0350451801e+01    0.2945061    0.1988668 -83.91  0.001227362    2.133    0.531
       114  -9.4542    159.6327    165.2585   1.1031730478e+02   1.6391146961e+01    0.2861766     0.181841  55.61 0.0009896215    1.683    0.406
       115  -9.5609     79.7809    163.8848   1.2884847498e+02   3.1447047287e+01    0.4003436    0.2168649  80.24  0.001504551    3.129    0.680
       116  -9.5929    219.7035    163.3658   9.7390724869e+01   4.2296159003e+00    0.3182659    0.1669899 -39.32  0.001046088    1.848    0.459
       117  -9.8171    192.2284    162.4515   1.0265927578e+02   1.0081978919e+01    0.4477352    0.2319031 -36.98  0.001600052    2.039    0.510
       118  -9.6714    212.9332    161.9158   9.8378149903e+01   5.8710360710e+00    0.3439012    0.2386041 -29.71  0.000971618    1.485    0.327
       119 -10.5331    213.2542    155.9624   9.7006321475e+01   6.9314425936e+00     0.501229    0.4076846 -32.40  0.002621943    1.201    0.167
       120  -9.0157    204.9709    160.6625   9.9672909696e+01   7.7554754377e+00    0.2650813    0.2006581 -11.25 0.0009444174    1.602    0.376
       121  -9.5027    151.6327    161.4109   1.1132133673e+02   1.8896027141e+01    0.3116632    0.1287895  56.03 0.0009559857    3.374    0.704
       122  -9.5990     93.0099    160.6319   1.2511617981e+02   3.0137818347e+01    0.2699948    0.1883208  87.54  0.001302059    1.669    0.401
       123  -8.6988    128.6803    159.3549   1.1626589829e+02   2.4001801850e+01    0.1596609    0.1159694  84.57 0.0007046235    1.753    0.430
       124  -9.7110    106.0129    158.4689   1.2155989715e+02   2.8433686179e+01    0.3698493    0.2316074  67.33  0.001314491    2.026    0.506
       125  -9.2792    218.4424    155.0461   9.5807917724e+01   6.0323901091e+00    0.2994015    0.1792453 -22.59  0.001245427    2.110    0.526
       126 -10.1350    119.7695    155.6996   1.1767003346e+02   2.6559929811e+01    0.3819197    0.2336868  75.49  0.001452801    2.623    0.619
       127  -9.7182     81.9709    154.8860   1.2680640336e+02   3.3240133809e+01    0.3606839    0.2305457  78.68   0.00164849    2.019    0.505
       128  -9.0454    145.7992    155.6145   1.1143696749e+02   2.1392797176e+01    0.2237086    0.1399718  55.26  0.000944929    1.707    0.414
       129  -9.0629     49.4563    155.1337   1.3476485387e+02   3.7569994808e+01    0.2500561    0.1394623  70.57  0.001164338    2.275    0.560
       130 -10.1784    133.9569    153.5249   1.1379423838e+02   2.4286569623e+01    0.3897915    0.2579527  72.17  0.001617595    2.066    0.516
       131  -9.1040     67.8304    153.5645   1.3006711436e+02   3.5599884865e+01    0.2572764    0.1559328  78.90 0.0008541217    2.159    0.537
       132  -9.3377    205.3377    152.1071   9.7697803473e+01   9.3394191175e+00    0.2924197    0.2532646  13.30  0.001210568    1.262    0.208
       133  -9.1684    222.4426    151.2230   9.4205463187e+01   5.9246964140e+00    0.3353925    0.2479977 -75.97  0.001547867    2.014    0.503
       134  -9.0682     98.5285    151.0522   1.2198769405e+02   3.1476881486e+01    0.2242597    0.1360575 -58.60 0.0005717488    1.563    0.360
       135  -8.8561    143.3465    149.6806   1.1072259096e+02   2.3233329465e+01    0.1617952    0.1209394  84.20 0.0006562362    1.730    0.422
       136  -8.7236     28.3153    149.6550   1.3904972615e+02   4.1092389442e+01     0.129637   0.08068258  77.21   0.00070479    1.716    0.417
       137  -9.0582     39.1753    147.5064   1.3616451113e+02   4.0498598505e+01    0.2934317    0.1309761  66.77  0.001069842    4.041    0.753
       138  -9.5002    199.8598    145.8374   9.7368750083e+01   1.1755961575e+01    0.3638183    0.2093159 -29.82  0.001430769    2.017    0.504
       139 -10.4347    149.7579    145.8448   1.0835028098e+02   2.2738548857e+01    0.5614668    0.3412242  72.92  0.002008242    2.791    0.642
       140 -10.7895    107.7776    145.6629   1.1858796563e+02   3.1125114821e+01    0.6113001     0.347303  70.14  0.002200067    3.029    0.670
       141  -9.8321     55.9558    145.6095   1.3173178561e+02   3.9025296586e+01    0.4760241     0.244119  74.30  0.001795794    3.496    0.714
       142  -9.2854    206.4388    144.1760   9.5675866534e+01   1.0652567530e+01    0.4694172    0.1970495 -34.80  0.001635216    2.621    0.618
       143  -8.6067     13.6691    146.7466   1.4211853074e+02   4.3044941358e+01    0.1640379   0.07979897  45.50 0.0008860879    2.278    0.561
       144  -9.4783    223.7952    144.6310   9.2476521795e+01   6.8742441725e+00    0.2784747    0.2173594  -9.20 0.0008329984    1.503    0.335
       145  -8.7182    138.6426    145.2913   1.1087274932e+02   2.5202303244e+01    0.1601934    0.1202804  81.04 0.0007028454    1.688    0.408
       146 -10.5566    125.6599    143.5371   1.1365787394e+02   2.8234497429e+01    0.5043966    0.3312385 -89.93  0.001978058    2.433    0.589
       147  -9.5642     88.2329    143.8531   1.2320146038e+02   3.4880077418e+01    0.3012014    0.2042322  79.20   0.00138874    1.911    0.477
       148  -9.3557    230.8290    141.2963   9.0452712815e+01   6.0371385165e+00    0.2800915    0.2025546 -27.11 0.0008932275    1.406    0.289
       149 -10.8320    230.8723    135.0808   8.9038722949e+01   7.1700678178e+00    0.5773704     0.294915 -25.22  0.001588502    2.627    0.619
       150 -10.3780     69.2346    140.0967   1.2740011361e+02   3.8597578846e+01    0.3774142     0.205403 -83.95  0.001494789    2.759    0.638
       151  -8.2265    203.3176    140.3000   9.5396022313e+01   1.2095786014e+01    0.1524891    0.1200715   5.97 0.0004218499    1.617    0.382
       152  -9.6457    194.7858    139.2811   9.6877051769e+01   1.4188424699e+01    0.3181364    0.2141399 -30.46 0.0008058698    1.618    0.382
       153  -9.2703     23.9666    138.9018   1.3870575203e+02   4.3958969650e+01    0.2988225    0.1442572  64.33  0.001358787    2.906    0.656
       154 -10.4435    143.9341    216.5116   1.2303891066e+02   8.9324041037e+00    0.3130397    0.1972575 -52.94  0.001391913    1.757    0.431
       155  -9.1531     38.8590    136.2631   1.3459746516e+02   4.3147715953e+01    0.2136705     0.114658  71.69 0.0009394033    2.753    0.637
       156  -9.6510    113.0590    133.8246   1.1468182771e+02   3.2919054472e+01    0.3287324    0.2194889  82.40  0.001335984    2.306    0.566
       157 -10.5656    226.4304    131.6566   8.9040080639e+01   8.7390711155e+00    0.4038904     0.299259 -19.33  0.001965286    1.544    0.352
       158 -10.2230     83.4685    131.8094   1.2204106279e+02   3.8477332726e+01    0.4109116    0.2785971 -85.30   0.00115135    1.885    0.470
       159  -9.3229    143.5266    132.0707   1.0662467520e+02   2.7146950801e+01    0.3028557    0.2209635  67.10  0.001181246    1.623    0.384
       160  -9.2935    169.2315    130.4300   1.0022780386e+02   2.1797863615e+01    0.2239806    0.1501362  61.13 0.0009436227    1.692    0.409
       161  -9.5756    153.6225    129.9642   1.0370053025e+02   2.5406322826e+01    0.3183277    0.1991915 -60.21  0.001287127    1.876    0.467
       162 -10.3093     99.2390    128.1224   1.1702764972e+02   3.6750314342e+01    0.5120896     0.323271 -85.56  0.001631364    2.600    0.615
       163  -9.6046     72.9862    129.3107   1.2435216529e+02   4.0620124484e+01     0.257452    0.1831057 -85.41 0.0009532625    1.647    0.393
       164  -9.3070     13.1476    129.9006   1.4020594780e+02   4.6887634259e+01     0.271459    0.1433861  71.09  0.001368079    2.495    0.599
       165 -10.6909    132.7774    132.2110   1.0930037986e+02   2.9385593465e+01    0.4320287    0.2981812 -89.40  0.001689888    2.202    0.546
       166 -10.3188    118.2379    125.7025   1.1145260448e+02   3.3796737305e+01    0.4962635     0.310445  75.73  0.001833898    2.811    0.644
       167 -10.0018     59.5476    124.2221   1.2701562803e+02   4.3606433208e+01    0.5663245    0.3094745  82.59  0.001997765    4.063    0.754
       168  -9.1202    180.0336    125.5197   9.6654775949e+01   2.0352341137e+01    0.2258008    0.1398149  74.59 0.0008101832    2.597    0.615
       169 -10.1988     43.9361    122.8016   1.3103618738e+02   4.5740709185e+01    0.6233664    0.3261413  86.92   0.00238446    3.632    0.725
       170 -10.1118     29.0769    123.0844   1.3510416370e+02   4.7127581878e+01    0.6036129    0.2864403  78.87  0.002049668    5.122    0.805
       171  -9.3080     84.0721    122.7606   1.1994783586e+02   4.0501986552e+01    0.3183729    0.1905533 -24.00  0.001244683    2.877    0.652
       172  -8.8648    173.1933    122.3702   9.7356665141e+01   2.2585677137e+01    0.2253294    0.1483777  60.09 0.0007773893    1.684    0.406
       173  -9.5987    159.2324    122.1596   1.0045419168e+02   2.5834633628e+01    0.3097624    0.2104923  77.26  0.001230879    2.143    0.533
       174 -10.3971    142.1555    119.8853   1.0395431095e+02   3.0137742984e+01    0.4796167    0.3075109 -69.60  0.001536019    2.217    0.549
       175 -10.2980    131.3076    119.2110   1.0649395335e+02   3.2609162821e+01    0.3945159     0.255922 -81.92  0.001455571    2.705    0.630
       176  -9.8161      3.4788    118.1055   1.4113160265e+02   5.0185247594e+01    0.3132859    0.1502254  83.29  0.001468344    2.902    0.655
       177 -10.2173    109.2317    114.1862   1.1102421974e+02   3.8133581723e+01    0.4822226    0.2850098 -68.30  0.001878719    2.407    0.585
       178 -10.1134     79.1017    112.7116   1.1907020391e+02   4.3577409789e+01    0.4452361    0.2944909  88.52  0.001847037    2.452    0.592
       179  -8.8067    175.4978    112.9919   9.4477488461e+01   2.3978227417e+01    0.2244494     0.131113 -62.87  0.000808827    2.413    0.586
       180  -9.8795    122.0116    112.5651   1.0720098973e+02   3.5995928728e+01    0.2931992    0.2124961 -63.83 0.0006333841    1.556    0.357
       181 -10.0729     92.3853    112.1605   1.1517426413e+02   4.1589896709e+01    0.4368826    0.2757938 -70.84  0.001798409    2.075    0.518
       182  -9.0676    159.6451    112.3757   9.7853343411e+01   2.7806889270e+01    0.2429852    0.1895194 -85.23 0.0009280288    1.626    0.385
       183 -11.1416     14.2948    109.9439   1.3706231538e+02   5.1270618311e+01    0.4221555    0.2557619 -80.25  0.001585294    1.602    0.376
       184  -9.9808     66.4605    110.6416   1.2223713948e+02   4.5843827963e+01    0.2683911     0.181242  89.54 0.0009910217    2.175    0.540
       185  -9.7659    133.3387    109.4829   1.0346776828e+02   3.4304086232e+01    0.3088132    0.1907254 -48.94 0.0009780863    1.610    0.379
       186  -8.4367     59.3313    109.6789   1.2409805240e+02   4.6982130804e+01    0.1337075    0.1010879  81.96 0.0005810985    1.696    0.410
       187  -9.6088     92.9173    104.6531   1.1314934897e+02   4.3177679169e+01    0.3803302     0.266612 -13.33  0.001733763    2.033    0.508
       188 -10.4955     45.6969    102.7531   1.2664025737e+02   5.0112407502e+01     0.640706     0.352851  72.25  0.002323568    4.590    0.782
       189 -11.1416     23.3935    103.2296   1.3334293413e+02   5.2073419025e+01    0.5803376    0.3189461  71.08  0.002630033    3.285    0.696
       190  -9.8555    150.5855    104.0973   9.7782415975e+01   3.1608032839e+01    0.3629159    0.2561361 -67.30  0.001337887    1.793    0.442
       191  -9.5552    139.9350    104.8554   1.0057567974e+02   3.3849696386e+01    0.3505455    0.2411359  84.17  0.001391242    2.319    0.569
       192  -8.9702    166.9915    104.5042   9.4123400293e+01   2.7701538668e+01    0.2199828     0.139837  77.81 0.0008094282    2.456    0.593
       193 -10.6635    249.1470    106.8218   7.9655470432e+01   8.4166890202e+00    0.7984354    0.2596523 -31.71  0.002431479    4.019    0.751
       194 -10.0738    128.4765    102.1520   1.0275093727e+02   3.6901118649e+01    0.2500218    0.2160213  83.21 0.0009095178    1.347    0.257
       195 -10.3153    108.5846     98.7935   1.0717603053e+02   4.1624154337e+01    0.4788953    0.3443334 -79.61  0.001488625    2.065    0.516
       196  -9.4079    107.6575     92.6300   1.0572763250e+02   4.3094126869e+01    0.2412002    0.1852461 -25.58 0.0008497654    1.403    0.287
       197  -9.0618     81.6552     99.4609   1.1509368701e+02   4.6147280861e+01    0.2641858    0.1703443 -77.06  0.001123892    2.461    0.594
       198  -8.7229    160.3078    101.6676   9.4866171794e+01   2.9846512973e+01    0.1613131    0.1232277 -78.59 0.0002979159    1.667    0.400
       199 -10.0862     64.0504     96.5455   1.1965586151e+02   4.9305397255e+01     0.443558    0.2852603  78.44  0.001871092    3.104    0.678
       200  -9.0599     94.8184     96.9903   1.1058992813e+02   4.4517389150e+01    0.2334098    0.1636728 -72.36 0.0008465149    1.950    0.487
       201  -8.8064    164.6192     94.8040   9.2040991443e+01   3.0181829577e+01    0.2229545    0.1411563 -50.35 0.0007123842    1.650    0.394
       202 -10.1672     21.2453     92.5072   1.3197597561e+02   5.4578329814e+01    0.3145446    0.1073849 -40.35  0.001297135    3.157    0.683
       203  -9.3692    138.7011     92.1651   9.7379487590e+01   3.6717043045e+01    0.2483053    0.1918761 -64.22 0.0007468908    1.509    0.337
       204 -10.4880     34.8861     89.9551   1.2718978005e+02   5.3983820006e+01    0.4619086    0.2398205 -77.22  0.001973983    3.071    0.674
       205 -10.1608      5.2410     92.1635   1.3677291624e+02   5.5718409637e+01    0.2014192    0.1320347  60.71   0.00123759    2.097    0.523
       206  -9.7477    124.2082     90.6924   1.0067094789e+02   4.0162084063e+01     0.308495    0.2287275 -68.24 0.0008467134    1.731    0.422
       207  -9.5059     86.1596     86.6336   1.1029105577e+02   4.8150866048e+01    0.2863358    0.2172952 -77.04  0.001168168    1.860    0.462
       208 -10.2026     49.1080     85.1574   1.2151494206e+02   5.3556603970e+01    0.4091582    0.2541628  68.69   0.00177945    3.386    0.705
       209  -9.6652    104.2626     81.6998   1.0353041138e+02   4.5941715688e+01    0.6631484    0.2356161 -47.45   0.00229235    2.917    0.657
       210 -10.6538      9.6241     81.5972   1.3348309636e+02   5.7681173981e+01     0.366043    0.1761018  46.97   0.00185865    3.203    0.688
       211  -9.7188     35.7903     81.8186   1.2502522795e+02   5.5619860458e+01    0.2245687     0.101664 -30.81  0.000958223    2.890    0.654
       212 -10.4534     24.7579     81.3786   1.2853630131e+02   5.6664711440e+01    0.3089274    0.2332857  73.26  0.001496859    1.906    0.475
       213 -10.0841    184.5977     77.7188   8.3298046479e+01   2.8470633196e+01    0.2738339    0.1851948 -48.07 0.0008408681    1.490    0.329
       214  -9.0233    127.9827     75.4969   9.5216463775e+01   4.2267967762e+01    0.2956412    0.1786406 -70.18  0.001021359    3.429    0.708
       215  -8.8425     49.6747     76.6843   1.1912431462e+02   5.5240205814e+01    0.1338415   0.08588964 -25.68 0.0007043584    1.669    0.401
       216  -9.6747     10.1709     74.8028   1.3191822080e+02   5.9045052690e+01     0.160109    0.1041292 -40.12  0.000341499    1.308    0.236
       217  -9.3519     82.3269     73.0924   1.0749431661e+02   5.1460902466e+01    0.2611621    0.2055724 -78.03  0.001240075    1.910    0.476
       218  -9.3936    138.9787     72.9055   9.1699013563e+01   4.0276152928e+01    0.2804622    0.2112049 -64.39  0.001328523    1.645    0.392
       219  -9.0000     42.6855     73.3239   1.2056691748e+02   5.6675360634e+01     0.115346   0.09702909 -89.88 0.0003046005    1.663    0.399
       220 -10.0572    219.1356     71.8810   7.5957388181e+01   2.1068441788e+01    0.1903693    0.1763067  26.81 0.0004655143    1.315    0.239
       221  -8.8946     95.4591     71.9544   1.0314005664e+02   4.9429770375e+01    0.1974611    0.1203993 -62.40 0.0008092377    2.602    0.616
       222  -9.9334     51.8554     70.3908   1.1664053989e+02   5.6239640500e+01    0.3433663    0.2017631 -67.07  0.001589645    2.613    0.617
       223 -10.0822     25.4262     72.0223   1.2612359459e+02   5.8526537390e+01    0.2185778    0.1504391 -17.68  0.001082662    1.574    0.365
       224  -9.3377      5.3406     71.6699   1.3287406683e+02   5.9962754539e+01    0.1052555   0.08185123  81.44 0.0007051562    1.743    0.426
       225  -9.6020     16.5305     70.5201   1.2881572054e+02   5.9494201159e+01    0.1824836    0.1492403  84.81 0.0007358815    1.673    0.402
       226  -9.0399      1.4399     69.4779   1.3373312227e+02   6.0611503232e+01    0.1148503   0.08265143 -49.95 8.693963e-05    1.035    0.034
       227  -9.9191     37.6319     64.7849   1.1996458022e+02   5.8861956372e+01    0.2132686    0.1782867 -77.42 0.0008677476    1.634    0.388
       228  -9.6561     73.6921     60.3811   1.0624772174e+02   5.5157187206e+01    0.2787867     0.237029 -65.39  0.001040187    1.586    0.369
       229  -8.4637    100.3427     60.6672   9.8100579570e+01   5.0532597442e+01    0.1357252    0.1127211 -81.17 0.0007050824    1.755    0.430
       230  -9.4365     24.7165     59.3586   1.2307988450e+02   6.1057728066e+01    0.1624377    0.1388892  79.77  0.001101409    1.773    0.436
       231 -11.1174      7.1428     57.6157   1.2904465334e+02   6.2615795228e+01    0.2876328    0.2113277 -80.07  0.001385116    1.814    0.449
       232  -9.6869     54.7528     55.1852   1.1098285699e+02   5.8716973370e+01    0.2927684    0.1600815 -56.42  0.001390598    2.446    0.591
       233  -9.2718     44.0480     55.7352   1.1497637444e+02   5.9883046453e+01    0.2248585    0.1528573 -71.11  0.001156173    2.603    0.616
       234  -9.8162    100.5372     54.2727   9.5925176593e+01   5.1548661811e+01    0.2242525    0.1941664  17.46 0.0002193588    1.099    0.090
       235  -9.4477     62.9408     55.2005   1.0814420439e+02   5.7630654578e+01    0.1810249    0.1720144 -35.99 0.0006785401    1.275    0.216
       236  -9.3505     93.0471     51.8422   9.7303586489e+01   5.3339281462e+01    0.2696236    0.2061895 -77.22  0.001200786    2.298    0.565
       237  -9.7564     30.8194     51.8828   1.1864753891e+02   6.1911987110e+01    0.2031859    0.1540532 -60.47 0.0008550259    1.603    0.376
       238  -8.9306     82.4565     47.5040   9.9059826672e+01   5.5887821666e+01    0.1295691     0.117226  -5.59 0.0001126967    1.071    0.067
       239  -9.3701     44.8033     44.8393   1.1112023758e+02   6.1689103724e+01    0.1545174    0.1374291 -43.96 0.0006014858    1.379    0.275
       240 -10.3293     15.7423     45.0117   1.2233856046e+02   6.4374864384e+01    0.2624886    0.1866152  -1.75  0.001841328    1.461    0.316
       241  -9.7594     58.5087     43.3491   1.0561514541e+02   6.0208628882e+01     0.239118    0.1959592 -65.99  0.001441528    1.961    0.490
       242 -10.3959    107.6875    248.8354   1.3433651341e+02   9.1337462732e+00    0.2192378      0.18107  47.93 0.0007229095    1.225    0.184
       243  -8.8633    106.7689     42.2080   9.0065126942e+01   5.2130823151e+01    0.2160908    0.1510795 -75.17 0.0009578308    2.791    0.642
       244  -9.7057     69.4540     42.0092   1.0134638332e+02   5.8832320218e+01    0.2237504    0.1796388  53.05  0.001101442    1.698    0.411
       245  -9.2296     36.8977     41.1749   1.1284582047e+02   6.3163641513e+01    0.1660006     0.149646 -26.27 0.0006255392    1.273    0.214
       246  -8.9008     96.1444     38.9713   9.1896948964e+01   5.4670888471e+01    0.2070688    0.1512534 -59.24  0.001071084    2.072    0.517
       247  -8.8916     84.0074     39.5413   9.5733532154e+01   5.6809190670e+01    0.1832886    0.1193413  39.02 0.0003786376    1.494    0.330
       248  -9.0944     26.1754     36.6505   1.1549065600e+02   6.4951183998e+01    0.2139913   0.07426144 -48.56 0.0009942479    2.635    0.621
       249  -8.8696    138.6130     36.2061   8.0388688897e+01   4.5955075813e+01    0.1707183    0.1323645  -8.74 0.0002182891    1.476    0.323
       250  -8.9060    112.0410     35.2042   8.6254150161e+01   5.1984221074e+01    0.2104799    0.1590655 -89.17  0.001068437    2.081    0.520
       251  -8.8612    119.7729     33.7960   8.3855521730e+01   5.0509303441e+01    0.1777072    0.1608507 -85.30 0.0007546453    1.361    0.265
       252  -8.9155     90.6579    218.2858   1.3406522296e+02   1.7675653986e+01    0.1366609   0.08395234  68.87 0.0004375036    1.641    0.390
       253  -9.2004     49.5752     32.8396   1.0500357617e+02   6.2993558436e+01    0.1617598    0.1033207 -44.18 0.0009435051    1.751    0.429
       254  -9.4737     72.3090     31.9775   9.6671920492e+01   5.9826555880e+01    0.1777174    0.1476754 -12.02 0.0009220868    1.100    0.091
       255  -9.6518     12.7046     31.1718   1.1913906340e+02   6.6943659424e+01     0.162661    0.1198761 -49.26 0.0007446548    1.451    0.311
       256  -9.3542     60.8122     33.1108   1.0102801057e+02   6.1426633688e+01    0.1751346    0.1599087 -18.95 0.0008567306    1.285    0.222
       257  -8.8502    101.9856     29.9854   8.7048954396e+01   5.4699951328e+01    0.1928362    0.1639429 -79.62  0.001124635    1.712    0.416
       258 -10.0815     82.2692     28.3266   9.2110165350e+01   5.8620688963e+01    0.3148657    0.2307024  85.53  0.001522331    3.108    0.678
       259  -9.2351     92.2465     27.1575   8.8714015776e+01   5.6939789286e+01    0.2182458    0.1730335  81.46   0.00113441    2.024    0.506
       260 -10.1166      6.1471     34.1534   1.2286370726e+02   6.6895080088e+01    0.2142144    0.1262929 -10.05  0.001224033    1.737    0.424
       261  -9.0703     44.0508     25.6458   1.0431560783e+02   6.4714635141e+01    0.1581889    0.1221185   4.90 0.0003802707    1.133    0.117
       262  -9.1585    110.1928     24.6207   8.3016531863e+01   5.3648147779e+01    0.1698646    0.1578412  -2.16 0.0005052892    1.131    0.116
       263  -9.0812     58.8117     22.4081   9.7546526428e+01   6.3154921716e+01    0.1821257    0.1223971 -17.46 0.0002112694    1.347    0.258
       264  -9.6912     13.1293     21.3269   1.1541971692e+02   6.8448381157e+01    0.1986607    0.1600953  -0.31 0.0009114668    1.270    0.212
       265  -9.6420    177.8272    244.3217   1.2061215621e+02  -1.9162472649e+00     0.378344    0.2446801  -7.06   0.00182579    2.737    0.635
       266  -8.6007     84.6771     21.3194   8.8705147734e+01   5.9028356198e+01    0.1121883    0.1006693 -69.35 0.0006554457    1.672    0.402
       267  -9.4471     63.1317     20.7342   9.5361419706e+01   6.2714607824e+01    0.2009081    0.1495177 -30.66 0.0009502389    1.427    0.299
       268  -8.6639     48.3107     21.6731   1.0109482881e+02   6.4708622842e+01   0.09968534     0.093154 -44.78  0.000328727    1.661    0.398
       269  -9.6224     73.9654     19.7381   9.1373656221e+01   6.1086939416e+01    0.2002242    0.1693165 -43.69  0.001245161    1.603    0.376
       270  -9.5210     88.3889     18.1440   8.6408904435e+01   5.8694257265e+01    0.1646295    0.1092297 -34.63 0.0006083042    1.693    0.409
       271 -10.3084    173.6632    244.3372   1.2140180647e+02  -1.2035500269e+00    0.2407942    0.1786211 -77.34  0.001363363    2.033    0.508
       272  -8.6467     40.6092     14.1791   1.0095030310e+02   6.6643084080e+01     0.152015   0.08731347 -19.24  0.000272179    1.569    0.362
       273  -9.4283     97.4914    242.6582   1.3553028424e+02   1.1856666649e+01    0.2153112   0.09824226  43.88  0.001072006    1.898    0.473
       274 -11.5410    107.8559    238.1071   1.3309031173e+02   1.1056057264e+01    0.4484412    0.2462486 -82.88  0.002153335    2.521    0.603
       275  -8.2651    177.3091    236.3042   1.1949007514e+02  -5.6329764569e-01    0.1270265   0.09481044  13.23  0.000701741    1.608    0.378
