#   1 NUMBER                 Running object number                                     
#   2 MAG_AUTO               Kron-like elliptical aperture magnitude                    [mag]
#   3 X_IMAGE                Object position along x                                    [pixel]
#   4 Y_IMAGE                Object position along y                                    [pixel]
#   5 X_WORLD                Barycenter position along world x axis                     [deg]
#   6 Y_WORLD                Barycenter position along world y axis                     [deg]
#   7 A_WORLD                Profile RMS along major axis (world units)                 [deg]
#   8 B_WORLD                Profile RMS along minor axis (world units)                 [deg]
#   9 THETA_WORLD            Position angle (CCW/world-x)                               [deg]
#  10 FWHM_WORLD             FWHM assuming a gaussian core                              [deg]
#  11 ELONGATION             A_IMAGE/B_IMAGE                                           
#  12 ELLIPTICITY            1 - B_IMAGE/A_IMAGE                                       
         1 -13.5715     67.8364    145.0881   1.2763877253e+02   3.7272025993e+01     3.300692     1.446453  83.73  0.002972262    6.148    0.837
         2 -12.7429    218.1761      2.3490   5.5214044848e+01   2.9414079119e+01      1.01459    0.4562016  70.57   0.00249087    2.215    0.548
         3 -14.0704    192.9935     27.7598   6.4186288812e+01   3.2829397988e+01     1.735643     1.375239 -11.15   0.00684703    1.482    0.325
         4 -13.9296    200.3274     20.9386   6.1503618303e+01   3.1776294246e+01     1.369426    0.9226977 -61.52  0.004816054    1.402    0.287
         5 -13.0218    206.0617     13.9108   5.9074122707e+01   3.1128687502e+01    0.7206091    0.5671101  26.67  0.001503143    1.694    0.410
         6 -12.4888      2.6997      6.2380   1.2960914078e+02   7.8153393539e+01     1.005937    0.2962883 -58.20  0.004426889    2.440    0.590
         7 -12.1788      2.5221     22.0759   1.3523144644e+02   7.4602944430e+01    0.7418169     0.174022 -73.07  0.002580714    3.869    0.742
         8 -10.8040     13.5290     24.5955   1.2719776006e+02   7.3561044085e+01    0.3044953    0.1038327  22.00  0.001266795    2.965    0.663
         9 -11.5957    247.9202    248.6142   1.0319721054e+02  -6.3978560229e+00    0.3391181    0.1598578  30.10  0.002269848    1.780    0.438
        10 -11.4936    148.3837    249.0375   1.2100085279e+02   5.6101067641e+00    0.2778869    0.1588005  40.77  0.001716096    1.509    0.337
        11 -11.9396    139.8103    249.7441   1.2276843019e+02   6.6444412458e+00    0.3551023    0.1878931  34.37  0.001985834    1.362    0.266
        12 -13.2237     94.4739    247.9743   1.3176232588e+02   1.2783081675e+01    0.6990829    0.4376201  30.10  0.003127965    1.285    0.222
        13 -12.6137    106.8436    244.3482   1.2891465510e+02   1.1757550878e+01    0.4706805     0.272917  36.23  0.001692284    1.246    0.197
        14 -11.3467     62.4089    249.7506   1.3839091083e+02   1.6356594202e+01    0.4234106    0.1104758  42.96  0.002017446    2.379    0.580
        15 -15.4693     34.2135    246.9134   1.4386384963e+02   1.9866900377e+01     8.904942     2.582783  22.63   0.03075944    5.889    0.830
        16 -11.7749     73.5052    184.4432   1.3080470415e+02   2.7307441567e+01    0.2825856    0.2528883 -33.66 0.0008090675    1.419    0.295
        17 -11.3049     82.3004    173.0824   1.2717474405e+02   2.8587324638e+01    0.2426573    0.2349197  74.62 0.0003964701    1.140    0.123
        18 -12.6006     88.4675    165.1801   1.2443716352e+02   2.9458145156e+01     1.649601    0.5392516  46.60  0.001209631    3.024    0.669
        19 -11.5643    179.2688    248.7241   1.1504047752e+02   1.6323486771e+00    0.3818958     0.139172  25.15  0.001788734    2.549    0.608
        20 -13.3110     43.9861    223.1898   1.4079331152e+02   2.3032654850e+01     0.488497    0.4308106  27.13  0.001169183    1.349    0.259
        21 -12.6419     32.3875    156.4952   1.3951804366e+02   3.8586338208e+01    0.5038949     0.429653  55.18  0.003155368    1.067    0.062
        22 -12.2927     89.9681    148.0544   1.2139487660e+02   3.3228019036e+01    0.2914386     0.272039  -8.77 0.0004620297    1.235    0.190
        23 -11.7880     33.7910    149.8936   1.3858378737e+02   4.0063452217e+01     0.400052    0.1865963  89.16  0.001741563    2.242    0.554
        24  -9.8654    133.7200    144.2889   1.0840114103e+02   2.6219321097e+01    0.4665916     0.140617 -55.35  0.001220385    5.192    0.807
        25  -9.5891    103.8736    144.7626   1.1674485221e+02   3.1663212570e+01    0.2956623    0.2008846 -24.75  0.001266873    2.113    0.527
        26 -10.0494    101.0837    148.9532   1.1830550940e+02   3.1168369032e+01    0.3213084    0.2676268 -10.53 0.0008877363    1.491    0.329
        27  -9.7464    111.5961    135.1846   1.1262415733e+02   3.2496246080e+01    0.2914903    0.2243954 -14.81   0.00118251    1.708    0.414
        28 -13.2318     69.8128    170.1656   1.3023370749e+02   3.0993131733e+01    0.5124092    0.2918443 -44.86  0.001672024    2.289    0.563
        29 -10.5500     99.1492    131.9071   1.1567282646e+02   3.5560779479e+01    0.3121042    0.2347582 -31.33 0.0006397286    1.620    0.383
        30 -10.5624     44.5741    130.7518   1.3323060894e+02   4.3803110397e+01    0.2020684    0.1261752  88.92 0.0009521476    1.646    0.392
        31 -14.8529      9.8927    206.9496   1.4760615855e+02   2.9485877853e+01     2.475109      1.59032 -45.13   0.01364723    2.439    0.590
        32 -10.9060     43.1770    126.7105   1.3320475750e+02   4.5002642692e+01    0.2341473    0.1568479  49.60 0.0006085986    1.430    0.301
        33  -9.2518    168.9733    214.9825   1.1250290559e+02   7.4708583540e+00    0.1807474    0.1416204  51.35  0.001071146    1.681    0.405
        34  -9.5960    108.0632    122.6535   1.1096317037e+02   3.6125070156e+01    0.2141695    0.1860499  37.69 0.0003177995    1.110    0.099
        35 -15.9176      3.0076    224.1389   1.4944562171e+02   2.6781607862e+01     10.21275    0.9995111 -78.89    0.0328477    8.172    0.878
        36 -10.8980    167.9517    113.0385   9.2706365218e+01   2.5400439894e+01    0.3564199    0.2966428 -75.95 0.0009518001    1.562    0.360
        37  -9.4885    205.0613    110.8266   8.4838136973e+01   1.7836116298e+01    0.3405874    0.1645784  30.40  0.001248248    3.073    0.675
        38 -11.8222     43.3853    109.1874   1.3070272769e+02   4.9594457034e+01    0.4230426    0.2918929  37.73  0.001659133    1.449    0.310
        39 -11.3652      1.7408     91.0108   1.4509762122e+02   5.7349155138e+01    0.5432791    0.1033848 -85.13   0.00154403    5.017    0.801
        40  -9.8619    242.5079     93.5391   7.5179330066e+01   1.3115668971e+01    0.1299735     0.109791 -26.52  0.000809331    1.003    0.003
        41 -10.5137    225.3585    200.0878   9.9436850995e+01   1.4280003337e+00    0.2172321    0.1884215 -24.52 0.0007808204    1.547    0.354
        42 -10.1429    136.8316     58.6473   8.3801432409e+01   4.3239585508e+01    0.3234222    0.2593369  79.05  0.001174088    1.381    0.276
        43 -12.4497    126.0499    245.2217   1.2506138701e+02   9.0980588897e+00    0.3629268    0.2682129  41.21  0.002523853    1.194    0.162
        44 -10.7988    192.9694    194.9366   1.0452265482e+02   6.7735477642e+00    0.7087318    0.3987492 -60.27  0.002320291    7.040    0.858
        45 -11.6259     71.6941    237.2802   1.3570469042e+02   1.7332631632e+01    0.3122222    0.1900788  87.54  0.001466385    2.058    0.514
        46  -9.7215     65.1001    196.8331   1.3410479414e+02   2.5768632101e+01    0.2026483      0.14052  52.78 0.0004058226    1.217    0.179
        47 -15.2969     52.7728    211.5540   1.3814649258e+02   2.4277110984e+01     3.423126     1.757039  42.58   0.01904773    1.470    0.320
        48 -11.6256     68.6282    191.0875   1.3270963532e+02   2.6524855422e+01    0.3803853    0.2567924 -40.12  0.002025583    2.070    0.517
