#   1 NUMBER                 Running object number                                     
#   2 MAG_AUTO               Kron-like elliptical aperture magnitude                    [mag]
#   3 X_IMAGE                Object position along x                                    [pixel]
#   4 Y_IMAGE                Object position along y                                    [pixel]
#   5 X_WORLD                Barycenter position along world x axis                     [deg]
#   6 Y_WORLD                Barycenter position along world y axis                     [deg]
#   7 A_WORLD                Profile RMS along major axis (world units)                 [deg]
#   8 B_WORLD                Profile RMS along minor axis (world units)                 [deg]
#   9 THETA_WORLD            Position angle (CCW/world-x)                               [deg]
#  10 FWHM_WORLD             FWHM assuming a gaussian core                              [deg]
#  11 ELONGATION             A_IMAGE/B_IMAGE                                           
#  12 ELLIPTICITY            1 - B_IMAGE/A_IMAGE                                       
         1 -11.4122      7.2690     17.2161   1.1049327441e+02   6.8551330876e+01    0.2925173    0.1661122 -47.80  0.001105282    1.472    0.321
         2 -12.3885    113.0358     15.1595   7.3172063552e+01   5.4061591698e+01    0.3881338    0.2836088  59.18  0.001372097    1.467    0.319
         3 -11.4476     80.5979     14.9374   8.2061267517e+01   6.0282706921e+01    0.2940414    0.2171555 -36.56  0.001209296    1.562    0.360
         4 -11.0275     58.8606     15.2732   8.9402841179e+01   6.3613006288e+01    0.2402891    0.1539374 -19.90 0.0005287051    1.381    0.276
         5 -12.6792     26.1096     13.0573   1.0108011343e+02   6.7713357467e+01      0.23948    0.1934408   0.34  0.000520939    1.231    0.188
         6 -10.9024     65.3105     13.2082   8.6317798679e+01   6.2939403380e+01    0.3132464    0.2048948  12.50  0.001887256    1.498    0.332
         7 -11.1032     74.9826     10.2558   8.1919458389e+01   6.1764580969e+01    0.3936165    0.1789033 -37.75  0.001923557    2.473    0.596
         8 -10.8309     50.4775     11.5396   9.0893552365e+01   6.5218918395e+01    0.2230499    0.1492457  21.51 0.0007788099    1.420    0.296
         9 -11.4602     49.9239      8.4869   8.9809122204e+01   6.5674259850e+01     0.459655    0.1788765  36.09  0.002327226    2.588    0.614
        10 -11.6989    175.4622      9.1627   5.9135909152e+01   3.9953301053e+01    0.3969659    0.1915521 -35.62  0.001783015    2.201    0.546
        11 -12.0075    211.6434      9.8074   5.4570123034e+01   3.0763053321e+01    0.2738658     0.246804 -42.65   0.00123632    1.210    0.174
        12 -12.4644    209.0016      5.1611   5.3694958678e+01   3.1905058590e+01    0.3029976    0.2441977 -81.29 0.0003716083    1.175    0.149
        13 -10.5239      7.2695     10.4213   1.0805556043e+02   6.9598766644e+01    0.1506329    0.1113762  17.30 0.0006063677    1.598    0.374
        14 -11.5980     39.4415      5.8014   9.2668863678e+01   6.7300770496e+01    0.4102137    0.1956225 -31.36  0.002349473    1.801    0.445
        15 -10.2393    108.3065      8.0775   7.1695355663e+01   5.5775729584e+01    0.1786593    0.1536034  10.08  0.001101283    1.094    0.086
        16 -10.8725     87.7242      7.5016   7.6944215665e+01   5.9846609077e+01    0.2118685     0.153244  -9.26  0.000508727    1.311    0.237
        17 -11.5716     24.6411      6.7539   9.9123991887e+01   6.8732095504e+01    0.2552701    0.1430191 -40.33 0.0007188211    1.668    0.400
        18 -10.6313     20.0257      7.0799   1.0122073180e+02   6.9104351571e+01    0.1850314    0.1276678   0.93 0.0003730108    1.333    0.250
        19 -10.2156     16.6999      7.7023   1.0290447668e+02   6.9297125278e+01    0.1634248   0.08142781 -36.02 0.0002675426    1.545    0.353
        20 -10.8374    236.2709      6.9648   5.1290757676e+01   2.5040473654e+01    0.1764904    0.1558465 -67.19 0.0003661116    1.092    0.084
        21 -10.6123     62.0532      6.2175   8.4494413155e+01   6.4249090396e+01    0.2385913    0.1768074  32.56  0.001387238    1.347    0.257
        22 -11.5410    191.1101      5.8502   5.6037231557e+01   3.6331938815e+01    0.2574913    0.2149771 -54.15 0.0008258827    1.271    0.213
        23 -11.6005    195.3295      3.5654   5.4890667232e+01   3.5491470442e+01     0.306431    0.2052361  64.67 0.0007652298    1.305    0.233
        24 -10.3595     80.9570      1.6722   7.6521016589e+01   6.1644039502e+01    0.3174858    0.1555244  34.98 0.0008226354    1.859    0.462
        25  -9.8683     76.6901      4.3131   7.8913979597e+01   6.2119863183e+01    0.1642898   0.09712981  35.30 0.0004361326    1.512    0.339
        26 -11.5137     74.4191      1.9050   7.8599807013e+01   6.2747060875e+01    0.3913595     0.263102  -0.73  0.002430799    1.383    0.277
        27 -11.7486    180.6084      2.8174   5.6584566994e+01   3.9266912197e+01    0.4056527    0.2339795  54.49  0.001381107    1.535    0.349
        28 -11.0195    161.1720      3.6059   5.9662425638e+01   4.4040981999e+01     0.265721    0.2318606  76.85  0.001463532    1.131    0.116
        29 -11.1531     11.2608      2.8373   1.0330262051e+02   7.0410137503e+01    0.2272588    0.1438629 -31.82 0.0008688503    1.197    0.165
        30 -11.0273    218.0948      3.1428   5.2204765009e+01   2.9855128771e+01    0.2065367    0.1679174  50.87  0.001229352    1.331    0.249
        31 -10.6106     91.3084      2.7320   7.4015207456e+01   5.9652044982e+01    0.1841636    0.1668479  26.71 0.0003564432    1.186    0.157
        32 -11.1730     31.2961      3.2541   9.4844805841e+01   6.8527313245e+01    0.2610543    0.1581352 -27.88  0.001769055    1.351    0.260
        33 -10.8330     64.6147    241.8024   1.3217431180e+02   1.8712865110e+01    0.1751055    0.1326401  82.62 0.0002995771    1.149    0.130
        34 -10.3764    168.9963    249.4459   1.1547647272e+02   1.2779689609e+00    0.1621182    0.1476735  53.12 0.0006537384    1.182    0.154
        35 -10.0056    160.0020    250.5501   1.1716187329e+02   2.6470378526e+00    0.1905857   0.09248648  45.28  0.001029062    1.594    0.373
        36 -10.4561    157.0872    247.4010   1.1727234996e+02   3.5847947615e+00    0.1728106    0.1622079  74.55 0.0003545673    1.243    0.195
        37  -9.9717    149.3068    250.7531   1.1901491544e+02   4.4109623161e+00     0.257967   0.08062714  43.56  0.000826524    2.555    0.609
        38 -11.7349    129.5274    247.7015   1.2203128246e+02   8.1212548141e+00     0.260318    0.2290702  33.24 0.0008747735    1.442    0.306
        39 -11.8758    116.7583    249.1857   1.2433807534e+02   9.9319554743e+00    0.3424849    0.2645488  60.18  0.002459534    1.029    0.028
        40 -12.2611    109.7975    245.1977   1.2509590218e+02   1.1648298473e+01    0.3833353    0.2376564  80.82  0.002338232    1.803    0.445
        41 -10.7007     98.9081    249.2561   1.2729105259e+02   1.2655921060e+01    0.1988669    0.1488368  50.02 0.0004435317    1.271    0.213
        42 -10.6914     95.7969    246.8750   1.2757886559e+02   1.3501238710e+01    0.2206564    0.1359548  63.33  0.001242958    1.318    0.241
        43 -11.1003     91.9698    250.2769   1.2850836126e+02   1.3515204218e+01    0.1611495    0.1183466  63.16  0.001171382    1.023    0.023
        44  99.0000     45.7360    245.2270   1.3534030577e+02   2.0518976163e+01     0.633172    0.4130693  67.13  0.001906858    1.102    0.092
        45 -13.3795     18.2791    199.3912   1.3658626776e+02   3.1779093048e+01    0.9279848    0.7626929 -87.83  0.007639381    1.273    0.214
        46 -12.4185     31.9910    202.9821   1.3452604647e+02   2.9679564152e+01    0.5198036    0.2209077  62.03 0.0006548647    2.209    0.547
        47 -13.1562     42.2696    199.1692   1.3242165872e+02   2.9265309021e+01    0.7956221    0.4987617 -72.27  0.005334354    1.439    0.305
        48 -12.6039     37.7978    231.9669   1.3567087234e+02   2.3725257317e+01    0.4635456    0.4378238 -18.37  0.003799215    2.087    0.521
        49 -14.9907     11.7466    232.1641   1.3961301079e+02   2.6495683325e+01     1.416984    0.7697412 -59.49  0.009079101    2.469    0.595
        50 -12.5786     44.1423    235.9366   1.3495584221e+02   2.2289531435e+01    0.4073522    0.1945951  54.81  0.001916917    1.646    0.392
        51 -11.4540     47.4407    232.1895   1.3417257026e+02   2.2544300631e+01    0.4499917    0.2012178  89.16  0.001745775    2.381    0.580
        52 -13.5405     45.4402    219.8743   1.3357293733e+02   2.4989504480e+01     1.005679    0.3603606 -55.31  0.004762114    3.851    0.740
        53 -13.8310     20.7831    237.4989   1.3858113258e+02   2.4652695751e+01    0.7029397    0.3922811  46.70  0.004102608    1.718    0.418
        54 -12.9102     27.7517    230.8277   1.3714463982e+02   2.5053092481e+01    0.4246227    0.3491189  44.55  0.003508854    1.687    0.407
        55 -13.7246     29.7247    247.2374   1.3783025348e+02   2.2045552840e+01    0.6778117    0.3434367  72.20  0.004105831    1.544    0.352
        56 -13.4860     34.5322    242.9626   1.3687274625e+02   2.2214875679e+01    0.3918519    0.2761953 -87.97  0.001804152    1.269    0.212
        57 -13.6771     29.5719    217.0670   1.3595748181e+02   2.7313012673e+01    0.6832881    0.2858113 -56.17  0.002611981    3.208    0.688
        58 -12.7943     23.4414    220.0653   1.3713278201e+02   2.7425093585e+01    0.3081898    0.2292167  86.04 0.0008584938    1.143    0.125
        59 -12.9946     37.6015    225.4021   1.3525099614e+02   2.4908572824e+01    0.2151993    0.1682873  85.12 0.0005514957    1.190    0.160
        60 -13.2768     37.9878    219.5927   1.3477357379e+02   2.5912684194e+01    0.4177186    0.2967647 -86.72  0.001471559    1.202    0.168
        61 -14.8016     15.4103    247.9667   1.3990413789e+02   2.3469545771e+01    0.6304348    0.3263778  53.98  0.002686684    1.519    0.342
        62 -13.2496      9.0068    250.0192   1.4088710691e+02   2.3791144835e+01    0.2892394    0.1531342  69.58  0.001085786    1.315    0.240
        63 -10.6736     66.9970    239.0000   1.3157230851e+02   1.8873376355e+01    0.1828825    0.1268704  51.00 0.0008744493    1.349    0.259
        64 -13.0347     19.6812    211.0329   1.3714529421e+02   2.9460106884e+01    0.4641516    0.2515304 -79.02  0.003201999    1.514    0.340
        65 -11.0814    183.5676    239.9447   1.1164772490e+02   7.1509282024e-02    0.2285565    0.1493676  44.61 0.0004699143    1.217    0.178
        66 -11.5704    168.7447    239.0193   1.1414094180e+02   2.7861634550e+00    0.2513312    0.2193676  42.74 0.0008658438    1.114    0.103
        67 -11.6497    142.4184    238.6133   1.1874234787e+02   7.3826586515e+00    0.4029033     0.252918  49.27  0.001319965    1.266    0.210
        68  -9.9605    136.0527    236.7982   1.1964254475e+02   8.7417620600e+00    0.2241729    0.1070241  48.01 0.0008230488    1.676    0.403
        69 -10.4523    157.5240    237.6814   1.1595231658e+02   4.9339626814e+00    0.2333059    0.1479471  58.62  0.001351967    1.499    0.333
        70 -11.8669    154.5012    232.7860   1.1584411898e+02   6.2054850225e+00    0.4218317    0.1898071  51.92 0.0007612028    1.955    0.488
        71 -10.9917    173.6581    234.1414   1.1258798866e+02   2.6305365355e+00    0.3100786    0.1815898  35.07 0.0008321162    1.628    0.386
        72 -11.2855    181.5377    235.5262   1.1137604348e+02   1.0411982849e+00    0.2956367    0.1862468  35.95 0.0007919089    1.412    0.292
        73 -10.8176    178.9222    232.2929   1.1137663939e+02   1.9654731761e+00    0.2082081    0.1865735  35.92 0.0005860098    1.127    0.112
        74 -10.3194    161.9754    234.8012   1.1477385205e+02   4.5901473840e+00    0.1775605    0.1432106  34.80 0.0005883982    1.241    0.194
        75 -10.6165    219.2348    233.0018   1.0431025823e+02  -5.2031803603e+00    0.3100943    0.1539158 -32.59  0.001623296    2.421    0.587
        76 -10.1726     56.2441    227.7865   1.3241755937e+02   2.2230147022e+01    0.2201839    0.1240643 -64.58  0.001419123    1.887    0.470
        77 -10.8458     60.2844    233.7780   1.3223678438e+02   2.0656079753e+01    0.2394998    0.1482123  58.21  0.001650984    1.276    0.216
        78 -10.1410     58.5906    230.5147   1.3225198409e+02   2.1446865317e+01    0.1915573    0.1491045  84.09  0.001217853    1.149    0.129
        79 -10.8652    231.4479    231.9785   1.0201856843e+02  -7.1431944777e+00    0.3102187    0.1934832  -9.92  0.001757713    2.005    0.501
        80 -11.8844    194.9204    233.7147   1.0872084956e+02  -1.0672329880e+00     0.883422    0.2809123  38.36  0.001143243    2.957    0.662
        81 -12.1116    143.8831    232.1684   1.1767180379e+02   8.1451751188e+00    0.3155085    0.1860174  46.29 0.0003476689    1.387    0.279
        82 -10.0399    132.8428    233.0742   1.1975944134e+02   9.8792287683e+00    0.1840247     0.134657  66.23 0.0004950127    1.257    0.205
        83 -10.9831     81.2834    231.9074   1.2860570092e+02   1.8130665062e+01    0.2066486    0.1545515  82.73 0.0004883451    1.159    0.137
        84 -11.3953     94.8207    228.7745   1.2598017509e+02   1.6695303988e+01    0.3532782    0.2477101  63.77 0.0007226473    1.145    0.127
        85 -10.8980     88.2205    231.3450   1.2737452722e+02   1.7227292211e+01    0.3090123    0.1365888  54.79  0.001649527    1.900    0.474
        86 -10.9465     90.0395    228.0620   1.2673793729e+02   1.7534236485e+01    0.1815598    0.1414715  87.57            0    1.187    0.157
        87 -12.3808     78.2718    221.3201   1.2811867274e+02   2.0444171960e+01    0.7476231    0.2795758 -78.99  0.002889735    4.478    0.777
        88 -10.7762     73.0790    217.1949   1.2862851172e+02   2.1926037628e+01    0.1825444    0.1407696  62.55 0.0005191287    1.129    0.114
        89 -12.1416     75.0475    229.7047   1.2945551360e+02   1.9393099470e+01    0.2967922    0.2776691  34.30  0.001691804    1.662    0.398
        90 -11.5934     71.2801    225.8665   1.2974641313e+02   2.0594093679e+01    0.2836471     0.123177  51.86 0.0006624542    1.895    0.472
        91 -10.0236    186.8475    230.8293   1.0973326693e+02   7.6407493191e-01    0.1895746    0.1495048  25.43 0.0007345941    1.281    0.220
        92 -10.5330    236.7200    229.5248   1.0070223341e+02  -7.7274996891e+00    0.2823083    0.1016802  44.52  0.001057269    2.430    0.588
        93 -10.4298    249.4538    227.9469   9.8259925939e+01  -9.6239761857e+00    0.1618755    0.1108842 -25.02  0.001023101    1.580    0.367
        94 -11.4334    158.6161    226.3311   1.1421341602e+02   6.4871508264e+00    0.3366195     0.213006 -63.71  0.001852795    2.093    0.522
        95 -11.6460    111.4802    226.6692   1.2281476567e+02   1.4470342271e+01    0.3400255    0.1906389 -55.39  0.001928173    2.088    0.521
        96 -10.5902    151.9934    226.8545   1.1549807260e+02   7.5789594568e+00    0.1783173    0.1675782  63.77  0.000267168    1.166    0.142
        97 -10.5017    164.3633    225.4437   1.1303300227e+02   5.5977183547e+00    0.2270371    0.1827638   1.86  0.001064756    1.747    0.428
        98  -9.3156     86.6016    226.2442   1.2715282246e+02   1.8361326947e+01    0.1244293   0.06796808  64.52 0.0003951265    1.680    0.405
        99 -10.3499    178.8518    224.6022   1.1024892460e+02   3.1095523986e+00    0.2676661    0.1625745  58.33  0.001403277    1.773    0.436
       100 -10.0933    121.4817    225.2647   1.2085144737e+02   1.3081765441e+01    0.2986514     0.089591  44.55   0.00121203    2.790    0.642
       101  -9.9516    228.2194    223.9616   1.0124775187e+02  -5.6067665962e+00    0.1637852    0.1378455  17.08 0.0003477008    1.082    0.076
       102  -9.7547    143.5447    223.6931   1.1661963831e+02   9.5800187585e+00    0.1604658    0.1174944 -77.07 0.0008140996    1.659    0.397
       103 -10.2815    106.3050    223.6662   1.2340051629e+02   1.5819394113e+01     0.258294    0.1468118  69.45  0.001388964    1.887    0.470
       104 -10.9204     99.6040    223.2578   1.2455396676e+02   1.6939062832e+01    0.3776097    0.1403546  52.40  0.001745992    2.348    0.574
       105 -11.1249     94.7908    221.1488   1.2518457903e+02   1.8053715115e+01    0.3003384    0.2379001  55.87  0.002056914    1.172    0.147
       106 -10.5405     85.0118    221.3556   1.2694085798e+02   1.9470842116e+01    0.1683786    0.1466992  85.13 0.0006043724    1.220    0.180
       107 -11.4455     63.2642    220.2165   1.3060689755e+02   2.2691831919e+01    0.2717735    0.1469226  71.78 0.0009034071    1.745    0.427
       108 -10.8279    196.7702    219.9086   1.0622595099e+02   5.3710869481e-01    0.2546389    0.2032096 -43.10  0.001206211    1.517    0.341
       109 -10.8561    193.4229    215.7044   1.0615716706e+02   1.7688593102e+00    0.2385213    0.2008858 -59.45  0.001483952    1.524    0.344
       110 -10.0525    125.0550    220.9824   1.1967074333e+02   1.3223576876e+01    0.2022024    0.1313976  73.67  0.001123977    1.703    0.413
       111 -10.5457     52.1034    220.9436   1.3255182636e+02   2.3983458026e+01    0.2441007    0.1299787  46.75  0.001217536    1.714    0.416
       112 -11.4671    133.8543    218.9905   1.1778482070e+02   1.2063848596e+01      0.36104     0.223629  38.61 0.0003439602    1.611    0.379
       113 -11.1070    132.4677    214.9524   1.1750371343e+02   1.3007180479e+01    0.2829779    0.2301156  40.60  0.001130636    1.277    0.217
       114  -9.6306    117.6572    220.3048   1.2094558569e+02   1.4576840341e+01    0.1305508   0.08102641  69.42 0.0007041151    1.685    0.406
       115 -10.6300      8.9068    207.4163   1.3864189943e+02   3.1178548528e+01    0.3243718   0.09497824 -72.12  0.001725133    2.703    0.630
       116 -11.8305      8.7523    218.9990   1.3934106674e+02   2.9094729911e+01    0.2240721    0.1220782  66.01 0.0003881406    1.410    0.291
       117 -13.4496     11.3619    215.9054   1.3876279355e+02   2.9397280573e+01    0.7457892    0.2609244  51.06  0.004460096    2.311    0.567
       118 -10.4989    217.5762    217.6704   1.0207301800e+02  -2.9144388477e+00    0.2338605    0.1691263  34.21 0.0006615329    1.157    0.136
       119 -10.7088    160.8229    217.8101   1.1257551010e+02   7.4544717607e+00     0.378782    0.1475662  44.16   0.00163852    2.165    0.538
       120 -10.9141    141.4636    217.3299   1.1613846087e+02   1.1016670666e+01    0.2128236     0.174095  54.57 0.0002359077    1.024    0.023
       121 -11.5079    103.4217    209.7928   1.2230701123e+02   1.8795807076e+01    0.3510111    0.2427294  40.14  0.002090141    1.536    0.349
       122 -10.4172    107.4704    216.4703   1.2235548014e+02   1.6920655894e+01    0.2264033    0.1738837  44.79  0.000711854    1.326    0.246
       123 -11.7377    108.7566    212.5844   1.2164840357e+02   1.7422509268e+01    0.4992103    0.3149628  45.73  0.002890212    1.443    0.307
       124 -10.6678    100.4178    217.8007   1.2380055044e+02   1.7794059061e+01    0.2831652    0.2472988  65.51  0.001789341    1.168    0.144
       125 -10.8211    103.1170    214.1666   1.2288597633e+02   1.8034229164e+01    0.2675396    0.2009039  67.05 0.0007384135    1.122    0.109
       126 -10.2248    152.2778    217.1000   1.1407568618e+02   9.1222792293e+00    0.1709066    0.1478374  63.67 0.0002042892    1.095    0.087
       127 -11.2372    146.1853    215.9294   1.1505462599e+02   1.0415107374e+01    0.2197078    0.2096459 -67.21 0.0004235889    1.244    0.196
       128 -10.9604    118.0055    212.0331   1.1984364279e+02   1.6000086778e+01    0.2366426    0.2025125  49.07 0.0003290481    1.210    0.173
       129 -12.4155    125.8407    215.4317   1.1881211295e+02   1.4064523009e+01    0.2477813     0.191467  57.02 0.0003317434    1.079    0.073
       130 -10.1866    121.8101    212.3673   1.1916935720e+02   1.5298647990e+01    0.2071035    0.1520829  52.59 0.0002347885    1.164    0.141
       131 -10.7539    118.0778    208.0764   1.1931451367e+02   1.6713262347e+01    0.2074272    0.1657791 -88.23 0.0005298266    1.257    0.205
       132 -10.7218    121.4919    199.1465   1.1743205594e+02   1.7803187430e+01    0.2234041    0.1953173 -80.17 0.0005787468    1.179    0.152
       133 -11.1564    121.2630    203.3399   1.1806238970e+02   1.7052237481e+01    0.2577176    0.2003011  67.04 0.0005759876    1.157    0.135
       134 -11.1599    117.1846    204.0665   1.1895194747e+02   1.7610460776e+01    0.2620483    0.2260574  17.15  0.001618886    1.651    0.394
       135 -11.5531     85.2309    215.1911   1.2626485680e+02   2.0569174501e+01    0.2893777    0.2048547  32.67 0.0009020327    1.888    0.470
       136 -10.8762     86.2759    211.6713   1.2569876359e+02   2.1072313099e+01     0.209475    0.1591608  80.63 0.0002868674    1.135    0.119
       137 -11.1495    172.4097    214.9784   1.0996784002e+02   5.7797195454e+00    0.2263085    0.1623501  46.56 0.0003531797    1.177    0.150
       138  -9.2028     59.6626    215.6474   1.3082098946e+02   2.4003680911e+01    0.1677922    0.1187702 -63.04  0.001142349    1.620    0.383
       139  -8.5814     60.3343    212.6486   1.3043546352e+02   2.4477425805e+01    0.4375566    0.1801067 -86.30  0.001923988    3.373    0.704
       140 -10.3167     57.2550    212.3961   1.3094940458e+02   2.4919501683e+01    0.2203472     0.126186 -62.98 0.0005988079    1.822    0.451
       141 -10.9533    231.3454    213.6503   9.8915489218e+01  -4.8190039115e+00    0.2386895    0.1501126 -49.11  0.001195861    2.290    0.563
       142 -10.3010    217.2200    212.7731   1.0129411503e+02  -2.1777108260e+00    0.1790559    0.1316561  20.17 0.0003483379    1.336    0.251
       143  -9.6871    160.3999    212.7956   1.1190288781e+02   8.3576871530e+00     0.155965    0.1260341 -32.94 0.0005283079    1.569    0.363
       144  -9.6703     70.5202    203.0188   1.2767115646e+02   2.4962993221e+01    0.2505018    0.1575622 -53.04  0.001228664    1.980    0.495
       145  -9.9717     68.6857    200.7265   1.2777182876e+02   2.5658126071e+01     0.175191    0.1273336  61.01  0.000253169    1.193    0.161
       146 -10.7966     70.4622    211.0327   1.2849217876e+02   2.3436911254e+01     0.279792    0.1756567 -60.35  0.001743183    1.756    0.431
       147 -11.5695     66.8497    206.7147   1.2871553699e+02   2.4746542185e+01    0.2959968    0.1952447  79.65  0.001150209    1.342    0.255
       148 -10.5106     94.2895    212.0310   1.2426809189e+02   1.9802176188e+01    0.1900825    0.1675798  37.33 0.0007098953    1.477    0.323
       149 -10.2947    142.7781    210.2582   1.1488864710e+02   1.2006661263e+01    0.2847688    0.1790489  73.45  0.001383425    2.080    0.519
       150 -11.9380     80.4396    208.4887   1.2642406246e+02   2.2522850065e+01    0.3943701    0.2280524 -82.24  0.002101636    1.787    0.440
       151 -10.5604    184.1887    199.0652   1.0509133661e+02   6.1275778748e+00    0.2258799    0.1918391 -45.98 0.0003936609    1.355    0.262
       152 -10.5722    184.0287    210.0139   1.0697874709e+02   4.3947303048e+00    0.1925687    0.1646926  39.42 0.0003245813    1.024    0.024
       153 -12.7071    183.4822    204.5853   1.0617528809e+02   5.3636875352e+00    0.3137007     0.248422 -49.62  0.001286887    1.486    0.327
       154 -11.3268    128.5011    207.7526   1.1727334069e+02   1.4985706029e+01    0.3268063    0.3046523  29.95  0.001528798    1.335    0.251
       155 -10.2981    132.2338    203.3259   1.1592392020e+02   1.5138895544e+01    0.2391521    0.1429705  53.48  0.000729807    1.489    0.329
       156 -12.0335    239.4812    206.1508   9.6128634653e+01  -5.2582737681e+00    0.7629255    0.3855571  -9.85  0.002995072    3.703    0.730
       157 -11.9022    244.8713    199.8606   9.4015602038e+01  -5.3693332398e+00    0.2830875    0.2427096  47.95  0.001172815    1.384    0.278
       158  -9.9049    236.5908    217.8387   9.8728069893e+01  -6.2693605960e+00    0.1604805    0.1154137 -42.56 0.0009557579    1.793    0.442
       159 -11.0130    199.7872    205.5794   1.0325640163e+02   2.1041111798e+00    0.2656866     0.188283 -31.23  0.001485037    1.630    0.386
       160 -10.3563      3.0145    206.1102   1.3949698290e+02   3.1960151573e+01    0.2623125    0.1800226  87.22  0.001438943    1.075    0.070
       161 -10.1460    144.9814    205.5508   1.1377010786e+02   1.2438900581e+01    0.1890561    0.1724504 -75.05  0.000551382    1.210    0.173
       162 -11.1834     98.7172    205.3102   1.2265059566e+02   2.0383946604e+01    0.2045738    0.1777419  68.04 0.0002668509    1.117    0.105
       163 -11.4882     95.8919    200.6746   1.2262287538e+02   2.1715445735e+01    0.3032066    0.1638021 -60.05  0.001027055    1.916    0.478
       164 -10.5600     59.1549    203.9947   1.2983965546e+02   2.6277155185e+01    0.1766918    0.1299908  73.75 0.0006658821    1.087    0.080
       165 -10.4438    137.5667    202.8114   1.1480672087e+02   1.4278568497e+01    0.2245589    0.1612368  40.47 0.0007622312    1.359    0.264
       166 -11.3013     52.2493    202.1049   1.3090330383e+02   2.7508684152e+01     0.217982    0.1830138 -76.75 0.0004038543    1.320    0.242
       167 -11.4127    239.4727    197.9742   9.4609678634e+01  -4.1558391501e+00    0.2560079     0.221091 -68.79 0.0009589527    1.794    0.443
       168  -9.9786    166.8459    202.1460   1.0897945954e+02   8.9469499276e+00    0.1715655    0.1478571  21.99 0.0002641697    1.296    0.228
       169 -11.5092    206.7773    198.7579   1.0072833134e+02   1.8163110540e+00    0.3423515    0.2596813 -74.51  0.001785187    2.144    0.534
       170 -11.5794    190.5175    200.9344   1.0420092162e+02   4.6009564722e+00    0.2594322    0.2336956  52.55  0.000596682    1.131    0.116
       171 -12.4062    188.5078    196.1036   1.0373400715e+02   5.7746983154e+00    0.2670599    0.2304009  45.45 0.0003678524    1.059    0.056
       172 -10.8953    149.9829    200.6522   1.1204077052e+02   1.2391025317e+01    0.2237364    0.1911406 -59.97 0.0005361472    1.313    0.239
       173 -10.2091     86.6307    201.2659   1.2446319662e+02   2.3007849939e+01    0.1582248    0.1053467 -60.17  0.000939303    1.607    0.378
       174  -9.9683    161.5074    198.9368   1.0949696185e+02   1.0520916616e+01    0.2746067     0.130786 -40.06  0.001119215    2.647    0.622
       175 -12.4431    228.2488    195.8513   9.6220705590e+01  -1.8079854631e+00    0.5231726    0.3119002 -18.49  0.001331061    2.059    0.514
       176  -9.9767    177.5655    199.0032   1.0636492886e+02   7.4205754238e+00    0.2158687    0.1528393  44.21 0.0002703722    1.234    0.190
       177 -10.7613    102.8712    198.6549   1.2101628268e+02   2.1004715233e+01    0.1858903     0.161005 -68.45 0.0003106111    1.274    0.215
       178 -12.5972    109.5964    197.6233   1.1956295762e+02   2.0108207667e+01    0.2411214    0.2084194  67.09 0.0003773282    1.055    0.052
       179 -11.3372    105.9919    194.4857   1.1985047091e+02   2.1312754839e+01    0.2964926    0.2544675  50.41 0.0005408587    1.215    0.177
       180 -11.0006     82.3870    196.1788   1.2467979824e+02   2.4629721121e+01    0.2121184    0.1629777  77.37 0.0003383057    1.113    0.101
       181 -10.6274     63.0886    196.2361   1.2834770982e+02   2.7284194747e+01    0.2546249    0.1303848  83.27 0.0009221825    2.301    0.565
       182 -12.7216     53.1426    192.9887   1.2987450906e+02   2.9187685134e+01    0.2986071    0.2068664  55.01 0.0004849197    1.339    0.253
       183 -12.8202     66.7198    191.0361   1.2710628216e+02   2.7841201279e+01    0.5857888    0.2956744  45.75  0.002382947    1.870    0.465
       184 -10.6989     57.4157    188.8349   1.2864930991e+02   2.9488282397e+01    0.1970688     0.151042 -73.45 0.0003537687    1.250    0.200
       185 -11.2601     60.7540    187.7524   1.2789528194e+02   2.9282986946e+01    0.2178011    0.1731506  69.95 0.0004868472    1.105    0.095
       186 -12.5066    216.4946    192.8767   9.7819868965e+01   8.5094326833e-01    0.4417026      0.40957 -34.18 -0.0004602537    1.248    0.198
       187 -11.9411    210.7097    191.4420   9.8632655125e+01   2.1878715841e+00    0.3511943    0.3042324  86.47  0.001075587    1.583    0.368
       188 -12.8283     38.8565    211.4227   1.3401551124e+02   2.7321367608e+01    0.3722341    0.2472884  60.44 0.0003893296    1.268    0.211
       189 -11.2752      4.4346    195.7304   1.3864516466e+02   3.3763210474e+01    0.2055979    0.1230864 -83.72 0.0002765908    1.266    0.210
       190 -12.2334      1.9894    192.2935   1.3883362919e+02   3.4625385727e+01    0.3346868    0.1198361 -66.67  0.001671779    2.349    0.574
       191 -10.6426    140.0154    194.6745   1.1308154537e+02   1.5335422361e+01    0.2077552    0.1845506 -80.74  0.001107662    1.184    0.155
       192  -9.6498     27.3006    205.2930   1.3549453487e+02   2.9742627807e+01   0.09181792    0.0750445 -65.52 0.0003580751    1.569    0.363
       193 -11.0127    250.1199    193.9819   9.1985107303e+01  -5.5045081351e+00    0.2423914    0.2037267  20.60 0.0008105881    1.053    0.050
       194 -11.5382    241.6591    192.7137   9.3220554259e+01  -3.8235707321e+00     0.344083    0.1629223  37.29  0.001541477    1.955    0.488
       195 -12.6290    246.0464    190.6831   9.2056938285e+01  -4.3326469065e+00     0.648252     0.394131  20.12 0.0008596582    1.814    0.449
       196 -10.8132    126.0025    193.1889   1.1566699399e+02   1.8152896760e+01    0.2084444    0.1769893 -77.47 0.0002645916    1.210    0.174
       197 -11.6774    117.0772    192.0715   1.1729755411e+02   1.9927223237e+01    0.2695696    0.2247072  22.66 0.0003057716    1.616    0.381
       198 -11.8840    120.7800    190.0130   1.1624678967e+02   1.9688641042e+01    0.4798094    0.3793194   7.68  0.001180802    2.072    0.517
       199 -10.1133    163.1731    192.8420   1.0814560465e+02   1.1280367144e+01    0.1994618    0.1733836  62.89            0    1.121    0.108
       200 -10.1665    164.0000    189.0318   1.0732200809e+02   1.1804185812e+01    0.3481623    0.1959513 -54.03  0.001620246    2.080    0.519
       201 -10.0705    148.2341    192.5789   1.1109574602e+02   1.4191060748e+01    0.1926971    0.1197495  36.70 0.0005386113    1.661    0.398
       202  -9.6828     86.4787    191.9927   1.2338024560e+02   2.4859629250e+01    0.1740532    0.1126265 -68.65   0.00100206    1.502    0.334
       203 -10.8913    188.4620    190.4966   1.0272939812e+02   6.7151086886e+00    0.2437891    0.2120755  17.96  0.000581309    1.199    0.166
       204 -11.7649    191.7608    187.8135   1.0158882814e+02   6.5098077326e+00    0.6680055    0.2793328  48.88  0.002687166    2.255    0.556
       205 -10.3152    197.5466    186.4038   1.0019716665e+02   5.5906041664e+00    0.2025936    0.1788654   0.63 4.898134e-05    1.212    0.175
       206 -10.4739    178.0942    189.7086   1.0462682839e+02   8.9048007019e+00    0.2823295    0.1971127 -64.18  0.001408031    1.900    0.474
       207 -10.5418     91.7470    189.4344   1.2201378647e+02   2.4576184941e+01     0.219357    0.1581985 -70.94  0.000786869    1.347    0.258
       208 -11.0447     80.0351    189.4759   1.2433888898e+02   2.6309646974e+01    0.4587116    0.2689578  36.24  0.002488994    1.982    0.496
       209 -10.1543     83.5341    188.4556   1.2352265305e+02   2.6006883592e+01    0.2200617    0.1482975  41.78 0.0008823746    1.562    0.360
       210 -11.8469    130.0263    188.4723   1.1412953199e+02   1.8344379240e+01    0.2822671    0.2302422  80.10 0.0004400773    1.230    0.187
       211 -10.8278    221.0960    186.5188   9.5745985493e+01   9.3335709205e-01    0.2455749    0.2078123  68.09 0.0007510324    1.526    0.345
       212 -10.2707    105.0010    187.2655   1.1905168659e+02   2.2908526578e+01    0.2222924    0.1663972 -68.46 0.0004109469    1.338    0.253
       213 -11.4975    103.9322    182.9254   1.1865103432e+02   2.3960962365e+01    0.3134495    0.1865134  58.92  0.001606271    1.649    0.394
       214 -12.1829    104.2071    178.2000   1.1790061660e+02   2.4883019448e+01    0.8173035    0.4458016  77.48  0.003330297    2.986    0.665
       215 -10.8224    100.9162    175.9092   1.1825098294e+02   2.5894939817e+01    0.2157184    0.1714578  76.36  0.001277834    1.178    0.151
       216  -9.9112     42.9078    187.5131   1.3125198923e+02   3.1491317852e+01    0.1501856    0.1015282  48.78 0.0004129383    1.490    0.329
       217 -12.2469     15.8039    183.3666   1.3584028394e+02   3.5114201352e+01    0.8330024    0.3563582  37.54   0.00493342    2.548    0.608
       218 -12.3396      8.4725    183.3986   1.3713622501e+02   3.5770130519e+01    0.2973598    0.1719017  36.77  0.001667133    2.067    0.516
       219 -12.1903      6.6796    180.2584   1.3722666069e+02   3.6538265593e+01    0.2756969     0.191169 -84.68 0.0002042203    1.106    0.095
       220 -11.0544    156.4623    184.9950   1.0814468627e+02   1.4020587352e+01    0.3554333    0.2221442  35.91  0.001201321    1.665    0.399
       221 -10.6950     75.2477    185.5337   1.2480854903e+02   2.7789701876e+01    0.2276641    0.1480714 -72.24  0.001067029    1.430    0.301
       222 -10.8111     27.4132    179.8575   1.3343970586e+02   3.4689511916e+01    0.2367835    0.2007878  38.19   0.00141811    1.582    0.368
       223 -11.8888     31.8872    176.2347   1.3226985905e+02   3.4965796231e+01    0.2425992    0.1837762  82.27  0.000487567    1.061    0.057
       224 -11.5343     33.2578    185.2483   1.3283270566e+02   3.3005952430e+01    0.2890335    0.2590505  45.90  0.002261663    1.493    0.330
       225 -10.2015     29.5539    183.5149   1.3336257597e+02   3.3739241274e+01    0.1913469   0.08782179 -71.04  0.000574595    1.809    0.447
       226 -11.0035    172.9879    183.1468   1.0445398220e+02   1.1083624591e+01    0.3762337    0.2513543  70.45 0.0005912943    2.032    0.508
       227 -10.4291    177.0101    183.0000   1.0361632330e+02   1.0301351876e+01    0.2696084    0.1806578  48.82 0.0008344442    1.367    0.268
       228 -10.9348    137.7315    185.0850   1.1200526018e+02   1.7585399033e+01    0.2449872     0.179242  17.19  0.001062754    2.068    0.516
       229  -9.9611     67.2806    185.0023   1.2631965525e+02   2.8987800915e+01    0.1717584    0.1311068  89.46 0.0004413483    1.114    0.102
       230 -11.3726    225.6354    183.5143   9.4318296969e+01   5.1423046482e-01    0.3230027    0.2191273  -2.69 0.0009028774    1.852    0.460
       231 -11.3008    118.4926    177.8343   1.1484034515e+02   2.2522306051e+01    0.2670365    0.2077613  41.75 0.0005357045    1.325    0.245
       232 -10.7201    122.6921    183.0668   1.1479063429e+02   2.0724963963e+01    0.2511861    0.1938511  67.12 0.0007438638    1.236    0.191
       233 -10.0151     78.8454    183.7922   1.2387688624e+02   2.7636325822e+01    0.1745258    0.1533016 -83.32 0.0006401223    1.157    0.136
       234 -10.8012     43.9977    182.2260   1.3053589591e+02   3.2432984475e+01    0.2819923    0.1514247 -87.21   0.00124229    1.764    0.433
       235 -10.4467     47.8087    181.6617   1.2974850964e+02   3.2107645236e+01    0.1874314    0.1725606 -51.28 0.0005217606    1.526    0.345
       236 -11.2215    230.8263    181.9518   9.3058233834e+01  -2.4845548182e-01    0.2425652    0.1928205 -52.25  0.001356187    1.623    0.384
       237  -9.2152    165.2899    182.2677   1.0585601748e+02   1.2783844496e+01    0.1322988    0.1070385  17.04 0.0006910048    1.504    0.335
       238 -10.1245     62.1714    179.7534   1.2672675464e+02   3.0734912579e+01    0.2255972    0.1370946 -89.52 0.0009046302    1.619    0.383
       239 -11.3443     58.0782    180.6108   1.2763472355e+02   3.1078491472e+01    0.2710253    0.1829689  80.50 0.0004469882    1.348    0.258
       240 -11.1568     54.1153    180.4579   1.2839667331e+02   3.1600156233e+01    0.3234786    0.1959717  67.80  0.001415879    1.577    0.366
       241  -9.8888    190.5697    180.5987   1.0045572469e+02   7.9773364742e+00    0.3216954     0.213935  88.79  0.001273527    3.175    0.685
       242 -10.8123     91.9536    180.2158   1.2073858634e+02   2.6422676043e+01    0.2521753    0.1735222 -68.33 0.0005485621    1.405    0.288
       243 -10.3500     83.1808    180.4869   1.2257611707e+02   2.7687881056e+01    0.2541106    0.1510324 -86.85  0.001304123    1.896    0.473
       244 -10.9665     39.2991    179.2912   1.3114573772e+02   3.3554961111e+01    0.3032479    0.1687519 -49.50  0.001708367    2.380    0.580
       245  -9.9850    153.9632    180.4724   1.0786081563e+02   1.5362021884e+01    0.2187909    0.1267702  48.04 0.0008228406    1.574    0.365
       246  -9.8266    132.4409    180.4940   1.1234466879e+02   1.9468187930e+01    0.1371992    0.1227898  68.02 0.0001303188    1.009    0.009
       247 -12.3079     72.8541    178.4553   1.2442104244e+02   2.9579275694e+01    0.3935084    0.3032715  44.13  0.002505429    1.414    0.293
       248 -12.1473     78.7947    174.3300   1.2266672193e+02   2.9605359082e+01    0.3958356    0.2675555  62.24  0.001047128    1.410    0.291
       249 -10.6618     19.9588    178.5282   1.3470402989e+02   3.5683192503e+01      0.14393   0.09850234  46.65 0.0007364678    1.576    0.365
       250 -11.3290    136.9515    174.7741   1.1042166767e+02   1.9761686763e+01     0.433131    0.1936345 -46.08 0.0008878313    2.498    0.600
       251  -9.2467     48.2741    177.6797   1.2924433370e+02   3.2868467614e+01    0.1203184   0.07337266  77.28 0.0003075148    1.572    0.364
       252 -11.1884    131.7034    174.5694   1.1150111187e+02   2.0789266782e+01     0.329057    0.2363297 -28.77  0.001060967    2.029    0.507
       253 -10.8722    188.8952    173.9204   9.9485644625e+01   9.4878277407e+00    0.4369092    0.2561983  64.04   0.00180236    2.399    0.583
       254 -11.3278    157.5726    173.2971   1.0580006277e+02   1.6019064690e+01    0.4310315    0.2051569  47.06  0.001020558    1.940    0.485
       255 -12.1506    172.4754    173.6085   1.0276136014e+02   1.2931404730e+01    0.3642211    0.2386981  42.14 0.0001780714    1.423    0.297
       256 -10.3411     70.1611    173.8641   1.2439533831e+02   3.0905037496e+01    0.1871765    0.1410658  83.55 0.0002948202    1.187    0.157
       257 -10.1605      2.0691    173.9501   1.3759384354e+02   3.8158446102e+01     0.149801    0.1031024 -59.67 0.0006744665    1.634    0.388
       258  -9.6617     54.8275    175.1591   1.2766992833e+02   3.2607122151e+01    0.1517591    0.1258118 -65.25 0.0003730851    1.313    0.239
       259 -11.3094     87.5488    172.5401   1.2058376016e+02   2.8694259769e+01    0.2552437    0.1921491  55.64 0.0009008116    1.259    0.206
       260 -11.3527     86.3128    169.6924   1.2043938449e+02   2.9480993401e+01    0.2808438     0.184728 -59.73  0.001114668    1.484    0.326
       261 -10.1328    106.5212    172.4870   1.1653766741e+02   2.5682283645e+01    0.1942102    0.1272152  34.70 0.0009860373    1.770    0.435
       262 -10.4892    109.2626    169.7634   1.1551524121e+02   2.5787983571e+01    0.2857596    0.1913456  89.33 0.0008859808    1.808    0.447
       263  -9.4848     93.7759    173.9719   1.1947321141e+02   2.7436837007e+01    0.1632319    0.1001584 -62.77 0.0004083788    1.587    0.370
       264 -11.9347     64.1514    170.5013   1.2521550344e+02   3.2408443865e+01    0.3945351    0.2508579  35.33  0.002274439    1.863    0.463
       265  -9.3323     25.6644    171.7046   1.3304053715e+02   3.6511696406e+01     0.101914   0.07697567 -53.06 0.0007028753    1.647    0.393
       266 -11.5301     13.5391    169.9951   1.3518994770e+02   3.7979017162e+01    0.2169754    0.1686362  28.93 0.0005374519    1.818    0.450
       267  -9.7681    100.9919    170.0442   1.1734382509e+02   2.7108183968e+01    0.1580017    0.1389463  79.22 0.0003494321    1.008    0.008
       268 -11.3927     31.3040    169.3911   1.3172856341e+02   3.6425618277e+01    0.2089802     0.146699  83.21   0.00017813    1.187    0.158
       269 -10.1371    114.5344    168.8070   1.1421704265e+02   2.5077823152e+01    0.2208182    0.1704847  68.62 0.0005926692    1.274    0.215
       270 -10.0808    237.2988    178.0560   9.1107704013e+01  -9.0216919431e-01    0.1809116    0.1624178   5.38 0.0003989001    1.046    0.044
       271  -9.9268    147.1988    178.2537   1.0887429774e+02   1.7109041787e+01    0.2121524    0.1078426 -59.70 0.0008748509    2.432    0.589
       272  -9.7579      5.8249    169.0890   1.3655149874e+02   3.8814584648e+01    0.1252986    0.1030374 -78.25 0.0004848843    1.264    0.209
       273  -9.9827      1.6232    169.1417   1.3732554112e+02   3.9142280053e+01     0.140117   0.07178887 -69.27 0.0003464778    1.579    0.367
       274 -10.5419    195.1140    168.1029   9.7070798915e+01   9.2214548320e+00     0.216758    0.1840988  20.27 0.0003543257    1.219    0.180
       275 -11.1282     50.1648    164.7945   1.2742566640e+02   3.5334749048e+01     0.464304    0.2563317 -44.02  0.002381486    2.605    0.616
       276 -10.8424     47.6778    159.3206   1.2729488703e+02   3.6780521256e+01    0.2564387    0.1294368 -81.27 0.0008321927    2.000    0.500
       277 -11.0826     81.9600    166.1620   1.2086517782e+02   3.0875080720e+01    0.3087848    0.1890267  36.23  0.001634686    1.864    0.464
       278 -10.3323     74.5898    165.4521   1.2234962794e+02   3.2076914150e+01    0.2690482    0.1953872  23.18   0.00119262    1.989    0.497
       279 -10.1074     40.8686    166.2781   1.2950074763e+02   3.6068524320e+01    0.1562848    0.1291396  86.53  0.001115098    1.072    0.067
       280 -10.8395    159.2501    164.4742   1.0375369078e+02   1.7392555619e+01    0.2521847    0.1962167 -48.18  0.000496521    1.371    0.271
       281 -10.5673    123.7257    164.9653   1.1155295705e+02   2.4233004751e+01    0.2702721     0.185542  15.12  0.001187528    2.564    0.610
       282  -9.4763     61.3663    165.2838   1.2514098799e+02   3.3869559965e+01    0.1124171   0.09362405 -36.06 0.0007018128    1.692    0.409
       283 -10.7415    143.8524    162.8633   1.0676195249e+02   2.0823216753e+01    0.1961615    0.1610521  78.56            0    1.315    0.239
       284 -10.4279    102.2332    163.4503   1.1602554060e+02   2.8300229593e+01    0.4483621    0.1197217  42.73   0.00152681    3.581    0.721
       285 -10.1863     11.5509    163.4836   1.3502044156e+02   3.9465131222e+01    0.1801366     0.140355  59.72 0.0008836811    1.339    0.253
       286 -10.4350      8.4122    162.1875   1.3551248673e+02   3.9988183248e+01    0.2406859    0.1115781 -78.10  0.001440088    1.678    0.404
       287 -10.3466    203.1314    161.8087   9.4171933119e+01   8.6375228813e+00    0.2134217    0.1989688  80.46  0.000567222    1.240    0.193
       288 -12.1679    107.3964    158.1473   1.1398636503e+02   2.8566514668e+01    0.2435152    0.2287381  88.22 0.0002994738    1.073    0.068
       289 -12.3561     33.9827    157.9763   1.3000921455e+02   3.8530782176e+01    0.3898541    0.1899513  57.12 0.0003561846    2.175    0.540
       290 -11.0619    190.5850    157.1756   9.5699847662e+01   1.2151653464e+01    0.3091573    0.2353103  60.81 0.0005002315    1.428    0.300
       291 -11.6660     24.4324    158.0018   1.3197048873e+02   3.9450390154e+01    0.2023198    0.1542241  42.22 3.529361e-05    1.551    0.355
       292  -9.4399     11.2842    158.3069   1.3462294119e+02   4.0540625688e+01    0.1019596   0.06884314 -57.69 0.0003045774    1.564    0.361
       293  -9.3603      5.4369    158.4495   1.3577283393e+02   4.0982477930e+01    0.1077767    0.0787936 -85.84 0.0001507003    1.015    0.015
       294 -10.9999    140.0114    156.9886   1.0647168844e+02   2.2785159987e+01    0.2251383    0.1948201  55.34  0.001237638    1.096    0.088
       295 -11.8463    137.5294    154.5262   1.0654171834e+02   2.3784599170e+01    0.5425328    0.3478047 -69.48  0.002014008    1.964    0.491
       296 -10.3157     85.1846    155.8849   1.1860786243e+02   3.2609384373e+01    0.2902375    0.1488096 -47.87  0.001345026    2.168    0.539
       297 -10.6217    183.9644    156.0677   9.6822378602e+01   1.3785314252e+01    0.2181641     0.205662  44.68 0.0003564482    1.015    0.015
       298 -10.1002    155.8428    155.8257   1.0275506150e+02   1.9811096151e+01    0.2043273     0.168812  75.59 0.0006179516    1.333    0.250
       299 -10.6802    124.2739    155.9533   1.0979235655e+02   2.6023274681e+01    0.2263975    0.1895276  57.01  0.000424216    1.143    0.125
       300 -10.5757    113.4205    154.1197   1.1191024465e+02   2.8383300918e+01    0.3228451    0.2219654 -78.91  0.001050735    1.698    0.411
       301 -10.7460     36.1178    153.2775   1.2903425098e+02   3.9306898797e+01    0.2637094    0.1407766 -79.62  0.001009417    1.676    0.403
       302  -9.9552     41.6155    153.0323   1.2782986167e+02   3.8786585741e+01    0.1630816    0.1209357 -77.44 0.0004915452    1.104    0.094
       303 -10.4030     19.3553    153.2465   1.3253014387e+02   4.0896961265e+01    0.2739668    0.2006826  36.30  0.001521514    1.694    0.410
       304 -10.2483     21.6556    149.7026   1.3169260262e+02   4.1433985472e+01    0.1932913    0.1521727 -20.90  0.001285422    2.032    0.508
       305 -10.5573    225.6232    151.6045   8.7665222717e+01   5.6217477917e+00    0.2958724     0.242775 -76.30  0.001525106    1.700    0.412
       306 -10.7280    249.0481    151.0069   8.3363826707e+01   9.3718441291e-01    0.2051684    0.1902583  -3.75  0.000331845    1.048    0.045
       307 -11.6958     98.2107    149.2731   1.1453202008e+02   3.2015728850e+01    0.3566079    0.2279145  25.84  0.001690574    2.197    0.545
       308 -10.1941     37.5334    147.9897   1.2810370193e+02   4.0288578038e+01    0.1720971    0.1450243  55.76 0.0008513723    1.308    0.235
       309  -9.7791    195.7524    146.0442   9.2215839765e+01   1.3068761048e+01    0.1832618    0.1274885 -40.37 0.0004268711    1.492    0.330
       310 -10.9495     14.5327    144.1863   1.3261930508e+02   4.3189611052e+01    0.3415581    0.1493536 -57.29   0.00191909    2.036    0.509
       311 -10.3716    237.1246    145.0370   8.4129092894e+01   4.2983688777e+00    0.2150184    0.1779657   8.05 0.0003621951    1.252    0.201
       312 -10.5312    165.0595    145.2651   9.8506017358e+01   1.9970448432e+01    0.3985641    0.1654875  35.49  0.001272806    3.274    0.695
       313  -9.7330    158.4840    144.5477   9.9795151844e+01   2.1528331090e+01    0.1483124    0.1421712  45.23 3.452369e-05    1.042    0.040
       314 -10.4948     52.9052    143.9609   1.2414300497e+02   3.9486989864e+01    0.1834849    0.1499636 -82.59 0.0003592903    1.036    0.035
       315 -10.3721     24.8188    144.4059   1.3044629420e+02   4.2266598279e+01    0.1742343    0.1219031  21.81 0.0009199675    2.027    0.507
       316 -11.3551     22.4006    141.4582   1.3063964836e+02   4.3102543764e+01    0.3654683    0.1539823 -57.80  0.001449666    2.034    0.508
       317 -10.1994    123.7871    142.7558   1.0733203378e+02   2.8927094465e+01    0.1967858    0.1938486  13.25 0.0004570083    1.148    0.129
       318 -10.1784      3.4981    149.9421   1.3542846806e+02   4.2858639727e+01    0.1666895   0.08064257 -75.58  0.000781183    1.555    0.357
       319  -9.3971     84.5999    143.5410   1.1671208270e+02   3.5391709796e+01    0.1335575     0.115089 -84.87 5.023518e-05    1.064    0.060
       320 -12.7016    132.4820    140.6609   1.0487090609e+02   2.7695670858e+01    0.2814616     0.265246 -89.90  0.000296865    1.033    0.032
       321 -10.5867     93.2204    142.0945   1.1441938391e+02   3.4386305566e+01    0.2008159    0.1864934 -51.28  0.001229713    1.184    0.155
       322 -10.2938      4.8013    141.2278   1.3436959517e+02   4.4548914317e+01    0.2491502    0.1313465  32.47  0.001602253    2.328    0.571
       323  -9.6282     62.6165    140.1921   1.2133764576e+02   3.9139943937e+01    0.1682229     0.101935 -55.74 0.0002469853    1.519    0.342
       324 -10.0628    224.0295    139.3802   8.5226424082e+01   8.0244688085e+00    0.2011614    0.1779682  41.17 0.0004319126    1.120    0.107
       325  -9.6739     59.6571    139.2860   1.2189284123e+02   3.9704331119e+01    0.1280274   0.08661185  75.04 0.0002291304    1.643    0.391
       326  -9.9961     97.6003    137.7076   1.1255796367e+02   3.4645770050e+01    0.2697648    0.1730764  26.43  0.001000679    2.097    0.523
       327 -10.9814     35.7439    137.9319   1.2723927332e+02   4.2623713606e+01    0.1864358    0.1584787  74.76 0.0003529463    1.189    0.159
       328  -9.8974      6.9310    137.4946   1.3355618278e+02   4.5165396285e+01    0.1265231    0.1079728  40.57 0.0005026194    1.502    0.334
       329 -10.9082     77.1357    135.0378   1.1701867716e+02   3.8344678653e+01    0.2394107     0.193435 -78.91 0.0007072197    1.161    0.139
       330  -9.9503     76.0000    130.9685   1.1657241584e+02   3.9401224000e+01    0.1897218    0.1597997 -67.95 0.0003037183    1.060    0.056
       331 -12.2517     44.0877    135.4769   1.2498088292e+02   4.2305777504e+01    0.3704069    0.1924083  49.00  0.001343594    2.115    0.527
       332 -10.6987     41.2679    131.0071   1.2500819372e+02   4.3567630381e+01    0.2605875    0.1546379 -52.91 0.0008450887    1.581    0.367
       333 -11.3890    195.9570    133.5222   8.9305413731e+01   1.5340044170e+01    0.2685519     0.219942 -35.63 0.0003220747    1.253    0.202
       334  -9.5026    136.3008    132.3108   1.0216659341e+02   2.8701824670e+01    0.1445606    0.1193226  -3.23 0.0004133642    1.605    0.377
       335 -11.8405     26.2880    130.0254   1.2839272692e+02   4.5193370957e+01    0.2540622    0.1782235  56.79 0.0003811149    1.559    0.359
       336 -13.2437    156.5972    128.7729   9.6652244772e+01   2.5145654617e+01    0.3362999    0.3302687 -85.63  0.000595023    1.025    0.024
       337 -12.0745    123.0954    129.1169   1.0461424140e+02   3.1990966973e+01    0.3109888    0.2733992  84.21  0.001699139    1.195    0.163
       338 -10.5759     51.3776    127.7867   1.2208419037e+02   4.3189685733e+01    0.2429692    0.1264426 -55.10  0.001273337    1.680    0.405
       339  -9.6313    146.9993    130.0000   9.9140984586e+01   2.6964050132e+01    0.2483031   0.08416034  46.01 0.0007966686    2.903    0.655
       340  -9.6486      1.4525    128.9599   1.3388111365e+02   4.7310892617e+01     0.155129   0.07157161  84.13 0.0008075648    2.449    0.592
       341 -11.5654     62.0177    128.9311   1.1966066243e+02   4.1687336235e+01    0.4387458    0.1523987 -57.63  0.001845901    2.423    0.587
       342  -9.6494     36.3104    128.2984   1.2580210519e+02   4.4644981380e+01    0.1154871   0.07960016 -44.93 0.0002734254    1.599    0.375
       343 -10.8018     19.5853    126.5819   1.2951473873e+02   4.6486997388e+01    0.2951746    0.1621063 -39.74  0.001665926    2.375    0.579
       344 -10.7417     91.8839    126.4812   1.1176634807e+02   3.8032108061e+01    0.2372054    0.1771858 -56.85 3.079002e-06    1.245    0.197
       345 -10.3451     55.0789    124.6524   1.2066033447e+02   4.3455081650e+01    0.1671023    0.1509322 -71.37 0.0004362764    1.082    0.076
       346 -10.5623     22.6952    130.6968   1.2930597834e+02   4.5358076319e+01    0.1642001    0.1533643 -59.92 0.0003304495    1.290    0.225
       347  -9.8870    108.5030    123.5078   1.0697625653e+02   3.5898738496e+01    0.1407494    0.1339126 -68.35 -9.099143e-05    1.018    0.018
       348  -9.2782    207.7110    130.2767   8.6208819541e+01   1.3256421034e+01    0.1432588    0.1194021 -81.78            0    1.518    0.341
       349 -10.1652     38.4420    123.0137   1.2451628438e+02   4.5580721483e+01    0.1827795   0.09694645 -64.18 0.0004442288    1.532    0.347
       350 -10.1129      7.1633    123.1329   1.3197387046e+02   4.8135844532e+01    0.1419623    0.1052765  83.01 0.0003211741    1.278    0.218
       351  -9.9089      2.4430    123.4136   1.3308003928e+02   4.8392595788e+01    0.1083045   0.08091682 -79.40 4.128694e-05    1.035    0.034
       352  -9.7211    138.9598    121.6758   9.9086602775e+01   3.0394060701e+01    0.2051823    0.1937738  50.55 0.0005393609    1.058    0.055
       353 -11.8724     69.6029    119.2706   1.1601750682e+02   4.2844213993e+01    0.4989217    0.2629074 -43.69  0.002375997    2.020    0.505
       354 -10.4436     48.2777    130.9346   1.2332340409e+02   4.2844610344e+01    0.1913683    0.1774017 -44.65 0.0005594454    1.283    0.220
       355 -10.1007     14.4931    121.9650   1.3013356689e+02   4.7856464749e+01    0.1747931    0.0863134 -68.81 0.0006085086    1.545    0.353
       356 -11.0568     83.7918    119.9840   1.1250634602e+02   4.0700045152e+01    0.3419447    0.2626522  78.84  0.001881184    1.525    0.344
       357 -11.1484     92.9670    118.5493   1.0984702965e+02   3.9600154901e+01    0.3633264    0.1889884 -63.78  0.001549204    2.161    0.537
       358 -11.0859     30.9542    119.8427   1.2588727688e+02   4.6963153700e+01    0.2672415    0.1469867  35.84 0.0006252032    2.127    0.530
       359 -11.7294     20.0020    110.1540   1.2721446529e+02   4.9935580678e+01    0.3650905    0.2126792 -65.81  0.001432722    1.328    0.247
       360 -11.8570     20.0678    118.5015   1.2835809704e+02   4.8162261787e+01    0.3038431     0.194176  17.46  0.001876588    2.207    0.547
       361 -11.8976     23.9954    115.8326   1.2702818044e+02   4.8415016530e+01    0.3047896    0.2056462 -88.62 0.0008873679    1.463    0.317
       362 -11.2282      1.9898    117.2442   1.3250228905e+02   4.9698584756e+01    0.3133699    0.1696172  85.87  0.001885305    1.916    0.478
       363 -12.3029      3.5475    112.1080   1.3153275560e+02   5.0665120825e+01    0.2882068    0.1872546 -64.77 0.0003812517    1.179    0.152
       364  -9.9664     54.9738    117.7214   1.1949655619e+02   4.4983125019e+01    0.1658153    0.1503017 -72.35 0.0005014463    1.072    0.067
       365 -10.9392     88.1107    114.5929   1.1025746554e+02   4.1226424759e+01    0.3826606    0.1867801 -55.71  0.001201983    1.919    0.479
       366 -11.1513     33.5170    114.4477   1.2443526517e+02   4.7891291310e+01    0.3106532    0.1899856 -62.29  0.001884766    1.311    0.237
       367  -9.8728     60.5609    114.4714   1.1745620190e+02   4.5035861228e+01     0.127667    0.1095057 -67.13 0.0001634885    1.022    0.022
       368 -10.3783     50.3655    113.4948   1.1994016199e+02   4.6418394722e+01    0.3226941    0.1805592  69.56  0.001479278    2.878    0.653
       369 -10.3619     74.8422    111.7900   1.1316064897e+02   4.3775712729e+01    0.2075862    0.1786621  14.28 0.0009715419    1.417    0.294
       370 -10.9708     37.0021    107.9390   1.2247744207e+02   4.8967937383e+01    0.3400995    0.1672529 -72.72  0.001209155    2.036    0.509
       371 -10.4511     44.5095    106.7775   1.2028240606e+02   4.8486742198e+01    0.2016064    0.1653128  36.36  0.001344038    1.448    0.310
       372 -10.0322     63.8853    106.1286   1.1493308912e+02   4.6442417022e+01    0.1826964    0.1561934 -77.71 0.0003383223    1.175    0.149
       373 -10.8450     87.4581    104.6358   1.0820795388e+02   4.3482828270e+01    0.2155092    0.2116704 -82.36 0.0001922294    1.079    0.074
       374 -10.6927     29.1958    103.7685   1.2384395217e+02   5.0550974188e+01    0.1664346    0.1334604 -72.82 0.0004024285    1.097    0.088
       375 -11.2695     19.6131    103.4613   1.2632097748e+02   5.1376758900e+01    0.2012561    0.1646174 -67.04  0.001476882    1.050    0.047
       376  -9.8103    234.0108    102.4921   7.4756575492e+01   1.2039061621e+01    0.2041647    0.1448592  55.57 0.0004322139    1.459    0.315
       377 -10.8496    135.3278    101.4100   9.4903905383e+01   3.5345662668e+01    0.2686901    0.2506163 -89.80   0.00100329    1.152    0.132
       378 -12.9877    106.4986     97.7572   1.0139102797e+02   4.1758612341e+01    0.3506754    0.2905059 -37.71 0.0005678426    1.183    0.155
       379 -11.6805     84.1755    100.4262   1.0812106464e+02   4.4883440429e+01     0.402974    0.2786568  12.57  0.001552803    2.056    0.514
       380 -10.6062      8.9776     99.5036   1.2851198679e+02   5.2937808985e+01    0.2036337    0.1545175  70.18 0.0007458491    1.520    0.342
       381 -11.3730      4.9622     98.2484   1.2937996867e+02   5.3444899500e+01    0.4702634    0.1460791 -53.21  0.002320583    2.412    0.585
       382 -10.0837     43.9474    100.4874   1.1926887018e+02   4.9891553574e+01    0.1596956    0.1217133  33.31 0.0008764166    1.564    0.361
       383 -10.8554     24.3468     96.8308   1.2398886519e+02   5.2408983680e+01    0.2138972    0.1379709 -77.13 0.0008166581    1.488    0.328
       384  -9.2556    177.2673     99.2681   8.4655829229e+01   2.6180582368e+01    0.1478594    0.1204846  14.76            0    1.467    0.318
       385 -12.4591     55.2746     96.7389   1.1536074107e+02   4.9481371100e+01    0.3942628    0.2120653 -61.36  0.000408661    1.691    0.409
       386 -11.5820     74.9778    102.1513   1.1104806177e+02   4.5842985091e+01    0.3437548    0.2365211 -50.40  0.001272164    1.298    0.230
       387 -10.0683    124.9845     97.5015   9.6476695051e+01   3.8279500832e+01    0.2416636    0.1841438 -42.66 0.0009206766    1.288    0.223
       388  -9.2043    168.6868    101.3651   8.7070668589e+01   2.7831319685e+01    0.1621901    0.1224803 -76.94 0.0007039342    1.763    0.433
       389 -10.2920     62.7165     96.1380   1.1313034502e+02   4.8729416165e+01    0.1865517     0.170763  65.40 0.0003280853    1.251    0.201
       390 -11.1211     33.9778     94.0738   1.2082854725e+02   5.2188581110e+01      0.34094      0.17279 -43.48  0.001015152    1.892    0.472
       391 -11.8260    113.6283     91.2390   9.7766260751e+01   4.1776678586e+01    0.3448852    0.2429823  40.68 0.0003653133    1.474    0.321
       392 -11.7700     24.0638     91.5624   1.2315348525e+02   5.3531988391e+01    0.3349021    0.1985707 -39.49  0.001945441    1.718    0.418
       393 -11.2385     77.9684     87.6552   1.0675316426e+02   4.8477017426e+01    0.3499604    0.2051582 -26.88  0.001484451    2.300    0.565
       394 -10.8637      6.4397     89.4204   1.2768986267e+02   5.5169511770e+01     0.211371    0.1237835  48.91 0.0008952662    2.223    0.550
       395 -10.4022    172.0134     90.1061   8.3316559834e+01   2.9146100019e+01    0.2193363    0.2161754  57.76 0.0003100396    1.011    0.010
       396 -11.4799     88.7343     87.9757   1.0375359420e+02   4.6785096932e+01    0.3547966    0.3050242 -35.41  0.001448904    1.101    0.091
       397 -12.3452     63.1544     87.1672   1.1094414699e+02   5.0559886320e+01    0.2820095    0.2532956  68.29 0.0003950275    1.330    0.248
       398  -9.3974     13.3216     89.2765   1.2576529124e+02   5.4770286987e+01     0.111758   0.06728084 -42.93 0.0002668338    1.579    0.367
       399 -10.6417    154.2360     85.9839   8.6143776839e+01   3.4137508689e+01     0.322499    0.2668108  47.91  0.001230245    1.191    0.161
       400 -11.5968     29.5871     85.4369   1.2042652096e+02   5.4362737755e+01    0.3962741    0.3007657  -7.28  0.002445077    1.663    0.399
       401  -9.1911    180.3191     86.6378   8.0617948540e+01   2.7747129245e+01    0.1631111    0.1206964 -73.15 0.0007041834    1.771    0.435
       402 -10.5259    127.8313     85.8270   9.2548409872e+01   4.0016334268e+01    0.2257673    0.2051314  -4.86  0.001223937    1.156    0.135
       403 -10.3789     48.4435     85.4951   1.1489019680e+02   5.2588852115e+01    0.2106915    0.1507033 -48.59 0.0001498377    1.175    0.149
       404 -11.6225     52.0070     82.5862   1.1316390445e+02   5.2806951646e+01    0.4818254    0.2750242  49.16  0.002507233    2.342    0.573
       405 -12.0179      9.3987     85.6370   1.2626353422e+02   5.5764233804e+01    0.2049032    0.1746709 -47.13 0.0001840298    1.198    0.165
       406 -10.5689    132.4502     82.6240   9.0460413179e+01   3.9654536187e+01    0.2605273    0.2387115  13.78  0.001415637    1.128    0.114
       407  -9.9090     98.6516     83.7039   9.9804242099e+01   4.6008700286e+01     0.141904    0.1071442  -6.04 0.0007033543    1.678    0.404
       408 -10.9500     20.2388     82.0785   1.2251566776e+02   5.5771927431e+01    0.1870072    0.1610978  27.12 0.0007661634    1.465    0.317
       409 -10.9464    154.0922     79.2932   8.4272753982e+01   3.5397670518e+01    0.3097924     0.220237 -47.87 0.0009902387    1.488    0.328
       410 -10.6904     42.3992     79.5226   1.1535422977e+02   5.4428101781e+01    0.3045335    0.1305354 -60.00  0.000929823    2.122    0.529
       411 -10.7500     77.0418     81.2045   1.0535404888e+02   4.9926814922e+01    0.1806726    0.1673546 -31.39 0.0007288154    1.045    0.043
       412  -9.3833    101.3502     79.2651   9.7801488573e+01   4.6412827803e+01    0.1396661    0.1068696   0.66 0.0003279841    1.616    0.381
       413  -9.9765     68.4974     78.5113   1.0719099957e+02   5.1646235719e+01    0.1297334    0.1138517 -40.71 0.0008105639    1.010    0.010
       414 -10.0009     29.5916     77.8202   1.1887056059e+02   5.5921630767e+01     0.210166    0.1549227 -76.38 0.0008255572    1.473    0.321
       415 -10.0728     28.8726     74.1847   1.1830962550e+02   5.6714023313e+01    0.2075333    0.1273851 -45.87 0.0006357966    1.336    0.252
       416 -10.5742      3.3633     77.8615   1.2669563995e+02   5.7682766786e+01    0.1482641    0.1429767  84.50 0.0006036574    1.314    0.239
       417 -10.6599    117.0306     77.0819   9.2862460965e+01   4.3887247783e+01    0.2558486    0.1952936  49.18  0.000956261    1.379    0.275
       418  -9.7839    108.1656     77.6661   9.5443487679e+01   4.5481969680e+01    0.1973556     0.127798  32.10 0.0005057895    1.703    0.413
       419 -11.6836     58.8903     74.6000   1.0909877950e+02   5.3637115262e+01    0.3754148     0.281129  66.21 0.0009666253    1.967    0.492
       420  -9.9089    131.0652     75.4551   8.8720326597e+01   4.1289648369e+01    0.2126688    0.1438415  48.46 0.0003160518    1.491    0.329
       421  -9.6362    100.8228     75.3834   9.6831323948e+01   4.7256894277e+01     0.179434    0.1297218  27.24  0.000161761    1.525    0.344
       422 -11.1290     53.0098     74.5767   1.1091086089e+02   5.4320534798e+01    0.2411115    0.1709974 -34.11 0.0004034407    1.334    0.250
       423 -10.1574     48.4905     73.9976   1.1216925168e+02   5.4926698821e+01    0.1813384    0.1642763 -82.97 0.0007279237    1.326    0.246
       424  -9.4760     18.0000     74.9370   1.2180229856e+02   5.7375032701e+01    0.1905276   0.05117635 -61.67 0.0004342926    2.900    0.655
       425 -10.1787     68.9734     73.5761   1.0572726481e+02   5.2565322688e+01    0.2087532      0.14711 -46.91 0.0005032144    1.261    0.207
       426 -10.1012    115.6407     72.9154   9.2001034160e+01   4.4941372503e+01    0.2373806    0.1901136  26.17 0.0005383427    1.317    0.241
       427 -12.3895      3.1888     67.7113   1.2494749500e+02   5.9704056526e+01    0.4734086    0.3824069 -67.35  0.003720768    1.173    0.147
       428 -10.4660     10.3308     62.6088   1.2167804494e+02   6.0299932133e+01    0.1971741    0.1479839  33.85  0.001449481    1.739    0.425
       429 -11.9255      6.1443     59.2870   1.2233562427e+02   6.1180716591e+01    0.3616523    0.2539346 -15.06  0.002115362    1.639    0.390
       430 -10.7576     84.2106     72.1237   1.0071294503e+02   5.0648518920e+01    0.1967047    0.1635447 -21.13 0.0003629656    1.183    0.154
       431 -10.9305     87.9353     69.4271   9.8816288157e+01   5.0573473113e+01    0.3266287    0.2113541 -46.77  0.001531361    1.484    0.326
       432 -10.8057     37.0110     71.9931   1.1527479791e+02   5.6453943930e+01    0.2889034    0.1963726  33.23  0.001757044    1.774    0.436
       433 -10.8450     42.0963     71.0388   1.1344372827e+02   5.6165039873e+01    0.1781369    0.1552295 -32.32 0.0003163314    1.110    0.099
       434 -10.7264     53.1506     69.1249   1.0945706838e+02   5.5383924317e+01    0.2822662    0.1492086 -51.28  0.001332173    1.630    0.386
       435 -10.0581    188.7823     68.5274   7.3943369841e+01   2.8722123826e+01    0.3668406     0.223114  13.74   0.00128491    3.149    0.682
       436 -10.5755    212.2532     67.3045   6.9479087213e+01   2.3006999030e+01     0.243196    0.2149706  32.13 0.0005682962    1.243    0.196
       437  -9.9681    130.8533     68.4669   8.6673151037e+01   4.2591497145e+01    0.2155031    0.1428841  49.93  0.001004141    1.524    0.344
       438 -10.8160     26.8951     67.6465   1.1746870303e+02   5.8172485593e+01     0.185097    0.1236832 -46.74 0.0004216228    1.185    0.156
       439  -9.4746    106.4959     66.4527   9.2551212727e+01   4.7884647420e+01    0.1406592    0.1287935  -6.99 0.0003468392    1.043    0.041
       440  -9.4486    111.3322     65.7110   9.0979116432e+01   4.7094887626e+01    0.1355489    0.1142359 -85.68 0.0002084423    1.626    0.385
       441 -12.0213     16.6774     62.2401   1.1954013604e+02   5.9970821332e+01    0.4327602    0.2536973 -57.84  0.002004098    1.354    0.261
       442  -9.6584    102.0000     62.9995   9.2749515739e+01   4.9335834161e+01    0.2258761    0.0750924 -40.72 0.0007944914    2.888    0.654
       443 -10.7038     26.0408     62.7396   1.1659520539e+02   5.9198066016e+01    0.1583788    0.1278228 -42.43 0.0004655157    1.048    0.046
       444 -10.1521    128.0472     62.2538   8.5466273503e+01   4.4271623989e+01    0.1909775    0.1844113  25.81 0.0002578525    1.051    0.049
       445 -11.4104     78.3532     60.1777   9.8924603293e+01   5.3778554562e+01    0.5089846    0.2469289 -33.71  0.001716889    2.109    0.526
       446  -9.9942     52.9252     62.2948   1.0766674463e+02   5.6727142805e+01    0.1643645    0.1456226 -16.67 0.0005231004    1.123    0.110
       447  -9.4827    216.4294     61.4282   6.7272649856e+01   2.2867635601e+01    0.1443355    0.1383549 -86.64 9.431908e-05    1.002    0.002
       448 -10.1552     70.6356     61.1208   1.0163267862e+02   5.4719322802e+01    0.2008561    0.1792395  43.08  0.001058123    1.346    0.257
       449 -10.9890     21.3338     56.8960   1.1674217546e+02   6.0673023856e+01    0.2695918    0.1373581  25.40  0.001600929    2.369    0.578
       450 -11.1872     31.6424     59.2444   1.1387302063e+02   5.9414294762e+01    0.2637028    0.1734043 -56.96  0.001022847    1.372    0.271
       451 -11.5159     28.0694     55.3847   1.1407630308e+02   6.0442281295e+01    0.3550874    0.2235331 -56.48  0.002245081    1.414    0.293
       452 -10.6304     38.9018     59.3633   1.1148146198e+02   5.8739688240e+01    0.2338583    0.1784232 -76.75  0.001047574    1.777    0.437
       453  -9.2239     47.6876     58.6744   1.0836751962e+02   5.7986341230e+01    0.1268616   0.07946669 -25.99 0.0002346576    1.662    0.398
       454  -9.8059     58.2252     56.7953   1.0433384435e+02   5.7131861709e+01     0.164878    0.1219549 -23.63            0    1.283    0.221
       455  -9.7498    181.4199     56.1497   7.1828037352e+01   3.2527195023e+01    0.2044884    0.1364135 -45.97 0.0005624684    1.589    0.371
       456  -9.8554    145.8115     54.8611   7.8841694936e+01   4.1474543612e+01    0.1914098    0.1730154 -75.23 0.0002877261    1.287    0.223
       457 -11.3854     93.2903     54.2833   9.2495146463e+01   5.2402133571e+01    0.2471187    0.2115286  -8.18 0.0002303971    1.104    0.095
       458 -10.6722    164.2018     54.0165   7.4583836735e+01   3.7166878867e+01    0.2382238    0.2012318  53.10 0.0002822763    1.130    0.115
       459 -10.9516    118.8401     53.9095   8.5191381918e+01   4.7598944247e+01    0.2184825    0.1805221   5.03 0.0004168772    1.263    0.208
       460 -11.4072     73.2721     52.3804   9.8059758645e+01   5.5915329140e+01    0.3149955    0.2547286  72.47  0.001099142    1.998    0.499
       461 -10.4604     33.4603     52.7095   1.1150776062e+02   6.0485007736e+01    0.3181095    0.1477133 -63.43  0.001097315    2.902    0.655
       462  -9.9298     32.2524     48.3883   1.1070680361e+02   6.1383330707e+01    0.1333141     0.106149  31.86 0.0009301568    1.572    0.364
       463 -11.3847     64.8663     49.1516   9.9748149113e+01   5.7647240907e+01    0.4395804    0.3157417 -86.47  0.002044023    3.432    0.709
       464 -12.2402     61.7946     44.7924   9.9337441058e+01   5.8798658881e+01    0.2428546    0.2030149 -24.58 0.0003343172    1.037    0.035
       465 -10.0943     82.7732     50.9792   9.4602511315e+01   5.4710907540e+01    0.2018592     0.150958 -64.58  0.001067825    1.997    0.499
       466 -11.1693     12.5095     50.5237   1.1819531162e+02   6.2466462626e+01    0.2341382    0.1573785 -28.98 0.0007904695    1.399    0.285
       467 -10.6904     18.9963     49.7415   1.1573619012e+02   6.2181291528e+01    0.2333891    0.1523902  18.99 0.0006889444    1.840    0.456
       468 -11.7173     17.2561     46.4047   1.1547225244e+02   6.2915235416e+01    0.3416246     0.215175 -10.92  0.002029165    1.818    0.450
       469 -11.2364     12.4854     46.1263   1.1709841419e+02   6.3279733331e+01     0.266749    0.1969635 -72.87   0.00142101    1.654    0.395
       470  -9.9644    107.9647     50.4396   8.6996685496e+01   5.0340069908e+01    0.1966802    0.1310962  43.01  6.03785e-05    1.498    0.333
       471  -9.6725    129.2724     49.6994   8.1140875477e+01   4.6035977665e+01    0.1343859    0.1130668 -69.45 0.0001552312    1.531    0.347
       472 -11.5011     41.6271     51.7968   1.0843541638e+02   5.9884698589e+01    0.2444992    0.1750341 -51.49  0.001258047    1.324    0.245
       473 -10.2812     46.4061     48.2087   1.0570674159e+02   6.0036517039e+01    0.1649407    0.1023082 -53.44  0.000837899    1.654    0.395
       474 -10.0792     94.0656     46.8301   8.9773757026e+01   5.3497557970e+01    0.1903865    0.1809027 -54.46 0.0007162205    1.305    0.234
       475 -10.1382    122.6637     45.9940   8.1584037660e+01   4.8030965340e+01    0.1933529    0.1724769 -10.74 0.0004107161    1.099    0.090
       476 -11.0532     34.7598     44.7246   1.0873710129e+02   6.1815329789e+01    0.2341567    0.2014049  87.63 0.0008536503    1.830    0.453
       477 -10.5781     38.9146     40.3025   1.0586461621e+02   6.2189821363e+01     0.330356    0.1758171   5.27  0.001462035    2.725    0.633
       478  -9.5271    184.9745     45.2184   6.8046541114e+01   3.3217216635e+01     0.190025    0.1151131  61.35 0.0003373749    1.568    0.362
       479 -11.6301    164.1880     42.9428   7.1230956770e+01   3.8781556488e+01    0.3271442    0.3249465 -78.57  0.001265161    1.068    0.064
       480 -11.3007    166.1488     37.9731   6.9337286761e+01   3.8967912921e+01    0.2425215    0.2238151  39.59 0.0002979672    1.059    0.056
       481 -11.0428    141.2117     43.0994   7.6149664057e+01   4.4307229596e+01    0.3506839    0.2650339 -23.19  0.001309252    1.388    0.279
       482  -9.9656     80.4737     44.0135   9.2967833187e+01   5.6227218981e+01    0.1941177    0.1165029 -36.05 0.0005759625    1.545    0.353
       483 -10.7242     70.0828     41.6639   9.5506765005e+01   5.8177650082e+01    0.2238365    0.1571482 -27.94 0.0003269565    1.269    0.212
       484 -10.8601     57.1479     41.4762   9.9806414230e+01   5.9948902188e+01    0.2618455    0.1498095 -45.61  0.001442354    1.677    0.404
       485 -11.0708    246.2557     40.9918   5.8143684195e+01   1.8520248451e+01    0.2247165    0.1869726  69.76 0.0003133407    1.198    0.165
       486  -9.6356     92.3052     41.3196   8.8392396799e+01   5.4671306072e+01    0.1365546   0.09531706   3.60  0.000296964    1.633    0.388
       487 -10.0865     20.3498     41.1980   1.1291182831e+02   6.3632842061e+01    0.1744655    0.1265591 -16.12 0.0006839732    1.362    0.266
       488 -10.3710     24.4618     39.5608   1.1091766506e+02   6.3606959074e+01    0.2040577    0.1436664 -36.73 4.875535e-05    1.092    0.084
       489 -10.6211     22.5100     36.5238   1.1072176106e+02   6.4287815172e+01    0.1924701    0.1447068 -38.81 0.0006612533    1.067    0.063
       490 -10.1618    126.4789     40.6743   7.8841443041e+01   4.7983448798e+01    0.2426766    0.1237451  50.99 0.0006221529    1.882    0.469
       491 -11.4735      9.6742     39.3360   1.1632227477e+02   6.4678635599e+01    0.2284875    0.1741551 -23.96 0.0007431153    1.232    0.188
       492 -11.0210    239.3559     36.5351   5.7899583662e+01   2.0750034681e+01    0.2295465    0.2191182 -82.69 0.0003405905    1.093    0.085
       493 -10.1569     41.5245     36.5328   1.0367694715e+02   6.2561314134e+01    0.1815127    0.1574399 -69.83  0.001217184    1.734    0.423
       494 -12.2624     78.6014     33.4589   8.9806991909e+01   5.8152470255e+01     0.510335    0.3502328  48.11  0.002720346    1.751    0.429
       495 -10.0257     84.9976     30.4981   8.6705425987e+01   5.7523411690e+01    0.1960452    0.1511734 -21.71 -0.0005161189    1.203    0.168
       496 -11.1532     60.1774     34.7398   9.6410350143e+01   6.0647931139e+01    0.3245685    0.2233055  -9.38  0.001946668    1.470    0.320
       497  -9.9630     55.5511     33.7995   9.7688887269e+01   6.1392157193e+01    0.1891324    0.1433142 -48.20 0.0004423202    1.556    0.357
       498 -10.2550    143.5582     34.5282   7.2839078898e+01   4.4925913170e+01    0.2167518    0.1874056 -41.67 0.0004994235    1.273    0.214
       499 -11.2349    142.8611     31.1743   7.1891003950e+01   4.5520506694e+01    0.3072739    0.2447244  37.57 0.0003797344    1.184    0.155
       500  -9.6851     35.7594     34.7909   1.0521393096e+02   6.3429442586e+01    0.1347177    0.1195597 -32.09 0.0004774134    1.245    0.197
       501 -11.0282    120.4217     33.6242   7.7939886011e+01   5.0266281538e+01    0.3130248    0.2311957  59.25  0.001082354    1.487    0.327
       502 -10.5055     91.9740     33.7815   8.5798187163e+01   5.5844281039e+01    0.2161669    0.1718368 -19.23  0.000294122    1.176    0.150
       503  -9.9045     29.0345     34.5257   1.0763989294e+02   6.4091315396e+01    0.1435644    0.1054178  19.71  0.001004932    1.544    0.352
       504 -11.5822    105.5627     31.8146   8.1199755423e+01   5.3564868286e+01    0.4115334    0.2349557  37.32  0.001765524    1.699    0.411
       505 -10.1155    232.8254     32.3754   5.7674361165e+01   2.2867201050e+01    0.1880105    0.1171951  58.15  0.000208645    1.576    0.366
       506 -10.9014    206.4455     31.5495   6.0887112510e+01   2.9550706719e+01    0.2461247    0.2123996  71.68 0.0001373536    1.076    0.070
       507  -9.7301      4.8258     32.3312   1.1620720103e+02   6.6190345068e+01    0.1310471   0.08280615 -11.68 0.0002300626    1.684    0.406
       508 -11.1025    158.9987     30.4244   6.8374490457e+01   4.1712967997e+01    0.2480357    0.2073656 -22.13 0.0001965061    1.289    0.224
       509  -9.6175     24.0517     31.1963   1.0844882465e+02   6.5068798650e+01    0.1239731   0.08186598  14.63 0.0003506806    1.680    0.405
       510 -10.0167    220.0713     28.7132   5.8334838630e+01   2.6474311424e+01    0.1911004     0.164687  75.99  0.000268696    1.079    0.073
       511 -10.6159     32.8345     28.5301   1.0417497137e+02   6.4731524686e+01    0.1714091    0.1365267 -43.33 0.0005907986    1.340    0.254
       512 -11.0213    187.0292     27.1749   6.2556760949e+01   3.5041495149e+01    0.2127203    0.2071718 -33.29 0.0003094724    1.124    0.110
       513 -11.3092    101.0607     27.0437   8.0706737693e+01   5.5071887010e+01    0.3203575    0.1841363  45.94 0.0007757302    1.675    0.403
       514  -9.5779     17.4697     27.5153   1.0980498315e+02   6.6189038820e+01    0.1114388   0.08054487 -31.47 8.233835e-05    1.037    0.036
       515 -11.6609      1.9721     25.7511   1.1541081082e+02   6.7469547627e+01     0.192145    0.1197904 -40.19 0.0002921294    1.146    0.127
       516 -11.8144      9.6872     23.7172   1.1167233451e+02   6.7350716538e+01    0.2158752    0.1439637 -39.76 0.0005954185    1.117    0.105
       517 -11.6695      6.4092     23.5220   1.1293655934e+02   6.7587253559e+01    0.2210354     0.166104 -48.89 0.0004751254    1.292    0.226
       518  -9.8237     89.9485     24.4964   8.2951557626e+01   5.7467583796e+01      0.18521     0.117971  41.79 0.0005571945    1.527    0.345
       519 -10.4598     78.1951     23.5284   8.6196479371e+01   5.9607175693e+01    0.2400223    0.1415091   4.00  0.001177765    2.180    0.541
       520 -10.2152     61.7424     23.7869   9.1779601180e+01   6.2063672708e+01    0.2027486     0.133162 -13.95  0.001018913    1.447    0.309
       521 -11.3785     17.4852     23.1358   1.0833000050e+02   6.6900027961e+01     0.256538    0.1660457  25.47  0.001109943    1.841    0.457
       522 -10.3310    117.7666     22.6634   7.4733288014e+01   5.2212271028e+01    0.3486039     0.156023  60.01  0.001371077    2.564    0.610
       523  -9.8765    114.2266     20.5990   7.4865410272e+01   5.3203756583e+01    0.1814799    0.1103274  41.30 0.0003000933    1.495    0.331
       524 -10.0844     50.3494     22.0951   9.5197096512e+01   6.3801497191e+01    0.2267734   0.08822233 -31.42  0.001057892    2.431    0.589
       525 -11.2045     37.1203     20.8031   9.9695022951e+01   6.5498003803e+01    0.3490262    0.2483301  37.15  0.002363109    1.834    0.455
       526 -10.1462     33.6554     16.7226   9.9475868799e+01   6.6453021178e+01    0.2100174    0.1272967   3.29 0.0008655679    1.768    0.434
       527  -9.6471    138.4654     21.4992   6.9610978498e+01   4.7709217703e+01    0.1404452    0.1222274  35.02 0.0001283684    1.051    0.048
       528  -9.9992    190.1098     20.4826   6.0210588862e+01   3.5038253005e+01    0.2073394    0.1269675  65.03 0.0003621402    1.475    0.322
       529 -10.9173    182.3832     18.7043   6.0854865590e+01   3.7203265092e+01    0.2535523    0.2135917  49.15 0.0006054649    1.152    0.132
       530 -10.7639     92.7994     18.8510   7.9959455277e+01   5.7650108901e+01    0.2505826    0.1619635 -32.74 0.0008939425    1.611    0.379
       531 -10.8448    209.7831    247.3802   1.0815627286e+02  -5.3685564012e+00    0.2742665     0.171396  25.64  0.001639739    1.573    0.364
       532 -10.6673    226.0072     16.9729   5.4718368054e+01   2.6409037602e+01    0.2032768    0.1778297 -87.88 0.0003152145    1.013    0.013
       533 -11.3098    132.7488     16.4429   6.9106130404e+01   4.9586749692e+01    0.2535281    0.2008953  17.86 0.0006991514    1.279    0.218
       534 -11.1538    206.2779    245.9168   1.0854482510e+02  -4.6026533475e+00    0.2435705    0.1861206  30.05 0.0006851992    1.112    0.101
       535  -9.9260     99.7093     17.6484   7.7561202460e+01   5.6481038181e+01    0.1618173    0.1165074  53.67 0.0002147202    1.507    0.337
       536  -9.7713    178.9905    247.9630   1.1355493146e+02  -2.2377043788e-01    0.1378216    0.1177831  42.98 0.0003337089    1.100    0.091
       537 -11.4733     83.7658    237.9997   1.2874859670e+02   1.6727377967e+01    0.3212104    0.1852373  43.79 0.0004342631    1.652    0.395
       538 -10.3246     43.1937     16.2044   9.5552747423e+01   6.5489546962e+01    0.2989212    0.2004516  56.78  0.001591984    3.444    0.710
       539 -10.1241     21.0698     17.4753   1.0484874986e+02   6.7501001911e+01    0.1429373   0.09720656  14.33 0.0007551637    1.559    0.359
       540  -9.8693    153.5981     15.2061   6.4578827247e+01   4.4773824236e+01    0.1825387    0.1311288  -0.28  0.000943339    1.646    0.393
       541 -10.1738     87.4289    236.4506   1.2799514688e+02   1.6463071239e+01    0.1728837    0.1230192 -74.43 0.0006666601    1.467    0.318
       542 -10.6906     86.5023     14.0871   7.9935805432e+01   5.9351148668e+01    0.2664264     0.143515  40.95  0.001402108    1.715    0.417
       543 -10.4221     72.5407    244.0540   1.3109374878e+02   1.7273356333e+01    0.2000323   0.09856889  76.28  0.001114121    2.214    0.548
       544  -9.6795     13.4997     14.4824   1.0689179312e+02   6.8547865170e+01    0.1074383   0.07800804 -27.21 -0.0001304505    1.011    0.011
       545 -11.2253     77.1613    246.6003   1.3056577322e+02   1.6216826755e+01    0.2466335    0.1411739  51.87  0.001321308    1.392    0.282
       546 -13.3999     75.8436    241.1226   1.3032031907e+02   1.7312438112e+01    0.4594525    0.2358319  65.58   0.00131905    1.733    0.423
       547 -11.8042    199.7081    245.2379   1.0958240510e+02  -3.4057253088e+00    0.2912536    0.2016958  17.79 0.0009396918    1.647    0.393
       548 -12.1255    202.0728    240.5392   1.0848098384e+02  -3.2127413003e+00    0.4595062    0.1735072  44.11  0.001418016    2.114    0.527
       549 -11.3808    141.4846    247.4744   1.1996631465e+02   6.1921795948e+00    0.1874483    0.1248676  67.02  0.001157686    1.527    0.345
       550 -12.6226     85.5743    244.7484   1.2905447976e+02   1.5338051792e+01    0.2872153    0.2380493 -76.31 0.0007977902    1.421    0.296
       551 -11.3448     89.4354    244.5058   1.2840344830e+02   1.4821292714e+01    0.2428751    0.1952955  33.09  0.001646386    1.782    0.439
       552 -10.1378      2.7564     10.6556   1.1011128375e+02   6.9850136452e+01    0.1950893    0.0823086  25.44 0.0008443837    2.774    0.640
       553 -12.1432    216.2348    244.8099   1.0666534232e+02  -6.1375546237e+00    0.2034008    0.1719439  31.92 0.0003358821    1.116    0.104
       554 -10.2633    188.0850    245.1580   1.1159087305e+02  -1.4089882951e+00    0.2561084    0.1265708  41.09  0.001140189    1.608    0.378
       555 -10.9894    190.8558    240.7846   1.1048423963e+02  -1.3083754249e+00    0.2948027    0.1861501  23.47  0.001651296    1.853    0.460
       556 -11.5315    164.5532    244.1406   1.1555995442e+02   2.7772023473e+00     0.245954    0.2088066  37.81 0.0005113168    1.173    0.148
       557 -11.1197    146.5106    244.4727   1.1874304486e+02   5.7996973094e+00     0.236347    0.1916189 -87.28 0.0008695658    1.440    0.306
       558 -11.7689    121.4512    243.2543   1.2291930398e+02   1.0117929752e+01    0.2448785    0.1787955  84.58 0.0002320413    1.446    0.308
       559 -12.0364    106.2522    248.4135   1.2600511471e+02   1.1681326952e+01    0.4505443    0.2558498  61.10  0.002133072    1.486    0.327
       560 -11.7015    117.2472    237.9968   1.2306774988e+02   1.1638947410e+01    0.3517033    0.1905974  37.16  0.001901884    2.026    0.506
       561 -10.1723    119.6004    233.7021   1.2217706319e+02   1.1966570043e+01    0.1865128    0.1377139 -86.03  0.001210265    1.462    0.316
       562  -9.9170    227.0725    243.4852   1.0460645266e+02  -7.7725353367e+00    0.1748992   0.09350841  39.42 0.0003874023    1.479    0.324
       563 -11.6618    128.7825    241.0372   1.2141128138e+02   9.2783461567e+00     0.315982    0.1812363  50.74  0.001388206    1.378    0.274
       564 -10.5208    109.0327    239.0092   1.2458916441e+02   1.2772836174e+01    0.2603607    0.1504762  75.99 0.0007630932    2.006    0.501
       565 -11.1896    100.1817    241.8557   1.2637511260e+02   1.3664620260e+01    0.2040562     0.173942 -62.49 0.0009550357    1.542    0.351
       566 -10.9433    110.0442    235.4595   1.2403930783e+02   1.3203233530e+01     0.264086    0.1848848  34.60  0.001271811    1.749    0.428
       567 -11.6950    105.8553    233.7559   1.2458344202e+02   1.4146081922e+01    0.6093733    0.2509604 -64.67  0.003021806    2.840    0.648
       568 -10.7403    102.1713    234.1609   1.2526264499e+02   1.4647719003e+01    0.2386893    0.1693245  78.51 0.0004573263    1.316    0.240
       569 -11.0673    100.1407    237.8742   1.2598809810e+02   1.4332046836e+01    0.2212854    0.1789497  65.59 0.0002572775    1.089    0.081
       570 -12.7861     94.3948    237.5106   1.2692471683e+02   1.5258018283e+01    0.4039288    0.2570105  67.22  0.001701221    1.345    0.257
