#   1 NUMBER                 Running object number                                     
#   2 MAG_AUTO               Kron-like elliptical aperture magnitude                    [mag]
#   3 X_IMAGE                Object position along x                                    [pixel]
#   4 Y_IMAGE                Object position along y                                    [pixel]
#   5 X_WORLD                Barycenter position along world x axis                     [deg]
#   6 Y_WORLD                Barycenter position along world y axis                     [deg]
#   7 A_WORLD                Profile RMS along major axis (world units)                 [deg]
#   8 B_WORLD                Profile RMS along minor axis (world units)                 [deg]
#   9 THETA_WORLD            Position angle (CCW/world-x)                               [deg]
#  10 FWHM_WORLD             FWHM assuming a gaussian core                              [deg]
#  11 ELONGATION             A_IMAGE/B_IMAGE                                           
#  12 ELLIPTICITY            1 - B_IMAGE/A_IMAGE                                       
         1  -7.7223     83.4941     10.9938   5.9305861511e+01   6.1287633030e+01    0.1653537   0.09973259 -46.86 0.0008072895    2.345    0.574
         2  -8.4051     90.8916      9.3007   5.6506238767e+01   5.9928976474e+01    0.2108846    0.1662696 -32.27 0.0007133553    1.434    0.303
         3  -8.4031     55.7409     10.1147   6.8209587685e+01   6.6493275506e+01    0.1733652    0.1501359 -15.13 0.0005497601    1.256    0.204
         4  -7.8412     47.5489     10.0634   7.1457846641e+01   6.7800998015e+01    0.1536672   0.09638292 -47.08 0.0008077312    2.480    0.597
         5  -7.8855     28.1550     10.1360   8.0295122182e+01   7.0433130418e+01    0.1455995    0.1236388 -21.43 0.0004350479    1.326    0.246
         6  -7.6323    237.3143      8.6987   3.5178821768e+01   2.5450974767e+01    0.1320089   0.07439636 -62.90 0.0004908859    1.613    0.380
         7  -7.7200    101.4302      8.4319   5.3489805328e+01   5.7738307512e+01    0.1266253    0.1156769  37.98 0.0001608829    1.075    0.070
         8  -7.7485      5.6852      8.3231   9.1351098036e+01   7.2924511333e+01   0.09116799   0.08647902 -40.73 0.0004316797    1.662    0.398
         9  -8.7448     33.2154      5.0246   7.5189329012e+01   7.0454986066e+01    0.2729557    0.1651719 -47.88  0.001458264    2.807    0.644
        10  -8.4712     79.1458      4.1176   5.7477129121e+01   6.2812527115e+01    0.2567641    0.1558045 -34.41  0.001405343    1.886    0.470
        11  -7.7634     44.6998      3.3606   6.9194043839e+01   6.9001886235e+01    0.1049473   0.09162689 -42.18 0.0005681615    1.717    0.418
        12  -7.7006    115.6243      2.3033   4.8025426708e+01   5.5044049202e+01    0.1301688   0.09615703 -70.70 0.0007028624    1.764    0.433
        13  -7.8724     15.5325      2.5567   8.2862072502e+01   7.2860073140e+01    0.1124637   0.08423048 -11.37 7.743036e-05    1.038    0.036
        14  -8.4116     62.2996      1.4975   6.1542619011e+01   6.6249176639e+01    0.1905459    0.1130811  53.23 0.0004449334    1.810    0.447
        15  -7.5541     52.6385      1.3112   6.4943628068e+01   6.7942819216e+01    0.1043386   0.09621833 -59.35 0.0007041143    1.748    0.428
        16  -7.6460     39.4348      1.4879   7.0452565445e+01   6.9994338774e+01    0.1168075    0.0925691   2.10 0.0001201055    1.059    0.055
        17  -8.5562     67.4789    244.7487   1.1736433697e+02   1.5419278097e+01    0.1943959    0.1040448 -79.26 0.0008620382    2.006    0.501
        18  -9.0857    247.8774    234.5974   8.2404569250e+01  -9.8686955362e+00    0.2469353    0.1575434 -15.54 0.0009771839    1.429    0.300
        19  -9.4292    246.4449    228.7448   8.1652130889e+01  -8.9629632461e+00    0.3871606     0.189372 -30.80  0.001582255    1.981    0.495
        20 -10.1514    248.5692    242.4855   8.3597531293e+01  -1.0884869230e+01    0.4548773    0.2038047 -34.44  0.002024729    2.330    0.571
        21  -8.0735    191.3259    249.6478   9.4794434795e+01  -3.7304882336e+00    0.1648492    0.1305948  57.26 0.0007930109    1.712    0.416
        22  -8.1574    183.8026    250.1503   9.6246111178e+01  -2.6718458038e+00    0.1659078     0.122395  13.52  0.001067516    1.335    0.251
        23  -8.7691     93.9498    249.5767   1.1294902449e+02   1.0950676937e+01    0.2816845    0.1532953  73.57  0.001463173    2.397    0.583
        24  -7.3879     86.3052    250.6628   1.1444888902e+02   1.1833792496e+01    0.1222632   0.07133638  65.04 0.0005723989    1.673    0.402
        25  -8.3447    201.9670    243.4991   9.1934176962e+01  -4.4917176309e+00    0.1905114    0.1666207 -53.12 0.0007521526    1.666    0.400
        26  -8.8917    169.0237    243.1771   9.8017488971e+01   5.9265624744e-01    0.2163693    0.1792381 -52.78 0.0006662107    1.530    0.347
        27  -7.8901     58.3330    244.6511   1.1900407662e+02   1.6612031481e+01    0.1255911    0.0650529  65.09 0.0007048163    1.773    0.436
        28  -8.2176     34.4800    244.4770   1.2317229043e+02   1.9500348664e+01    0.1120256   0.08003116  67.92 0.0008097623    1.026    0.025
        29  -8.9205    195.0078    242.7349   9.3094065922e+01  -3.3443451524e+00    0.2301731    0.1735683  -5.27 0.0008448659    1.393    0.282
        30  -8.4941    193.7066    239.6892   9.2871386610e+01  -2.7237212080e+00    0.2370012    0.1449275  38.58 0.0007366179    1.433    0.302
        31  -9.2812    183.1793    239.7965   9.4855505607e+01  -1.1153387728e+00     0.372529    0.3283069  75.17  0.001945677    1.626    0.385
        32  -9.4326    160.1669    240.3439   9.9307831127e+01   2.4144523801e+00    0.3239489    0.2158988 -71.85   0.00146626    2.522    0.603
        33  -8.1118    153.4218    241.7303   1.0079008161e+02   3.2607151062e+00    0.2008892    0.1230504 -56.45   0.00112153    2.095    0.523
        34  -8.5130    146.8068    240.5728   1.0190707647e+02   4.4865975162e+00    0.3450997      0.18713  64.57  0.001465356    3.380    0.704
        35  -8.1759     88.1634    242.2057   1.1332027884e+02   1.3065531967e+01    0.1657774    0.1146671  69.78 0.0005153801    1.369    0.270
        36  -9.0180    241.3335    238.6356   8.4188650761e+01  -9.4768618153e+00    0.3757022    0.1632635 -16.41  0.001634907    3.458    0.711
        37  -9.5859    135.8475    239.1132   1.0383669899e+02   6.4499536667e+00    0.2895928    0.1749059  58.32  0.001047556    1.840    0.457
        38  -9.1641     77.6015    243.1010   1.1537069254e+02   1.4367252107e+01    0.2990474    0.1408426  66.71  0.001362409    2.530    0.605
        39  -9.1322    230.8976    237.3231   8.5775885834e+01  -7.8820349178e+00    0.2162234    0.2064406 -77.34  0.001412009    1.861    0.463
        40  -8.2428     13.6484    238.2916   1.2636207357e+02   2.2879856764e+01    0.1166099   0.05455375  63.11 0.0007028805    1.675    0.403
        41  -9.7445    175.7637    233.5858   9.5333257641e+01   9.7970369210e-01    0.4530075    0.2667592 -59.93  0.002253186    2.740    0.635
        42  -9.4265    216.9802    235.5181   8.7950629808e+01  -5.6513608709e+00     0.224641    0.1871756  41.07  0.001001687    1.457    0.314
        43  -9.2736    213.7360    231.8677   8.7940928534e+01  -4.6796098822e+00    0.2678586    0.2314364  65.03 0.0008787933    1.863    0.463
        44  -8.9073    203.2494    234.8846   9.0352683387e+01  -3.5097020187e+00    0.2456534    0.2000633 -69.01  0.001083112    2.144    0.534
        45  -9.4717    109.1531    234.7353   1.0851027764e+02   1.1340390934e+01    0.4571557     0.211919  57.45  0.001539978    2.454    0.593
        46  -7.9189     58.0180    237.0000   1.1847066612e+02   1.8069454972e+01    0.1809142   0.05641935  37.53 0.0006184909    2.891    0.654
        47  -7.8318    170.2847    235.6700   9.6696855530e+01   1.5331567123e+00    0.1164639   0.09366126  65.12 0.0005634382    1.612    0.380
        48  -8.1836    122.8300    234.3343   1.0578042563e+02   9.3080903809e+00    0.2246103     0.154657  79.42 0.0009902965    1.882    0.469
        49  -8.4493     99.6690    234.6281   1.1034792639e+02   1.2779598107e+01    0.2503182    0.1422996  66.63  0.001278901    2.027    0.507
        50  -9.1076     78.6908    234.5100   1.1438042307e+02   1.5802927790e+01    0.2431205    0.1442816  72.17 0.0009374355    1.762    0.432
        51  -9.6410      8.1175    234.7959   1.2711770573e+02   2.4084230461e+01    0.1865091    0.1103335 -61.12  0.001203941    2.108    0.526
        52  -8.1847    162.3409    234.3254   9.8036000982e+01   3.0151530047e+00    0.1274469   0.09130412   8.27 0.0004626044    1.731    0.422
        53  -9.5450     67.9704    231.5785   1.1615462153e+02   1.7811002768e+01    0.5061191    0.2585534  83.10  0.002538415    2.420    0.587
        54  -8.2171    194.1678    232.8802   9.1725565647e+01  -1.8243537201e+00    0.1758922    0.1559311  41.64 0.0005170061    1.299    0.230
        55  -9.1881    141.6082    231.1618   1.0165993485e+02   6.8790347166e+00    0.5742052    0.2295343  55.02  0.002053239    3.909    0.744
        56  -8.0346    132.5566    232.7421   1.0366148159e+02   8.0549781803e+00    0.1565028    0.1199515 -79.86 0.0007365263    1.632    0.387
        57  -8.5240     92.4351    232.2188   1.1149957068e+02   1.4286064780e+01    0.2528534    0.1413243  74.05  0.001258669    2.291    0.564
        58  -9.2681    186.5818    230.7973   9.2832647242e+01  -3.2174453968e-01    0.3012803    0.2398016 -77.15  0.001459306    2.131    0.531
        59  -8.8005    236.1106    230.9328   8.3801246527e+01  -7.8083129676e+00     0.196146    0.1691522  -5.19 0.0006966136    1.239    0.193
        60  -8.7752      1.7506    230.9115   1.2800297646e+02   2.5426168692e+01    0.2014967    0.1000359  75.04 0.0007647527    1.581    0.367
        61  -9.9846    149.6617    226.2274   9.9363431284e+01   6.4151768521e+00    0.5906049    0.3601017 -84.59  0.002383244    3.985    0.749
        62  -7.9051    229.5831    228.8032   8.4584627216e+01  -6.6040823278e+00    0.1477813    0.1088751 -36.87 0.0007050028    1.613    0.380
        63  -8.7898    162.3115    227.8836   9.7094881887e+01   4.0618865522e+00    0.2908771    0.2000286  56.19  0.001155989    1.665    0.399
        64  -8.7714    127.8769    227.3971   1.0389453733e+02   9.7464797980e+00    0.2977888    0.1842057  62.18  0.001039048    1.882    0.469
        65  -8.3275    120.2008    227.9579   1.0550700379e+02   1.0863481307e+01    0.2030189    0.1325906  77.14 0.0009710894    2.058    0.514
        66  -8.2329    223.2222    227.0228   8.5415561911e+01  -5.4365249504e+00    0.2346576    0.1243204 -25.58 0.0008789079    2.000    0.500
        67  -9.1326    225.6044    222.1574   8.4152912643e+01  -5.1286388754e+00    0.2642792    0.2210506  -5.94 0.0009908915    1.122    0.108
        68  -8.5637    206.1635    226.1107   8.8381075790e+01  -2.7168877559e+00    0.2256185     0.163887 -53.56 0.0008281172    2.019    0.505
        69  -7.7641    177.6673    227.2925   9.3997911815e+01   1.6502100107e+00    0.1215578    0.0953855  60.76 0.0004462366    1.634    0.388
        70  -8.2079     49.2259    226.7254   1.1929662844e+02   2.1141805361e+01    0.2541803     0.124388  66.10  0.001231451    1.975    0.494
        71  -7.9491    200.3690    226.2744   8.9491940152e+01  -1.8337750588e+00    0.1520848    0.1171296 -43.86 0.0004794026    1.589    0.371
        72  -7.6473    188.6494    226.2595   9.1714432799e+01   3.4160001179e-02     0.119661    0.0935597  55.63 0.0005028324    1.607    0.378
        73  -8.9164    104.6384    223.6317   1.0810981372e+02   1.4091677913e+01    0.3203084    0.2064307  77.62  0.001512345    1.898    0.473
        74  -9.0466     94.1563    224.2437   1.1029366431e+02   1.5551730466e+01    0.3693665    0.1806379  63.37  0.001655934    2.551    0.608
        75  -8.7441    216.3342    223.5268   8.6068081445e+01  -3.9179804988e+00    0.2134041    0.2096742  58.26 0.0007312054    1.501    0.334
        76  -8.6151    180.3734    224.2312   9.2986946069e+01   1.6916968615e+00     0.205862    0.1642946  38.83 0.0006243322    1.172    0.147
        77  -7.9430    113.8490    224.2622   1.0632195334e+02   1.2545680961e+01    0.2144852    0.1147367  66.60  0.000931921    2.701    0.630
        78  -8.0495     59.8220    223.9668   1.1704617957e+02   2.0362195962e+01    0.2078661    0.1083219  72.87   0.00107004    2.062    0.515
        79  -7.6238     38.2903    224.6797   1.2118822379e+02   2.2840208475e+01     0.122022   0.06658551  67.63 0.0004678061    1.603    0.376
        80  -9.2631    192.4575    221.4949   9.0202814963e+01   1.4912542977e-01    0.2747759    0.2390844  89.01  0.001084781    1.783    0.439
        81  -8.6302    172.8334    222.9898   9.4266587752e+01   3.1311792208e+00    0.2032608    0.1795852 -84.89 0.0007320629    1.540    0.351
        82  -8.2068    162.8273    222.5854   9.6188197578e+01   4.8577465958e+00    0.2488512     0.163482  58.56  0.001029882    1.896    0.473
        83  -8.6810    158.9300    220.5166   9.6650516750e+01   5.8595196580e+00    0.2178219    0.1829026 -86.88 0.0006385916    1.582    0.368
        84  -8.0955    140.3173    222.7087   1.0073998477e+02   8.5683682475e+00    0.2005179    0.1402126  68.97  0.001066884    1.826    0.452
        85  -8.9044    238.8549    221.6334   8.1721618637e+01  -6.9962007126e+00    0.2106283    0.1591005 -30.09 0.0006409108    1.426    0.299
        86  -8.4098    202.6199    220.3440   8.8073826921e+01  -1.3123968373e+00    0.2076307    0.1547733 -31.65 0.0005598851    1.420    0.296
        87  -8.5588     82.7615    220.6509   1.1219250744e+02   1.7912786605e+01    0.2424434     0.138326  77.24  0.001213096    2.123    0.529
        88  -8.1712     73.0493    220.9642   1.1416963100e+02   1.9207061700e+01    0.2092751    0.1197077  68.23 0.0008591905    1.794    0.442
        89  -8.3992     27.6184    221.2153   1.2292514773e+02   2.4718502697e+01    0.1542055   0.08818921 -70.03  0.000952078    1.698    0.411
        90  -8.6092    210.0426    219.2218   8.6489412741e+01  -2.3234866818e+00    0.2038002    0.1675489 -19.11  0.000506945    1.218    0.179
        91  -9.0213    120.2406    219.2778   1.0437206638e+02   1.2472771500e+01    0.3617524    0.2001871  65.73  0.001581574    2.556    0.609
        92  -8.7862    249.0729    218.2991   7.9379142095e+01  -8.0036439365e+00    0.2913266    0.2309244  78.56  0.001503067    3.668    0.727
        93  -9.3477    133.0563    216.3000   1.0131102164e+02   1.0940908390e+01    0.4555313    0.2750701  74.45  0.001973622    2.867    0.651
        94  -8.4708     61.9900    217.3978   1.1602737379e+02   2.1404326940e+01     0.281839     0.140605  69.70  0.001333373    2.250    0.556
        95  -9.0438     51.6411    217.3755   1.1806773008e+02   2.2720690933e+01     0.272709    0.1466452  81.17 0.0008795421    1.930    0.482
        96  -8.5539    143.0383    216.6516   9.9300420195e+01   9.2102660330e+00    0.2724043    0.1928724  80.40  0.001354932    2.071    0.517
        97  -8.4184    111.7871    217.2045   1.0584552367e+02   1.4219204131e+01    0.2192621    0.1213304  70.20 0.0008069757    2.726    0.633
        98  -7.7769     55.8521    217.2027   1.1722525380e+02   2.2230700470e+01    0.1383897    0.1318178  78.26 0.0009965854    1.323    0.244
        99  -8.4421     18.5444    215.7912   1.2425233387e+02   2.6758907870e+01    0.2135976   0.08814806 -73.47  0.001156045    2.119    0.528
       100  -8.6472    232.2276    214.9123   8.1693297973e+01  -5.1195164748e+00    0.2098039    0.1890435 -16.64 0.0009641287    1.306    0.234
       101  -8.5226    185.6785    214.3746   9.0322276804e+01   2.3945029199e+00    0.2074359    0.1607379 -53.35  0.000661087    1.630    0.387
       102  -8.4597    154.3091    215.1631   9.6757839161e+01   7.5755815583e+00    0.2369046    0.1557246  61.20 0.0006520549    1.929    0.482
       103  -8.9643     93.2956    214.1766   1.0930743573e+02   1.7671390030e+01    0.3870533    0.2008462  62.96  0.001330177    2.267    0.559
       104  -9.5026    214.0944    212.3985   8.4536842427e+01  -1.9561283240e+00    0.3521493    0.2811627  66.49  0.001534718    2.089    0.521
       105  -9.4491     72.9628    211.8287   1.1325293964e+02   2.1080201710e+01    0.6324102    0.2532044  62.15   0.00239509    3.531    0.717
       106  -8.7437    161.6145    212.5483   9.4846528977e+01   6.7934710506e+00    0.2363645    0.2117667  59.11  0.000686421    1.227    0.185
       107  -8.3586    106.4980    212.9635   1.0639899870e+02   1.5888579848e+01    0.1804306    0.1262805 -69.49  0.001006036    1.547    0.353
       108  -8.1579    224.6469    212.2113   8.2566680570e+01  -3.5852442696e+00    0.1720437    0.1059844 -23.39 0.0009398902    1.617    0.381
       109  -9.0383    204.3025    210.8101   8.6095847501e+01  -1.3111037281e-01    0.2877581    0.2131221 -49.29 0.0007319489    1.719    0.418
       110  -8.2358    192.2806    210.6930   8.8393676981e+01   1.8838706170e+00    0.2158302    0.1591919 -52.04 0.0008488621    1.721    0.419
       111  -9.3763    175.3102    209.8938   9.1624058005e+01   4.9037790088e+00    0.3466159    0.2675995  79.50  0.001331658    2.050    0.512
       112  -8.7290    147.9467    210.5745   9.7352686363e+01   9.4947475398e+00    0.2750614    0.2008854  69.93  0.001156551    1.773    0.436
       113  -8.8266    116.4132    210.5344   1.0398364410e+02   1.4788234661e+01    0.3293136    0.1834513  62.53 0.0008577459    2.249    0.555
       114  -8.3954     32.3818    210.5928   1.2128021930e+02   2.6367513395e+01    0.2261662   0.08615667  88.53 0.0009420788    3.228    0.690
       115  -9.5913      6.2550    208.8552   1.2610962153e+02   2.9358964746e+01    0.5458592    0.1656888  77.09  0.002003573    4.659    0.785
       116  -8.6243     85.6155    209.5580   1.1036726659e+02   1.9754525432e+01     0.326177    0.1633566  65.90  0.001404604    2.561    0.610
       117  -8.7741    169.4512    216.3155   9.3870185787e+01   4.8067584411e+00    0.2496435    0.1986195  81.68 0.0006847805    1.865    0.464
       118  -9.2342    236.2962    207.6822   7.9660802936e+01  -4.7193464095e+00    0.3655237    0.1982798 -39.32   0.00138393    1.962    0.490
       119  -9.2738    246.3741    207.3411   7.7850840788e+01  -6.1648561763e+00    0.2454084    0.1850627 -28.41  0.000580235    1.332    0.249
       120  -7.9767    156.5913    207.8784   9.5120439195e+01   8.4992922130e+00    0.1752539     0.129744 -65.91 0.0007277448    1.731    0.422
       121  -8.4019    139.0913    208.1675   9.8835300911e+01   1.1463423351e+01    0.2471851     0.170871  57.91 0.0007157113    1.549    0.355
       122  -9.7731    124.3035    206.2626   1.0169344939e+02   1.4336939775e+01    0.3016996    0.2056644  71.51            0    1.829    0.453
       123  -9.2833     99.5254    206.4376   1.0703003144e+02   1.8304386954e+01    0.3919296    0.2325916  77.66  0.001468798    2.304    0.566
       124  -8.6544     56.6597    205.5998   1.1598575571e+02   2.4550219382e+01    0.3238666    0.1415625  62.64   0.00142971    2.592    0.614
       125  -8.9748    183.7749    203.9442   8.8885469505e+01   4.4604849277e+00    0.2875255    0.2295216  65.93 0.0009922053    1.708    0.414
       126  -8.7854    131.4403    204.2916   9.9866880414e+01   1.3522825148e+01    0.3105018    0.2070839  81.19  0.001115778    2.253    0.556
       127  -8.1240    109.2158    205.2348   1.0478769774e+02   1.7020847753e+01    0.1864247    0.1419261  72.58   0.00072904    1.372    0.271
       128  -9.2982    194.9478    203.4523   8.6580929213e+01   2.6160247445e+00    0.3566314    0.2366698 -39.76  0.000930094    1.597    0.374
       129  -9.2958    192.5148    197.3816   8.5945369349e+01   4.0573417914e+00    0.3212498    0.2697203 -69.50  0.001204443    1.691    0.408
       130  -9.6900    163.7867    203.1788   9.2836218432e+01   8.0994460563e+00    0.4050506    0.2631981  58.81 0.0008944138    1.944    0.486
       131  -9.3655    250.1067    201.9903   7.6220960721e+01  -5.9737482424e+00    0.3403643    0.1602031 -32.79  0.001181747    1.957    0.489
       132  -7.8050    227.3210    203.3367   8.0455260159e+01  -2.7065210710e+00    0.1357796   0.08807087   1.77 0.0007050136    1.709    0.415
       133  -8.6620    211.0141    202.2949   8.3274843646e+01   9.2796404110e-02    0.2103108    0.1879246 -61.18 0.0007487565    1.581    0.367
       134  -7.6296     34.2968    203.6607   1.2036734962e+02   2.7616697643e+01     0.128408    0.0709627  69.50 0.0007032189    1.658    0.397
       135  -9.2023    243.0394    200.9156   7.7224596452e+01  -4.7775877202e+00    0.2744238    0.1676318 -34.86 0.0008317516    1.604    0.377
       136  -8.9424    140.5464    201.1893   9.7421420375e+01   1.2562318303e+01    0.3498184    0.2365517  83.63  0.001023743    2.374    0.579
       137  -8.6689     80.1473    201.5525   1.1058552554e+02   2.2237625106e+01    0.3362078    0.1900205  74.03  0.001581099    2.174    0.540
       138  -8.2557     48.2050    202.0232   1.1739444480e+02   2.6362718378e+01     0.213926    0.1121614  76.86  0.001066296    2.040    0.510
       139  -8.0157    221.9653    201.2002   8.1030854156e+01  -1.5310580593e+00    0.1721452    0.1366619 -45.90 0.0006664324    1.581    0.367
       140  -9.3826    237.0897    198.5984   7.7821827965e+01  -3.5364866049e+00    0.2942632    0.1630561 -42.96  0.001110356    2.066    0.516
       141  -9.4690    149.5952    198.7117   9.5069988335e+01   1.1451710037e+01    0.4233874    0.2917103  80.78  0.001763784    2.369    0.578
       142  -8.9679    123.9694    199.2356   1.0070804746e+02   1.5810785276e+01    0.3206308    0.2149497 -82.43  0.001241298    2.017    0.504
       143  -9.3576    112.8790    198.5202   1.0303356004e+02   1.7815376724e+01    0.4416628    0.2610806  67.61  0.001512186    2.249    0.555
       144  -9.1102     88.7260    198.4990   1.0834199520e+02   2.1632843409e+01    0.4158396     0.236711  86.55  0.001469584    2.427    0.588
       145  -8.5116    177.0187    199.0033   8.9369447266e+01   6.5107068515e+00    0.2206687    0.1900714 -53.89   0.00055816    1.360    0.265
       146  -9.7960    174.1470    194.0896   8.9067354777e+01   7.9136877722e+00    0.4056398    0.3007648 -85.83  0.001398089    2.308    0.567
       147  -8.3430    202.6441    198.1332   8.4099262906e+01   2.1746807013e+00    0.1940267    0.1674513 -52.78 0.0007780828    1.472    0.321
       148  -8.6409    133.2263    196.6469   9.8273310144e+01   1.4744489235e+01      0.32148    0.1901042 -66.83  0.001434575    2.179    0.541
       149  -9.1436     61.5701    197.1388   1.1408682531e+02   2.5747988561e+01     0.407379    0.2016998  71.83  0.001798955    2.546    0.607
       150  -8.2271     29.5461    197.7574   1.2085504649e+02   2.9399022567e+01    0.1695933   0.09333636  87.64 0.0009405251    1.638    0.389
       151  -8.8244     12.8931    197.5980   1.2416769972e+02   3.1096300846e+01    0.3039238    0.1290502  73.45   0.00135811    2.335    0.572
       152  -9.8695    245.9577    194.0627   7.5418324971e+01  -4.2384915328e+00    0.3779072    0.2657869 -59.85  0.001908407    2.799    0.643
       153  -8.8007    185.1294    194.6824   8.6924139107e+01   5.8330152545e+00    0.2767233    0.2176039 -42.50 0.0007685787    1.368    0.269
       154  -9.3579    160.9321    194.3531   9.1892400825e+01   1.0255678161e+01    0.3294444    0.2434756  74.05  0.001035397    1.948    0.487
       155  -8.9720     44.1308    193.8665   1.1748501476e+02   2.8626358393e+01    0.3887373    0.1894356  67.05  0.001846903    2.202    0.546
       156  -8.8338     76.9364    194.0523   1.1037803723e+02   2.4329648337e+01    0.2547255     0.169037  70.37 0.0006865022    1.534    0.348
       157  -8.8424    215.9920    195.7344   8.1103119297e+01   3.0016642981e-01    0.2675069    0.1819034 -51.18 0.0008304827    1.955    0.488
       158  -7.9591    205.1687    192.1161   8.2467372933e+01   2.7358171463e+00    0.1688202    0.1588705 -45.42 0.0004244783    1.306    0.234
       159  -8.1847    198.9839    191.9846   8.3647419282e+01   3.8410309333e+00    0.1936534    0.1714886 -89.09 0.0005913185    1.638    0.390
       160  -8.0629    179.0539    191.9794   8.7660779614e+01   7.4109997626e+00    0.2028618    0.1717505  87.92  0.000562078    1.655    0.396
       161  -9.2123    139.4368    190.6038   9.5898233371e+01   1.4875730667e+01    0.3738828    0.2639195 -84.31  0.001062484    2.034    0.508
       162 -10.5725     92.4392    188.9466   1.0622671199e+02   2.3155908460e+01    0.9602949     0.296436  49.48  0.003231995    3.574    0.720
       163  -7.9804      6.6390    191.3129   1.2499224804e+02   3.3011770233e+01    0.1259676   0.06323319  65.87 0.0007041867    1.751    0.429
       164  -8.3861    148.4734    189.4490   9.3707668779e+01   1.3477035561e+01    0.2382339    0.1866468  85.29 0.0007266315    1.688    0.408
       165  -9.0291    129.2318    188.7373   9.7855168699e+01   1.7077125586e+01    0.3069974    0.2169222  85.71 0.0008781013    1.946    0.486
       166  -8.3216    237.3959    188.6213   7.5841428369e+01  -2.1009078739e+00    0.2240151    0.1128923 -38.60 0.0007014457    1.944    0.485
       167  -8.8840    216.5465    187.8783   7.9475716250e+01   1.4698131039e+00    0.2572184    0.2107407 -45.04 0.0008630262    1.434    0.303
       168  -9.5710    156.0756    187.6627   9.1726974193e+01   1.2440540271e+01    0.3640781    0.2621872 -66.13 0.0009379427    1.761    0.432
       169  -9.8117    120.8610    186.5253   9.9379594349e+01   1.9011178168e+01    0.5794871     0.303902 -72.15  0.002227652    2.939    0.660
       170  -9.0316     34.2993    187.9692   1.1903551821e+02   3.1043087660e+01    0.3722194    0.1641216  79.88  0.001585628    2.779    0.640
       171  -8.6751    224.5075    194.2125   7.9236539369e+01  -8.7127096858e-01    0.2716903    0.1919469 -52.23  0.001111044    1.971    0.493
       172  -7.9645    230.5850    187.7453   7.6876254502e+01  -8.6412903065e-01      0.17359    0.1167419 -41.50 0.0005470488    1.606    0.377
       173  -8.7047    191.2074    187.4165   8.4312608167e+01   6.0269662169e+00    0.2703779    0.2176009 -84.43  0.001278697    1.975    0.494
       174  -8.7430    165.0374    186.8914   8.9651728275e+01   1.0935855163e+01     0.283221    0.2281333 -75.58 0.0008594287    1.641    0.391
       175  -9.0862     54.8887    187.1618   1.1446467535e+02   2.8824768081e+01    0.3732153    0.1869195  71.42  0.001665414    2.436    0.590
       176  -9.2942    109.6948    186.1323   1.0186644102e+02   2.0998108124e+01    0.3856704     0.239538  73.49  0.001111718    2.223    0.550
       177  -9.4647    248.6737    185.7232   7.3333891213e+01  -3.4391121638e+00    0.3232565    0.2313771  23.26  0.001932843    1.371    0.271
       178  -8.5776    182.9957    185.2286   8.5560195276e+01   7.9249482959e+00    0.2373114    0.1990647 -71.74 0.0007068742    1.599    0.374
       179  -9.1521     66.7320    184.7077   1.1151840047e+02   2.7842141281e+01    0.3597406    0.2141694  72.73  0.001046759    1.865    0.464
       180  -8.6808    210.1412    184.3869   7.9997105813e+01   3.1615389953e+00    0.2424894    0.1852527 -39.16 0.0004816818    1.362    0.266
       181  -8.6670    202.7292    184.8529   8.1522880409e+01   4.3989149007e+00    0.2329951    0.1876407 -54.60  0.000720003    1.558    0.358
       182  -8.3561    196.9991    183.7995   8.2443762105e+01   5.6162675663e+00     0.212772    0.1650399  72.31 0.0007388606    2.004    0.501
       183  -8.8555    174.1716    183.5963   8.7083143591e+01   9.8683941324e+00    0.2660623    0.2168779 -77.21 0.0007933247    1.681    0.405
       184  -8.1624      1.8200    183.7889   1.2547800119e+02   3.5052487376e+01    0.1641582    0.1013194  66.99   0.00105364    1.372    0.271
       185  -8.0412    224.1795    183.2784   7.7148909386e+01   9.1264483830e-01    0.1700438    0.1511001 -42.73 0.0005616687    1.355    0.262
       186  -8.9908     44.3567    182.3900   1.1629941139e+02   3.1177501605e+01    0.3413396    0.1822857  73.79  0.001069338    2.038    0.509
       187  -9.2168    147.5441    180.7642   9.2333979418e+01   1.5415509894e+01    0.3446697    0.2606896  85.22  0.001043372    1.829    0.453
       188  -8.6728     21.4495    191.4360   1.2201542577e+02   3.1604662582e+01    0.2681711   0.09076588  57.27  0.001153257    3.013    0.668
       189  -9.4379     25.6436    179.0823   1.2011431762e+02   3.3943764830e+01    0.6145279    0.2331194  78.11  0.002210275    4.111    0.757
       190  -7.8351    240.4331    180.2166   7.3643289837e+01  -1.3060264432e+00    0.1772443     0.114126 -40.32 0.0008583676    1.598    0.374
       191  -8.6874    137.5348    179.3434   9.4331393924e+01   1.7566590036e+01    0.2990941      0.21717  83.44 0.0008948239    1.915    0.478
       192  -9.2113    191.3531    178.3837   8.2493726509e+01   7.6288930825e+00    0.2923489    0.2574174 -86.74 0.0005592848    1.549    0.355
       193  -8.9295    193.4414    173.0456   8.0979350491e+01   8.2163062950e+00    0.3458349    0.2081423   7.44  0.001326379    2.885    0.653
       194  -8.2969    169.4077    178.7506   8.7151193887e+01   1.1699443089e+01    0.2560516    0.1388633 -49.93 0.0006505148    2.012    0.503
       195  -9.1184     35.9321    176.7984   1.1761792459e+02   3.3400861883e+01    0.5478438     0.219828  80.98   0.00190878    4.178    0.761
       196  -9.4150    248.4880    176.5161   7.1528507095e+01  -2.0340353905e+00    0.4200521    0.2661776 -48.57  0.002044136    2.027    0.507
       197  -8.6093    250.5024    172.9344   7.0467669968e+01  -1.8105739843e+00    0.2067774    0.1713265  -1.69 0.0005722558    1.083    0.076
       198  -8.5139    231.1130    177.2015   7.4668597835e+01   7.1335919611e-01    0.2251308    0.1633622 -54.85 0.0006806984    1.927    0.481
       199  -8.5489    217.7562    177.4572   7.7158920019e+01   2.9831808232e+00     0.256197    0.1724779 -50.86 0.0009441763    1.849    0.459
       200  -8.7004    205.1070    177.6810   7.9617168534e+01   5.2157810692e+00    0.2341796    0.1831071 -44.32 0.0005889671    1.386    0.279
       201  -8.7187    129.3999    177.5565   9.5875387444e+01   1.9436163923e+01     0.310669    0.2171131  84.67  0.001008921    2.030    0.507
       202  -8.1336     97.4283    177.7200   1.0340201065e+02   2.4894647886e+01    0.1856703    0.1274076 -51.52 0.0008052286    1.524    0.344
       203  -9.5386    182.8553    176.1312   8.3783803283e+01   9.6480299860e+00    0.3341534    0.2628932 -43.20 0.0007376224    1.317    0.241
       204  -9.1981     88.9505    176.8619   1.0527847344e+02   2.6428262242e+01    0.2810927    0.1961355  83.96 0.0009273869    1.608    0.378
       205 -10.0187     57.3274    173.3469   1.1229390717e+02   3.1699718775e+01    0.8237215    0.3702697  80.95  0.002720263    4.373    0.771
       206  -8.8016     12.9086    176.8082   1.2268166227e+02   3.5653681721e+01    0.2327551    0.1144241  73.89 0.0008062411    1.967    0.492
       207  -8.2048    211.6218    176.2599   7.8071278438e+01   4.2811480032e+00    0.1935916    0.1225153 -27.55 0.0005847936    1.579    0.367
       208  -9.3050    158.7160    175.1617   8.8774736524e+01   1.4454646580e+01    0.3476033    0.2557407 -85.23 0.0009759709    2.073    0.518
       209  -9.6099    104.3113    174.8609   1.0130776040e+02   2.4418320882e+01    0.4977673    0.2986485  70.55  0.001695034    2.331    0.571
       210 -10.6713     76.0482    169.4042   1.0726935388e+02   3.0095784461e+01     1.452336    0.5082358 -68.48  0.004930078    3.308    0.698
       211  -8.1913    224.2109    174.2228   7.5302887345e+01   2.3876003322e+00    0.1743203    0.1598532 -49.17 0.0005478418    1.356    0.262
       212  -9.5446    175.7615    172.2716   8.4491003674e+01   1.1749007977e+01    0.3516715    0.2452488 -42.92 0.0009367571    1.459    0.314
       213  -8.3513    142.9832    172.7441   9.1847770896e+01   1.7955784759e+01    0.2576642    0.1888627 -67.38 0.0006828993    1.612    0.380
       214  -8.4227    134.8811    172.0436   9.3585882827e+01   1.9627870173e+01    0.2299127    0.1917451  78.15 0.0006441936    1.364    0.267
       215  -9.4815    121.4452    170.5138   9.6465095827e+01   2.2428780730e+01    0.4182157    0.2807955 -82.19  0.001038095    2.034    0.508
       216  -9.0970     44.9128    170.8919   1.1492242548e+02   3.3774657097e+01    0.3815991    0.2004299  82.39  0.001570178    2.209    0.547
       217  -8.4172    205.8700    170.5204   7.7988055853e+01   6.3392717125e+00    0.2687932    0.1810289 -55.04 0.0008771256    1.923    0.480
       218  -9.4707     81.8706    155.1622   1.0356084550e+02   3.2641153607e+01    0.4875772    0.3301781  79.11  0.001735324    1.776    0.437
       219  -8.1205    237.1845    169.8253   7.2083368869e+01   8.6748722691e-01    0.1924547    0.1710656 -34.16 0.0007005263    1.243    0.195
       220  -8.7674    230.1189    168.9841   7.3149728004e+01   2.2203833893e+00    0.4324096    0.1527283 -45.99   0.00150445    3.496    0.714
       221  -8.5745    198.2371    170.1878   7.9421071489e+01   7.8328820647e+00    0.1859564     0.170142 -67.42 0.0005095995    1.362    0.266
       222  -9.2285    167.1525    168.6207   8.5599172710e+01   1.4149175869e+01     0.369782    0.2632104  73.71  0.001170175    2.144    0.534
       223  -8.5174    149.8354    169.5945   8.9664805613e+01   1.7316566179e+01    0.2752808     0.197611 -72.23 0.0009113492    1.841    0.457
       224  -7.9255    244.3985    169.2014   7.0720922631e+01  -2.4232678478e-01    0.1769773    0.1121672 -40.95 0.0003672393    1.582    0.368
       225  -8.4450     88.5933    168.9117   1.0413486675e+02   2.8332540567e+01    0.2680017    0.1664591 -78.80 0.0009178806    1.830    0.454
       226  -8.4427    218.8108    168.2670   7.5055174036e+01   4.3534076247e+00     0.193925    0.1855812 -26.36 0.0006392992    1.193    0.162
       227  -8.8119    111.7097    167.4144   9.8243239218e+01   2.4859070485e+01    0.3678522    0.2409023  83.20  0.001209086    2.214    0.548
       228  -8.7948    191.8861    166.6808   7.9961374744e+01   9.6991069706e+00    0.2705336    0.2022616 -45.33 0.0005805732    1.391    0.281
       229  -9.0148    184.9601    166.6826   8.1388700038e+01   1.1045169010e+01     0.275831    0.2106942 -50.62 0.0007063471    1.429    0.300
       230  -8.6796    140.6534    166.3256   9.1130640750e+01   1.9782881626e+01     0.296404    0.2163826  74.74  0.001173288    1.830    0.454
       231  -9.6606    135.6636    164.0267   9.1846399989e+01   2.1240364019e+01    0.4311602    0.2831651  63.16 0.0009651905    1.917    0.478
       232  -9.0834     20.5715    166.4252   1.2010658466e+02   3.7334413987e+01    0.3010052    0.1390404  59.64  0.001118235    2.256    0.557
       233 -10.0989     94.9893    162.8588   1.0155484332e+02   2.8742233529e+01    0.8163039     0.453617  80.31  0.002847012    3.490    0.713
       234  -8.2004    233.9704    165.0208   7.1638290489e+01   2.2001470049e+00    0.1961771    0.1618406 -57.74 0.0005549596    1.616    0.381
       235  -8.7062    159.4794    164.3363   8.6411150959e+01   1.6538007765e+01    0.2975622    0.2279708 -86.31  0.000884847    1.860    0.462
       236  -9.5376     33.8298    163.6439   1.1673259481e+02   3.6691352681e+01    0.5811886    0.2006199  54.00  0.002247948    3.441    0.709
       237  -7.9422    240.1572    164.1955   7.0396902833e+01   1.2665519304e+00    0.2014454    0.1632786 -60.98 0.0005993071    1.753    0.430
       238  -8.3878    237.3261    159.6855   6.9926551713e+01   2.4898596234e+00    0.3053804    0.1534474 -47.14  0.001318985    2.293    0.564
       239  -8.6031    212.9310    163.7167   7.5190219507e+01   6.2281061228e+00    0.2709608    0.1901665 -42.98 0.0007020169    1.451    0.311
       240  -8.9247     60.2318    160.3876   1.0987158303e+02   3.4408409232e+01    0.4419329    0.2166566 -59.51  0.001502577    1.840    0.457
       241  -9.0313    246.0353    163.0017   6.9157657375e+01   4.6276648430e-01    0.2048965    0.1736861 -19.49 0.0005664176    1.045    0.043
       242  -8.3799    204.8420    163.0885   7.6609241400e+01   7.8701260821e+00    0.2081099    0.1935539 -52.97 0.0004708381    1.249    0.200
       243  -9.4546      3.5718    162.4693   1.2361637614e+02   3.9676690816e+01    0.3986183    0.1612954  52.82  0.001805338    2.452    0.592
       244  -9.0687    177.5388    160.9272   8.1724842842e+01   1.3638014514e+01     0.326587    0.2445625 -70.66 0.0009374387    1.863    0.463
       245  -9.0202    151.9054    161.3974   8.7517367817e+01   1.8655970803e+01    0.2798407    0.2109206 -68.93  0.001076248    1.622    0.384
       246  -8.4505    242.4452    160.4237   6.9214749543e+01   1.4830359358e+00    0.3838599    0.2076144  24.67  0.001701755    2.438    0.590
       247  -9.8070    250.1523    157.8109   6.7391723974e+01   5.9477630766e-01    0.3545612    0.2310497 -33.87  0.000846193    1.344    0.256
       248  -8.6473    246.7012    155.6894   6.7504458256e+01   1.5164239456e+00    0.3431168    0.1716816 -21.07   0.00114919    2.412    0.585
       249  -8.4083    227.2982    159.1597   7.1567696240e+01   4.3671886545e+00    0.2571798    0.1733823 -49.93  0.001105546    1.731    0.422
       250  -9.7343    105.9923    157.7130   9.7873702639e+01   2.8110082236e+01    0.5975863    0.4407396 -80.71  0.001748693    1.538    0.350
       251  -8.5161    196.8592    158.2403   7.7133490335e+01   1.0316660395e+01    0.2563978    0.2020196 -62.39 0.0008030847    1.616    0.381
       252  -9.3836    167.6166    157.4615   8.3131166054e+01   1.6336578919e+01    0.3577459    0.2775696 -77.48  0.001075217    1.764    0.433
       253  -8.5521    127.9665    158.7950   9.2646020847e+01   2.3872454119e+01    0.2613057     0.194076 -73.88 0.0007828185    1.585    0.369
       254  -8.2995    188.0210    157.7876   7.8834289656e+01   1.2158256328e+01    0.2585294    0.1879927 -56.28 0.0008710146    1.623    0.384
       255  -8.6192    218.0066    156.6306   7.2705975863e+01   6.5251983586e+00    0.2644924    0.1847434 -50.25 0.0006490168    1.632    0.387
       256  -8.8834    157.6379    156.1163   8.5079609326e+01   1.8636159766e+01    0.3650731    0.2601549 -47.83  0.001727341    1.416    0.294
       257  -9.3987    119.5696    155.4762   9.4043505990e+01   2.6201250450e+01    0.4151953     0.285731 -82.46  0.001562629    1.962    0.490
       258  -9.3423     49.8120    155.6183   1.1183247381e+02   3.6845058254e+01    0.4446381    0.2317176  66.05  0.001855427    2.410    0.585
       259  -8.8413    237.4473    150.4890   6.7924277673e+01   3.9915961631e+00    0.3672777    0.1591154  32.58  0.001388155    3.163    0.684
       260  -8.3265    242.7498    155.0477   6.8019708927e+01   2.3014979441e+00    0.1984347    0.1667341 -38.90  0.000418837    1.234    0.189
       261  -7.8504    239.7269    153.3050   6.8150632020e+01   3.1174571394e+00     0.202849    0.1822642 -50.39  0.000241532    1.329    0.248
       262  -7.7708    204.7128    155.3485   7.4944792161e+01   9.3123614071e+00    0.1412802    0.1153505 -69.53 0.0007022725    1.658    0.397
       263  -8.5472    144.5416    154.8573   8.7849947019e+01   2.1535773140e+01    0.2936643    0.1944321  60.92 0.0009431593    1.852    0.460
       264  -9.3411     68.0241    153.8291   1.0691329435e+02   3.4959652874e+01    0.4275634    0.2595986  76.61  0.001286743    2.102    0.524
       265  -7.8825    232.6590    153.8149   6.9467695915e+01   4.2988712040e+00     0.194647    0.1152477 -42.55 0.0003565201    1.652    0.395
       266  -9.6752    132.8350    153.1111   9.0289840429e+01   2.4228077311e+01    0.4755863    0.3444566  71.08  0.001598355    1.772    0.436
       267  -9.1925    133.5036    148.5002   8.9139633882e+01   2.5142443514e+01    0.3367822    0.2663642 -34.87  0.001435091    1.359    0.264
       268  -8.7245    151.5915    152.7509   8.5739348511e+01   2.0581035859e+01    0.2873821    0.1451771 -44.15   0.00112634    1.984    0.496
       269 -10.5837     54.1608    143.6928   1.0897652813e+02   3.9230105480e+01    0.9878353    0.5005492  88.43  0.003123684    3.033    0.670
       270  -9.1334     20.0063    152.9666   1.1892845445e+02   4.0540530918e+01    0.2000441    0.1221768  71.46 0.0005733169    1.624    0.384
       271  -8.6928     98.2865    150.8557   9.8542651866e+01   3.1055507686e+01    0.3260005    0.2180586 -83.51 0.0009513703    1.887    0.470
       272  -9.4837     29.1691    150.6997   1.1641597037e+02   4.0238552708e+01    0.4346696    0.1995032  75.30  0.001672449    3.030    0.670
       273  -8.8957      2.6632    151.0423   1.2290442150e+02   4.2373999024e+01    0.3066498    0.1244027 -81.16  0.001492148    2.022    0.505
       274  -9.6388    248.7509    149.5867   6.5867534839e+01   2.1460351286e+00    0.3425307     0.190852 -36.45 0.0008908716    1.568    0.362
       275  -8.4963    243.1528    150.0850   6.6884899080e+01   3.0417959668e+00    0.2875985    0.1534224 -46.60  0.001094914    2.030    0.508
       276  -8.9762    189.3983    150.3638   7.6894158189e+01   1.3323545252e+01    0.3255138     0.236173 -55.11 0.0008227894    1.581    0.367
       277  -8.0869    182.1663    151.1921   7.8590223985e+01   1.4640608309e+01      0.20465    0.1790072 -72.58 0.0005672532    1.381    0.276
       278  -8.6723    162.8110    150.7298   8.2718050198e+01   1.8721552263e+01     0.283046     0.200322 -72.77 0.0007510911    2.032    0.508
       279  -8.3935    212.8645    150.0382   7.2204713322e+01   8.6888467456e+00     0.210274    0.1898549 -45.76   0.00039769    1.197    0.165
       280  -8.3652    198.8432    149.0745   7.4692923928e+01   1.1653067649e+01     0.216412    0.1978487 -61.78 0.0005305774    1.261    0.207
       281 -10.2311     89.2854    146.3465   1.0004396253e+02   3.3621828687e+01    0.6968907    0.3914714 -89.68  0.002433002    3.344    0.701
       282  -9.0201     56.5239    135.4939   1.0700539388e+02   4.0956090000e+01    0.2615724    0.1393918  31.06  0.001105364    2.148    0.535
       283  -9.8437     39.6785    147.8302   1.1338328754e+02   3.9868297952e+01     0.526877    0.2507924  64.14  0.002057678    2.813    0.644
       284  -8.8310    233.3700    147.6642   6.7998827867e+01   5.2099387844e+00    0.2764599    0.1522982 -34.31 0.0008826862    1.634    0.388
       285 -10.2771    149.0789    145.1315   8.4630377893e+01   2.2756462589e+01    0.6000454    0.4072196 -88.86  0.001855227    2.597    0.615
       286 -10.3540    106.7046    143.8078   9.4947729147e+01   3.1282769737e+01    0.8574175    0.5593746 -74.70    0.0023367    1.903    0.475
       287  -8.9590     78.2587    147.0890   1.0310523405e+02   3.5142835124e+01     0.366361    0.2186922  86.84  0.001054529    2.436    0.589
       288  -8.2021    223.2878    146.9868   6.9612528334e+01   7.2195413247e+00    0.2036165    0.1663429 -32.04 0.0003187728    1.121    0.108
       289 -10.1078    139.1373    145.2540   8.7046078118e+01   2.4754091350e+01    0.4765781    0.3288603 -77.33  0.001129033    2.086    0.521
       290  -9.2638     13.4397    146.3669   1.1986843559e+02   4.2653618370e+01    0.3510121    0.1615682  59.64  0.001163729    2.447    0.591
       291  -9.5042    240.3648    145.2467   6.6290563312e+01   4.3393052833e+00    0.2659525    0.1841826 -38.72 0.0004720492    1.324    0.245
       292  -7.8276    206.5499    146.5136   7.2607270107e+01   1.0583094599e+01    0.1461412     0.135316 -22.92 0.0001392616    1.032    0.031
       293  -8.3540    175.6681    146.1986   7.8843213072e+01   1.6993314076e+01    0.2357086    0.1884065 -59.96  0.000669626    1.422    0.297
       294  -8.9846    165.5297    144.2687   8.0634761841e+01   1.9517527655e+01    0.2917215     0.251121  83.85  0.000608358    1.414    0.293
       295  -9.9617    125.0541    142.7796   8.9995928810e+01   2.8105528536e+01    0.5735974    0.3671172 -80.03  0.001636009    2.511    0.602
       296  -8.9543    247.0247    143.9220   6.4918905170e+01   3.3667898538e+00    0.2339383    0.1687371 -32.17 0.0005194104    1.199    0.166
       297  -7.8375    194.4002    144.2200   7.4470298981e+01   1.3489202126e+01    0.2073569    0.1351719 -49.66 0.0004564369    1.634    0.388
       298 -10.8530     69.5082    141.1852   1.0441491428e+02   3.7847087895e+01     1.049663    0.6557029  87.46  0.004700632    2.073    0.518
       299  -9.4922      2.7946    141.8518   1.2206603268e+02   4.4506532064e+01    0.3938826    0.1749139  75.91  0.001555856    2.559    0.609
       300  -8.4774    182.1005    141.7698   7.6438281844e+01   1.6539796576e+01    0.2628288    0.2019359 -53.36   0.00063434    1.398    0.285
       301  -8.2691    250.3567    140.9794   6.3751801355e+01   3.2581866948e+00    0.1982533    0.1491814 -31.14 0.0006087483    1.137    0.121
       302  -9.5408    242.6775    143.2926   6.5482433387e+01   4.2464145405e+00    0.3734334    0.2081434 -19.41  0.001641598    2.138    0.532
       303 -10.0867     23.3632    138.1756   1.1641873559e+02   4.3784303968e+01    0.4789137    0.2404705  70.40  0.001718906    2.505    0.601
       304  -8.0548    218.5215    138.9304   6.8643688542e+01   9.5793743870e+00    0.2210936    0.1324035 -37.10 0.0005630336    1.532    0.347
       305  -9.3673    139.5860    137.5947   8.5185495764e+01   2.6385300656e+01    0.4103102    0.2490193 -18.50  0.001415054    3.063    0.674
       306  -8.2446    207.2235    137.8987   7.0494081847e+01   1.2048296320e+01    0.2205087    0.1931336 -57.22 0.0006246411    1.276    0.216
       307  -8.6295    197.5515    137.6124   7.2299380138e+01   1.4106622343e+01    0.2916574    0.2083446 -53.16 0.0007562963    1.545    0.353
       308  -9.2428    151.0561    136.0756   8.2053791112e+01   2.4330222217e+01    0.4395319    0.2496459  23.37  0.001528937    2.884    0.653
       309  -9.4122     38.9464    136.2158   1.1196965344e+02   4.2776374343e+01    0.2985793    0.1893372  77.81 0.0008888852    1.778    0.438
       310  -9.0712    248.3419    135.3827   6.2840028235e+01   4.5298168633e+00     0.296479    0.1896962 -44.57 0.0008109211    1.514    0.339
       311  -7.8992    187.8580    135.8119   7.3827817767e+01   1.6506078741e+01    0.2056245    0.1811218 -71.97 0.0004862242    1.334    0.250
       312  -8.2361    162.4192    136.2646   7.9454852865e+01   2.1870297243e+01    0.2162078    0.1452621 -53.84  0.000588458    1.594    0.373
       313 -10.4036     83.4556    133.0590   9.9024742231e+01   3.7783520588e+01    0.5642917    0.3424615 -73.12  0.001479231    1.901    0.474
       314  -7.8889    237.5770    133.7910   6.4200404547e+01   6.7822036471e+00     0.202864     0.116891 -44.73 0.0009402307    1.683    0.406
       315  -7.5929    231.6057    134.2635   6.5296561722e+01   7.8408422977e+00    0.1358001    0.1104372 -76.36 0.0006975107    1.712    0.416
       316  -8.5317    179.4763    133.8879   7.5120695033e+01   1.8690168754e+01    0.2909258     0.203679 -59.78 0.0008769239    1.720    0.418
       317 -10.1710    132.8026    131.7441   8.5495589900e+01   2.9100056470e+01    0.6116844    0.4136627  80.52   0.00179085    2.425    0.588
       318  -9.1528    112.8780    133.0910   9.0988812400e+01   3.2700161492e+01    0.3923442    0.2580763 -66.05  0.001341765    1.722    0.419
       319  -9.2304    143.1193    131.8222   8.2945790441e+01   2.6943087559e+01    0.3379942    0.2567985 -77.18 0.0007702556    1.705    0.413
       320 -10.5904     98.3260    129.0140   9.4022103309e+01   3.6308746420e+01     1.178918     0.348547 -49.90   0.00370227    3.123    0.680
       321  -8.9888    250.6678    129.9905   6.1292035556e+01   4.9924032689e+00    0.4195692    0.1128851 -35.36  0.001398163    3.275    0.695
       322 -10.1419     12.9618    129.2951   1.1813120644e+02   4.6757049288e+01    0.4721151    0.2441924  73.74   0.00190669    2.297    0.565
       323  -8.4938    246.8083    130.1613   6.1920412944e+01   5.6688583596e+00    0.2058322    0.1656838 -42.90 0.0006144551    1.198    0.166
       324  -8.7294    172.1174    138.4621   7.7809011222e+01   1.9334075909e+01    0.3015385    0.2285302 -69.35 0.0004597452    1.701    0.412
       325  -8.3910    211.9354    129.4546   6.7629693905e+01   1.2639091891e+01    0.2926812    0.1709343 -65.76 0.0009733646    3.365    0.703
       326  -7.8462    204.5286    130.4901   6.9256542213e+01   1.3994905385e+01    0.1493355    0.1389735 -35.26 9.901868e-05    1.048    0.046
       327  -8.1679    192.6961    130.1942   7.1493553578e+01   1.6571908431e+01     0.236213    0.1817139 -53.80 0.0005506125    1.396    0.284
       328  -9.3772    168.2260    129.2567   7.6440658065e+01   2.2089586525e+01    0.3672087    0.2507433 -60.93 0.0008720049    1.783    0.439
       329  -9.5655    152.8915    128.2317   7.9711611884e+01   2.5647891986e+01    0.6832017    0.2895825 -46.56  0.002351556    2.332    0.571
       330 -10.0031     72.9024    129.1712   1.0122158365e+02   4.0321312853e+01    0.4027144    0.2666437 -86.88  0.001229304    1.895    0.472
       331  -8.1523      1.7366    130.5113   1.2124679714e+02   4.7240519850e+01     0.150597    0.1015263  50.49 0.0009395769    1.639    0.390
       332 -10.7945     44.7823    123.5081   1.0830952742e+02   4.5273390140e+01     1.074787    0.5463752  80.35  0.003850388    3.757    0.734
       333 -10.0669    118.0459    125.3004   8.7782269797e+01   3.3539446986e+01    0.6274911    0.4280448  84.05  0.001544185    2.365    0.577
       334 -10.5546     59.9638    125.1885   1.0418037628e+02   4.3061668417e+01    0.7258156    0.4201722  81.81  0.002375765    2.783    0.641
       335  -9.1740     58.8816    115.4249   1.0257704559e+02   4.5592957786e+01    0.3576217    0.1688792 -36.05  0.001332928    3.002    0.667
       336 -10.3354     28.6761    122.7457   1.1286640807e+02   4.7056326560e+01    0.7341315    0.3572407  74.14   0.00288414    3.379    0.704
       337  -8.2347    228.4696    125.4753   6.3800599958e+01   9.9841048424e+00    0.1441316    0.1283502 -35.56 0.0002837377    1.051    0.048
       338  -9.0799    199.3422    125.0696   6.8940091369e+01   1.6126447770e+01    0.2560831    0.2202647  41.87 0.0001828659    1.228    0.186
       339  -8.9361    179.3607    124.8647   7.2929886462e+01   2.0540305432e+01     0.283857    0.2390708 -85.31 0.0007331947    1.475    0.322
       340  -8.6405     84.5880    123.1510   9.6603061474e+01   4.0020292799e+01     0.453427    0.3073821  -6.98  0.001903514    2.489    0.598
       341 -10.7695    131.0894    118.4291   8.2633540558e+01   3.2472221138e+01    0.7391292    0.4958444 -86.73    0.0021438    2.637    0.621
       342  -9.2748    158.6369    121.4756   7.6664414390e+01   2.5840598276e+01    0.4317458    0.2880136 -71.78  0.001186841    2.285    0.562
       343  -7.8627    195.1231    122.1673   6.9046867647e+01   1.7599217550e+01    0.2106851    0.1737042 -60.22 0.0004731407    1.345    0.256
       344  -8.6208    171.9570    121.7847   7.3746848907e+01   2.2811503250e+01    0.2742575     0.213048 -43.71 0.0005954932    1.248    0.199
       345  -9.5903     71.1769    119.7855   9.9795955867e+01   4.2868433497e+01    0.4317487    0.2761012 -87.86   0.00121929    2.201    0.546
       346  -9.8599    141.5752    118.6009   8.0019237646e+01   3.0202486260e+01     0.473415    0.3072491 -66.18  0.001025428    2.075    0.518
       347  -9.7216      2.9064    117.3648   1.1950802217e+02   5.0270703754e+01    0.4716775    0.2217344  81.56  0.002192321    2.550    0.608
       348  -7.8036    231.5545    117.7579   6.1492676198e+01   1.0706281632e+01    0.2022583    0.1203909 -45.72 0.0007072893    1.604    0.377
       349  -9.9851    109.2952    114.2088   8.7418087435e+01   3.7813732656e+01    0.5642008    0.3691148 -74.62  0.001553842    2.222    0.550
       350  -9.1525    109.2483    107.7519   8.5749226979e+01   3.9310404211e+01    0.3773132    0.2436219 -13.11  0.001331154    2.714    0.632
       351  -7.7930    219.3096    116.6713   6.3267317045e+01   1.3416642527e+01     0.148346    0.1106707 -64.94 0.0002996403    1.663    0.399
       352  -8.2574    193.0976    115.4736   6.7769638671e+01   1.9333463282e+01    0.2432335     0.200976 -59.51 0.0005906708    1.312    0.238
       353  -8.2207    185.6866    116.1561   6.9419571207e+01   2.0861808692e+01    0.2445685    0.1785444 -54.15 0.0005396901    1.462    0.316
       354  -7.7568    153.2774    115.6494   7.6410605714e+01   2.8270636417e+01    0.1601135    0.1241219 -74.87 0.0007007978    1.642    0.391
       355 -10.2581     92.8232    111.6277   9.1494938530e+01   4.1418126166e+01    0.9047231    0.3586336 -55.39  0.002836131    2.537    0.606
       356 -10.0012     78.8425    112.4193   9.5855091464e+01   4.3515288155e+01    0.6224143     0.382017 -80.54  0.002033666    2.476    0.596
       357  -8.9636     78.3344    105.3302   9.4300602922e+01   4.5284791529e+01    0.3323916    0.2390192   3.07  0.001558823    1.939    0.484
       358  -8.0034    167.4510    114.5371   7.2871843051e+01   2.5312142209e+01    0.1564673     0.149772 -54.33 0.0002920397    1.051    0.049
       359  -9.0883     27.9288    113.7019   1.1167977673e+02   4.9316288209e+01    0.3887696    0.1509102  25.47  0.001697722    3.071    0.674
       360  -9.9319    133.5515    109.6040   7.9673701399e+01   3.3911325939e+01     0.646306    0.3254528 -49.46  0.002022518    2.005    0.501
       361 -10.1860    121.9837    112.4484   8.3479084224e+01   3.5706220967e+01    0.4390766     0.312338 -58.97 0.0007842258    1.503    0.335
       362 -10.1063     13.9732    111.3432   1.1551716409e+02   5.0980221067e+01    0.4075399    0.2519319  72.73  0.001633551    1.905    0.475
       363 -10.6371    248.6463    108.0173   5.6654060224e+01   8.9694452291e+00     0.420198    0.2843024 -53.37  0.001849528    1.543    0.352
       364  -8.5033    174.8084    111.9352   7.0592270346e+01   2.4164614568e+01    0.2819646    0.2038551 -57.54 0.0006563662    1.541    0.351
       365  -8.4720    159.1178    111.8867   7.4054291454e+01   2.7749697361e+01    0.2766787    0.2186134 -45.32 0.0006020681    1.234    0.190
       366 -10.2036     66.1934    110.5517   9.9289885022e+01   4.5810232548e+01    0.4459127    0.3231244 -85.94  0.001391152    1.685    0.407
       367  -7.8759    228.9581    110.3677   6.0164029372e+01   1.2512264198e+01    0.2346022    0.1033388  33.00 0.0003682579    4.606    0.783
       368  -8.7397     43.2783    109.5075   1.0620918243e+02   4.8852324556e+01    0.2931847    0.1428254  21.33  0.001295126    2.672    0.626
       369  -8.1403    189.2316    108.1625   6.6656591103e+01   2.1606980841e+01    0.2136143    0.1735552 -62.25 0.0004735298    1.358    0.264
       370 -10.2359    119.8412    105.8652   8.2295362017e+01   3.7623820480e+01     0.407864     0.325154 -38.95  0.001840899    1.227    0.185
       371 -10.9594    108.8800     98.9059   8.3435185866e+01   4.1376802278e+01     0.919324    0.5297267  67.06  0.001244092    3.318    0.699
       372  -9.1734    107.7909     92.8028   8.2002636478e+01   4.2932477102e+01    0.5874826    0.3026389  26.04  0.002015258    3.091    0.676
       373  -9.5089    150.6666    103.3500   7.3717324490e+01   3.1446514648e+01    0.4854859    0.3157134 -66.10   0.00166537    2.155    0.536
       374 -10.6000     45.5657    102.3203   1.0402541200e+02   5.0337736214e+01    0.7175583    0.4180287  75.32   0.00293993    3.066    0.674
       375 -10.6655     22.8625    102.7159   1.1141623657e+02   5.2376812140e+01    0.7013629    0.3838349  78.58  0.002653718    2.750    0.636
       376  -8.5105    166.7576    104.1324   7.0254111980e+01   2.7580803095e+01     0.239679    0.2051943 -61.01 0.0005915395    1.240    0.194
       377  -9.5074      6.7803    103.1664   1.1653735371e+02   5.3389065444e+01    0.2749629     0.180037  71.23  0.001172708    1.776    0.437
       378 -10.1775    128.5012    102.1385   7.8939816629e+01   3.6624686872e+01    0.3782432    0.2893644 -66.62 0.0007658284    1.548    0.354
       379  -7.8881    175.5416    102.4684   6.7924474109e+01   2.5866699126e+01    0.1556948    0.1482877 -51.60 0.0001076383    1.037    0.035
       380  -8.0408    159.9969    101.2482   7.0971101474e+01   2.9728811207e+01    0.2110042    0.2078211  89.37 0.0004409089    1.047    0.045
       381  -9.4109     82.0091     99.8170   9.1751387318e+01   4.5995504286e+01    0.4093387    0.2694485 -71.71 0.0009302839    1.963    0.491
       382 -10.5239     63.7398     96.2165   9.6674355524e+01   4.9557388834e+01    0.6354142    0.3869016 -77.60  0.001801325    2.419    0.587
       383  -9.4096     95.0169     97.1041   8.7016971696e+01   4.4393406358e+01    0.3323425    0.2302823 -55.48 0.0005628701    1.446    0.308
       384  -7.6701    183.9824     96.7585   6.4677955001e+01   2.4984334412e+01    0.1932822    0.1314051  52.77 0.0004209375    1.535    0.349
       385  -9.3306    139.8403    104.7153   7.6739735098e+01   3.3595233490e+01    0.4000175    0.2957003 -74.23 0.0008750258    1.815    0.449
       386  -8.3232    176.4550     93.5357   6.5305693266e+01   2.7366224358e+01     0.301104    0.1941902 -63.33  0.001007109    2.038    0.509
       387  -8.0671    164.8603     94.1587   6.7917775049e+01   2.9992404020e+01    0.2418377    0.2054824 -72.99 0.0006029441    1.333    0.250
       388  -9.2331    120.5309     93.4681   7.8603550724e+01   4.0183628865e+01    0.2714395    0.2547381 -81.52   0.00123553    1.169    0.145
       389 -10.0011    124.6012     90.8931   7.6741239538e+01   3.9856448490e+01     0.515313    0.3272365 -58.18  0.001983289    1.889    0.471
       390  -9.4862    247.2166     92.9143   5.3392528622e+01   1.1697122305e+01    0.2667841    0.1771279  26.84  0.001275418    2.248    0.555
       391  -9.2249    138.9700     92.3682   7.3449934933e+01   3.6367918663e+01    0.3677942    0.2740733 -81.22   0.00092652    1.904    0.475
       392  -9.2229     46.4868     92.4359   1.0151739837e+02   5.2577058161e+01    0.3671587    0.2128057  18.13  0.001776134    2.191    0.544
       393  -9.5907      5.4037     92.4644   1.1537480924e+02   5.5971936047e+01    0.2927162    0.1931732  68.41  0.001356605    1.875    0.467
       394  -8.1648    157.6920     91.5869   6.8776340639e+01   3.2184878017e+01    0.2614591    0.1774998 -57.00 0.0005608061    1.680    0.405
       395  -9.9246     34.7958     89.7221   1.0490412799e+02   5.4413717258e+01    0.4900674    0.2702147 -82.58  0.002019867    2.661    0.624
       396  -9.1137     23.1934     90.1311   1.0898289404e+02   5.5320855220e+01    0.2957971     0.239359   2.26  0.001322967    1.504    0.335
       397  -8.1123    150.9128     89.1383   6.9622896820e+01   3.4257257924e+01     0.238279    0.2106113 -67.29 0.0005823061    1.226    0.184
       398 -10.3202     86.7697     85.5306   8.6253877559e+01   4.8419522281e+01    0.7968599    0.4811104 -43.13  0.002028493    1.538    0.350
       399  -9.7898     48.3504     84.1762   9.8841369935e+01   5.4272811024e+01    0.4742425    0.3193648  85.06  0.001798212    2.464    0.594
       400  -7.5644    179.2915     85.6428   6.2557215488e+01   2.8150730260e+01    0.1612707    0.1160453 -66.43 0.0005640436    1.688    0.408
       401  -9.8709    104.7719     83.2441   8.0023540217e+01   4.5564659992e+01    0.5019606    0.3398017 -67.75  0.001372261    2.119    0.528
       402  -8.5362    105.3437     77.3287   7.8000818230e+01   4.6661994076e+01    0.2176537    0.1510594  24.32 0.0009648145    1.709    0.415
       403  -8.3613    158.0128     84.0097   6.6513109083e+01   3.3560160569e+01    0.2419193    0.1846106 -68.97 0.0004414275    1.597    0.374
       404  -9.0770    140.7465     82.9613   7.0215816971e+01   3.7830305247e+01    0.3193093    0.2491631  86.71  0.000739655    1.690    0.408
       405  -9.7241     24.5140     80.2998   1.0644887640e+02   5.7482268164e+01    0.4611674    0.2507695 -81.57  0.001472743    2.574    0.612
       406  -9.6480      9.6630     80.9261   1.1192276103e+02   5.8378763549e+01    0.3086898    0.1907615  65.32  0.001233747    2.321    0.569
       407  -8.4853    150.2052     80.5051   6.7234469581e+01   3.6077968601e+01    0.3132541    0.1872156 -52.55  0.001062526    1.889    0.471
       408  -9.3932    118.6673     79.8669   7.4998128878e+01   4.3382047750e+01    0.4329779    0.3245049 -89.02   0.00137898    2.026    0.507
       409  -9.0096     74.4498     80.2384   8.8707813192e+01   5.1601104937e+01    0.3505919    0.2272267 -66.19  0.001099958    2.027    0.507
       410  -8.3057    166.7298     79.7352   6.3403048110e+01   3.2250268917e+01    0.2612177    0.1780204 -34.60 0.0005375462    1.458    0.314
       411  -8.4160    201.6600     77.8972   5.6436926911e+01   2.4167060939e+01    0.2962457    0.1390765 -27.28  0.001084649    2.506    0.601
       412  -9.3617    128.0615     75.4053   7.1074964948e+01   4.2179820527e+01    0.3813884    0.2575356 -54.70  0.000647769    1.701    0.412
       413  -9.8364     63.4819     74.0122   9.0612797023e+01   5.4577635741e+01    0.6527423    0.3013643 -60.59  0.002236845    2.931    0.659
       414  -8.9611     64.5014     63.4697   8.6875964342e+01   5.6612213722e+01    0.5010407    0.2660799 -18.92    0.0018721    3.233    0.691
       415  -7.8228    157.3963     76.5138   6.4433008600e+01   3.5089124815e+01    0.1531436    0.1451396 -54.97 0.0001673869    1.056    0.053
       416  -8.8619    140.4653     75.4809   6.7993328346e+01   3.9312413048e+01    0.2663352    0.2022067 -68.49 0.0006509738    1.661    0.398
       417  -8.2966    163.5110     73.5204   6.2247218692e+01   3.4137885147e+01    0.2995724    0.1476977 -36.67 0.0007739376    1.987    0.497
       418  -9.7110     82.4138     72.7176   8.3703072809e+01   5.1879385355e+01    0.4043462    0.2896272 -66.20 0.0009496486    1.881    0.468
       419  -8.3695    151.4786     73.0734   6.4696798954e+01   3.7132881184e+01    0.2389283     0.149226 -36.63  0.000848884    1.584    0.369
       420  -8.7086    115.5763     72.8751   7.3625468656e+01   4.5409205711e+01    0.2817001    0.2146185 -60.05 0.0008387958    1.567    0.362
       421  -9.2997    106.1231     72.0643   7.6068665768e+01   4.7544111994e+01    0.3602668    0.2476748 -57.20 0.0009230871    1.756    0.431
       422  -8.3633     42.4566     72.7441   9.7916218262e+01   5.7483962991e+01     0.251482    0.1197631 -59.88  0.001013321    2.076    0.518
       423  -7.7652    175.4758     72.5574   5.9593711364e+01   3.1381606236e+01    0.1497387    0.1450829 -65.28 6.961358e-05    1.008    0.008
       424  -9.3724     95.0780     71.0421   7.9079665764e+01   4.9923046543e+01    0.3910055    0.2202908 -53.28  0.001143463    2.072    0.517
       425  -9.2401     29.4635     70.4977   1.0223248688e+02   5.9257117695e+01    0.5082328    0.2336802 -21.61  0.001962614    3.716    0.731
       426  -9.8220     51.3550     69.5095   9.3652184740e+01   5.7148102482e+01    0.4277913     0.230527 -63.74  0.001319811    2.377    0.579
       427  -8.9468    146.9940     68.3370   6.4242046271e+01   3.9046182124e+01    0.3239986    0.2163993 -37.91 0.0006152334    1.482    0.325
       428  -8.6840    138.6451     66.1466   6.5485376376e+01   4.1417244222e+01    0.2969666    0.2187012 -52.05 0.0007734345    1.479    0.324
       429  -8.8399    121.6970     66.2089   6.9769265252e+01   4.5306589491e+01    0.3328939    0.2358641 -59.80 0.0008660282    1.783    0.439
       430  -9.0435    110.1270     63.8736   7.2169529920e+01   4.8246543248e+01    0.3109325    0.2303012 -54.63 0.0007338332    1.572    0.364
       431  -8.6742     37.3226     64.4547   9.7505181577e+01   5.9809399118e+01    0.2433349    0.1938636  76.61 0.0007640868    1.893    0.472
       432  -9.0161     16.5574     70.1931   1.0711268061e+02   6.0343383465e+01    0.2869908    0.1929875 -84.17  0.001110751    1.853    0.460
       433  -8.0068    158.1662     61.8213   5.9816971925e+01   3.7426758096e+01    0.1956091    0.1742532  14.44 0.0003015897    1.248    0.199
       434  -9.2872     97.5670     60.6458   7.4770106957e+01   5.1407947614e+01    0.3123015    0.2682628  59.24 0.0008207767    1.373    0.272
       435  -9.7262     73.3209     59.3778   8.2313063451e+01   5.6039109631e+01    0.4546376    0.2321507 -50.54  0.001250259    2.146    0.534
       436  -7.8095    164.5911     59.8031   5.7925390120e+01   3.6167303923e+01    0.2106487    0.1341349 -44.84 0.0006326616    1.584    0.369
       437  -8.2938     89.1591     59.4621   7.6999646013e+01   5.3243335225e+01    0.2312473    0.1609781 -43.05 0.0007188091    1.430    0.301
       438  -8.0213    147.0000     59.0561   6.1310472697e+01   4.0605681290e+01    0.2418407   0.08481801 -33.90 0.0006075407    2.873    0.652
       439  -9.9171     23.4468     56.5135   1.0077728689e+02   6.2757321283e+01    0.4149163    0.2775228 -85.36  0.002146115    2.496    0.599
       440  -9.4917      7.4402     57.0949   1.0760182318e+02   6.3753894172e+01    0.3149757    0.1949964 -74.79  0.001219346    1.804    0.446
       441  -8.3544    130.8266     58.0695   6.4726708021e+01   4.4624264957e+01    0.2292139    0.1967737 -65.12 0.0006904899    1.345    0.256
       442  -9.4658    119.0336     55.4411   6.6824311125e+01   4.7759580037e+01    0.4814567    0.2108357 -42.70  0.001758263    2.389    0.581
       443  -8.5543    140.0640     56.2843   6.1959714620e+01   4.2726493120e+01    0.2040526     0.195113  70.46 0.0004822705    1.080    0.074
       444  -9.2830     54.1427     55.2234   8.7938946729e+01   5.9694812376e+01    0.3035725    0.2073269 -58.92 0.0009186649    1.797    0.444
       445  -8.7967     44.1892     55.6743   9.2014468382e+01   6.0858482823e+01    0.2458505    0.1918629 -69.13 0.0007808468    1.715    0.417
       446  -7.9152    151.8024     54.0214   5.8689364349e+01   4.0229000047e+01    0.2477638    0.1711348  10.13   0.00106956    2.072    0.517
       447  -8.7321    105.9403     53.4668   6.9731770925e+01   5.0941599207e+01    0.2651059    0.1932856 -50.26 0.0006094691    1.575    0.365
       448  -9.5385     92.4015     50.6854   7.2784225697e+01   5.4163195640e+01    0.3772267    0.2406556 -46.29  0.001178257    1.726    0.421
       449  -8.0948     74.2893     52.3523   7.9437174612e+01   5.7176551420e+01    0.1438286   0.09959058  -8.80 0.0004467191    1.671    0.402
       450  -9.0802    144.9467     49.0019   5.8506085364e+01   4.2668229871e+01    0.2315276    0.1718076 -65.55 0.0004110216    1.654    0.395
       451  -8.2751    129.7081     49.1169   6.1965558738e+01   4.6306647851e+01    0.2298981    0.1741753 -49.89 0.0006224134    1.462    0.316
       452  -9.0932    120.8157     47.3765   6.3540227480e+01   4.8633211959e+01    0.2789596    0.1936875 -29.89 0.0005503284    1.460    0.315
       453  -7.6677    136.3140     47.6271   5.9931974699e+01   4.4961316197e+01    0.1534893    0.1117371 -66.53 0.0007032882    1.787    0.440
       454  -8.3946    112.1561     46.9540   6.5649961419e+01   5.0642409918e+01    0.2098774    0.1903047 -62.47 0.0005327829    1.303    0.232
       455  -9.0611     82.1789     46.5965   7.4555327240e+01   5.6781598984e+01    0.2598255    0.2184132 -64.19 0.0007629218    1.635    0.388
       456  -8.2623     45.0695     44.8776   8.7825218333e+01   6.2815453648e+01     0.180226    0.1629762 -44.65 0.0004787373    1.308    0.235
       457  -8.9860     16.6150     44.7910   1.0014935944e+02   6.5666603931e+01    0.2016024    0.1681322 -77.16 0.0006656232    1.615    0.381
       458  -8.8655    132.9388     43.6208   5.9330515983e+01   4.6352091770e+01    0.2620108    0.1913087 -59.08 0.0008563356    1.678    0.404
       459  -9.4658      5.2694     42.3039   1.0453638303e+02   6.6912333613e+01    0.3156544    0.1906118 -74.04  0.001537945    2.161    0.537
       460  -8.5549     92.9107     42.6393   6.9583916814e+01   5.5357259650e+01    0.2444575    0.1845964 -10.49  0.001108766    1.367    0.269
       461  -9.3051     69.5381     41.5505   7.6988915656e+01   5.9825859818e+01    0.3463793    0.2276321 -51.81  0.001085123    1.971    0.493
       462  -8.9025     58.2292     42.6949   8.1695860821e+01   6.1413166684e+01     0.252519    0.1956258 -58.46 0.0008994367    1.780    0.438
       463  -8.6414    106.0234     41.4888   6.5311973215e+01   5.2802018900e+01    0.2525861    0.1884506 -45.71 0.0006173807    1.512    0.339
       464  -7.8697    140.2659     41.6136   5.7049827481e+01   4.4869768906e+01    0.1490625    0.1071607 -60.65 0.0005132666    1.698    0.411
       465  -8.2176     37.0029     40.9329   8.9755208614e+01   6.4489421605e+01    0.1703466    0.1554189 -79.87 0.0006344048    1.648    0.393
       466  -8.5487     95.3993     38.1495   6.7088746466e+01   5.5525248502e+01    0.2450832    0.1973305 -54.21 0.0008094395    1.574    0.365
       467  -8.1927     80.5391     36.5779   7.1151693372e+01   5.8662753852e+01    0.2289991    0.1173238 -43.37 0.0006562398    2.199    0.545
       468  -9.2686     26.1991     35.6067   9.2556982451e+01   6.6582064962e+01    0.2682229    0.1829966 -52.64 0.0008715016    1.563    0.360
       469  -8.3308    133.4127     36.2232   5.6675747413e+01   4.7253875689e+01    0.1965272     0.129187 -40.70  0.000671648    1.610    0.379
       470  -8.1488    125.9880     35.7142   5.8148430387e+01   4.9086636546e+01    0.1927977    0.1743334  47.13 0.0003529065    1.058    0.054
       471  -8.5201    112.0776     34.8603   6.1208431583e+01   5.2399179712e+01    0.2064077    0.1860558 -65.51 0.0006140092    1.341    0.254
       472  -9.0240     48.5069     33.3256   8.1802804102e+01   6.4365985260e+01    0.2810815    0.1826601 -40.94 0.0009162162    1.509    0.337
       473  -8.4118    119.2728     33.1462   5.8791389058e+01   5.0987326154e+01    0.2485695    0.1830805 -83.99 0.0008136396    1.964    0.491
       474  -8.6439     60.7379     32.5864   7.6589256419e+01   6.2676243641e+01    0.2314862    0.1921147 -37.78 0.0006409384    1.349    0.259
       475  -9.1118     72.1453     30.6907   7.1583249098e+01   6.1045407401e+01    0.3583461    0.1906895 -39.15  0.001059109    1.953    0.488
       476  -7.5922    139.2749     31.6568   5.3892093066e+01   4.6418319003e+01    0.1419449    0.1055349 -62.50 0.0004962392    1.621    0.383
       477  -8.9616     12.9601     30.3081   9.6855855883e+01   6.8680862649e+01    0.2650737    0.1498641 -59.16  0.001403146    2.027    0.507
       478  -8.3842    101.2722     29.2798   6.1923104270e+01   5.5500132456e+01    0.1725246    0.1593083 -61.46 0.0005742354    1.338    0.253
       479  -7.8966     42.2703     29.6766   8.2906326525e+01   6.5784620343e+01    0.1082459   0.09685472 -52.27 0.0002043628    1.571    0.364
       480  -8.2456    109.8837     27.5618   5.8996313684e+01   5.3823598874e+01    0.2234741    0.1561222 -30.74  0.000747269    1.487    0.327
       481  -8.8634     81.4937     27.3768   6.7025673303e+01   5.9776510561e+01    0.2830978    0.1983706 -48.00  0.000892156    1.854    0.461
       482  -8.7321      3.7508     27.9113   1.0058147426e+02   6.9748671218e+01    0.1921845    0.1426283 -62.87 0.0007809361    1.597    0.374
       483  -7.7829    136.4898     27.5074   5.3027734300e+01   4.7597135542e+01    0.1383449    0.1301725 -89.06 0.0008073297    1.131    0.116
       484  -8.7025     91.7253     26.4293   6.3480492799e+01   5.7866458611e+01    0.2946953    0.1935478 -42.28  0.000988928    1.774    0.436
       485  -7.3752    171.6483     25.6743   4.6457913760e+01   3.9103458980e+01    0.1464418   0.09896691  36.05 0.0007047937    1.761    0.432
       486  -8.2346    104.4324     23.1702   5.8670620753e+01   5.5555250166e+01     0.181489    0.1207916 -38.66 0.0005358747    1.666    0.400
       487  -8.2018     34.9256     23.4571   8.3453606848e+01   6.7680788179e+01    0.1493741    0.1035326  52.87 0.0008082649    2.626    0.619
       488  -8.2266    131.4731     21.4610   5.1916498788e+01   4.9494453681e+01    0.2271678    0.1164745 -38.45 0.0006069244    2.088    0.521
       489  -8.9839     63.5275     20.9263   7.0396428837e+01   6.3871346928e+01     0.303887    0.1951134 -45.68  0.001011333    2.066    0.516
       490  -8.8037     48.2315     21.8479   7.6857384163e+01   6.6154708818e+01    0.2061777    0.1685447 -13.27 0.0006051038    1.082    0.076
       491  -7.8928    120.6158     20.8622   5.3954895990e+01   5.2135722231e+01    0.1922327    0.1184842 -38.27 0.0009429352    1.770    0.435
       492  -7.8750     19.5353     21.5229   9.0009067889e+01   6.9638655353e+01    0.1176707   0.09117059 -22.44 0.0001057642    1.038    0.037
       493  -8.9594     74.2010     19.5261   6.6011365444e+01   6.2146925502e+01    0.2669533    0.1996228 -49.77 0.0007812584    1.865    0.464
       494  -8.2872     87.8338     17.5543   6.0896268736e+01   5.9713374192e+01    0.2028248    0.1459059 -26.04 0.0005500691    1.430    0.301
       495  -8.0973     38.7442     18.2464   7.9298746769e+01   6.7976405319e+01    0.1748662    0.1383127 -36.18 0.0006972422    1.437    0.304
       496  -7.9570    112.6276     16.8187   5.4207547304e+01   5.4410849242e+01    0.1732735      0.11982 -35.07 0.0003145891    1.578    0.366
       497  -7.8625     30.0115     16.2174   8.2398927908e+01   6.9354704876e+01     0.155499    0.1230095 -44.08  0.001026815    1.635    0.388
       498  -8.1118     97.1780     15.2152   5.7336250582e+01   5.8005301931e+01    0.1696461    0.1522414 -47.55 0.0004729667    1.362    0.266
       499  -7.7510      7.4981     15.5126   9.3663125005e+01   7.1644242454e+01    0.1135581   0.08536414 -25.77 0.0001448242    1.041    0.039
       500  -7.9514     17.1334     14.1906   8.7904769515e+01   7.1028096460e+01    0.1396955    0.1227301 -16.32 0.0004951347    1.320    0.242
       501  -9.4440    210.9611    246.5117   9.0770469821e+01  -6.2036701272e+00    0.3010921    0.2130164 -58.22  0.001375934    2.636    0.621
       502  -9.4393    213.0602    242.3686   8.9750632826e+01  -5.9751694174e+00    0.2748966    0.1758129  12.73 0.0007490716    1.541    0.351
       503  -7.4793     76.3618     10.6674   6.1311358287e+01   6.2729205568e+01    0.1191062    0.1004893 -65.82  0.000703871    1.809    0.447
       504  -9.0582    175.5582    247.5957   9.7411895740e+01  -1.0623778086e+00    0.2716554    0.2287488 -76.66  0.001081047    1.794    0.443
       505  -8.7704    156.0849    247.8119   1.0109251674e+02   1.9065380145e+00    0.2529969    0.1723219 -54.35  0.001296823    1.861    0.463
       506  -8.9176    132.4897    248.1845   1.0559442298e+02   5.4824214314e+00    0.2887742    0.1828613  68.62 0.0006099478    2.117    0.528
       507  -8.3463    113.1369    248.7037   1.0929526466e+02   8.3141554724e+00    0.1943161    0.1467465 -89.77 0.0008440664    1.540    0.351
       508  -9.3322    103.8127    246.8306   1.1084513384e+02   1.0004309364e+01    0.4008859     0.214473 -81.79  0.002008464    2.808    0.644
       509  -9.1106    242.7352    246.7415   8.5269123839e+01  -1.0613030983e+01    0.3139073    0.1315973 -29.07  0.001675791    2.443    0.591
       510  -8.8301    232.7610    246.8909   8.6996178155e+01  -9.3025679506e+00    0.2872631    0.1667408 -28.93   0.00123385    1.782    0.439
       511  -8.4637    218.4860    247.6237   8.9603344929e+01  -7.4173708155e+00    0.2061693    0.1092646 -35.62  0.001005201    2.102    0.524
       512  -9.0198    204.7177    248.0807   9.2131065625e+01  -5.4992844004e+00    0.2140189    0.1266139  23.31 0.0006711767    1.526    0.345
       513  -9.9940    223.9640    244.2767   8.8113673277e+01  -7.7742096860e+00    0.4170671    0.2228525 -43.50  0.002313729    2.502    0.600
       514  -9.0760    147.2084    246.3825   1.0258533624e+02   3.5013468064e+00      0.26668    0.1665234  62.66  0.001435353    2.108    0.526
       515  -9.1529    119.9512    245.2293   1.0762594211e+02   7.8759107620e+00    0.3021761    0.1942982  87.93  0.001251603    2.256    0.557
       516  -9.6967     10.6403    245.2528   1.2719110903e+02   2.1904294722e+01    0.4618801    0.1332951  67.16  0.002034676    3.696    0.729
