#   1 NUMBER                 Running object number                                     
#   2 MAG_AUTO               Kron-like elliptical aperture magnitude                    [mag]
#   3 X_IMAGE                Object position along x                                    [pixel]
#   4 Y_IMAGE                Object position along y                                    [pixel]
#   5 X_WORLD                Barycenter position along world x axis                     [deg]
#   6 Y_WORLD                Barycenter position along world y axis                     [deg]
#   7 A_WORLD                Profile RMS along major axis (world units)                 [deg]
#   8 B_WORLD                Profile RMS along minor axis (world units)                 [deg]
#   9 THETA_WORLD            Position angle (CCW/world-x)                               [deg]
#  10 FWHM_WORLD             FWHM assuming a gaussian core                              [deg]
#  11 ELONGATION             A_IMAGE/B_IMAGE                                           
#  12 ELLIPTICITY            1 - B_IMAGE/A_IMAGE                                       
         1 -12.8648    192.7012     46.2691   2.5454989720e+01   3.1082076621e+01     1.311335     1.104586  22.85  0.004209422    1.488    0.328
         2 -12.8051    219.1115     17.5331   1.4377946068e+01   2.8137323805e+01     1.005163    0.9190163 -53.18  0.004347593    1.181    0.153
         3 -10.0014      6.6667     11.6760   7.0620507721e+01   7.1750912541e+01    0.2441461   0.09106961 -35.14  0.001030897    2.250    0.556
         4  -9.2143    188.0203     16.4446   1.7752973795e+01   3.6202812741e+01    0.3681236    0.2027059  47.99  0.001173558    1.952    0.488
         5 -10.5422    119.4320     10.0508   2.7468526419e+01   5.4199324149e+01     0.623697    0.3814323  37.51  0.002529049    1.600    0.375
         6  -8.7354      2.7607      2.2457   6.8795897700e+01   7.3493086542e+01    0.1540941   0.07341737   1.41 0.0008966216    2.462    0.594
         7  -8.5685    167.4655    224.8223   7.0794462608e+01   4.0238669002e+00    0.2106238    0.1560365  57.54 0.0009661046    1.349    0.258
         8 -10.5771    249.5843    248.3327   5.9629983630e+01  -1.2319070775e+01    0.5224689    0.1402288 -32.93  0.002303162    4.202    0.762
         9 -10.6947    242.1152    247.4220   6.0734044254e+01  -1.1160577614e+01    0.2728901    0.2269642 -17.32  0.002070501    1.400    0.286
        10  -8.9591    237.0037    249.9576   6.1980434032e+01  -1.0693731488e+01    0.1416842    0.1027972  25.22 0.0004215183    1.047    0.045
        11 -18.4744     14.8557    235.8131   9.9839747924e+01   2.4714081660e+01     5.238087     3.923952 -73.99   0.02246632    1.624    0.384
        12  -9.8837     89.0700    180.5083   8.0821524416e+01   2.6251639364e+01    0.2458129    0.1876663 -67.22  0.000639956    1.326    0.246
        13 -10.8167     90.7073    174.4275   7.9611664477e+01   2.7332677321e+01    0.5632671    0.2559234  41.63  0.002478049    2.098    0.523
        14  -8.5308      8.8122    179.7995   9.7814439631e+01   3.6284039481e+01     0.148399   0.09117061  76.70            0    1.271    0.213
        15 -10.2623     73.5319    206.0306   8.7099874347e+01   2.3199211498e+01    0.2992224    0.2229699  84.07  0.001500939    1.173    0.147
        16  -9.8207    179.1248    172.7193   5.9592872103e+01   1.0884472193e+01     0.629022     0.374825 -68.67  0.002424609    3.004    0.667
        17  -9.7049    193.1373    195.0560   6.0934687114e+01   4.1488104826e+00    0.8164004    0.4907682 -71.76   0.00295825    4.339    0.770
        18 -10.0204    144.5233    168.8084   6.6370280937e+01   1.8735444694e+01    0.3282334    0.2772105 -73.75 0.0008282539    1.268    0.212
        19 -14.6397      9.3985    207.3327   9.9326764073e+01   3.0631875972e+01    0.6410827    0.3368188  38.82  0.003404417    1.994    0.498
        20  -9.9518    121.3863    166.4003   7.1239732224e+01   2.3758821894e+01    0.4022579    0.1957167  55.83  0.001591909    2.238    0.553
        21  -8.7614    125.0678    158.3196   6.8916540604e+01   2.4841982998e+01    0.2340773    0.2049087 -48.82 0.0006468733    1.266    0.210
        22  -9.4207    137.8589    158.0541   6.5854618000e+01   2.2369771846e+01    0.4194188    0.2955792 -76.24  0.001941869    1.732    0.423
        23 -10.4923    134.1559    148.1541   6.4758754043e+01   2.5294927552e+01      0.86586    0.2855908 -56.68  0.002578139    3.835    0.739
        24  -9.9329    133.0000    141.5061   6.3655038809e+01   2.7013020609e+01    0.4248606    0.2109912 -52.37  0.001530367    2.068    0.516
        25 -11.4018    111.1541    150.9034   7.0900511341e+01   2.9143076833e+01    0.8665174    0.4632323  66.93  0.002940067    2.799    0.643
        26  -9.2563    140.1119    146.4290   6.2976882166e+01   2.4447822416e+01    0.2965798    0.1975349  86.99  0.001195877    2.266    0.559
        27 -10.7165    118.9497    149.8583   6.8788105837e+01   2.7918904893e+01    0.5124278    0.2920508  58.32  0.002159209    1.933    0.483
        28  -8.2885    230.6456    152.9263   4.5413648664e+01   3.8672761265e+00    0.1928332    0.1715601 -29.04  0.000523362    1.109    0.098
        29  -8.4674    136.6483    142.3063   6.2937994159e+01   2.6079982721e+01     0.160537    0.1165748  79.24  0.000704227    1.710    0.415
        30  -9.0269     81.5173    195.7894   8.4358729911e+01   2.4139536585e+01    0.3041077    0.1701715  60.86  0.001014759    1.664    0.399
        31  -9.4625    124.9823    141.3017   6.5586616763e+01   2.8683096201e+01    0.2144006    0.1876303  56.76 0.0003938524    1.101    0.092
        32 -10.4044     75.3764    249.5091   9.0603463229e+01   1.4811136176e+01    0.1957569    0.1641483  84.19 0.0008966383    1.301    0.231
        33  -9.5234    156.0786    133.6667   5.6392641325e+01   2.3769671865e+01    0.3238132    0.2624974 -31.27 0.0008340899    1.402    0.287
        34  -9.8077     85.7230    187.5933   8.2477869173e+01   2.5238264321e+01    0.3451247    0.2505166  66.03  0.001365356    1.213    0.175
        35  -9.9958    114.3719    128.4700   6.5551758451e+01   3.3706721117e+01     0.321421    0.2835409  56.51 0.0007613703    1.120    0.107
        36  -9.2749      1.4500    188.4127   9.9738773269e+01   3.5148671035e+01    0.1600722   0.09864812  84.06 0.0001570246    1.188    0.159
        37  -9.6260    102.2504    123.7162   6.7737250792e+01   3.7078427659e+01    0.2918102    0.2582521 -18.23 0.0005235743    1.407    0.289
        38  -8.3298    234.6531    123.9663   3.8284971479e+01   7.9429541031e+00    0.2438925   0.09680896 -53.07 0.0007046749    4.380    0.772
        39  -9.6997    120.7739    123.5468   6.2773826924e+01   3.3572908231e+01      0.29626    0.2566412 -14.53  0.001496751    1.460    0.315
        40  -9.9133     86.7219    121.5513   7.1535981283e+01   4.0247953316e+01    0.2860036    0.2213119 -89.53 0.0005614259    1.401    0.286
        41  -9.5324    134.4378    119.0121   5.8182518768e+01   3.1740957423e+01     0.312591    0.1945706 -48.28 0.0007346954    1.615    0.381
        42  -8.4705    103.1439    115.5069   6.5653161001e+01   3.8822012056e+01    0.2185965    0.1458807  43.12 0.0009198099    1.541    0.351
        43  -8.3065     91.1150    113.7129   6.8614194955e+01   4.1358426588e+01     0.227846    0.1688691  62.26  0.000768893    1.494    0.331
        44  -8.4664    109.9658    118.0172   6.4368323670e+01   3.6963861100e+01    0.2183609    0.2066687 -80.66  0.000321724    1.006    0.006
        45 -10.8623    117.2790    109.5631   6.0349854152e+01   3.7449822311e+01    0.4709275    0.4286513  64.99   0.00184716    1.103    0.094
        46  -8.7094     98.0657    113.3493   6.6569481891e+01   4.0238936158e+01    0.2023993    0.1815939  65.50 0.0008762817    1.133    0.117
        47  -9.1508      9.2032    104.5872   9.0867936766e+01   5.2858942039e+01    0.1803357    0.1093516  30.59  0.001064155    1.996    0.499
        48  -9.3689     49.9196    250.8000   9.4966015946e+01   1.7988509483e+01    0.1328747    0.0639944  48.13 0.0008152124    1.597    0.374
        49  -9.2957     65.1284    100.6582   7.3382049361e+01   4.8328545327e+01    0.2818959    0.1547864  47.37  0.001088936    2.069    0.517
        50  -7.4976     20.3132     96.2730   8.6396176210e+01   5.3960273449e+01    0.1187456   0.07657729 -43.97 0.0002630737    1.556    0.357
        51 -10.3455    145.0205    183.7301   6.8915505169e+01   1.5584543158e+01    0.4316536    0.2394935 -55.11  0.001256616    2.009    0.502
        52  -9.9356    144.3039    179.0944   6.8272218654e+01   1.6658336332e+01    0.2575706    0.2494921 -76.44 0.0003488556    1.133    0.117
        53 -14.3484      7.4407    215.5013   1.0008438734e+02   2.9240738455e+01    0.5765731    0.3511604  18.51  0.003421686    3.363    0.703
        54  -7.9089    206.0028     74.9415   3.1066024350e+01   2.3117410132e+01    0.1756322    0.1629157  82.23            0    1.054    0.051
        55  -8.0662    132.4790     75.4359   4.6771242003e+01   4.1353396132e+01    0.1508961    0.1479887  44.27 0.0001050241    1.018    0.017
        56  -7.5559    218.4577     71.4801   2.8166642439e+01   2.0604169512e+01    0.1463094    0.1392207 -68.81 0.0008084679    1.042    0.040
        57 -11.9047    176.8070     59.5283   3.2011689863e+01   3.3166446308e+01    0.7041662    0.6509002 -52.62  0.001729844    1.098    0.089
        58  -8.5622    102.9247     63.3304   5.1228754241e+01   5.0031213880e+01    0.1920463    0.1816245  20.19  0.000459693    1.053    0.050
        59 -10.0766     68.1942    248.5238   9.1757180666e+01   1.5974415181e+01    0.1710517    0.1417846  78.28  0.000501437    1.262    0.208
        60 -11.5963    198.1910     40.9085   2.3130425662e+01   3.0428272355e+01    0.5229455    0.4970398 -44.81  0.001467003    1.149    0.130
        61  -8.0175     41.5928     66.1774   7.2957504313e+01   5.8717161306e+01    0.1966052   0.09054523  31.73 0.0006722798    2.443    0.591
        62  -8.3445    151.0016     39.0227   3.0814496029e+01   4.2951994707e+01    0.2152187    0.2031639  52.10 0.0003639839    1.037    0.036
        63  -8.4303     90.0629    247.0551   8.7846056662e+01   1.3111366749e+01    0.1901598    0.1651125   5.18  0.001010066    2.090    0.521
        64  -9.6304    150.7170    246.8055   7.6865084976e+01   3.5099497946e+00    0.2063415    0.1361345  38.55 0.0007771979    1.296    0.228
        65  -9.2038     79.6205    242.9950   8.9343020944e+01   1.5332275779e+01    0.1482087    0.1142599  84.42 0.0004058817    1.235    0.190
        66  -8.7382    238.4336    231.4363   5.8829486173e+01  -8.8036812626e+00    0.1176404    0.0932781  19.86  7.65793e-05    1.028    0.027
