#   1 NUMBER                 Running object number                                     
#   2 MAG_AUTO               Kron-like elliptical aperture magnitude                    [mag]
#   3 X_IMAGE                Object position along x                                    [pixel]
#   4 Y_IMAGE                Object position along y                                    [pixel]
#   5 X_WORLD                Barycenter position along world x axis                     [deg]
#   6 Y_WORLD                Barycenter position along world y axis                     [deg]
#   7 A_WORLD                Profile RMS along major axis (world units)                 [deg]
#   8 B_WORLD                Profile RMS along minor axis (world units)                 [deg]
#   9 THETA_WORLD            Position angle (CCW/world-x)                               [deg]
#  10 FWHM_WORLD             FWHM assuming a gaussian core                              [deg]
#  11 ELONGATION             A_IMAGE/B_IMAGE                                           
#  12 ELLIPTICITY            1 - B_IMAGE/A_IMAGE                                       
         1 -11.6872    209.2434     31.5422   4.4630236821e+01   2.9146650535e+01    0.8965691     0.689871 -62.15  0.005019285    1.246    0.197
         2 -11.0752    216.3815     25.1089   4.2187802158e+01   2.8229025165e+01    0.5628667    0.4215944  29.58     0.001593    1.827    0.453
         3 -11.7932    227.8245     13.3062   3.8226035418e+01   2.6926939900e+01    0.7407587    0.5859599 -66.90  0.002833916    1.102    0.093
         4 -10.2075      2.0000     10.5354   9.7795888937e+01   7.2684759380e+01    0.6023089   0.05017338 -52.20  0.001502696    9.909    0.899
         5  -7.9850     57.9812    242.4813   1.2044891820e+02   1.7344684791e+01    0.1682768   0.09041218  43.79  0.001021927    1.563    0.360
         6  -9.7989    100.6174    249.8168   1.1333704272e+02   1.0337473144e+01    0.2732607    0.1618208  46.20  0.001166897    1.337    0.252
         7  -9.2805     94.4857    250.4851   1.1452221886e+02   1.1094102333e+01    0.2649114    0.1393504  24.10  0.001230567    3.213    0.689
         8  -9.6298     71.4245    250.2302   1.1864756948e+02   1.4263336822e+01    0.2362104     0.144388  65.14  0.001186171    1.428    0.300
         9 -10.0963     75.9968    248.5839   1.1770092457e+02   1.3946396983e+01    0.3022531    0.2032424 -67.60  0.002039146    1.680    0.405
        10 -11.9513     21.2450    222.7505   1.2570460967e+02   2.5231327312e+01    0.7834002    0.5216683  68.59  0.004736835    1.141    0.124
        11 -12.6349      2.2003    170.8577   1.2617183630e+02   3.7768008353e+01     3.629565    0.4623659 -78.00   0.00984081    7.391    0.865
        12 -13.8662      2.3920    132.7505   1.2311887874e+02   4.6413902407e+01     5.337203    0.9741545 -77.34   0.01616344    5.269    0.810
        13 -10.0140     63.9039    238.6766   1.1909060078e+02   1.7288098019e+01    0.3226165    0.1460443  52.29  0.001553989    1.802    0.445
        14  -9.9212     39.6586    233.7829   1.2310710759e+02   2.1132776927e+01    0.2128528    0.1770293 -85.26 0.0005612917    1.304    0.233
        15 -11.1755    125.7758    230.2025   1.0635440900e+02   9.9200032895e+00    0.5136569    0.3247246 -80.53  0.002691917    2.316    0.568
        16  -9.8364    134.1749    231.0273   1.0479387581e+02   8.4459859440e+00    0.2088072    0.1507495 -43.14  0.001248122    1.692    0.409
        17 -10.5738     89.4121    229.1183   1.1340567294e+02   1.5603431456e+01     0.323386    0.2366211  81.93  0.000670375    1.379    0.275
        18  -8.0946     33.3480    232.2863   1.2412976723e+02   2.2122327599e+01   0.09125138   0.08525073 -51.32 0.0004716057    1.655    0.396
        19  -9.8858    117.9178    230.9634   1.0800420852e+02   1.1012805292e+01    0.3891516     0.142572  34.08  0.001577477    2.872    0.652
        20  -9.1982    143.9991    229.9983   1.0270951139e+02   7.0435217524e+00    0.2040418    0.1426108  64.45  0.001082676    1.726    0.421
        21 -10.1104    109.6545    229.9972   1.0952375338e+02   1.2453508588e+01    0.3139451    0.1566256  44.20  0.001620301    1.671    0.402
        22  -9.1002     33.8183    227.8545   1.2376643857e+02   2.2911528650e+01     0.157969    0.1355177  83.85 0.0009118586    1.252    0.201
        23  -9.7825     28.0868    226.7493   1.2472280288e+02   2.3745619564e+01    0.2139904    0.1351888 -81.56  0.000566336    1.432    0.302
        24 -10.3514     82.9958    224.6135   1.1420691308e+02   1.7364923268e+01    0.3037593    0.2594359 -62.35  0.001448725    1.392    0.282
        25  -9.9721    102.6246    228.8873   1.1078665049e+02   1.3715127916e+01    0.3693231    0.1984941  75.80  0.001653471    2.962    0.662
        26  -9.9767     47.3792    223.1245   1.2094318209e+02   2.2274482381e+01    0.4602473    0.1952178  73.28  0.002092393    2.914    0.657
        27  -8.8253     36.8647    223.8230   1.2294658156e+02   2.3350947817e+01    0.1565766    0.1335678  76.53 0.0006258012    1.197    0.165
        28  -8.3650    150.3289    228.3488   1.0122435960e+02   6.2916989274e+00    0.1275094    0.0947348   5.47  0.000704904    1.761    0.432
        29 -10.2829     72.8979    218.8872   1.1563874937e+02   1.9871702930e+01      0.34236    0.2044991  65.57  0.001257943    1.605    0.377
        30 -13.9331      5.1970    240.2116   1.2928446794e+02   2.3550052407e+01     4.356101     1.358812 -74.40    0.0238691    2.823    0.646
        31  -9.4371    102.5138    242.1513   1.1222286300e+02   1.1366100530e+01    0.3829631    0.1092028 -58.28  0.001601286    3.946    0.747
        32 -13.6123     42.4759    199.5987   1.2000683196e+02   2.7650208205e+01     2.571353     1.074239  67.53   0.01128642    2.877    0.652
        33 -12.7627      9.1958    207.4612   1.2701796713e+02   2.9428690939e+01    0.8042812     0.775148  16.30  0.004795908    1.614    0.380
        34 -10.2737     94.1930    244.5728   1.1402123646e+02   1.2143024240e+01    0.3794567    0.0877928  40.08   0.00147266    3.357    0.702
        35 -11.0689    246.4640    241.8996   8.5435016871e+01  -1.0269506590e+01    0.6299384    0.3489615   7.10   0.00362303    1.888    0.470
        36 -10.0450     59.9215    181.9750   1.1449853362e+02   2.9417594889e+01     0.349565    0.2460714 -34.77  0.001329759    2.133    0.531
        37 -10.1442     65.7551    175.9728   1.1243830757e+02   3.0027916606e+01    0.3100036    0.2436898 -46.19 0.0008385385    1.526    0.345
        38  -9.9977     75.5888    165.7399   1.0869638057e+02   3.1059342384e+01    0.2971786    0.2735802 -46.50 0.0004804075    1.263    0.208
        39 -11.5742     62.8671    161.9951   1.1129695053e+02   3.3662443736e+01    0.4933519    0.2886316 -46.45  0.001579537    1.979    0.495
        40 -10.3587     72.8403    154.2506   1.0764730665e+02   3.4170426462e+01    0.6063761    0.3091289  61.41  0.002459334    2.619    0.618
        41 -10.8929     82.7181    159.1843   1.0591711681e+02   3.1570421505e+01    0.6313787    0.4456638 -52.20  0.001450507    1.435    0.303
        42 -10.2275     17.2067    158.4489   1.2188477922e+02   3.9356227915e+01    0.2687629     0.160916  83.31   0.00135574    1.501    0.334
        43 -10.8847     70.2052    145.4059   1.0691052613e+02   3.6666467530e+01    0.4934507    0.4430111  15.86   0.00187545    1.355    0.262
        44 -10.8257     67.2645    142.4244   1.0720276129e+02   3.7787664824e+01    0.4677935    0.3049434  47.31  0.001683156    1.610    0.379
        45  -9.1553     98.1834    143.0887   9.9025532035e+01   3.2963356748e+01    0.5133372    0.3005505 -24.12   0.00181365    3.410    0.707
        46  -8.4297     32.5107    143.6569   1.1657605459e+02   4.1456658967e+01    0.2572388     0.121175  57.81   0.00116183    2.514    0.602
        47 -10.5312     85.3817    143.0163   1.0243208092e+02   3.5039361999e+01    0.3272601    0.2671088 -41.73 0.0006585802    1.324    0.245
        48 -11.5064     32.5476    209.9857   1.2278973340e+02   2.6586080844e+01    0.5588017    0.3016426 -55.08  0.001030683    2.296    0.564
        49  -9.3608     59.0101    132.7286   1.0783694596e+02   4.1214501594e+01    0.1925957    0.1778051 -85.40  0.001172966    1.067    0.063
        50  -9.0106    107.1813    131.9536   9.4275779799e+01   3.4051253917e+01    0.4792463    0.2544289  51.76  0.001900347    2.174    0.540
        51  -9.4490     16.8260    130.1895   1.1908752579e+02   4.6014456997e+01    0.1726863    0.1231917 -54.17  0.001030837    1.360    0.265
        52  -8.6745     95.8787    128.8223   9.6701821957e+01   3.6770360936e+01    0.2187793    0.1951894 -27.93 0.0005001495    1.232    0.188
        53  -8.1390    115.3326    125.3303   9.0542733891e+01   3.4096905956e+01    0.1580499    0.1214194 -12.79 0.0007052037    1.722    0.419
        54  -8.2292    106.1097    120.3636   9.1903931520e+01   3.6983909530e+01    0.2012361    0.1950684  37.70 0.0005220614    1.082    0.076
        55  -7.7599    205.5330    110.4651   6.5845309599e+01   1.7537279722e+01    0.1506636    0.1413016 -37.03 0.0008084908    1.033    0.032
        56 -10.3825      2.6698     69.9929   1.1470055468e+02   6.0874223922e+01    0.3104104    0.2167033  36.70  0.002014575    1.851    0.460
        57  -9.7147     35.0421    239.5610   1.2427837139e+02   2.0584700605e+01    0.2739041     0.122269  68.43  0.001157324    2.077    0.518
        58  -9.7400     12.8966     60.4273   1.0869813969e+02   6.2419978471e+01     0.228374    0.1382743 -33.20   0.00134773    1.539    0.350
        59 -10.1215      2.0287     37.7903   1.0747723427e+02   6.7695468261e+01    0.3084721    0.1690653 -69.21  0.001737735    2.006    0.501
        60  -7.9289    136.6619     43.6830   6.0436898267e+01   4.5587584654e+01     0.156064    0.1079464  24.70 0.0007048597    1.703    0.413
        61 -11.5420    201.6040     37.7263   4.7222866241e+01   3.0211087248e+01     0.568881    0.4861904  59.58   0.00216791    1.201    0.167
        62 -10.3141    128.3943    245.2878   1.0766306810e+02   6.9713957404e+00    0.5399998    0.1889776 -61.50  0.002182069    4.399    0.773
        63 -10.3509    112.4905    247.0000   1.1085031897e+02   9.0806198506e+00    0.4204714    0.1057513  37.88  0.001585494    3.475    0.712
        64 -10.7720    119.5611    245.9376   1.0940716849e+02   8.2027776551e+00    0.3159221    0.2642379  58.83  0.002098377    1.107    0.097
