#   1 NUMBER                 Running object number                                     
#   2 MAG_AUTO               Kron-like elliptical aperture magnitude                    [mag]
#   3 X_IMAGE                Object position along x                                    [pixel]
#   4 Y_IMAGE                Object position along y                                    [pixel]
#   5 X_WORLD                Barycenter position along world x axis                     [deg]
#   6 Y_WORLD                Barycenter position along world y axis                     [deg]
#   7 A_WORLD                Profile RMS along major axis (world units)                 [deg]
#   8 B_WORLD                Profile RMS along minor axis (world units)                 [deg]
#   9 THETA_WORLD            Position angle (CCW/world-x)                               [deg]
#  10 FWHM_WORLD             FWHM assuming a gaussian core                              [deg]
#  11 ELONGATION             A_IMAGE/B_IMAGE                                           
#  12 ELLIPTICITY            1 - B_IMAGE/A_IMAGE                                       
         1 -16.3306     23.1144    132.8140   1.2721197300e+02   4.5385545159e+01     4.350795     2.966713  38.76   0.02684509    1.622    0.384
         2 -12.2303     19.5762      5.3890   1.0064323434e+02   7.1508587147e+01    0.8307022    0.5930234   0.52   0.00572462    1.510    0.338
         3 -11.9755      8.7698      5.3825   1.0623941440e+02   7.2396188139e+01     1.144116    0.6242562 -53.89   0.00707857    1.587    0.370
         4  -8.2785     93.5033    161.4699   1.1524377313e+02   3.1569486704e+01    0.3304976    0.1653774  30.66  0.001569808    2.655    0.623
         5 -13.8304    242.8072    232.6910   9.9036808846e+01  -2.0691050807e+00     2.436585     1.030718 -22.34            0    2.883    0.653
         6  99.0000     59.5374    201.4032   1.2588444134e+02   2.9029303988e+01     3.377841      1.49797  40.29   0.02061132    2.027    0.507
         7 -11.7361     45.8577    190.8440   1.2749405863e+02   3.2331636810e+01     1.000947    0.2216339  38.48  0.004581302    3.724    0.731
         8 -16.8143    105.7616    229.2481   1.2044238070e+02   1.8919376262e+01     2.630196     2.182695  10.70   0.02025682    1.956    0.489
         9 -15.2159     84.7946    212.3973   1.2244189967e+02   2.4168837681e+01    0.9731992    0.5538376  68.99    0.0063577    1.769    0.435
        10 -17.9434     73.4406    245.1372   1.2672490935e+02   2.0869564606e+01     5.038334     1.318594  44.72   0.02558607    2.593    0.614
        11 -17.7954     59.8996    234.4242   1.2810751136e+02   2.3933320781e+01     1.623864     1.161008  78.23   0.01408169    1.237    0.192
        12 -10.9799     53.7559    208.2621   1.2737731329e+02   2.8584012553e+01    0.1279694   0.09459743  68.05 0.0003512019    1.024    0.024
        13  -9.8217      5.1846    206.6128   1.3519185093e+02   3.3639640433e+01   0.09301423   0.06799743  86.10 0.0008350947    1.231    0.188
        14 -10.5984     21.7300    206.6755   1.3256366448e+02   3.2147339748e+01   0.07942636   0.06682201 -83.33 0.0007106424    1.436    0.304
        15 -10.5333     17.5547    206.0541   1.3320536286e+02   3.2635041003e+01    0.1384689   0.07491415 -66.49  0.000851015    2.057    0.514
        16  99.0000     19.3665    202.8116   1.3275365515e+02   3.2990911921e+01     0.207802   0.03496879  42.09   0.00104434    3.483    0.713
        17  -8.8845    163.3884    201.3267   1.0741175415e+02   1.3977527270e+01    0.2319435    0.1654128  53.68  0.000661991    1.313    0.238
        18 -11.2820     10.6138    200.6852   1.3407521484e+02   3.4123939836e+01   0.08488389   0.06719755  72.48 0.0007627202    1.195    0.163
        19  99.0000     20.1250    198.5299   1.3241006754e+02   3.3620758652e+01    0.1688131   0.08839303 -74.39  0.001230112    1.808    0.447
        20  -9.2202     23.8474    191.6799   1.3140558306e+02   3.4416128318e+01    0.1090484   0.06824549 -88.71 0.0002152159    1.355    0.262
        21  99.0000     26.1637    194.6794   1.3118199949e+02   3.3691153066e+01    0.2646719    0.2141472  29.03  0.002220356    1.764    0.433
        22  -9.6755     19.6744    193.8344   1.3223713934e+02   3.4442235875e+01    0.1300027   0.08243944  84.80 0.0004809182    1.269    0.212
        23  -7.9919    194.0219    197.7488   1.0156241582e+02   9.2287315157e+00    0.1889285    0.1334968 -84.18  0.000916843    3.570    0.720
        24  -7.8547    193.6323    191.8458   1.0069055705e+02   1.0013353583e+01    0.1455744    0.1142625 -47.53 0.0009359451    1.713    0.416
        25 -14.4226     78.8226    202.4453   1.2259564044e+02   2.6501225220e+01     1.443114    0.9666176   8.22  0.007238197    4.398    0.773
        26  -7.9700     92.7622    187.3342   1.1854952132e+02   2.7121915126e+01    0.1101817    0.0736412  74.47 0.0003491924    1.540    0.351
        27 -11.0924      6.4270    186.2974   1.3410482881e+02   3.6874892402e+01     0.132446   0.07305466 -82.36 0.0009529986    1.537    0.349
        28  -8.3828     83.1616    185.8038   1.2019146679e+02   2.8691847671e+01    0.1717216    0.1144278  68.58 0.0005715085    1.399    0.285
        29  -9.1944    156.4251    182.6079   1.0591256820e+02   1.7793921545e+01    0.3210035    0.1206052 -49.94  0.001386462    3.423    0.708
        30  -7.8361     92.9597    182.0020   1.1791141292e+02   2.7998835529e+01    0.1311004    0.1023975  55.88 -0.002661949    1.086    0.079
        31 -10.1708     25.9980    182.0968   1.3044793169e+02   3.5860165547e+01    0.1108565   0.07500214  65.92 0.0008541424    1.150    0.130
        32 -10.2531     16.7772    182.3967   1.3210783605e+02   3.6654841187e+01     0.099725   0.08021922  76.02 0.0002087654    1.155    0.134
        33  -7.7448     86.1819    178.6228   1.1883386433e+02   2.9524701952e+01    0.1078997   0.07285047  85.13 0.0004510247    1.569    0.363
        34  -7.8268     44.7011    177.2661   1.2665636582e+02   3.4827589457e+01    0.1088935   0.09188085  79.89 0.0001741424    1.145    0.126
        35  -9.3355     93.9648    171.3533   1.1643588380e+02   2.9715124098e+01    0.4565682    0.2608777 -40.46  0.002384876    2.730    0.634
        36 -11.7949     38.1668    172.9677   1.2755077501e+02   3.6285767148e+01    0.2931391    0.2705491 -80.80  0.001564194    1.376    0.273
        37  -9.5006    175.4924    172.2265   1.0065627535e+02   1.5886717481e+01    0.2743824    0.2256688  47.49 0.0007068314    1.137    0.121
        38  -8.2875    196.7767    171.5733   9.6660362580e+01   1.2026546364e+01    0.2038441    0.1722348 -16.91  0.000341612    1.303    0.232
        39 -10.2815     48.1971    171.6090   1.2551079989e+02   3.5469664874e+01    0.1497353    0.1160499  82.23  0.000299025    1.070    0.066
        40  -9.3870     24.8476    172.7553   1.3004597468e+02   3.7625267296e+01   0.08352966   0.07016405  89.60            0    1.225    0.184
        41  -8.1701    231.3086    170.6722   9.0567685743e+01   5.7776811277e+00    0.1083236    0.1018495  87.61 0.0007039116    1.659    0.397
        42 -11.0521     23.8554    168.8971   1.2996910773e+02   3.8415347733e+01    0.1905278    0.1126657  53.29 0.0004243572    1.457    0.314
        43  -7.6944    155.4672    168.4753   1.0381335692e+02   2.0110114110e+01    0.1279957     0.110659  41.58 9.386265e-05    1.019    0.019
        44  -8.2439     76.7442    167.7276   1.1945999336e+02   3.2742082135e+01    0.1526555    0.1064594  64.81 0.0006548067    1.298    0.230
        45  99.0000      7.6383    221.1402   1.3537869922e+02   3.1176779829e+01    0.2396795    0.1137825  72.38  0.001837655    1.615    0.381
        46  -8.6016    248.0106    159.8702   8.5778215806e+01   3.9535208985e+00    0.1888625    0.1521696  18.00 0.0004476323    1.031    0.030
        47  -8.7993    169.9524    158.0361   9.9150331343e+01   1.9030966127e+01    0.1998791    0.1718774  36.27 0.0003915145    1.025    0.025
        48  -8.4196    110.3858    157.5890   1.1115946915e+02   2.9701102820e+01    0.1994917    0.1741348  81.47 0.0005743181    1.121    0.108
        49  -9.4792    104.2009    154.5193   1.1199879955e+02   3.1239614872e+01    0.3111045     0.273816  35.01  0.001245714    1.266    0.210
        50  -8.1278    136.4705    154.2760   1.0517688647e+02   2.5868656786e+01     0.211886     0.160401 -62.16 0.0007114252    1.519    0.342
        51 -13.1879     67.5138    143.5049   1.1844156873e+02   3.8547180230e+01     1.128485    0.5721111  68.11  0.003807057    2.632    0.620
        52  -9.2132    216.3130    152.8856   8.9602888060e+01   1.0722108522e+01    0.2332214    0.1819611  37.06 0.0003162223    1.145    0.127
        53  -7.7560     38.2212    166.1028   1.2698586390e+02   3.7536504885e+01    0.1279207   0.09624456  84.89 0.0002644429    1.087    0.080
        54  -8.2983    133.8997    145.2738   1.0410198777e+02   2.7911886863e+01    0.2184226    0.1742487 -63.99 0.0007845658    1.406    0.289
        55  -8.0312    101.7291    145.8916   1.1119031473e+02   3.3244306101e+01    0.2355459     0.142418  65.95 0.0006191108    1.989    0.497
        56  -8.9487    161.6452    128.2813   9.4772531073e+01   2.5491629280e+01    0.4374678    0.3050094  89.99  0.001912254    2.581    0.613
        57  -8.2266     27.6793    165.7814   1.2901423769e+02   3.8629909156e+01     0.114081   0.08205225  70.63 0.0002213549    1.112    0.101
        58  -7.3875     93.5793    165.2759   1.1573453561e+02   3.0862976231e+01    0.1286458   0.07720899  65.77 0.0004865428    1.811    0.448
        59  -9.1441     50.1064    165.6884   1.2459796366e+02   3.6348312952e+01    0.1400222     0.110182  56.54 0.0004026302    1.186    0.157
        60  -9.3008    168.3446    114.1209   9.0096682820e+01   2.6455779971e+01    0.3170112    0.2369453  74.29  0.001361647    1.800    0.445
        61  -8.7048    247.1645    163.9465   8.6717406075e+01   3.6693030479e+00    0.1760257     0.156307  10.85 0.0004372921    1.219    0.180
        62  -8.4010    116.9690    108.9274   1.0049939971e+02   3.7850001653e+01    0.2072977    0.1989159  39.80 0.0007143372    1.064    0.060
        63  -9.0207    196.6096    107.2193   8.2805565896e+01   2.1250714776e+01    0.2724829    0.2293535  33.67 0.0004877151    1.111    0.100
        64  -7.8953    135.2162    106.1761   9.5477875810e+01   3.4852681791e+01    0.1932154    0.1692098 -81.26  0.001058896    1.323    0.244
        65  -7.7706     97.1118    164.5111   1.1490896171e+02   3.0484918663e+01    0.1745653    0.1056642  44.69 0.0006049241    1.505    0.335
        66  -8.6563     90.9546     93.1943   1.0352341095e+02   4.5506287995e+01    0.1941126    0.1726798 -89.31 0.0002926551    1.200    0.167
        67  -7.7955    104.2427     82.4157   9.7140654456e+01   4.5405082787e+01    0.1819838     0.132668  55.20 0.0005513403    1.530    0.346
        68  -8.4105    232.0372     79.2413   6.9582153479e+01   1.6929607774e+01    0.2207597    0.1746621  25.62 0.0006103447    1.247    0.198
        69  -9.2492    156.0144     77.8695   8.3037484203e+01   3.5352289357e+01    0.2357646    0.2108795 -22.57 -0.0009232552    1.115    0.103
        70  -8.1316     81.6626     77.0394   1.0207895069e+02   5.0276940422e+01    0.1952545    0.1548903 -49.11 0.0006760553    1.156    0.135
        71  -8.8941    120.0178     66.3479   8.8153392460e+01   4.5365890046e+01    0.2491571    0.1986939 -42.55 0.0003321448    1.248    0.199
        72 -11.3362    161.7822     52.1580   7.3769505082e+01   3.7968095142e+01     0.613298    0.4805856  20.34  0.001778251    1.354    0.262
        73  -8.3259    130.6416     49.2454   7.9723813906e+01   4.5927558783e+01    0.2208488    0.1758787 -43.75 0.0006675126    1.334    0.251
        74 -11.9426    172.0386     47.9674   7.0402324528e+01   3.5947856155e+01     1.094595    0.7046083  23.41  0.003244252    1.854    0.461
        75 -11.6817    176.0261     37.6241   6.6291826615e+01   3.6251613846e+01     1.284361    0.7250134  52.43  0.005506827    1.673    0.402
        76 -10.5483    179.8700     29.7237   6.3040464373e+01   3.6176249236e+01    0.8095888    0.4705141  30.28  0.002453707    1.987    0.497
        77  -8.0526     62.8913     34.4853   9.4573459530e+01   6.1321604720e+01    0.1667279    0.1264628  29.93 0.0003396554    1.456    0.313
        78  -9.6130    101.1737    161.4457   1.1364791857e+02   3.0433763077e+01    0.7335235    0.1977986  42.65  0.002851597    3.284    0.695
        79  99.0000     10.5896    214.8599   1.3468730570e+02   3.1876682376e+01    0.2243744    0.1339157 -56.25   0.00170477    2.578    0.612
        80 -11.4857     15.8542    210.2668   1.3367165770e+02   3.2120815043e+01    0.1097357   0.09118961  46.96  0.001009272    1.499    0.333
