#   1 NUMBER                 Running object number                                     
#   2 MAG_AUTO               Kron-like elliptical aperture magnitude                    [mag]
#   3 X_IMAGE                Object position along x                                    [pixel]
#   4 Y_IMAGE                Object position along y                                    [pixel]
#   5 X_WORLD                Barycenter position along world x axis                     [deg]
#   6 Y_WORLD                Barycenter position along world y axis                     [deg]
#   7 A_WORLD                Profile RMS along major axis (world units)                 [deg]
#   8 B_WORLD                Profile RMS along minor axis (world units)                 [deg]
#   9 THETA_WORLD            Position angle (CCW/world-x)                               [deg]
#  10 FWHM_WORLD             FWHM assuming a gaussian core                              [deg]
#  11 ELONGATION             A_IMAGE/B_IMAGE                                           
#  12 ELLIPTICITY            1 - B_IMAGE/A_IMAGE                                       
         1 -14.5870    239.2564    112.3322   8.3926992373e+01   9.7136686078e+00     3.326046    0.6374277 -34.16  0.008782293    5.000    0.800
         2 -14.2713    163.4205     46.6284   7.8987363825e+01   3.8869253603e+01     1.717826     1.247838  16.38   0.00581238    1.818    0.450
         3 -14.3399    176.6690     31.2810   7.1911039636e+01   3.7476463238e+01     1.096166    0.9472464 -18.96  0.004135283    1.290    0.225
         4 -13.4943    180.4599     24.4940   6.9293018542e+01   3.7304087568e+01    0.5545159    0.5219882 -79.72  0.001185374    1.045    0.043
         5 -12.2928    189.6063     14.6767   6.5219725228e+01   3.6017313551e+01     0.275919    0.2288319 -71.90 0.0008691798    1.155    0.134
         6 -11.0602     63.9237      7.5162   8.9493834982e+01   6.6315967513e+01    0.1788506    0.1119485  42.51 0.0005020518    1.542    0.352
         7 -13.1726    194.1836      2.5801   6.1314078536e+01   3.6056458023e+01    0.8777084    0.3311594  70.19  0.003587018    2.306    0.566
         8 -10.5898     10.2816    213.7672   1.4872253063e+02   2.9687755296e+01    0.1188492   0.09935029  45.03 0.0006389744    1.530    0.346
         9 -11.1837    159.2966    250.0343   1.2474736363e+02   2.7814078931e+00    0.1744859    0.1525228 -57.76 0.0007515262    1.492    0.330
        10 -19.7132     49.3098    164.6225   1.3698831451e+02   3.5825405579e+01     18.96754     5.380305 -72.08   0.06880531    3.562    0.719
        11 -11.0395    198.2124    177.2567   1.0570406622e+02   7.2092789210e+00    0.3357231    0.2676646 -58.91  0.001503495    1.607    0.378
        12 -10.5940    145.1147    178.3245   1.1697015267e+02   1.7405632213e+01    0.2105723     0.170856  47.46  0.001148133    1.126    0.112
        13 -12.6085    136.8873    171.3791   1.1755548207e+02   2.0390591357e+01    0.6492617    0.3866219  49.91  0.003011241    1.589    0.371
        14 -10.3826    165.3662    208.1876   1.1775084340e+02   8.1612374856e+00    0.2417638    0.1628697  41.29 0.0005881615    1.275    0.216
        15 -11.5343    145.1245    168.2319   1.1512121584e+02   1.9437557280e+01    0.3369928    0.2397668  57.58  0.001038104    1.427    0.299
        16 -13.7379     11.9746    206.0728   1.4802354282e+02   3.1016282174e+01    0.5315542    0.2353609  35.32   0.00312101    2.377    0.579
        17 -12.1732    125.9001    204.8205   1.2526233225e+02   1.5757657579e+01    0.3727137    0.2212772  65.87  0.001797864    2.015    0.504
        18 -11.7756     99.3192    163.4240   1.2493434053e+02   2.8911680646e+01    0.2611102    0.2395891  89.69 0.0003423635    1.064    0.060
        19 -13.4424    195.2621    195.0092   1.0963323874e+02   4.8548777536e+00     0.977173    0.7517692 -89.82  0.004369017    2.234    0.552
        20 -11.5771    102.8361    157.8234   1.2314522813e+02   2.9575966231e+01    0.3233653    0.3128827  14.95 0.0004884653    1.259    0.206
        21 -12.3888    103.7926    153.5915   1.2216611919e+02   3.0370399962e+01    0.5468121    0.3068562  46.23  0.001631539    1.727    0.421
        22 -11.7990    164.2914    156.6166   1.0853731031e+02   1.7888846824e+01    0.3212391     0.282393 -27.40 0.0008288777    1.240    0.193
        23 -10.1040    140.0486    156.4979   1.1400128441e+02   2.2892922585e+01    0.2154216    0.1399281  45.57 0.0003138806    1.467    0.319
        24 -13.0284    238.5875    144.9785   9.1489485151e+01   4.6133758697e+00    0.6504212    0.5439237  -3.85  0.003768736    1.160    0.138
        25 -11.9998    133.9006    145.2616   1.1314891371e+02   2.6556462554e+01     1.080724    0.2955323 -55.05  0.002809237    5.025    0.801
        26 -10.8396    136.2335    197.0486   1.2197037501e+02   1.5412304072e+01    0.3434652    0.2025798  74.69  0.001424386    2.844    0.648
        27 -11.0378    174.0364    149.0284   1.0478159516e+02   1.7322385226e+01    0.3275653    0.2051888  45.69  0.001259869    1.542    0.352
        28 -11.3681     92.4374    148.5897   1.2411959703e+02   3.3441244503e+01    0.4587311    0.2105187  53.64  0.001811193    2.455    0.593
        29 -11.9531    144.6421    145.7188   1.1068498685e+02   2.4252230427e+01    0.4481118    0.3094447  81.99  0.001892268    2.133    0.531
        30 -12.3950    112.5785    140.5210   1.1745567339e+02   3.1772043851e+01    0.5344956    0.3236869 -37.60  0.002282256    2.086    0.521
        31 -12.4986    101.9416    140.9308   1.2026633408e+02   3.3603987737e+01    0.2849163     0.275142  70.58 0.0004570006    1.097    0.088
        32  -9.5049      4.4748    146.4281   1.4569662489e+02   4.4243144497e+01    0.1149729   0.08829064 -84.25 0.0001534049    1.073    0.068
        33 -12.7016    112.9398    195.8125   1.2672825942e+02   1.9717553108e+01     0.636125    0.4241127   9.28  0.002717589    3.271    0.694
        34 -11.8302     18.6456    136.0558   1.4130995761e+02   4.5483932203e+01    0.1899575    0.1738747  59.53 0.0003514808    1.280    0.219
        35 -10.5435    151.2431    135.2346   1.0678605083e+02   2.5080013636e+01    0.2567344    0.1804482  88.29  0.001055055    2.149    0.535
        36 -10.1409    168.2735    248.3153   1.2291995243e+02   1.5847515095e+00    0.1113283   0.08178956  17.27 0.0002058682    1.561    0.359
        37 -11.4214    118.4438    130.2788   1.1375665624e+02   3.2988584985e+01    0.3650777    0.3197064 -14.29 0.0009043899    1.414    0.293
        38 -11.3643    159.9528    128.1726   1.0308966249e+02   2.4636088868e+01    0.4354214    0.2368486 -34.50  0.001686464    2.114    0.527
        39 -11.6990    135.4196    122.3703   1.0756629815e+02   3.1276096930e+01    0.6157323    0.1493901 -48.62  0.001629993    4.287    0.767
        40 -11.5411    123.8213    126.4652   1.1149642589e+02   3.2781186289e+01    0.5399622    0.2913928  64.61  0.001884819    2.919    0.657
        41 -10.6145    112.5453    119.5705   1.1284861770e+02   3.6579659998e+01    0.2541635     0.243458 -77.28 0.0002866146    1.006    0.006
        42 -11.0278    180.0972    193.5769   1.1235793322e+02   7.9123409505e+00     0.477377    0.2866293 -65.69  0.002021373    3.018    0.669
        43 -11.1691    167.8977    113.2673   9.7547290105e+01   2.5850189072e+01    0.4516985    0.3180306  79.57  0.001408142    1.992    0.498
        44 -10.3888      2.6003    112.5994   1.4308232534e+02   5.1993611544e+01    0.1923949    0.1420173 -47.46  0.000941419    1.473    0.321
        45 -10.5358    205.3027    110.2376   8.9171331230e+01   1.7612133930e+01     0.315954    0.2099633  45.88  0.001014276    1.551    0.355
        46 -11.8064    103.8960    193.9851   1.2841396869e+02   2.1589347251e+01    0.3792419    0.2710024  35.27  0.002107745    1.509    0.337
        47 -10.9091    134.5266    103.9587   1.0304705439e+02   3.5464424670e+01    0.4777213    0.1508955 -45.63  0.001448188    3.152    0.683
        48 -10.7200    158.1360    193.6267   1.1684073336e+02   1.2027061383e+01    0.2183657     0.186737 -76.75 0.0007362648    1.391    0.281
        49 -12.1530    109.9612    188.7303   1.2637055253e+02   2.1658043286e+01    0.4255657    0.2898168   6.97  0.001827759    3.147    0.682
        50 -10.3853     24.1538    212.8845   1.4620064913e+02   2.8456723337e+01    0.1234499   0.09892764  59.82 0.0009339325    1.261    0.207
        51 -11.5307    207.6636    185.3906   1.0546522872e+02   4.0860591185e+00    0.3402297    0.2661746  14.40 0.0009720306    1.279    0.218
        52 -10.0923     13.6411     59.9422   1.3101010658e+02   6.3090164729e+01    0.1700243    0.1194128 -59.64 0.0004195345    1.149    0.129
        53 -11.3113    182.4416    241.6499   1.1947695054e+02   2.0570753457e-01    0.2424647    0.2122243 -69.23  0.001313787    1.618    0.382
        54 -11.3391    187.0746    221.3115   1.1562548306e+02   2.2858424941e+00    0.1861909    0.1435633  38.86  0.001156711    1.103    0.093
        55 -11.3635    120.9148    217.3800   1.2793615097e+02   1.4281396542e+01    0.3960242    0.2202261  83.49  0.001661124    3.353    0.702
        56 -12.0270    106.2760    128.7036   1.1660663034e+02   3.5660359079e+01    0.6274944    0.2915576 -50.08  0.002478114    2.104    0.525
        57 -11.4567    212.0481    181.3283   1.0385185360e+02   3.9107798062e+00    0.3296408    0.2331584   4.49  0.001034961    1.658    0.397
        58  -9.8050    120.8812     24.8451   8.0335710370e+01   5.2458298135e+01    0.1855857    0.1631747  86.78 0.0004095704    1.316    0.240
        59  -7.7000     18.0137    219.0174   1.4763877959e+02   2.7919044450e+01    0.1280846    0.1103793 -77.10  0.001022103    1.517    0.341
        60 -11.9734    162.6099    217.4442   1.1971469833e+02   7.1277375570e+00    0.3422819    0.1454936  34.39  0.001443778    2.431    0.589
