#   1 NUMBER                 Running object number                                     
#   2 MAG_AUTO               Kron-like elliptical aperture magnitude                    [mag]
#   3 X_IMAGE                Object position along x                                    [pixel]
#   4 Y_IMAGE                Object position along y                                    [pixel]
#   5 X_WORLD                Barycenter position along world x axis                     [deg]
#   6 Y_WORLD                Barycenter position along world y axis                     [deg]
#   7 A_WORLD                Profile RMS along major axis (world units)                 [deg]
#   8 B_WORLD                Profile RMS along minor axis (world units)                 [deg]
#   9 THETA_WORLD            Position angle (CCW/world-x)                               [deg]
#  10 FWHM_WORLD             FWHM assuming a gaussian core                              [deg]
#  11 ELONGATION             A_IMAGE/B_IMAGE                                           
#  12 ELLIPTICITY            1 - B_IMAGE/A_IMAGE                                       
         1 -14.8627    164.1216     47.9163   7.4198050224e+01   3.8247539037e+01     1.133492     1.054346 -30.71   0.00376614    1.210    0.173
         2 -15.2267    178.6000     18.0311   6.4029575774e+01   3.8435915808e+01     1.863686     1.171397  73.80   0.00771462    1.391    0.281
         3 -13.6707    189.5694     14.8574   6.1881000142e+01   3.6177192899e+01    0.5180743    0.3055575  70.45  0.001999912    1.446    0.308
         4 -11.2712      3.5359    246.4307   1.4897830179e+02   2.2532153059e+01     0.179396    0.1067374  25.32 0.0009851914    2.850    0.649
         5 -20.2022     72.8401    174.9791   1.2810632690e+02   2.9884717887e+01     17.70977     7.277593 -64.28   0.07058191    2.306    0.566
         6 -10.3767    140.1294    241.3712   1.2287933529e+02   4.1326083184e+00    0.2196886    0.1529834 -47.12   0.00121418    1.682    0.406
         7 -10.9167    217.5746    217.9898   1.0337863363e+02  -5.1766585005e+00    0.1946796     0.123823 -37.57 0.0006562106    1.594    0.373
         8 -13.0886    161.1749    165.6215   1.0485296622e+02   1.5843388859e+01    0.6271271    0.3794101 -70.56  0.002325742    2.587    0.613
         9 -10.6831     20.5977    166.7044   1.3951410661e+02   3.8124999609e+01    0.2327999    0.1846819  11.00  0.001032024    1.803    0.445
        10 -10.6916     25.6602    165.0310   1.3814220621e+02   3.8036501305e+01    0.2269827    0.1735851 -36.73 0.0007235889    1.700    0.412
        11 -10.7391     19.3111    216.0639   1.4428465774e+02   2.7085042048e+01    0.1557669    0.1021807 -80.34 0.0003716979    1.268    0.211
        12 -12.3951    188.6423    154.2376   9.6279461811e+01   1.2482553824e+01    0.6492769    0.4745418  43.80  0.002562772    1.402    0.287
        13 -10.1832    177.9749    156.2102   9.9015840272e+01   1.4343038477e+01    0.2040848    0.1970059  50.61 0.0002137767    1.048    0.046
        14 -10.9070     22.9530    156.1234   1.3773598107e+02   4.0402139892e+01    0.1894296    0.1546873 -82.10  0.000486243    1.031    0.030
        15 -11.5017     17.6107    153.7884   1.3875970561e+02   4.1430286633e+01    0.2797499    0.1724397 -83.33 0.0009824435    1.420    0.296
        16 -13.0161    164.5757    152.8455   1.0126401080e+02   1.7962346274e+01    0.4355642    0.4216759  31.27  0.001228183    1.070    0.065
        17  -9.6792    133.5470    222.1787   1.2144413174e+02   8.9987908343e+00    0.1447926    0.0873229  56.04 0.0006651455    1.695    0.410
        18 -11.7406    174.4587    148.9212   9.8144124850e+01   1.6680137521e+01    0.3843244    0.2974808 -65.33  0.001095609    1.452    0.312
        19 -10.3615      7.3566    149.8961   1.4080478142e+02   4.3169127953e+01    0.1935723    0.1329483 -45.81 0.0006126189    1.606    0.378
        20 -12.2094     27.8822    145.5936   1.3513593900e+02   4.2445378466e+01    0.3958842    0.3124993 -20.65  0.002047732    1.692    0.409
        21 -13.7383     12.1699    205.9526   1.4487607845e+02   3.0005833561e+01    0.5336411    0.3479396  20.76  0.003231397    2.379    0.580
        22 -11.9986    134.9202    238.7834   1.2357857797e+02   5.5102216508e+00    0.2915234    0.2410573 -65.95  0.001013015    1.361    0.265
        23 -10.4035    152.0460    235.4229   1.1957170205e+02   3.1587709612e+00    0.2695693    0.1467953  51.13 0.0006842195    1.809    0.447
        24 -11.9829    219.7520    196.5471   9.8879901540e+01  -1.8704113829e+00    0.3259289    0.1831954 -49.11   0.00140015    2.012    0.503
        25 -12.8829    160.3283    127.7822   9.6335231243e+01   2.4444909191e+01    0.5101278    0.3641157 -56.24  0.001352057    1.461    0.316
        26 -10.0268    145.0000    231.8943   1.2049757614e+02   5.0580948804e+00    0.2003059   0.07850095 -52.14 0.0007923077    2.873    0.652
        27 -10.8437    120.8435    196.9658   1.2024479000e+02   1.6699255213e+01    0.2139036    0.1908618  67.80 0.0007090844    1.047    0.045
        28 -11.1368     98.3920    249.9709   1.3227069528e+02   9.4158816150e+00    0.1601191    0.1169957 -64.87 0.0006401064    1.521    0.342
        29  -9.8064    131.1675    231.3715   1.2330455726e+02   7.5844037856e+00     0.119595   0.09606008 -36.78 0.0003703661    1.561    0.360
        30 -11.0891    231.2902    113.7246   7.9091905860e+01   1.1394467959e+01     0.248349    0.2393355 -39.14 0.0007456337    1.126    0.112
        31 -10.9673    167.7202    112.7264   9.0883424972e+01   2.5953455535e+01     0.320574    0.2240706 -82.53  0.001275378    2.051    0.512
        32 -10.2834    136.9052    185.3454   1.1446571027e+02   1.6307538630e+01    0.2045888    0.1809073  44.84 0.0003871675    1.113    0.101
        33 -10.9232    205.3248    110.2509   8.2713945994e+01   1.7733068730e+01    0.3072734     0.209434  49.40 0.0008684688    1.551    0.355
        34 -12.1439    162.9853    181.6384   1.0776003295e+02   1.1956373450e+01     0.357231    0.2242256 -48.70  0.001589084    1.633    0.388
        35 -13.7974    188.1333    175.0290   1.0089798566e+02   8.2586855846e+00     1.095124    0.5301493 -55.60  0.003526616    2.650    0.623
        36 -10.6910    127.9352    227.9787   1.2349441072e+02   8.8195453622e+00    0.3516574    0.2363103  17.55 0.0008938764    2.253    0.556
        37 -10.4775      6.5566    229.3966   1.4749895406e+02   2.5610303324e+01    0.1137002   0.07978462  77.31 0.0002256742    1.036    0.035
        38 -11.4300    224.8414    174.8512   9.3523785531e+01   1.1563009283e+00     0.189701    0.1691384 -63.46 0.0005434293    1.324    0.245
        39 -12.5762    176.8714    169.2407   1.0210226685e+02   1.1779283981e+01    0.4045714    0.2221985 -59.70  0.001529765    2.385    0.581
        40 -11.1905    163.1028    244.7828   1.1873356038e+02  -4.1820888034e-01    0.3011878    0.2018438  28.00  0.001177782    1.503    0.334
        41 -12.2623    194.6419    172.2798   9.8952530085e+01   7.5063014540e+00    0.4457819    0.2742046 -53.29  0.001615985    1.792    0.442
        42 -14.4183    152.3395     62.4636   8.0592587192e+01   3.8919280413e+01     1.324583     1.002309  28.88  0.004064989    1.575    0.365
        43 -11.1666    127.9128    246.6457   1.2605716094e+02   5.2352841285e+00    0.1573928    0.1450094  80.35   0.00102504    1.150    0.130
        44 -13.4719    168.6294     39.7661   7.1192034957e+01   3.8256260289e+01    0.4612584    0.4060673  58.61  0.001014852    1.112    0.101
        45 -11.2807     13.6674     60.0580   1.2323096850e+02   6.2376288271e+01    0.1883507    0.1729689 -33.58 0.0005128309    1.231    0.188
        46 -10.9320    207.6010    171.1868   9.6085655726e+01   5.1434248499e+00     0.343946    0.2044069 -59.30  0.001416372    2.275    0.561
        47 -10.5326    109.2008    245.4139   1.2962948859e+02   8.5592528968e+00    0.2476846    0.1396833 -46.42  0.001232968    2.340    0.573
