#   1 NUMBER                 Running object number                                     
#   2 MAG_AUTO               Kron-like elliptical aperture magnitude                    [mag]
#   3 X_IMAGE                Object position along x                                    [pixel]
#   4 Y_IMAGE                Object position along y                                    [pixel]
#   5 X_WORLD                Barycenter position along world x axis                     [deg]
#   6 Y_WORLD                Barycenter position along world y axis                     [deg]
#   7 A_WORLD                Profile RMS along major axis (world units)                 [deg]
#   8 B_WORLD                Profile RMS along minor axis (world units)                 [deg]
#   9 THETA_WORLD            Position angle (CCW/world-x)                               [deg]
#  10 FWHM_WORLD             FWHM assuming a gaussian core                              [deg]
#  11 ELONGATION             A_IMAGE/B_IMAGE                                           
#  12 ELLIPTICITY            1 - B_IMAGE/A_IMAGE                                       
         1 -10.9485    145.3740     33.5706   8.3732224476e+01   4.4855283063e+01    0.4188924    0.2439504 -36.25  0.001801298    1.690    0.408
         2 -12.1586     76.8494     24.1545   9.8919877165e+01   6.2156126804e+01    0.6663666    0.4936146 -44.55  0.003431876    1.486    0.327
         3 -11.7954     14.0010     21.0941   1.2963792391e+02   7.1318957005e+01     0.469868    0.3250147  63.58  0.002569874    2.277    0.561
         4 -11.2919     41.6990     18.1162   1.1195649278e+02   6.9116272282e+01    0.4583651     0.383585 -11.20  0.002203288    1.104    0.094
         5 -12.2588    108.3087     16.5423   8.5124827010e+01   5.6280521492e+01     0.285424    0.2333309 -15.57  0.000303982    1.177    0.150
         6 -10.0157     64.5719     16.6771   1.0005015199e+02   6.5704524605e+01    0.4060324    0.2360221 -50.67  0.001777238    2.354    0.575
         7 -10.4111     39.6658     10.9465   1.0915235338e+02   7.0715443022e+01    0.2548878    0.2261282  72.14            0    1.812    0.448
         8 -11.1990     41.1630      6.5513   1.0567917304e+02   7.1255356965e+01    0.6036736    0.3185079  24.56  0.002848713    2.222    0.550
         9 -11.6790     34.9983     13.5937   1.1331929236e+02   7.0847969881e+01    0.4838994    0.3062643 -55.15  0.002185937    1.863    0.463
        10 -12.1272     30.0608      6.7144   1.1239007115e+02   7.2735708945e+01    0.4941926     0.341642 -40.90   0.00224386    1.297    0.229
        11 -10.4657     27.4233     15.7259   1.1896379251e+02   7.1303478993e+01    0.3899323    0.2899739  -4.51  0.001996861    1.399    0.285
        12 -11.4018    212.4372     11.5383   6.7036180016e+01   3.0423249269e+01    0.2832149    0.2627322 -80.46 0.0008501383    1.129    0.114
        13 -10.6074    209.8045      7.1058   6.5979878600e+01   3.1444504068e+01    0.3402625    0.1925483 -23.03  0.001427245    1.631    0.387
        14 -10.7277    184.7966     12.1980   7.0021105158e+01   3.7134303942e+01    0.3100154    0.2031774 -67.98  0.001468906    1.796    0.443
        15 -11.0889    142.2747      7.7941   7.4219874732e+01   4.8579438497e+01     0.411134    0.2082848  61.93  0.001420307    1.871    0.466
        16 -10.5765     92.6061      9.5686   8.6068435992e+01   6.0835135710e+01    0.2728502     0.206401  23.99  0.000479967    1.276    0.216
        17 -10.4519     86.5170     12.5015   8.9501470693e+01   6.1848255086e+01    0.6184945    0.2563922  59.44  0.002278286    2.951    0.661
        18 -10.4376     88.5309      9.5280   8.7289832447e+01   6.1771040570e+01    0.3701136    0.1874842 -23.54    0.0015255    1.899    0.473
        19 -10.5584     68.8666     12.3422   9.5863362752e+01   6.5556474175e+01     0.305337    0.1823295 -32.05  0.001478451    1.567    0.362
        20 -10.1238    119.0018     12.0628   8.0486377390e+01   5.4154597036e+01    0.2205096    0.2047327  16.39 0.0004066568    1.010    0.010
        21 -10.4443     57.9655      9.9723   9.9212578230e+01   6.7951739807e+01     0.369014    0.2573394   6.53  0.001931217    1.527    0.345
        22 -11.5088     55.3063      4.4518   9.7095493192e+01   6.9242881591e+01    0.5235505    0.3783905  49.00  0.002226898    1.647    0.393
        23 -10.5017     70.7094      7.3441   9.2283879141e+01   6.5884021829e+01    0.3227427    0.2178059 -43.21  0.001084845    1.749    0.428
        24 -10.5486     64.9590      7.3070   9.4572777633e+01   6.7033340308e+01    0.5116073    0.2003688  33.26    0.0018165    3.318    0.699
        25 -11.2162     22.3668      9.3908   1.1890037850e+02   7.3084013015e+01    0.3454621    0.2287297 -23.69  0.001160687    1.406    0.289
        26 -10.8098      3.7891     10.1414   1.3216753212e+02   7.4326424516e+01    0.2498961    0.1784176 -40.71 0.0004303386    1.120    0.107
        27 -10.3943      2.5027      6.4673   1.3158246166e+02   7.5183298005e+01    0.2255866    0.1593985 -34.44 0.0005999524    1.198    0.165
        28 -11.3891     13.9250      8.3480   1.2413036502e+02   7.4048549997e+01    0.3923087    0.2838843  14.15  0.001309574    1.556    0.357
        29  -9.8320    132.5179      9.4909   7.6617631270e+01   5.0960417808e+01    0.1482093    0.1354223  25.90 -3.44937e-05    1.035    0.034
        30 -11.1583    141.0840     11.6672   7.5978924622e+01   4.8517446234e+01    0.4847314    0.2635235 -63.10 0.0009947026    2.815    0.645
        31 -11.6433    151.6223      5.5898   7.1922414740e+01   4.6326503220e+01    0.5745187    0.3113717  -6.69  0.001447595    2.044    0.511
        32  -9.0085    124.4887      8.4737   7.7727195564e+01   5.3131144149e+01    0.1482655    0.1342102  25.26 0.0001238208    1.033    0.032
        33 -10.2639    218.9572      6.9968   6.5196634159e+01   2.9307178263e+01    0.1577972    0.1445062 -38.04 0.0004258872    1.008    0.008
        34 -10.1246    235.7668      3.9578   6.3158014067e+01   2.5796347273e+01    0.2563104    0.1381402   7.61  0.001156073    2.598    0.615
        35 -10.3695    160.3811      4.1902   7.0207003664e+01   4.4150555788e+01    0.2012507    0.1751527  46.79 0.0006561443    1.127    0.113
        36 -10.8744    130.3195      3.4643   7.4446916200e+01   5.2092643080e+01    0.2773692    0.2356223 -84.52 0.0009856033    1.347    0.258
        37 -10.3155    121.0096      4.0588   7.6447458597e+01   5.4443821837e+01    0.2162599    0.2038759  15.89  0.000487832    1.035    0.034
        38  -9.3562    107.7710      4.6868   7.9593883448e+01   5.7724228997e+01    0.1824991    0.1327088  70.48 0.0002028285    1.539    0.350
        39 -10.3234     19.9782      2.5234   1.1659509430e+02   7.4643877285e+01    0.2851745    0.1536965 -35.16  0.001111401    1.545    0.353
        40 -10.3084    199.5530      2.6129   6.5528681080e+01   3.4303818630e+01    0.2346484    0.2063848 -41.82 0.0005243694    1.080    0.074
        41  -9.6644     91.2437      3.0090   8.3000302501e+01   6.1880347840e+01    0.2455285    0.1953117  83.30   0.00128306    1.662    0.398
        42 -10.5663      9.8001      1.9787   1.2381384080e+02   7.5655982580e+01    0.3268275    0.1780911  -9.94  0.001418396    2.167    0.539
        43 -10.2381     39.9294      1.5089   1.0313467887e+02   7.2250676053e+01    0.3218218    0.1447764  34.19  0.001118464    2.388    0.581
        44 -11.4813     80.7399      1.5689   8.5384015047e+01   6.4433539899e+01    0.3343239    0.1685371  53.32 0.0006100152    1.941    0.485
        45 -10.1299    163.9639      2.0000   6.8966725798e+01   4.3396795766e+01    0.2345556   0.07906287  71.47 0.0008042073    2.955    0.662
        46  -9.9212    125.9119      1.4942   7.4373856823e+01   5.3407370223e+01    0.2141253    0.1381732  65.04 0.0004303764    1.527    0.345
        47  -9.9517     22.0014    143.1653   1.4682962828e+02   4.1842333113e+01    0.2146245    0.1477725 -84.91  0.001374105    1.264    0.209
        48 -10.4608    195.0132    250.0035   1.2265184780e+02   2.9950685087e+00    0.1307145   0.08889866  23.27 0.0006677024    1.024    0.023
        49 -12.4589      4.9343    240.7163   1.5443023048e+02   2.5187033569e+01    0.4101586    0.2243855  54.90  0.003354283    1.260    0.206
        50 -10.7859      6.6184    249.2021   1.5435644820e+02   2.3804006664e+01    0.1796763    0.1088613  55.86  0.000686642    1.128    0.113
        51 -11.0984      1.9168    248.8220   1.5508287570e+02   2.4230671862e+01    0.3040274    0.2021261 -87.42  0.002755313    1.597    0.374
        52 -12.3930     10.8864    244.8265   1.5357383369e+02   2.4097651064e+01    0.3628332    0.1790448  21.25  0.002422839    2.665    0.625
        53  -9.6792      8.8914    134.2569   1.4957902742e+02   4.4763616857e+01    0.2409444    0.1055309 -69.60   0.00127232    1.963    0.491
        54 -10.9575     12.7638    130.5305   1.4831700439e+02   4.5342148560e+01    0.3919621    0.1518829  52.68  0.001471182    2.492    0.599
        55  -9.5451     21.1702    125.8337   1.4566232134e+02   4.5814666861e+01     0.155789    0.1241688 -62.42 0.0003818834    1.264    0.209
        56  -9.5832    226.2048    124.4153   9.5396364266e+01   1.3510718794e+01    0.1665583    0.1297591  51.66 0.0009440696    1.654    0.395
        57 -11.0775     21.8729    118.3536   1.4477976167e+02   4.7501661579e+01    0.3294801    0.1646591 -84.42  0.001222554    1.828    0.453
        58 -10.1611     41.4996    121.5149   1.3941641265e+02   4.5088261515e+01    0.1271107    0.1114217 -89.33 5.822943e-06    1.013    0.013
        59  -9.5165    250.6639    115.6729   8.9651639502e+01   1.0345506878e+01    0.1375421   0.08477233   7.98 0.0007051739    1.723    0.420
        60 -11.1198     65.6320    110.7911   1.3054337145e+02   4.4957753891e+01    0.4813181    0.3305301 -31.64  0.002323381    1.800    0.445
        61 -11.1500      4.3446    113.3060   1.4944686634e+02   4.9815778601e+01     0.297184    0.1965793 -19.32 0.0009513475    2.117    0.528
        62 -11.6892      5.8220    108.7411   1.4867868889e+02   5.0801594585e+01    0.3386524    0.2426479 -79.21  0.001797716    1.146    0.127
        63  -9.7293     96.0114    113.5021   1.2204987513e+02   3.9972579227e+01    0.1930952    0.1152527  59.46 0.0004905183    2.289    0.563
        64  -9.5978    248.7067    111.6445   8.9009443177e+01   1.1173990679e+01     0.137766   0.08586569   4.61 0.0007030796    1.688    0.408
        65 -11.4269     12.6424    109.2745   1.4667372842e+02   5.0273959748e+01    0.3516662    0.1889083  59.76   0.00188826    1.900    0.474
        66 -10.6388     58.7432    107.0659   1.3201342818e+02   4.6683694673e+01    0.3339867    0.1825244 -32.08  0.001406771    2.682    0.627
        67 -10.0276     17.3132    115.2905   1.4582463429e+02   4.8547506062e+01    0.1193156   0.08138672 -48.71 0.0003393503    1.589    0.371
        68 -10.0340     66.6325    101.8130   1.2851255813e+02   4.6961819489e+01     0.196572    0.1246662 -72.00  0.000553096    1.658    0.397
        69 -10.5869     61.6973     99.0499   1.2955550534e+02   4.8247496824e+01    0.2269118    0.1677231 -81.36  0.001198836    1.441    0.306
        70  -9.3005    129.4387     97.5098   1.0883896237e+02   3.7357374006e+01    0.1493666    0.1422231 -16.53 7.887862e-05    1.021    0.020
        71 -10.2724     37.8000     96.4370   1.3703981480e+02   5.1452840554e+01     0.321919    0.1762706  62.02  0.001489342    2.294    0.564
        72 -11.2024     26.4828     90.0421   1.3994427345e+02   5.3964895728e+01    0.6381121    0.4278998  48.72  0.003628276    1.636    0.389
        73 -11.7291     11.0391     87.6691   1.4502679070e+02   5.5559741639e+01     0.577157    0.2211226 -76.68  0.002603755    2.162    0.537
        74 -11.2607     18.2796     87.6776   1.4249321058e+02   5.5121578425e+01    0.5017775    0.2277566 -44.78  0.001386786    2.307    0.567
        75 -11.7115     17.4803     94.7576   1.4364675427e+02   5.3448735929e+01    0.3753113    0.2626716  65.35   0.00125496    1.472    0.320
        76  -9.9420      3.6405     95.1991   1.4826109426e+02   5.4128515003e+01    0.1650732    0.1337625  78.87 0.0006478429    1.142    0.125
        77 -10.6515     84.3389     93.9584   1.2107961747e+02   4.6280423778e+01    0.2996871    0.2447139  28.37  0.001049377    1.317    0.241
        78  -9.4623     48.2358     94.6321   1.3319613698e+02   5.0862795574e+01    0.1624915    0.1299532   5.43 0.0002790727    1.529    0.346
        79  -9.2944     69.0083     92.9909   1.2585114434e+02   4.8747626651e+01    0.1599791    0.1505692 -57.57            0    1.021    0.021
        80  -9.2678    158.7346     90.9900   9.9833134121e+01   3.2425229410e+01    0.1881603    0.1272759 -32.70 0.0003141961    1.423    0.297
        81  -9.9196    118.9404     90.3221   1.0969815274e+02   4.0924859426e+01    0.3028891    0.1358805  48.85   0.00110272    2.509    0.601
        82 -10.5150     43.9317     89.4418   1.3371801493e+02   5.2572970240e+01    0.3964791    0.1717934  41.11  0.001284521    2.516    0.603
        83 -10.0252      3.0179     78.3177   1.4686173632e+02   5.8229410653e+01    0.1945855    0.1325547 -77.53 0.0002572674    1.170    0.146
        84 -10.5898      1.6563     89.0952   1.4838657092e+02   5.5685230888e+01    0.4507387     0.127041 -80.01  0.001460919    2.925    0.658
        85 -10.3429      3.8433     82.8540   1.4703703061e+02   5.7092658484e+01    0.2670431    0.1882737 -79.44  0.001044293    1.139    0.122
        86 -10.0092     76.8280     88.9053   1.2227550061e+02   4.8600533221e+01    0.2294548    0.1880382 -30.29  0.001231769    1.285    0.222
        87  -9.6898     64.8222     88.5454   1.2625102609e+02   5.0367038073e+01    0.2362486    0.1568017 -63.74 0.0009667986    1.443    0.307
        88  -9.8368    124.0142     86.9829   1.0733076060e+02   4.0592595640e+01    0.2295329    0.2154273 -17.89 0.0004324956    1.009    0.009
        89 -10.1433     92.6249     85.1563   1.1612672755e+02   4.6927142284e+01    0.2219365    0.1996831  53.16 0.0003986157    1.225    0.183
        90  -9.4759     72.2891     85.6253   1.2298665514e+02   5.0033457073e+01     0.144994     0.109739  85.23 0.0007020418    1.725    0.420
        91 -10.7328     54.4704     84.0267   1.2885862052e+02   5.2743037371e+01    0.2643454     0.209303 -54.92 0.0006044747    1.126    0.112
        92 -11.8308     64.0381     81.6124   1.2486395998e+02   5.2125137966e+01    0.3951959    0.3182359 -51.36  0.001173461    1.122    0.109
        93 -10.0856     65.7727     75.3261   1.2260387890e+02   5.3377937976e+01    0.2491122     0.229313  69.97 0.0008402921    1.235    0.190
        94  -9.6371     61.0249     75.9992   1.2452878505e+02   5.3857645363e+01    0.2315852    0.1621586  38.46 0.0003233358    1.576    0.365
        95  -9.9093    250.3741     80.7944   8.1450455753e+01   1.4630464209e+01    0.1906928    0.1075711 -15.42 0.0006455965    1.630    0.387
        96 -10.0595     89.1158     80.4963   1.1594560692e+02   4.8572946942e+01    0.2705693    0.2020491 -66.54 0.0007662224    1.553    0.356
        97  -9.6509     85.1993     79.7786   1.1703923506e+02   4.9391893174e+01    0.1895874     0.157069 -25.15 0.0002095735    1.256    0.204
        98 -10.2697     79.0387     79.5810   1.1907221532e+02   5.0428579568e+01    0.2005461    0.1854283 -40.23 0.0001383992    1.012    0.012
        99  -9.6558     24.0666     78.9764   1.3910674107e+02   5.6859853475e+01    0.2205942    0.1256511 -43.88  0.001133955    1.756    0.430
       100  -9.5775    176.7306     77.3880   9.2069396357e+01   3.0684020088e+01     0.214753    0.1350546  40.40 0.0009517361    1.641    0.391
       101 -10.2497     55.8489     75.3685   1.2629599623e+02   5.4663307829e+01    0.3025826    0.2338555 -75.15   0.00163527    1.369    0.270
       102 -10.7357     45.8459     75.1166   1.3003382945e+02   5.5869083635e+01    0.3653181    0.2581523  20.66  0.001697995    1.649    0.394
       103  -9.5998     32.4971     73.4350   1.3485346580e+02   5.7558543787e+01    0.1743873    0.1620657 -54.36 0.0004944969    1.105    0.095
       104 -10.2738     37.5478     75.3198   1.3327368890e+02   5.6646749329e+01    0.3408776    0.2078738 -46.44   0.00117053    1.526    0.345
       105 -10.7115     36.3483     71.5365   1.3293656779e+02   5.7682189763e+01     0.422301    0.1998188 -43.74  0.001301618    2.074    0.518
       106 -10.7738     16.2667     75.6914   1.4155560476e+02   5.8184788658e+01    0.2930981    0.2074333  -5.42  0.001482052    1.796    0.443
       107  -9.5363    136.5685     74.2413   1.0010125639e+02   4.0390666988e+01    0.2061729    0.1438243 -23.23 0.0003010108    1.488    0.328
       108 -11.1616      3.9342     73.6920   1.4600321178e+02   5.9314163798e+01    0.3017008    0.2319568   7.56  0.001138729    1.641    0.391
       109  -9.3792     95.8715     73.6422   1.1167814727e+02   4.8886621348e+01    0.2109245    0.1481683  40.66 0.0004690906    1.507    0.336
       110 -10.2445     91.4417     70.5284   1.1215106951e+02   5.0366493110e+01    0.4720253    0.2959231 -71.43  0.001303251    2.771    0.639
       111 -10.0785     81.0949     72.2658   1.1623167665e+02   5.1763992130e+01    0.2794224    0.1941187 -77.81  0.001225815    2.148    0.535
       112  -9.2583    216.8276     72.3893   8.3808047993e+01   2.2444476155e+01    0.1825999    0.1252777  38.66  0.000392102    1.549    0.354
       113 -10.6893    106.0022     71.7386   1.0786914717e+02   4.7354513093e+01    0.2561524    0.2113063 -42.40 0.0004177648    1.172    0.147
       114 -10.1389     75.6178     71.1869   1.1784680265e+02   5.2885477642e+01     0.212594     0.122628 -42.37  0.000759666    1.633    0.388
       115 -10.3154    130.0854     69.6395   1.0029064937e+02   4.2690534234e+01    0.2666309    0.2123422 -24.47 0.0003188027    1.226    0.184
       116 -10.7158     44.0856     68.4994   1.2914306948e+02   5.7657430339e+01    0.4979941    0.2893787  56.97  0.002254633    2.426    0.588
       117 -10.1582     10.5292     69.0319   1.4281563933e+02   6.0139282627e+01    0.2848032     0.109083 -80.18  0.001158399    2.450    0.592
       118 -10.1985     51.8485     67.5816   1.2580973538e+02   5.7006485060e+01    0.3224325    0.2120038 -11.33  0.001061848    2.092    0.522
       119  -9.7278    114.3832     66.5522   1.0362886167e+02   4.6686952852e+01    0.2552214    0.1876429  77.60  0.001083108    2.139    0.532
       120 -10.2984     35.1890     64.8446   1.3189252093e+02   5.9417129372e+01     0.375845    0.2611793 -55.63  0.001254891    1.208    0.172
       121 -10.9371     39.9932     62.2088   1.2922973332e+02   5.9593055830e+01    0.5264534    0.2994342 -59.32  0.002608116    1.500    0.333
       122 -10.6789     17.3643     64.7049   1.3931421270e+02   6.0811827210e+01    0.3508121    0.1760485 -54.02 0.0009096655    1.632    0.387
       123  -9.7978     14.2991     63.6713   1.4041589568e+02   6.1246641738e+01    0.2062235    0.1376089 -87.01 0.0004992558    1.459    0.315
       124  -9.6862    133.2509     63.6389   9.7452465357e+01   4.3074775403e+01    0.2911945     0.177534 -44.65 0.0009631235    1.713    0.416
       125 -11.5026      2.8152     60.2428   1.4473065112e+02   6.2633907743e+01    0.5971954    0.2651463  60.86  0.002522034    3.047    0.672
       126 -10.5692      2.5698     53.9434   1.4390767422e+02   6.4172054785e+01    0.5256509    0.1718285 -45.10  0.002279126    2.704    0.630
       127 -10.6626      8.5011     45.9842   1.3970131043e+02   6.5841236603e+01     0.497762    0.2512831 -75.82  0.001285071    1.771    0.435
       128 -11.7712     17.2923     45.1281   1.3519459935e+02   6.5556909547e+01    0.6043596    0.3654433 -50.69  0.002527394    1.340    0.254
       129 -10.7762     26.8123     57.1913   1.3368023341e+02   6.1981936101e+01    0.3255778    0.2138792 -59.83  0.001804354    1.248    0.199
       130 -12.4679     20.3041     57.0605   1.3654313659e+02   6.2487187106e+01    0.2943425    0.2849047  41.67 0.0006863342    1.244    0.196
       131 -10.2317    127.1945     61.8930   9.8436699847e+01   4.4766098329e+01    0.2641407    0.2175808  36.65 0.0003997795    1.234    0.189
       132  -9.6670     53.5276     62.0253   1.2356952067e+02   5.8114596031e+01    0.1976018    0.1879878  10.26 0.0005688666    1.168    0.144
       133  -9.2606    247.3909     61.5726   7.7025019307e+01   1.7466671422e+01      0.13239    0.1088213 -19.11 4.303961e-05    1.015    0.015
       134  -9.6958    202.0612     60.6551   8.2720589317e+01   2.7295667495e+01    0.1887308    0.1729513  32.64 0.0002089153    1.143    0.125
       135 -10.6048     19.1767     52.1812   1.3597635865e+02   6.3743029558e+01    0.2257832    0.1892294 -46.74 0.0004073433    1.111    0.100
       136  -8.6594    157.3068     60.2720   9.0687699579e+01   3.7977438634e+01    0.1550851    0.1139944  18.50 0.0002049046    1.542    0.352
       137 -10.4126     67.8833     60.2647   1.1730415136e+02   5.6543628625e+01    0.2806951    0.1895577  36.67 0.0003938811    1.626    0.385
       138 -10.2736      9.5011     59.5217   1.4175558931e+02   6.2514478441e+01    0.2331537    0.1127636 -54.21 0.0007607397    1.666    0.400
       139 -10.1850      7.7155     56.0572   1.4195459173e+02   6.3442821306e+01    0.2238921    0.1688428  68.71 0.0007764183    1.501    0.334
       140  -8.9199    178.5387     59.5719   8.6300241910e+01   3.2976790342e+01    0.1493366    0.1397859 -22.60 0.0001099629    1.062    0.058
       141  -9.6346     60.1395     57.8410   1.1958445916e+02   5.8211395596e+01    0.2097397    0.1871948 -74.03 0.0007320911    1.274    0.215
       142 -10.2619     53.6665     57.4249   1.2211537019e+02   5.9167253738e+01     0.392575    0.2930859  10.90  0.002101483    1.571    0.364
       143 -10.4788     62.9053     61.8698   1.1976564910e+02   5.6905431297e+01    0.2264871    0.1743691 -29.55 0.0007474764    1.308    0.236
       144  -9.7875     71.6531     57.1768   1.1480504411e+02   5.6644985882e+01     0.205397    0.1574613 -42.48 0.0005506277    1.178    0.151
       145 -11.5490    114.0736     54.4572   9.9428503375e+01   4.9049785120e+01     0.344593    0.2900099 -17.96 0.0005532345    1.150    0.131
       146 -10.2280    106.3449     53.7077   1.0146608259e+02   5.0859279798e+01    0.4325782     0.310337 -78.24  0.001787271    2.466    0.594
       147 -11.7966     86.4074     53.6008   1.0804275842e+02   5.4856541954e+01    0.5534737    0.3855168  47.71  0.002260472    1.625    0.385
       148 -10.0046     34.3732     53.2796   1.2928313827e+02   6.2270539951e+01    0.3018511    0.1654752 -38.87  0.001289146    1.784    0.439
       149 -11.8650     66.6525     52.4307   1.1509995994e+02   5.8464487484e+01    0.6547993    0.2795909  31.09  0.002180897    2.757    0.637
       150 -10.1793     75.2900     50.2838   1.1090774271e+02   5.7521335541e+01     0.231657     0.197163  -7.04 0.0002010613    1.203    0.169
       151 -11.2776     77.4235     46.4647   1.0861147187e+02   5.7934957804e+01    0.4649104    0.3195537  14.68  0.001993734    1.804    0.446
       152  -9.4098    121.7997     51.3888   9.6108006080e+01   4.7859546183e+01    0.2145723     0.138643  38.08   0.00057616    1.613    0.380
       153  -9.7957     38.2853     48.6983   1.2614163370e+02   6.2963541292e+01    0.1863021    0.1336132 -34.35  0.001020225    1.333    0.250
       154  -9.2227    212.0650     48.7720   7.7864007745e+01   2.6519440963e+01     0.164467     0.120237  64.30 0.0003006175    1.543    0.352
       155 -10.2561    102.1386     48.1751   1.0066010938e+02   5.2779887237e+01    0.1966067    0.1794674 -60.55 0.0003852714    1.292    0.226
       156  -9.0947     46.4704     52.5949   1.2367487374e+02   6.1160907896e+01    0.1363695    0.1202724 -45.24 0.0001734018    1.032    0.031
       157  -9.0108    154.5311     47.5294   8.6932323987e+01   4.0603813849e+01    0.1528068    0.1441687  -7.73  4.85776e-05    1.017    0.016
       158 -11.0543     73.0687     37.8062   1.0673439523e+02   6.0417389468e+01    0.2447827    0.2149698  33.37  0.001208988    1.243    0.195
       159 -10.7498     68.6837     46.7906   1.1217802445e+02   5.9349919546e+01    0.2932039    0.2303973  37.27   0.00026491    1.405    0.288
       160 -10.9884     70.7041     43.0134   1.0986487638e+02   5.9795378314e+01    0.3427366    0.2407916 -45.57 0.0003074858    1.354    0.262
       161  -9.5770     31.2361     46.4318   1.2876756667e+02   6.4174168303e+01    0.2894307    0.1103603 -72.71 0.0008811759    4.618    0.783
       162  -9.1126    136.4690     46.5251   9.0556155252e+01   4.5192464904e+01    0.1539254    0.1447433  -5.77  0.000809281    1.016    0.016
       163 -10.8647     26.4504     35.1198   1.2755626800e+02   6.7209753939e+01    0.3306567    0.1941025 -37.37 0.0009902313    1.557    0.358
       164 -10.0174     25.6771     43.3689   1.3056867040e+02   6.5367662413e+01    0.3169971    0.1732508 -75.08  0.001478703    2.105    0.525
       165 -10.0804     22.2850     38.6018   1.3086585877e+02   6.6746715924e+01    0.2528508    0.1735491  89.54  0.000831938    1.928    0.481
       166 -10.3286      3.7965     42.0709   1.4123626503e+02   6.6984047048e+01    0.3063095    0.1939365 -30.47  0.001800707    1.648    0.393
       167 -11.9243    140.1895     40.7754   8.7553588945e+01   4.5149754180e+01     0.281168    0.2761779 -85.00 0.0003702274    1.144    0.126
       168 -10.2673     35.9408     40.7718   1.2465876840e+02   6.5026626447e+01    0.3287536    0.2180115 -51.44  0.001781897    1.266    0.210
       169  -9.3163    183.4562     41.5216   7.9738873286e+01   3.4234244894e+01    0.1474353    0.1374921 -23.51 0.0008083619    1.037    0.036
       170 -10.5664    134.4017     39.3450   8.8331741212e+01   4.6789043584e+01    0.2706231    0.2441158 -44.27 0.0009099952    1.194    0.162
       171  -9.8513    130.7072     39.3082   8.9194371192e+01   4.7699924944e+01    0.2334772    0.2179787 -39.34 0.0005285719    1.144    0.126
       172  -9.0953     42.7255     40.3654   1.2121298845e+02   6.4372212176e+01     0.130169    0.1050034 -84.58 0.0007004741    1.669    0.401
       173  -9.8691     13.3201     38.8481   1.3560812897e+02   6.7288445118e+01    0.2808729    0.1088936 -74.54  0.001123528    2.793    0.642
       174 -11.0703    120.8624     36.3405   9.0480263550e+01   5.0527666871e+01    0.5853953    0.3569188 -56.25  0.002335693    2.358    0.576
       175 -10.5223      1.7543     35.7305   1.4098687497e+02   6.8569610432e+01    0.2948809    0.1539349 -79.62  0.001303569    1.789    0.441
       176 -11.0116      2.3231     28.2172   1.3891648388e+02   7.0311959315e+01    0.4638359    0.1772388 -67.39 0.0009751863    2.025    0.506
       177 -10.5662    150.6195     35.0668   8.3241976429e+01   4.3327120379e+01     0.421922    0.1814409 -44.95 0.0009012443    2.727    0.633
       178  -9.5734    229.5305    248.0616   1.1689928893e+02  -9.6315088782e-01    0.1314713   0.08572736 -15.37   0.00102491    1.573    0.364
       179  -9.5577     90.9510     36.0000   9.9307736042e+01   5.7304044449e+01    0.2336455   0.08424138  47.64 0.0004930355    2.913    0.657
       180 -12.4421     50.3904     33.8016   1.1492555240e+02   6.4807156358e+01    0.3478048    0.2876737  38.91 0.0003358183    1.436    0.303
       181 -10.8367     42.6135     30.6654   1.1740687385e+02   6.6482820342e+01    0.4865808    0.3021029   2.96  0.002339259    2.137    0.532
       182 -10.1220     44.9156     26.3508   1.1430897227e+02   6.7072619253e+01    0.3079477    0.2068827  36.77  0.001642229    1.721    0.419
       183 -11.6629    134.6085     33.9561   8.6189596699e+01   4.7510323195e+01    0.2544948    0.2177016  41.15 0.0003032657    1.158    0.136
       184  -8.6029    167.2923     33.6890   7.9728663222e+01   3.9264774458e+01    0.1517759    0.1102088 -55.33 0.0004109467    1.588    0.370
       185  -9.9039    188.0393     29.4819   7.5211113539e+01   3.4535399513e+01    0.2316774    0.1914384 -14.05 0.0008935208    1.171    0.146
       186 -10.7556    151.4187     29.5771   8.1055158192e+01   4.3828621504e+01    0.2766683    0.2373476  21.79  0.000579758    1.169    0.145
       187  -9.8883     69.9730     28.9159   1.0396962105e+02   6.2631466553e+01    0.2222832    0.1915046 -19.41 0.0004958434    1.025    0.024
       188 -10.1383     34.2590    247.3774   1.4985145082e+02   2.1702842541e+01    0.1372715   0.05803001  42.51 0.0006788268    1.617    0.381
       189  -9.9072      7.3100     28.2467   1.3602737899e+02   7.0086509076e+01    0.2063981    0.1934074  46.50  0.001451827    1.361    0.265
       190 -11.5470     20.6222     31.7886   1.2957580074e+02   6.8441256578e+01    0.5958104    0.2858939 -27.57 0.0007652501    2.471    0.595
       191  -9.1084    131.7061     26.2890   8.3769104037e+01   4.9263499238e+01    0.1470297      0.11526 -58.89 0.0002104143    1.549    0.354
       192 -10.6735    114.3982     25.0949   8.7409142419e+01   5.3700853836e+01    0.3757955    0.2704054  -4.61 0.0008148619    1.465    0.318
       193  -9.9596     13.1008     16.1331   1.2824720085e+02   7.2466925370e+01    0.2747479    0.1713234  15.49   0.00158576    1.852    0.460
       194 -11.5313     16.8195    249.2782   1.5274471463e+02   2.2955976472e+01    0.1828246    0.1350445  18.80  0.001571643    1.821    0.451
       195  -9.8231     21.8293     22.3762   1.2537212346e+02   7.0439200923e+01    0.2005486    0.1480917  -6.55  0.000676539    1.460    0.315
       196  -9.1062    229.7998     24.9692   6.9227100629e+01   2.5156198231e+01    0.1756978   0.09481838 -22.27 0.0003235561    1.657    0.396
       197 -10.4640    104.1756     28.2831   9.1659395972e+01   5.5657506600e+01    0.3577808    0.2838056 -44.17  0.001147597    1.391    0.281
       198 -10.2997     59.2555     24.2587   1.0635689443e+02   6.5328439582e+01    0.3285824    0.1742821 -37.49  0.001202635    1.693    0.409
       199 -10.1118     52.2534     23.3191   1.0918855082e+02   6.6614022229e+01    0.3774933    0.1619207 -36.86  0.001205724    2.138    0.532
       200 -10.1288     88.9633     21.0748   9.3048229390e+01   6.0125558393e+01    0.4427432     0.159178 -37.81  0.001540333    2.732    0.634
       201 -10.3647      2.4424     20.9742   1.3684332906e+02   7.1975177638e+01    0.2764412     0.159975 -49.97  0.001606664    1.313    0.238
       202  -9.5351     84.7464     21.4018   9.4653413903e+01   6.0979786290e+01    0.1994136    0.1273735  35.55 0.0005180777    1.594    0.373
       203 -10.1480     34.5540     21.4681   1.1756960222e+02   6.9352725628e+01    0.2013234    0.1743565 -31.44 0.0005448624    1.081    0.075
       204 -10.4646     31.0506     20.1888   1.1896505493e+02   7.0007372515e+01    0.2537673    0.2002205 -21.38 0.0008404375    1.161    0.139
       205 -10.2776    163.8756     20.1725   7.5511281434e+01   4.1702821773e+01    0.2165288    0.1976345 -56.95 0.0004295546    1.167    0.143
       206  -9.8292    217.6122    245.1617   1.1838944348e+02   7.1006205770e-01    0.2042121   0.05641092  37.01 0.0009996863    2.841    0.648
       207  -9.9728    236.6985     18.3093   6.6852704421e+01   2.4298005727e+01    0.1363219   0.08310999 -49.62 0.0002201491    1.603    0.376
       208 -11.0374    191.2731     17.3826   7.0949038900e+01   3.5008279107e+01    0.3517806    0.2101835 -75.87  0.001544021    2.183    0.542
       209  -9.7889    146.4838    244.4929   1.3024345592e+02   9.6431088582e+00    0.1065369   0.07850534  30.86 0.0005295504    1.001    0.001
       210 -10.0320     39.9532    243.9532   1.4876378078e+02   2.1676682869e+01    0.2119324   0.05014996  56.53 0.0009580354    4.125    0.758
       211  -9.6633     60.4853    241.2662   1.4511768544e+02   2.0056931049e+01    0.1866381    0.0666417  34.17  0.001070172    2.179    0.541
       212  -9.6412    202.4860    240.0165   1.2016873118e+02   3.0648472545e+00    0.1327832   0.09515786 -18.69 0.0007865221    1.544    0.352
       213  -9.4664    222.6765    238.3230   1.1666371643e+02   7.3008567599e-01   0.09071591   0.07400687  33.85 0.0006611914    1.682    0.405
       214 -11.5155     20.9415    235.9764   1.5166045259e+02   2.4586211385e+01    0.2179588    0.1138118  79.51  0.001606592    1.810    0.448
       215 -12.3834      4.2957    232.6503   1.5434508403e+02   2.6467287190e+01    0.4731083    0.1444684  48.18 0.0006545312    2.045    0.511
       216 -11.0379     20.5095     16.8695   1.2380482519e+02   7.1730468746e+01    0.2087196    0.1705786  -1.35 0.0005732294    1.304    0.233
       217  -9.3453     90.2955     16.3032   9.0232743624e+01   6.0505437745e+01    0.1501515     0.103212  16.34 0.0002070571    1.579    0.367
       218 -10.4526    155.6303     14.4470   7.4678653092e+01   4.4441027518e+01    0.3917642    0.1430653  54.77  0.001428463    2.470    0.595
       219  -9.7356     54.4691     14.5102   1.0346133210e+02   6.7829281351e+01    0.2197262     0.132009  52.28 0.0009441625    2.321    0.569
       220 -12.5193     10.0410    231.4961   1.5335723566e+02   2.6189312116e+01    0.3605935    0.1855557  38.87  0.001861775    1.519    0.342
       221 -11.9749      8.7962    227.8263   1.5346616484e+02   2.6867117837e+01    0.3678562    0.1943234  29.33  0.001616578    1.860    0.462
       222  -9.8491    217.5080    235.9608   1.1716969678e+02   1.5901781763e+00    0.1443294   0.09240007 -19.27  0.001049233    1.642    0.391
       223  -9.1748    183.4834    236.4164   1.2290273418e+02   5.8613327516e+00    0.1090863   0.07866355  24.39 0.0001241055    1.025    0.024
       224  -9.0401    155.5665    235.5222   1.2766608861e+02   9.5794654449e+00    0.1086675   0.08188469  27.96 3.334531e-05    1.009    0.009
       225  -9.8907    249.2887    234.1454   1.1193236296e+02  -2.0744445968e+00    0.1769478   0.09718112  20.43 0.0005780819    1.313    0.239
       226  -9.7523     79.9205    231.6675   1.4103516845e+02   1.9401094128e+01    0.1513376   0.09817117  43.85 0.0006248912    1.177    0.151
       227  -9.4682    209.5316    229.5186   1.1758449588e+02   3.2385149236e+00    0.1105707   0.07856686  17.47  0.000187056    1.002    0.002
       228  -9.3886    140.6999    227.3383   1.2942135663e+02   1.2566586875e+01    0.1059667   0.07490173  55.09 0.0007035493    1.663    0.399
       229  -9.7348     99.1059     11.4725   8.5164298239e+01   5.9091854922e+01    0.2108727    0.1417521  57.38  0.001012244    1.548    0.354
       230 -10.2278     25.8238    224.7269   1.5040916616e+02   2.5930256918e+01    0.1514165    0.1194519 -86.50 0.0008388853    1.380    0.275
       231 -11.3296      2.3182    219.8392   1.5436646379e+02   2.8661542321e+01    0.2608528   0.08968036  84.17  0.001514873    2.788    0.641
       232  -8.7101    248.0000    223.9803   1.1061845593e+02  -1.0339204975e+00    0.1443265   0.05177441 -27.18 0.0006351308    2.810    0.644
       233 -10.1965     32.4712    225.0000   1.4923911244e+02   2.5289429863e+01    0.2122538   0.04584645  30.36 0.0009368383    3.952    0.747
       234 -11.2547      7.7203    217.2274   1.5335233377e+02   2.8671591777e+01     0.249183    0.1701691  80.23  0.002054468    1.291    0.226
       235  -9.7877    209.2146    212.1295   1.1509691028e+02   5.1425487866e+00    0.1780945    0.1213237   8.86 0.0008078329    1.238    0.192
       236 -10.4142     16.0055    212.4804   1.5171112218e+02   2.8797596838e+01    0.1445411   0.08202928  34.43   0.00102961    1.587    0.370
       237  -9.2783      9.3457     10.3122   1.2829083936e+02   7.3967817097e+01    0.1312382   0.09673683 -39.96 0.0004805954    1.064    0.060
       238  -9.7764      3.1490    212.3231   1.5402573075e+02   2.9846756519e+01    0.1745711   0.08651727  19.05  0.001094023    2.665    0.625
       239  -9.6591    249.4828    211.4859   1.0844036419e+02  -6.8021331973e-02    0.1121522   0.07660669   9.20 8.563836e-05    1.014    0.014
       240  -9.8771    246.8653    206.9195   1.0810720470e+02   6.9857978413e-01    0.1761585    0.1098531   4.81 0.0009343651    1.271    0.213
       241 -10.0148      2.3873    206.1583   1.5399471134e+02   3.0957570765e+01    0.1398043   0.06882329  75.42 0.0009437217    1.706    0.414
       242  -9.3659    196.8758    203.8580   1.1597571641e+02   7.8273546187e+00    0.1501952    0.1260123  30.56 0.0007037944    1.335    0.251
       243 -10.6309      9.5599    203.4904   1.5258847574e+02   3.0870911533e+01    0.1817392    0.1330172  59.81 0.0007344651    1.026    0.025
       244  -9.1060    181.5665    199.5022   1.1808836215e+02   1.0595044285e+01    0.1194279   0.09597588  19.61 7.672458e-05    1.036    0.035
       245  -9.7705     23.4670    197.2101   1.4966954565e+02   3.0846843816e+01     0.185351    0.1246347  41.27 0.0009526141    1.307    0.235
       246 -10.2972     15.4349    185.1602   1.5073140487e+02   3.3750190868e+01    0.2210302     0.089598 -86.39  0.001221991    2.331    0.571
       247  -9.0742    250.4921    183.4829   1.0351862925e+02   2.5843120400e+00    0.1185929   0.08554441   4.92  0.000810392    1.003    0.003
       248  -9.3852     21.6784    179.6633   1.4916874256e+02   3.4294301683e+01   0.09991631   0.07805523 -46.98 0.0005860745    1.711    0.415
       249 -10.5192      4.5941    167.2608   1.5225251105e+02   3.8058944412e+01    0.2596649    0.1393871  63.33  0.001619398    1.538    0.350
       250  -9.4111    243.2100    155.0154   9.9231536195e+01   6.8103664225e+00    0.1619963   0.08491389 -24.21 0.0004614552    1.689    0.408
       251 -10.1629      3.3481    154.0081   1.5197017494e+02   4.0858586302e+01    0.2310246   0.07892223  38.92  0.001211043    2.424    0.588
       252 -10.3096     23.9712    150.7981   1.4689165715e+02   4.0021497360e+01    0.1587186    0.1471793 -82.00 0.0005018567    1.201    0.167
       253  -9.4982     15.4419    150.4695   1.4893627428e+02   4.0758399605e+01    0.1152792   0.09103344  74.50 8.372861e-05    1.040    0.038
       254  -9.8944      5.3494    150.6819   1.5135042656e+02   4.1425841222e+01    0.1231528    0.0616997  59.85 0.0007048053    1.734    0.423
       255 -10.0328      8.7503    148.9535   1.5045588464e+02   4.1563012141e+01    0.1436092   0.08097745 -82.89 0.0003707926    1.522    0.343
