#   1 NUMBER                 Running object number                                     
#   2 MAG_AUTO               Kron-like elliptical aperture magnitude                    [mag]
#   3 X_IMAGE                Object position along x                                    [pixel]
#   4 Y_IMAGE                Object position along y                                    [pixel]
#   5 X_WORLD                Barycenter position along world x axis                     [deg]
#   6 Y_WORLD                Barycenter position along world y axis                     [deg]
#   7 A_WORLD                Profile RMS along major axis (world units)                 [deg]
#   8 B_WORLD                Profile RMS along minor axis (world units)                 [deg]
#   9 THETA_WORLD            Position angle (CCW/world-x)                               [deg]
#  10 FWHM_WORLD             FWHM assuming a gaussian core                              [deg]
#  11 ELONGATION             A_IMAGE/B_IMAGE                                           
#  12 ELLIPTICITY            1 - B_IMAGE/A_IMAGE                                       
         1 -13.4173    190.2238     26.6058   2.8983421209e+02   6.3072910220e+00   0.06523796   0.06012953   1.39  0.007735642    1.124    0.110
         2 -13.5807    204.0343      8.0164   2.8956087339e+02   6.4356830071e+00   0.07625862   0.05655915 -14.72  0.008186496    1.625    0.384
         3 -11.2969     17.5920      4.3148   2.9167467856e+02   7.5996193628e+00   0.02378178   0.01323425 -62.24   0.00228048    1.797    0.444
         4  -9.6988     81.8699    249.0830   2.9244720839e+02   4.4186881050e+00   0.01059029  0.008738647  64.28 0.0006415867    1.344    0.256
         5 -11.2366    141.0198    249.9732   2.9177696603e+02   4.0536012222e+00   0.02830081   0.01100986  25.32  0.002221455    2.738    0.635
         6  -9.7820     67.0878    250.3177   2.9262370597e+02   4.4931540922e+00   0.01091094  0.009027093 -66.40 0.0008741729    1.223    0.182
         7 -13.7155      4.5660     12.3299   2.9187377912e+02   7.5861411497e+00    0.5198474          nan -60.36   0.01864406   12.792    0.922
         8  -9.9750     66.4583    243.2301   2.9258739027e+02   4.5779338655e+00   0.01179642   0.01084221  72.78 0.0006036041    1.153    0.133
         9  -9.4442     46.4700    248.4145   2.9284765475e+02   4.6383652751e+00   0.01764138   0.01031167  71.52 0.0009717572    2.767    0.639
        10 -13.9698     55.9602    213.0853   2.9252225733e+02   4.9853846837e+00     0.449508   0.04397289  38.31   0.02225724    6.768    0.852
        11 -10.6749    176.9698    226.5806   2.9122238736e+02   4.1047321500e+00   0.02743262   0.01404835  79.70  0.001636806    5.649    0.823
        12 -10.5956    172.5495    221.7818   2.9124328704e+02   4.1861269923e+00   0.01610308  0.009635202 -36.86  0.001234611    1.911    0.477
        13 -14.2845      3.8730    176.8269   2.9289545276e+02   5.7115075655e+00    0.4029891   0.02909145 -61.34   0.01571178   10.851    0.908
        14 -11.4470     12.5468    241.5105   2.9319308485e+02   4.9201788470e+00   0.01596457   0.01398795  55.66  0.001913499    1.200    0.167
        15  -8.8157    152.6246    212.9892   2.9141668904e+02   4.4063704423e+00  0.009098119  0.007907879 -61.91 0.0003631998    1.146    0.128
        16 -12.1990     25.6281    202.8476   2.9280630995e+02   5.2839739472e+00   0.03718108    0.0154669  48.74  0.002387439    3.059    0.673
        17 -11.2405     66.9057    200.3347   2.9231869214e+02   5.0655509198e+00   0.01932701   0.01155287 -38.73  0.001066791    1.859    0.462
        18  -9.7394    192.2003    193.5959   2.9084502540e+02   4.3897772800e+00   0.02220807   0.01103728 -89.53  0.001372266    5.129    0.805
        19 -11.5802     72.3052    192.2214   2.9220702407e+02   5.1259183938e+00    0.0148433   0.01211177 -40.89 0.0005233546    1.246    0.198
        20 -12.6182     42.1309    235.4037   2.9281742969e+02   4.8130614301e+00   0.03920477   0.01858274 -36.65 0.0007404849    2.783    0.641
        21 -13.0358     68.9708    177.1953   2.9215269377e+02   5.3176460681e+00   0.02789772   0.01425589 -39.47  0.001843088    2.276    0.561
        22 -10.6852     81.5984    179.2232   2.9202070541e+02   5.2187447219e+00   0.01265458   0.01132389 -48.37  0.000422111    1.106    0.096
        23 -11.5977     88.4999    169.5141   2.9188194541e+02   5.2882938946e+00   0.02962508   0.02686314 -31.02  0.003629618    1.128    0.113
        24  -9.1563    194.7718    158.6184   2.9059963901e+02   4.7736786373e+00   0.01538572  0.009086583  69.60  0.001312554    2.646    0.622
        25 -11.0971     32.6844    155.8814   2.9243683654e+02   5.7786212166e+00   0.02265601  0.007033973 -59.35  0.001659522    3.005    0.667
        26  -9.6365    100.3561    153.2498   2.9164603469e+02   5.4029671953e+00   0.01229515   0.01205954  -7.23  0.000745208    1.024    0.023
        27 -11.7709     89.1115    152.7287   2.9177149662e+02   5.4764280758e+00   0.01400041   0.01151207 -30.62 0.0005063323    1.292    0.226
        28 -12.3543     67.0205    143.8357   2.9196953693e+02   5.7105736549e+00   0.03695112   0.02549066  59.72  0.003664205    1.726    0.421
        29 -11.5080     57.5495    132.5402   2.9200835852e+02   5.8964229212e+00   0.06729175   0.02693577 -75.72  0.004123394    4.915    0.797
        30  -8.9877    102.9328    148.8794   2.9158959601e+02   5.4374260045e+00   0.01025528  0.008472976 -28.80  0.000342575    1.294    0.227
        31  -8.2357    192.2142    144.0454   2.9053878768e+02   4.9554698478e+00  0.008561968  0.005245041 -60.05 0.0004326809    1.606    0.378
        32  -9.4170    110.7345    137.9445   2.9143285145e+02   5.5154817345e+00   0.01780391  0.009229811 -37.46  0.001459277    2.336    0.572
        33 -11.5800     27.6517    138.6262   2.9238825739e+02   6.0059462856e+00   0.02335069  0.009720864  41.15  0.001928812    2.445    0.591
        34 -10.4292     98.4689    135.3207   2.9155703178e+02   5.6191370662e+00   0.01248898   0.01068262 -24.61 0.0004759734    1.246    0.197
        35  -8.9139    174.4762    137.8216   2.9070304071e+02   5.1333950231e+00   0.01284448  0.007494625  59.67   0.00108513    2.309    0.567
        36  -8.1175    168.6538    132.3716   2.9073591546e+02   5.2306917414e+00  0.007259492  0.004896074  64.82 0.0007014533    1.882    0.469
        37  -8.9917    107.9093    124.3984   2.9138156220e+02   5.6871917275e+00  0.008824086  0.007695688  21.01 0.0003520024    1.166    0.143
        38  -8.7624     70.7672    124.5973   2.9180801976e+02   5.9079144660e+00  0.009429003  0.005854216  39.49 0.0009400877    1.615    0.381
        39 -13.6734     47.8434    227.2070   2.9270180811e+02   4.8725654180e+00   0.07437871   0.05087958 -44.50  0.007904491    1.486    0.327
        40 -14.5889     17.5610    166.2652   2.9267385330e+02   5.7504143543e+00    0.2725272    0.1197379 -79.58   0.01720175    4.768    0.790
        41  -9.7270     99.4622    248.9066   2.9224511441e+02   4.3152214407e+00   0.01138443  0.009389179 -10.00 0.0008644444    1.353    0.261
        42 -10.1352    168.1609    113.2451   2.9062328581e+02   5.4520251259e+00   0.01573811   0.01175328  64.12 0.0009605982    1.572    0.364
        43  -8.8936    203.4711    111.4958   2.9020880727e+02   5.2591332756e+00  0.006564314  0.006348305 -31.38 0.0001181858    1.033    0.032
        44  -9.3895     34.7982     93.2092   2.9202647287e+02   6.4820557068e+00   0.02462658   0.00727329  40.14  0.001730021    3.354    0.702
        45  -9.6317     83.1091    243.9932   2.9240178558e+02   4.4694297418e+00   0.01622438   0.01025874  81.49    0.0014793    2.329    0.571
        46  -9.1037    155.5161     75.5131   2.9053444232e+02   5.9588633041e+00  0.006534596  0.006381661 -31.46 0.0001619246    1.020    0.019
        47  -9.4117     17.0250     66.6263   2.9206621275e+02   6.8920110900e+00    0.0114462  0.008985919  70.03  0.000738837    1.485    0.327
        48 -14.2879      6.9266    210.8372   2.9306928574e+02   5.3044422847e+00    0.2293024   0.05648423 -57.41   0.01560118    3.509    0.715
        49  -8.3240     52.3446    249.3196   2.9278606682e+02   4.5928544526e+00  0.007069034  0.004910098 -25.69 -4.129909e-05    1.726    0.420
        50  -9.8927     94.9920    241.1910   2.9224877849e+02   4.4302033814e+00   0.01178223  0.009401303 -57.62 0.0005327466    1.234    0.190
        51  -9.7776    152.8464    248.9145   2.9163539731e+02   3.9946517218e+00   0.01057104   0.00869753 -30.67 0.0004998598    1.292    0.226
