#   1 NUMBER                 Running object number                                     
#   2 MAG_AUTO               Kron-like elliptical aperture magnitude                    [mag]
#   3 X_IMAGE                Object position along x                                    [pixel]
#   4 Y_IMAGE                Object position along y                                    [pixel]
#   5 X_WORLD                Barycenter position along world x axis                     [deg]
#   6 Y_WORLD                Barycenter position along world y axis                     [deg]
#   7 A_WORLD                Profile RMS along major axis (world units)                 [deg]
#   8 B_WORLD                Profile RMS along minor axis (world units)                 [deg]
#   9 THETA_WORLD            Position angle (CCW/world-x)                               [deg]
#  10 FWHM_WORLD             FWHM assuming a gaussian core                              [deg]
#  11 ELONGATION             A_IMAGE/B_IMAGE                                           
#  12 ELLIPTICITY            1 - B_IMAGE/A_IMAGE                                       
         1 -14.8843    169.8909     42.3008   7.2068957744e+01   3.7478263795e+01     1.230374     1.059843  -4.00  0.004114297    1.467    0.318
         2 -14.9912    190.1476      9.1294   6.0802697908e+01   3.6528378237e+01     2.254273    0.8373016  63.69  0.007855944    2.202    0.546
         3  -9.6502    150.8253    245.1658   1.2152999869e+02   1.5127909820e+00    0.1585196    0.1418816  16.71  0.000453612    1.236    0.191
         4 -14.1715    191.2510    248.8812   1.1410219320e+02  -5.8847401259e+00     2.280913    0.9744263  49.65  0.009610113    2.804    0.643
         5  -9.4569    138.6856    246.2971   1.2411322334e+02   3.3776138016e+00    0.1313819    0.0908893  65.26  0.000539717    1.605    0.377
         6 -19.7927     63.4313    165.9665   1.2927578067e+02   3.3159647388e+01     19.42182     5.936093 -65.26   0.06646553    3.191    0.687
         7 -10.2851     25.6693    231.7702   1.4437641117e+02   2.2911038779e+01    0.0926082   0.08698358 -76.08 0.0006858926    1.523    0.343
         8 -11.6369    106.2571    206.3403   1.2528429264e+02   1.6995859427e+01    0.3767542    0.2809827 -41.25  0.001355298    1.680    0.405
         9 -11.9077    104.1313    202.1528   1.2513677496e+02   1.8292913884e+01    0.4022494    0.2825315  32.02 0.0007746175    1.617    0.382
        10 -11.0719     30.7133    204.9390   1.4125113677e+02   2.8074112611e+01    0.1633607    0.1452256 -88.58 0.0004941581    1.242    0.195
        11 -11.6810    169.0076    201.1161   1.1051966307e+02   6.5463330888e+00    0.2506023    0.2129432 -44.75 0.0009093175    1.242    0.195
        12 -11.2885    125.0729    243.6348   1.2647936274e+02   6.1599950329e+00    0.2044587    0.1642883 -61.29 0.0005815375    1.414    0.293
        13  -9.5993    121.4008    197.9624   1.2056919541e+02   1.6197755796e+01    0.1935524    0.1381846 -57.73 4.559012e-05    1.444    0.307
        14 -10.8606    112.9346    196.1059   1.2219917644e+02   1.8132396426e+01    0.4822984    0.3285357  -6.60  0.001889987    3.229    0.690
        15 -11.7497    103.5335    195.4180   1.2424513791e+02   1.9924731804e+01    0.3621368    0.2986097  75.11  0.001260063    1.166    0.143
        16  -9.9157    133.4444    229.2574   1.2279074774e+02   7.4742738282e+00    0.1682701    0.1290184 -78.63 0.0004903894    1.517    0.341
        17 -11.1942      9.2844    194.8274   1.4465806853e+02   3.2516461094e+01    0.2121303    0.1592695 -68.97  0.001102659    1.324    0.245
        18 -10.8499      7.8315    191.4078   1.4467449591e+02   3.3407226899e+01    0.1917597    0.1621542  40.23  0.001390334    1.503    0.335
        19 -12.1279    180.6030    193.4019   1.0656569573e+02   5.8609027796e+00    0.3077854    0.2575364 -86.82  0.001596778    1.542    0.351
        20 -13.4477    167.9627    176.3152   1.0591236752e+02   1.1923203750e+01    0.9804118    0.5893742 -80.18  0.003117337    4.021    0.751
        21 -12.6458    172.5145    188.9896   1.0744955004e+02   8.3380271833e+00    0.4523025    0.2764285  44.30   0.00139539    1.589    0.371
        22 -12.9446    175.7459    186.5846   1.0627219526e+02   8.1958368847e+00    0.4410476    0.3671965 -67.23   0.00228642    1.388    0.280
        23 -11.9863    164.6207    183.7341   1.0815478939e+02   1.1009399820e+01    0.3617848    0.2327271 -58.62 0.0008441018    1.774    0.436
        24 -14.3654    197.6683    246.0709   1.1241227937e+02  -6.4944522432e+00     1.976397     1.156508  63.93   0.00784306    4.084    0.755
        25 -10.5330    107.1521    183.8994   1.2153098098e+02   2.1970825633e+01     0.217222    0.1989921  85.91 0.0003237854    1.015    0.015
        26 -12.7368    204.5329    176.1794   9.8102560627e+01   4.6048158828e+00    0.5327062    0.4379922 -55.92  0.001170537    1.345    0.256
        27 -11.5460    202.1536    167.6628   9.6785275136e+01   6.7577619122e+00    0.5911506    0.3307945  33.55  0.002274489    2.051    0.513
        28 -11.2086     15.5238    219.7934   1.4534700687e+02   2.6506525211e+01    0.1470823   0.09044297 -75.41 0.0007211097    1.406    0.289
        29 -11.6505    197.9648    177.0672   9.9625278640e+01   5.7191727645e+00    0.5361793    0.3892753 -83.44  0.002358271    2.274    0.560
        30 -12.5777    193.4521    165.8507   9.8185540559e+01   8.8911798078e+00    0.5295279    0.3390567 -48.26 0.0007450578    1.579    0.367
        31 -12.0461    190.1036    160.9292   9.7818814496e+01   1.0599920668e+01    0.4158489    0.3633467  63.91  0.001139526    1.254    0.203
        32 -12.3326    189.5978    155.5448   9.6737296674e+01   1.1828381545e+01    0.4946905    0.4650083  30.57  0.001471876    1.093    0.085
        33  -8.6874     20.4334    218.3217   1.4433741851e+02   2.6297395992e+01    0.1419597   0.09045482 -69.35 0.0008903675    1.490    0.329
        34 -11.6352    230.6447    167.1453   9.1187411281e+01   1.3459540644e+00    0.2986138    0.1180511 -47.31  0.001104856    2.649    0.622
        35 -11.1435     22.8267    166.4818   1.3909922673e+02   3.7712164244e+01    0.2935814     0.208404  -2.10  0.001284191    2.318    0.569
        36 -11.2273    236.9853    158.4720   8.8226612046e+01   1.7684828551e+00    0.1971886    0.1390721  43.45 0.0004200408    1.550    0.355
        37 -10.1854     13.2387    157.8336   1.4037803289e+02   4.0589632007e+01    0.1629821    0.1168593 -58.19 0.0004131674    1.335    0.251
        38 -14.1338    133.9911    146.0120   1.0742917759e+02   2.5811980659e+01     1.637423    0.4929388 -56.11  0.004143968    4.722    0.788
        39 -11.8144    134.6281    108.8504   9.8171097968e+01   3.4086628543e+01     1.098026    0.1511263 -44.99  0.002218435    7.201    0.861
        40 -12.2934    166.2841    154.5342   1.0162346763e+02   1.7031627552e+01    0.5144748    0.3415557  74.78   0.00202002    2.307    0.567
        41 -11.3477    152.4219    151.1745   1.0409450537e+02   2.0751653616e+01    0.2874185    0.2213578 -88.22 0.0008768887    1.661    0.398
        42 -11.9349    149.1311    148.1763   1.0420410193e+02   2.2135495812e+01    0.3511903    0.2455059 -60.57  0.001308283    1.550    0.355
        43 -13.4807    144.0464    145.8168   1.0489887610e+02   2.3756462017e+01    0.7222165    0.4936611 -71.16  0.002894817    1.868    0.465
        44 -12.9816    142.0237    139.0335   1.0382782749e+02   2.5744694667e+01    0.5339033     0.373596 -58.72  0.002366404    1.506    0.336
        45 -12.2172     14.7826    147.8693   1.3887601856e+02   4.2784064897e+01    0.8061121    0.2737326 -77.01  0.002590978    2.940    0.660
        46 -13.0017      6.3139    139.2920   1.3996316371e+02   4.5421427118e+01    0.7718654    0.5265189 -75.81  0.002440655    1.157    0.136
        47 -13.6009      4.0659    125.4350   1.3883751961e+02   4.8748309271e+01     1.830053    0.5625711 -72.51  0.007595789    2.786    0.641
        48 -12.7532     11.6051    110.6269   1.3460614737e+02   5.1605378223e+01    0.5632011    0.2453359   1.89  0.002413658    4.129    0.758
        49 -11.4012    174.3956    148.7092   9.8484203384e+01   1.6553501370e+01    0.3580388    0.2974457 -80.28  0.001187122    1.413    0.293
        50 -12.3502      3.6927    112.3936   1.3715830305e+02   5.1716390001e+01     0.371351    0.2729926 -30.10  0.001908797    1.538    0.350
        51 -13.7325    135.8110    127.4052   1.0259531232e+02   2.9725858572e+01     2.235709    0.3675351 -49.84  0.004394539    7.485    0.866
        52 -12.3145    160.2943    127.4442   9.6653289342e+01   2.4327079242e+01    0.5026985    0.3495305 -61.31  0.001383445    1.621    0.383
        53 -12.8730    113.9713    118.7400   1.0619730892e+02   3.6186536671e+01     0.505695    0.3324599 -58.83  0.000862842    1.622    0.384
        54 -10.4227    139.6689    249.8288   1.2439321547e+02   2.5849853953e+00    0.2149575    0.1794935  29.10  0.001313275    1.258    0.205
        55 -11.0375    168.1615    113.0538   9.1269338799e+01   2.5591046413e+01    0.4300839    0.3059663 -78.96  0.001530101    1.925    0.480
        56 -13.4018    118.8425    110.0649   1.0265013973e+02   3.7155264134e+01    0.6413512    0.4320724  59.41  0.002820177    1.759    0.431
        57 -10.6808    131.2077    237.7109   1.2444817025e+02   6.2339260841e+00    0.1817213    0.1594931 -84.47 0.0002541275    1.234    0.189
        58 -10.8991    205.3297    110.1862   8.3065145177e+01   1.7567343804e+01    0.3519115    0.2130252  48.02  0.001001661    1.754    0.430
        59 -10.4903    147.0125     81.2647   8.7560684046e+01   3.6790411108e+01     0.213262    0.1948715  52.08 0.0004820648    1.069    0.064
        60 -10.4644     93.3707     79.2072   1.0132249215e+02   4.8460672631e+01    0.2209233     0.186628  20.73 0.0009185459    1.202    0.168
        61 -14.4221    157.2917     57.0632   7.8475097648e+01   3.8409841149e+01     1.300788      1.07684  61.92 0.0009604476    1.133    0.118
        62 -10.3425    133.7061    246.8334   1.2517684452e+02   4.1219089991e+00     0.147564    0.1162774 -71.28 0.0004033145    1.471    0.320
        63 -12.9700    174.3466     34.7424   6.9330576173e+01   3.7384558220e+01    0.3774265    0.3463956  12.18 0.0009017389    1.352    0.261
        64 -10.8484     13.4689     59.6245   1.2348436332e+02   6.2176268533e+01    0.2006891    0.1540951 -38.18 0.0004420948    1.010    0.010
        65 -11.5820    187.9561     31.0442   6.6386674347e+01   3.4570824585e+01    0.2126285    0.1835768  79.99  0.000720676    1.032    0.031
