#   1 NUMBER                 Running object number                                     
#   2 MAG_AUTO               Kron-like elliptical aperture magnitude                    [mag]
#   3 X_IMAGE                Object position along x                                    [pixel]
#   4 Y_IMAGE                Object position along y                                    [pixel]
#   5 X_WORLD                Barycenter position along world x axis                     [deg]
#   6 Y_WORLD                Barycenter position along world y axis                     [deg]
#   7 A_WORLD                Profile RMS along major axis (world units)                 [deg]
#   8 B_WORLD                Profile RMS along minor axis (world units)                 [deg]
#   9 THETA_WORLD            Position angle (CCW/world-x)                               [deg]
#  10 FWHM_WORLD             FWHM assuming a gaussian core                              [deg]
#  11 ELONGATION             A_IMAGE/B_IMAGE                                           
#  12 ELLIPTICITY            1 - B_IMAGE/A_IMAGE                                       
         1 -11.4086      2.0587     59.8765   1.1404879619e+02   6.3094991915e+01     1.876852   0.02211131 -66.02   0.00372096   12.584    0.921
         2 -11.9985    222.6314     16.0711   3.9762182511e+01   2.7422757374e+01    0.7615796    0.6765088 -69.72  0.002914712    1.048    0.046
         3 -12.2864    197.9943     38.7382   4.8498335497e+01   3.0669398832e+01     1.390235    0.9884868   7.55  0.005624236    2.037    0.509
         4 -12.4295    207.1645     32.2282   4.5537114494e+01   2.9230072141e+01     1.111424     1.066925  15.61  0.006786389    1.231    0.187
         5 -11.0614      2.1018     34.6176   1.0771732344e+02   6.8322209109e+01    0.7766123    0.1138221 -59.36  0.002667117    4.555    0.780
         6 -11.1407      2.0998      9.7696   9.8689739605e+01   7.2851251266e+01     1.394823   0.08453985 -51.46  0.003845678    8.087    0.876
         7  -7.7943     46.3623      1.7133   7.1457772820e+01   6.9194969356e+01     0.099893   0.09811383 -38.22 0.0007022446    1.689    0.408
         8 -10.7517    133.6243    239.4477   1.0689836013e+02   7.0018559781e+00    0.4187312      0.17028  34.36  0.001860144    2.400    0.583
         9  -9.8339     86.8030    250.2969   1.1680860960e+02   1.2185119127e+01    0.6291147    0.1459302  37.31  0.002335015    4.060    0.754
        10 -11.3228     98.8589    248.2403   1.1442688238e+02   1.0821504028e+01    0.8426846     0.269545  34.73  0.003382664    3.445    0.710
        11 -11.9899     74.2113    248.2218   1.1889218384e+02   1.4256461792e+01     1.570645     0.474501  32.45  0.005537936    5.203    0.808
        12 -11.9450      4.7740    186.1834   1.2750531592e+02   3.4256776117e+01     1.114516    0.4631725 -79.65  0.002788794    1.935    0.483
        13 -14.0400      5.8909    150.5548   1.2476848616e+02   4.2046125828e+01     5.905037     1.696873 -82.85   0.02275541    3.420    0.708
        14 -10.6385     83.4769    224.9885   1.1507845605e+02   1.7198467102e+01    0.4057369    0.3282092  36.05  0.001646265    1.378    0.274
        15  -8.1265    164.2737    232.3447   9.9975836573e+01   3.1727536592e+00    0.1224007   0.09135439   6.18 0.0004323278    1.621    0.383
        16  -8.4357     57.1643    235.1438   1.2094319138e+02   1.8811609953e+01    0.1659255    0.1039254  68.29  0.000757723    1.350    0.259
        17  -9.7059    100.4485    228.5283   1.1211100292e+02   1.4050781487e+01    0.2696537    0.1046793  39.54  0.001224046    2.218    0.549
        18  -9.3823    168.4341    225.7122   9.8173843029e+01   3.5251518246e+00    0.2131025    0.1289062 -50.76  0.001128745    2.063    0.515
        19  -9.7629     44.5384    219.5477   1.2210672972e+02   2.3334024140e+01    0.1927858    0.1795607  47.52 0.0009287666    1.431    0.301
        20 -10.9377     47.3464    223.3009   1.2186087350e+02   2.2265506463e+01    0.3759327    0.2472823  82.95 0.0005755135    1.327    0.246
        21  -9.8172     63.6514    238.2863   1.2000606464e+02   1.7408002921e+01    0.2670612    0.1896167  50.01  0.001344039    1.204    0.169
        22  -8.7182    183.6215    215.7917   9.3574633970e+01   2.5259966629e+00    0.1668363    0.1259335 -53.08 0.0009455067    1.722    0.419
        23  -9.3084     37.2653    224.2849   1.2379008658e+02   2.3249825322e+01    0.1764894    0.1654996 -74.10   0.00133625    1.495    0.331
        24 -12.8877      9.8635    207.1700   1.2774532866e+02   2.9464925354e+01    0.9028199    0.8209594  81.55  0.004230735    1.377    0.274
        25 -13.2361      5.5212    245.4972   1.3027694424e+02   2.2664507700e+01     2.200206    0.6663818  39.64   0.01242896    2.670    0.625
        26 -10.9508    129.3445    231.3574   1.0673061605e+02   9.0411530042e+00    0.3893292    0.2917312  73.55  0.002355033    1.548    0.354
        27  -8.4788     28.8201    201.0368   1.2376496131e+02   2.8851359168e+01    0.1863354    0.1206274  74.13 0.0006828702    1.270    0.212
        28 -11.2529    117.1687    231.2833   1.0912765877e+02   1.0985197667e+01    0.6832717    0.4017884  74.98  0.003333879    2.525    0.604
        29  -8.5887    193.1545    191.7770   8.7367204332e+01   4.7941783017e+00     0.328924    0.2242222  10.04  0.001621237    1.736    0.424
        30  -9.6055     39.9413    234.2297   1.2396521494e+02   2.1058289458e+01    0.1942695    0.1480128  88.53 0.0005601063    1.216    0.178
        31 -10.3935     62.8818    180.7527   1.1464384978e+02   2.9282585460e+01    0.4179814    0.2851504 -34.29  0.002155153    2.293    0.564
        32 -10.2225     68.1148    175.0910   1.1274353326e+02   2.9875921015e+01    0.3166546    0.2550714 -42.66 0.0005042796    1.554    0.357
        33  -7.6090     99.6278    180.7202   1.0614639999e+02   2.3909286102e+01    0.1324499    0.1104851  -7.06  0.000449811    1.696    0.411
        34 -11.1177    134.6670    230.4984   1.0556577333e+02   8.3296670569e+00    0.3994249    0.3386958  83.77  0.002602332    1.365    0.267
        35  -8.5595     40.6131    178.2027   1.1937482517e+02   3.2542395345e+01    0.1973579    0.1434797  58.08  0.000531766    1.273    0.215
        36  -9.7692     77.7633    165.1785   1.0906368658e+02   3.0826315508e+01    0.2921467    0.2389436 -65.46 0.0004159503    1.186    0.157
        37 -11.4916     83.8323    159.1764   1.0662515612e+02   3.1342648466e+01     1.168395    0.8434206  74.71  0.005599285    1.512    0.339
        38 -11.1061     73.1166    154.2506   1.0857106729e+02   3.4081588274e+01    0.7903469    0.4829015  77.26  0.003591279    2.087    0.521
        39 -11.5279     68.2756    144.3281   1.0825164685e+02   3.7144974926e+01    0.7800606    0.5278422  72.14  0.003894203    1.698    0.411
        40 -11.7703     65.0934    161.1623   1.1161455975e+02   3.3528186228e+01    0.4882067    0.2862467 -46.83  0.001359228    1.967    0.492
        41 -11.5209     36.6895    208.7308   1.2279743267e+02   2.6408607634e+01     0.498556    0.4019436  32.77  0.001445561    1.577    0.366
        42 -13.3641     45.5642    198.3606   1.2018722966e+02   2.7558181545e+01     2.572231    0.9602959  60.43  0.009920817    3.041    0.671
        43 -10.5613    124.9836    231.0016   1.0754936605e+02   9.7999490372e+00       0.2851    0.2344137 -63.68  0.001859131    1.427    0.299
        44  -9.3846     99.7717    142.5642   9.9493112360e+01   3.2739880506e+01    0.5907419    0.3529558 -27.54  0.002253506    2.810    0.644
        45 -10.6305     86.9898    142.4247   1.0289301204e+02   3.4870296322e+01    0.3102275    0.2695188 -37.72 0.0004391464    1.283    0.221
        46  -8.5161     81.9371    141.9088   1.0416046387e+02   3.5774172907e+01    0.2814771    0.1688488  62.46  0.001148038    2.089    0.521
        47 -10.3141    122.6482    225.8642   1.0737444147e+02   1.1080120462e+01    0.4795547    0.2556589  44.14  0.002014305    1.570    0.363
        48 -10.4594     58.4838    133.5608   1.0914083585e+02   4.1040330162e+01    0.4993104    0.3044906  82.53   0.00227864    2.123    0.529
        49  -9.1168     96.9910    128.1810   9.7251767347e+01   3.6669805747e+01    0.2993455    0.2503682   0.85 0.0009367008    1.498    0.333
        50  -8.1930    115.6801    125.3228   9.1416845590e+01   3.3936796634e+01    0.1578787     0.122061  84.30 0.0006976254    1.673    0.402
        51  -9.1133    108.7814    131.7732   9.4785794826e+01   3.3715893772e+01    0.4646508    0.2189035  43.80  0.001785479    2.175    0.540
        52  -8.2253    106.8907    120.2958   9.2652934152e+01   3.6783772121e+01    0.2006698    0.1934656  19.26 0.0003247805    1.100    0.091
        53  -9.3280     94.5153    222.7311   1.1265532538e+02   1.6022423878e+01    0.6476716    0.2727216 -68.00  0.002952524    2.834    0.647
        54 -11.0896     89.6665    229.6044   1.1433388609e+02   1.5442995770e+01     0.443529    0.2627313 -87.46  0.001679406    2.034    0.508
        55  -9.1448    238.3186    109.7797   6.0743948498e+01   1.0146944369e+01     0.316769    0.1046578 -41.35  0.001100877    2.742    0.635
        56  -8.1508    205.5170    110.4684   6.6564048449e+01   1.7148709486e+01    0.1521275    0.1440019 -32.42 0.0008094793    1.023    0.023
        57  -7.6134    114.3044    110.6844   8.8146751350e+01   3.7605001543e+01    0.1552209     0.123839  89.15 0.0002262129    1.622    0.384
        58  -8.3901    134.4606    102.5230   8.0402035501e+01   3.5201161427e+01    0.1573467    0.1537374 -29.50 0.0004654944    1.007    0.007
        59  -8.0402     73.5910     83.8564   9.3412033633e+01   5.0877495162e+01    0.1966699    0.1306173 -60.57 0.0005401371    1.618    0.382
        60 -10.6068    114.5213    244.0759   1.1108348477e+02   9.1989081202e+00    0.3232986    0.2290815  84.31  0.002013682    1.701    0.412
        61  -9.2843     13.3096     60.2367   1.0962162250e+02   6.2430317789e+01    0.2148999    0.1170259 -57.58 0.0006244446    1.420    0.296
        62  -9.2578     63.5715    245.2329   1.2055196527e+02   1.6173047350e+01    0.1879993    0.1256433 -59.59  0.001248486    1.880    0.468
        63 -10.3759    125.5888    244.6816   1.0905549593e+02   7.4058533079e+00    0.2657705    0.2122098  74.06  0.001780275    1.372    0.271
        64 -12.1073     28.0854    215.9875   1.2492646769e+02   2.5884743578e+01     2.223411    0.6241773 -89.45  0.006536105    7.491    0.867
        65  -9.1399    138.6530     44.6734   6.1025946965e+01   4.4919387421e+01    0.2673648    0.2487612 -67.27 0.0005122629    1.197    0.165
        66 -11.9289     23.4163    225.0946   1.2632200836e+02   2.4603037398e+01     0.788705    0.4456609  71.82  0.003408943    1.421    0.296
        67 -12.7876      9.1503    230.8562   1.2906260407e+02   2.4953126120e+01     1.426435    0.5969127  67.46  0.007693226    1.954    0.488
        68 -10.9016    214.3356     25.0650   4.2843109409e+01   2.8359568589e+01    0.4880012    0.3598329  48.34   0.00116039    1.542    0.352
