#   1 NUMBER                 Running object number                                     
#   2 MAG_AUTO               Kron-like elliptical aperture magnitude                    [mag]
#   3 X_IMAGE                Object position along x                                    [pixel]
#   4 Y_IMAGE                Object position along y                                    [pixel]
#   5 X_WORLD                Barycenter position along world x axis                     [deg]
#   6 Y_WORLD                Barycenter position along world y axis                     [deg]
#   7 A_WORLD                Profile RMS along major axis (world units)                 [deg]
#   8 B_WORLD                Profile RMS along minor axis (world units)                 [deg]
#   9 THETA_WORLD            Position angle (CCW/world-x)                               [deg]
#  10 FWHM_WORLD             FWHM assuming a gaussian core                              [deg]
#  11 ELONGATION             A_IMAGE/B_IMAGE                                           
#  12 ELLIPTICITY            1 - B_IMAGE/A_IMAGE                                       
         1  -8.2513     97.0496     14.7954   3.7478103331e+01   5.7248394155e+01    0.2129196      0.15209 -49.03 0.0006781077    1.647    0.393
         2  -8.6546     55.8148      9.8922   4.7058372346e+01   6.6690795637e+01    0.1979358    0.1678752 -54.96 0.0007583694    1.617    0.381
         3  -7.9612     47.5932      9.8292   5.0204179180e+01   6.8305203622e+01    0.1504449    0.1127473 -37.61 0.0007177984    1.676    0.403
         4  -8.0664     90.8183      8.6196   3.6556994864e+01   5.9229245122e+01    0.1795278    0.1063509  75.13 0.0005585661    1.701    0.412
         5  -8.4402     33.5684      4.9360   5.3946638497e+01   7.1355648443e+01    0.2796708    0.1809711 -53.54  0.001463077    2.998    0.666
         6  -8.5334     79.2230      3.7487   3.7329535403e+01   6.2240723506e+01    0.1928499     0.156736 -41.95 0.0009617244    1.496    0.331
         7  -7.6519     44.5134      2.5584   4.7759936562e+01   6.9587624363e+01    0.1209151   0.09777467  37.13 0.0001266961    1.049    0.047
         8  -8.1318     62.6967      1.5186   4.0851278873e+01   6.6004748148e+01    0.1598398    0.1056056  67.42 0.0009257505    1.523    0.344
         9  -9.2113    103.9623    246.7448   9.0998491393e+01   8.2198524201e+00    0.4024327    0.2498126 -83.75  0.001923134    2.663    0.624
        10 -10.0089    248.8317    243.3495   6.1324659631e+01  -8.0611013478e+00    0.7447162    0.1793182 -40.82  0.003079983    3.645    0.726
        11  -8.5646    247.9343    234.0872   6.0034406215e+01  -6.7270069829e+00    0.2110557    0.1211447 -21.85 0.0009258999    1.372    0.271
        12  -9.6056    246.3043    228.2732   5.9376867236e+01  -5.7635151307e+00    0.4105484    0.2527536 -47.30  0.002193882    2.112    0.527
        13  -9.3177    243.0096    246.7050   6.2776034238e+01  -7.9830051214e+00    0.4505007    0.1457061 -31.24  0.002183582    2.724    0.633
        14  -7.5860    125.2716    250.6290   8.6595230277e+01   4.7436183577e+00    0.1229656     0.094935  57.01 0.0006367083    1.675    0.403
        15  -8.4298     94.4673    249.6145   9.3529902784e+01   8.8727123252e+00    0.2952956    0.1414815  51.39   0.00107308    2.525    0.604
        16  -8.8410    218.6336    247.0931   6.6999515154e+01  -5.6913754299e+00     0.323075     0.120589 -42.31  0.001594649    2.631    0.620
        17 -10.0131    223.8796    243.7470   6.5558380486e+01  -5.7447975318e+00    0.4082679    0.2099532 -46.40  0.002260287    2.388    0.581
        18  -9.5218    147.3425    246.4027   8.1123527413e+01   2.6782559444e+00    0.3053813    0.2395451  65.67  0.001738889    2.062    0.515
        19  -9.2761    120.3392    245.3303   8.7039372917e+01   6.3648939144e+00    0.3387451    0.2332097  64.48  0.001738243    2.205    0.546
        20  -8.7325     67.4277    244.2783   9.9313732860e+01   1.3296745190e+01    0.2711503    0.1310351 -71.86  0.001260372    2.477    0.596
        21  -8.8101    201.8892    243.0559   6.9455676259e+01  -3.3192145187e+00    0.2469652    0.1550451 -47.62 0.0008851467    1.993    0.498
        22  -8.6347    139.5177    244.0963   8.2531189174e+01   4.0950378064e+00    0.1777503    0.1283767 -48.29 0.0007022748    1.577    0.366
        23  -8.6011      9.7704    243.5744   1.1244600189e+02   1.9580819036e+01    0.2517225   0.07757767  84.11 0.0008802005    4.566    0.781
        24  -8.6767    168.9159    243.1075   7.6029502260e+01   5.3832239847e-01    0.1785166    0.1602229  26.91 0.0005917125    1.350    0.259
        25  -9.1479     77.6711    242.7172   9.6738681823e+01   1.2368936729e+01    0.2428547    0.1466192  75.87 0.0009793638    2.369    0.578
        26  -9.4173    183.0665    239.9235   7.2645319583e+01  -6.5550243562e-01    0.3760174    0.2826268  59.81  0.002052108    2.625    0.619
        27  -9.6054    160.1199    240.1918   7.7457603587e+01   2.1384223585e+00    0.3110529    0.2512954 -82.05  0.001316678    2.198    0.545
        28  -8.6367    153.5233    241.2325   7.9036053237e+01   2.7992003075e+00    0.2609421    0.1268522 -49.97   0.00124432    2.322    0.569
        29  -8.0713     88.1484    242.1025   9.4185546720e+01   1.1176208199e+01    0.1763975    0.1444126  63.28 0.0007170833    1.353    0.261
        30  -7.6660     49.4146    242.2305   1.0336636050e+02   1.5825311152e+01    0.1734504    0.1136752  81.79 0.0009444577    1.712    0.416
        31  -8.9685    146.7757    239.9637   8.0333557312e+01   3.8994867657e+00    0.3214343    0.2222162  71.87  0.001470806    3.179    0.685
        32  -8.8316    242.3901    236.2361   6.1262233084e+01  -6.5011848983e+00     0.264678    0.1377311  -9.43  0.001506294    2.039    0.510
        33  -9.2920    194.0014    239.1054   7.0355948204e+01  -1.8127068132e+00    0.1859253    0.1491067  -4.43 0.0005765336    1.042    0.040
        34  -9.2261    135.5720    238.8307   8.2685322666e+01   5.5828398291e+00     0.222349    0.1929794  50.37  0.001205282    1.406    0.289
        35  -9.2666    230.9081    236.3891   6.3197733619e+01  -5.4002345329e+00    0.3099227    0.2059529 -49.30  0.001526144    2.165    0.538
        36  -8.2758    209.0601    237.8928   6.7311701654e+01  -3.3244101544e+00    0.1935417    0.1434674 -44.11  0.001245781    1.667    0.400
        37  -8.9424    129.2255    238.1497   8.4041099468e+01   6.5563437959e+00    0.2543683    0.1518489  48.32  0.001091189    2.025    0.506
        38  -9.2945    210.9205    246.2906   6.8271430544e+01  -4.7774156945e+00    0.2168334    0.1551224 -46.65 0.0008312344    1.870    0.465
        39  -8.6784     26.1684    237.3326   1.0841761297e+02   1.9356283742e+01    0.2997842   0.08132862  46.57  0.001156885    3.003    0.667
        40  -8.9295    217.3290    235.6721   6.5456889885e+01  -3.8865273110e+00    0.1928937     0.175879   7.60 0.0008433638    1.475    0.322
        41  -9.4024    213.6909    231.6582   6.5473860646e+01  -2.8828905244e+00    0.2607283    0.2405922 -78.27  0.001503915    2.037    0.509
        42  -8.8762    203.0550    234.3688   6.7876170004e+01  -2.1077380496e+00     0.288161    0.1641832 -51.13  0.001074139    2.391    0.582
        43  -9.9313    175.6737    233.0845   7.3091817741e+01   1.3954453026e+00    0.4771176    0.2662967 -57.27  0.002251219    2.765    0.638
        44  -8.1745     57.7523    236.7762   1.0092331247e+02   1.6038702506e+01    0.2217441   0.07203161  37.45 0.0008808476    2.423    0.587
        45  -8.4126    170.4298    235.0215   7.4485993578e+01   1.7251202330e+00    0.2392016    0.1133481 -41.46 0.0009002205    2.091    0.522
        46  -8.6248    152.6266    234.8130   7.8283986797e+01   4.0666612475e+00    0.1666444    0.1263173 -57.47 0.0005164648    1.711    0.416
        47  -9.1364    108.6649    234.1684   8.8334685671e+01   1.0104493734e+01    0.3326286    0.2202351  61.05  0.001116384    2.051    0.512
        48  -9.2018     78.7159    234.4721   9.5617818750e+01   1.3973175223e+01    0.2644829    0.1779573  66.50  0.001060594    1.785    0.440
        49  -8.6185    194.9455    232.8864   6.9193504186e+01  -9.2858492275e-01     0.230528    0.1933284  88.00  0.001328213    2.575    0.612
        50  -8.6181    122.8742    233.6167   8.4891561068e+01   8.2924404298e+00    0.2426284    0.1861223 -86.93  0.001146544    1.954    0.488
        51  -8.3395     99.8542    233.8280   9.0409571828e+01   1.1354599317e+01    0.2485428    0.1689133  71.55  0.001220045    2.109    0.526
        52  -8.1836     70.3628    233.7077   9.7573291179e+01   1.5184532958e+01    0.2512504    0.1553594  41.29 0.0009199519    1.427    0.299
        53  -8.9888     66.6536    229.8304   9.8086466329e+01   1.6491307263e+01    0.3974856    0.2419614  75.90  0.001893188    2.134    0.531
        54  -8.1052      7.6862    234.6818   1.1247302307e+02   2.1678981938e+01    0.1129718   0.08997474 -40.69 0.0003452736    1.649    0.393
        55  -8.1580    138.9112    226.4798   8.0122581664e+01   7.4934905766e+00    0.1964676    0.1647046  19.33 0.0006188242    1.075    0.070
        56  -8.2905    132.6650    232.6423   8.2472768510e+01   7.1522060901e+00    0.2284905    0.1665268 -86.88  0.001039473    2.364    0.577
        57  -9.4129    186.4718    230.5012   7.0484197082e+01   4.8724443585e-01    0.3233441     0.261412 -74.48  0.001617207    2.336    0.572
        58  -8.2395    157.8542    231.5497   7.6642517905e+01   3.9692369609e+00    0.2031862    0.1529216 -45.23 0.0006261854    1.471    0.320
        59  -8.4291     92.6436    231.4493   9.1870056294e+01   1.2811750413e+01    0.3755782    0.1643428  51.76  0.001417703    3.020    0.669
        60  -8.8767    235.9609    230.5397   6.1421110881e+01  -5.0675228528e+00     0.228819    0.1320732 -36.39 0.0009313404    1.517    0.341
        61  -8.7080      1.7545    230.5920   1.1360902159e+02   2.3089783256e+01    0.2509162    0.1099305  65.14  0.001207776    2.160    0.537
        62  -8.9583    151.4844    228.9805   7.7652377033e+01   5.2940723502e+00     0.258737    0.2138315  66.86  0.001467497    1.840    0.457
        63  -9.4684    148.6222    224.3279   7.7574381514e+01   6.5653896636e+00    0.3891928    0.2879793  78.72  0.001877822    2.605    0.616
        64  -8.7776    229.8717    228.5834   6.2132992312e+01  -4.1589955266e+00    0.2067838    0.1358763 -46.18  0.001039702    1.870    0.465
        65  -8.9481    162.7282    227.8768   7.5012054710e+01   3.9896844269e+00    0.3731951    0.2260704  51.43   0.00173328    2.617    0.618
        66  -8.7532    127.7578    227.1481   8.2824892695e+01   8.9095803693e+00    0.3012121    0.2261741  61.22  0.001369075    1.819    0.450
        67  -8.6848    206.2958    225.9382   6.5909656236e+01  -1.1465117807e+00    0.2435305    0.1855564 -54.54  0.001101522    1.937    0.484
        68  -7.9467    177.6279    227.2339   7.1758947128e+01   2.1566489884e+00     0.168403    0.1069201 -31.10 0.0004098896    1.487    0.328
        69  -8.2302    223.4615    226.5320   6.2906880115e+01  -3.1710833647e+00    0.2384963   0.09811231 -40.12  0.001010483    2.148    0.534
        70  -8.2952     49.6594    226.7015   1.0198690721e+02   1.9209654371e+01    0.2660011    0.1398487  73.65 0.0009981012    2.464    0.594
        71  -8.3864    199.9388    226.1501   6.7144962317e+01  -4.2941113164e-01    0.1735965     0.157195  -2.89 0.0006135869    1.287    0.223
        72  -9.0681    140.2204    230.1055   8.0364999536e+01   6.6117990853e+00    0.3108581    0.1515352  44.24 0.0009028398    2.395    0.582
        73  -8.9427     94.2080    224.1287   9.0573360064e+01   1.4177678904e+01    0.4049813    0.2033775  56.99  0.001566665    2.928    0.659
        74  -7.9464     38.6625    224.9156   1.0454600571e+02   2.0836101108e+01    0.2600563    0.0851051  53.16 0.0009054735    3.466    0.711
        75  -8.7420    216.3999    223.3128   6.3630670375e+01  -1.8935208891e+00    0.2097023      0.19268 -43.04  0.001057687    1.594    0.373
        76  -8.7758    180.5663    223.9599   7.0623863202e+01   2.3489431718e+00     0.250934    0.1928378  43.34  0.001029738    1.690    0.408
        77  -8.7888    173.1361    222.9079   7.1995133691e+01   3.5053021840e+00    0.2558557    0.2159643 -61.72 0.0008231733    1.680    0.405
        78  -8.8880    104.7263    223.3689   8.7861418555e+01   1.2899879405e+01    0.3418419     0.228794  71.17  0.001587745    2.249    0.555
        79  -9.5755    192.6322    221.3308   6.7768535485e+01   1.2663877143e+00    0.3190714    0.2684048 -67.51  0.001034382    1.951    0.487
        80  -8.4911    163.0346    222.5219   7.4092290562e+01   4.9295135372e+00    0.2868525    0.1951941  47.44  0.001493377    1.921    0.479
        81  -8.6219    159.0140    220.3012   7.4613456514e+01   5.8946935613e+00    0.2236864    0.1876276 -47.95  0.001001875    1.383    0.277
        82  -9.0668    238.9250    221.2772   5.9441481282e+01  -4.0214198533e+00    0.2231752    0.1363677 -41.12 0.0008314888    1.616    0.381
        83  -9.3538    225.4285    221.4154   6.1729936956e+01  -2.6065048627e+00    0.2461953     0.165271 -33.66  0.001011536    1.309    0.236
        84  -8.9598      8.2381    222.4028   1.1170975073e+02   2.4374206559e+01    0.1804557   0.09499366  39.35 0.0009464641    1.634    0.388
        85  -9.2623    120.5394    219.1095   8.3374755565e+01   1.1578200356e+01    0.5336623    0.2927434  59.43  0.002004526    3.347    0.701
        86  -8.3744     82.8488    220.4442   9.2972670372e+01   1.6519245710e+01    0.3078119    0.1537524  54.04  0.001248613    2.463    0.594
        87  -8.3913     73.7674    221.1949   9.5369822708e+01   1.7534986393e+01    0.2459324    0.1223012  60.13  0.000954234    2.795    0.642
        88  -8.2559     27.5913    220.2847   1.0691356477e+02   2.3054426473e+01    0.2389144    0.1211443 -83.04  0.001042178    2.061    0.515
        89  -8.1907    202.8112    220.1090   6.5603056954e+01   2.1480623329e-01      0.17533    0.1532872 -23.73 0.0005430409    1.254    0.203
        90  -7.7977    140.5076    222.4916   7.9144762906e+01   8.0536415716e+00    0.1363102    0.1218014  14.19 0.0008097344    1.065    0.061
        91  -8.5003    210.0323    218.8476   6.4047082018e+01  -4.4544333154e-01    0.2147487    0.1490817 -33.20 0.0006570489    1.286    0.222
        92  -9.5121    248.2616    217.4496   5.7329082732e+01  -4.4118760321e+00     0.292197    0.2209083  61.67  0.001654143    3.635    0.725
        93  -8.9829     51.7711    217.0009   1.0054637980e+02   2.1204714681e+01    0.2916517    0.1808443 -85.76 0.0009160478    1.815    0.449
        94  -8.4187    179.3952    217.1822   6.9744543229e+01   3.7002022960e+00    0.1739356    0.1212624 -51.81 0.0006192652    1.738    0.425
        95  -8.7472    169.3514    215.9733   7.1654616441e+01   5.2795825244e+00    0.2753371    0.2231675 -78.80 0.0008898273    2.072    0.517
        96  -8.5981    142.9906    216.3416   7.7601598935e+01   8.9238778882e+00    0.2918442    0.2276773 -87.25  0.001427984    2.073    0.518
        97  -7.8926    111.8181    216.9326   8.5200623691e+01   1.3288800561e+01    0.2261663    0.1609539  74.52   0.00106789    2.100    0.524
        98  -8.5234     61.8050    217.0064   9.7967895778e+01   2.0003039892e+01    0.2230348    0.1634814  61.21 0.0008443248    1.400    0.286
        99  -9.2841    133.0932    216.1261   7.9895301771e+01   1.0394272662e+01    0.4967393    0.3296396  73.15  0.002070151    3.051    0.672
       100  -8.5663    232.2899    214.6119   5.9440000508e+01  -2.3177354945e+00    0.1835346    0.1688876 -45.27  0.001106332    1.634    0.388
       101  -7.9797    154.2199    215.1350   7.4838284290e+01   7.5566905110e+00    0.1718433    0.1644982  60.77 0.0009406692    1.363    0.266
       102  -9.0761     93.2706    213.8753   8.9462249933e+01   1.6587945341e+01    0.4014231    0.2081768  52.16  0.001644999    2.333    0.571
       103  -8.0273     42.2032    215.4617   1.0285196092e+02   2.2652010680e+01    0.1990379    0.1050773  40.92 0.0009394856    1.678    0.404
       104  -9.4655    213.9696    211.8465   6.2151616873e+01   2.2198526978e-01    0.3075957    0.2944783 -67.72  0.001693529    1.659    0.397
       105  -8.3213    185.5171    214.1442   6.7981412088e+01   3.4290049319e+00    0.1886584    0.1754359  25.66 0.0008117349    1.348    0.258
       106  -9.1257     73.4240    211.7859   9.4350840275e+01   1.9754621282e+01    0.7345125    0.2794834  53.98  0.002287626    4.099    0.756
       107  -8.0658    224.9951    212.4737   6.0317494522e+01  -1.1705970347e+00    0.1975384    0.1143345 -44.35 0.0006233459    1.760    0.432
       108  -9.1403    204.3676    210.7509   6.3729191397e+01   1.5834210671e+00    0.2807969    0.2063106 -48.55 0.0008701627    1.622    0.384
       109  -8.3637    161.5269    212.1973   7.2721541723e+01   7.0863350127e+00    0.2046734    0.1796357  45.91 0.0006502192    1.415    0.293
       110  -7.9034    106.4984    212.5449   8.5897812453e+01   1.5013557609e+01    0.1424315    0.1299493  30.23  0.000808509    1.047    0.045
       111  -9.3489    175.4291    209.8039   6.9319660076e+01   5.5843715070e+00    0.3799142    0.2797015  66.35   0.00154835    2.606    0.616
       112  -8.7813    148.1345    210.4968   7.5457079767e+01   9.3522585202e+00    0.2782242    0.2231661  64.89  0.001217421    1.805    0.446
       113  -8.8934    116.5289    210.2789   8.3032920575e+01   1.4055071814e+01    0.3607481    0.2370298  56.30 0.0009732176    1.964    0.491
       114  -8.2792    192.2736    210.2155   6.5961421777e+01   3.2306944794e+00    0.1601622    0.1483334 -40.62 0.0007412427    1.378    0.274
       115  -8.2776     85.7602    209.4423   9.0815839358e+01   1.8647853447e+01     0.274812    0.1671332  66.13    0.0011694    2.288    0.563
       116  -9.3811      6.1787    208.2586   1.1141067832e+02   2.7852653178e+01    0.3845419    0.1368303  69.23  0.001415171    3.419    0.708
       117  -9.3777    236.5803    207.3882   5.7524672068e+01  -1.6823121011e+00    0.4201927    0.1944263 -45.34  0.001762771    2.171    0.539
       118  -8.0185     46.3757    209.2061   1.0118267678e+02   2.3682039971e+01    0.1963916    0.1230785  87.99 0.0009440604    1.784    0.439
       119  -9.4859    246.4516    207.1594   5.5919101500e+01  -2.7144497778e+00    0.2440377    0.1635878 -34.37 0.0005167432    1.248    0.199
       120  -8.0305    156.7566    207.8497   7.3047329373e+01   8.6208494192e+00    0.1757534    0.1653459  62.94 0.0006658481    1.392    0.282
       121  -8.3261    139.0432    207.5335   7.7093422736e+01   1.1301568152e+01    0.2498936    0.2026639 -75.38 0.0008416326    1.688    0.408
       122  -8.2356    126.6424    208.3551   8.0224549417e+01   1.2976349616e+01    0.2120238    0.1642132  60.70 0.0008448715    1.666    0.400
       123  -9.1906     99.3892    205.9518   8.6761121871e+01   1.7531558230e+01     0.399487    0.2674841  70.74  0.001071971    2.152    0.535
       124  -8.4020     56.6116    205.5543   9.8084340801e+01   2.3367757740e+01    0.2952809    0.1684104  62.19  0.001297919    2.050    0.512
       125  -8.2789     11.8207    206.5731   1.0989787658e+02   2.7779959720e+01    0.1878148    0.1002628  40.16 0.0009419443    1.675    0.403
       126  -9.3529    194.8884    203.3982   6.4262641834e+01   4.0865312833e+00    0.3038498    0.2940381 -81.57  0.001294589    1.512    0.339
       127  -9.2759    192.4840    197.0186   6.3597625853e+01   5.5600665068e+00     0.368917    0.2844403 -66.93  0.001502071    2.031    0.508
       128  -8.5414    131.2269    203.8316   7.8363646547e+01   1.3260878034e+01    0.3001223     0.230592  88.05 0.0009364212    1.994    0.498
       129  -8.2605    108.9187    205.1406   8.4173082808e+01   1.6321818859e+01    0.2236322    0.1875537  57.03 0.0007897101    1.336    0.252
       130  -8.2914     66.2697    204.3900   9.5355058618e+01   2.2447271797e+01    0.2615525    0.1546868 -52.10 0.0007132706    1.782    0.439
       131  -8.0437     25.4067    205.2208   1.0631828339e+02   2.6861185417e+01    0.1933835    0.1153764  83.78 0.0009268417    1.735    0.424
       132  -8.9421    183.6845    203.7169   6.6550657500e+01   5.5607509953e+00    0.2605642    0.2268925  54.53  0.001405235    1.619    0.382
       133  -9.5753    163.9898    202.9824   7.0595866115e+01   8.5201903146e+00    0.4447364    0.2664483  49.99  0.001369519    2.326    0.570
       134  -9.3756    250.1724    201.6384   5.4427943844e+01  -2.2835906428e+00    0.3794086    0.1299793 -39.19  0.001545814    2.296    0.564
       135  -9.0389    243.1873    200.6260   5.5330519064e+01  -1.3747916106e+00    0.2656561     0.152266 -41.75  0.000764207    1.571    0.364
       136  -8.4148    210.9390    201.6180   6.0933746842e+01   2.2961095736e+00    0.2357275    0.1518513 -52.26 0.0007474933    1.948    0.487
       137  -8.8489    140.6526    200.9546   7.5599258485e+01   1.2439819687e+01     0.369658    0.2545653  63.22  0.001644936    2.300    0.565
       138  -8.1252     72.6164    201.7905   9.3315391574e+01   2.2250812792e+01    0.1886297    0.1370168 -83.31  0.000372565    1.569    0.363
       139  -7.9997    221.9923    201.0220   5.8875949895e+01   1.0202057462e+00    0.1714415    0.1429278 -54.15 0.0005801166    1.660    0.398
       140  -8.4741     80.1273    200.9494   9.1169846906e+01   2.1438859334e+01    0.3260739    0.1845713  59.79  0.001331426    2.302    0.566
       141  -9.1026    237.0898    198.2942   5.5896504938e+01  -3.2753388644e-01    0.2972279      0.14722 -45.63   0.00110672    1.992    0.498
       142  -9.4723    149.6790    198.4461   7.3035264890e+01   1.1583526056e+01    0.4327792    0.3192941  80.01  0.001384922    2.476    0.596
       143  -8.8701    124.0521    198.9703   7.9332214773e+01   1.5420825611e+01    0.3148092    0.2378503 -83.51 0.0009648473    1.895    0.472
       144  -9.4124    113.0648    198.3544   8.2032886845e+01   1.7244095471e+01    0.4776952    0.2818733  61.96  0.001783759    2.756    0.637
       145  -8.4523    176.9844    198.6192   6.7029427042e+01   7.4656460658e+00    0.2353236    0.1843777 -55.03  0.000529397    1.553    0.356
       146  -9.1382     89.0124    198.5685   8.8432671633e+01   2.0763465924e+01    0.3962113    0.2556732  59.25  0.001385474    1.890    0.471
       147  -8.3854    202.4267    197.7589   6.1821754901e+01   4.0713380959e+00    0.2288364    0.1756027 -58.40 0.0009788646    1.805    0.446
       148  -9.2003     61.1849    195.8478   9.5700294419e+01   2.5196489339e+01    0.6166097    0.3284166 -82.96   0.00193065    2.401    0.583
       149  -8.0723     12.4613    196.9608   1.0908475473e+02   3.0074120675e+01    0.2001899   0.08881859  70.96 0.0008092714    2.555    0.609
       150  -9.3831    245.8798    193.4966   5.3702366047e+01  -5.7966165233e-01    0.3028406    0.2112449 -60.58  0.001539255    2.478    0.596
       151  -8.7025    215.9020    195.3587   5.8942729163e+01   2.7208321493e+00    0.2548356    0.1616677 -51.95 0.0008550776    1.927    0.481
       152  -7.9582    133.0050    195.9119   7.6582734935e+01   1.4706797334e+01    0.2166337    0.1762041  67.63 0.0006648174    1.639    0.390
       153  -8.1554     53.4115    196.1871   9.7896552533e+01   2.6067612589e+01    0.2002784    0.1314209  89.66 0.0009407619    1.726    0.421
       154  -8.7647    224.7631    193.8939   5.7156273008e+01   1.8493939438e+00    0.3122793    0.1487415 -48.01  0.001499849    2.239    0.553
       155  -7.4195    209.2880    195.5832   6.0166012163e+01   3.5401252633e+00    0.1190904   0.09899787 -65.74 0.0005060325    1.836    0.455
       156  -8.9284    185.1575    194.6814   6.4634950940e+01   7.0274693914e+00    0.2378217    0.1946099 -59.96 0.0006983563    1.609    0.378
       157  -8.8345    160.8851    194.0351   6.9688614110e+01   1.0768906671e+01    0.2848442    0.2312437  77.24 0.0009903868    1.942    0.485
       158  -8.2995    230.9765    193.7966   5.6106968187e+01   1.1064665607e+00    0.2118332    0.1348953 -45.58 0.0006704491    1.595    0.373
       159  -8.7453     77.2119    193.9259   9.0995941517e+01   2.3555854847e+01    0.2879493     0.215158  50.18 0.0006558097    1.352    0.260
       160  -9.0496     43.8875    193.0091   1.0019033092e+02   2.7973756513e+01    0.4935805     0.244551  65.62  0.001920246    2.638    0.621
       161  -8.1172    199.0988    191.6846   6.1355626209e+01   5.6037705668e+00    0.2144694    0.1623188 -45.49 0.0005621318    1.385    0.278
       162  -8.5321    172.5912    191.7534   6.6712018352e+01   9.4413512461e+00    0.2451301    0.2095222 -76.54  0.001064129    1.687    0.407
       163  -9.0165    139.7373    190.5935   7.3995455521e+01   1.4805028904e+01    0.3945039    0.2851062  77.61  0.001445803    2.397    0.583
       164  -8.1162    179.2067    191.2334   6.5223803970e+01   8.5511819367e+00    0.1747047    0.1582278 -54.06 0.0005834501    1.348    0.258
       165 -10.4174     92.3137    188.6583   8.6025669593e+01   2.2681665680e+01     1.054945    0.2787467  42.03  0.003052235    3.863    0.741
       166  -8.0964     20.4039    190.6085   1.0646700172e+02   3.0967446002e+01    0.2755978     0.108901  84.62 0.0009520727    3.412    0.707
       167  -8.8620      6.5083    190.5154   1.1021654122e+02   3.2165761586e+01    0.2759375     0.119097 -79.46  0.001014339    2.152    0.535
       168  -9.6614    248.7752    186.1004   5.1998246358e+01   2.3423151239e-01    0.3738582    0.2362731 -23.30  0.001407049    1.379    0.275
       169  -8.8756    129.2315    188.4764   7.6212104339e+01   1.6954586478e+01    0.2937632    0.2327483  70.79 0.0009103917    1.720    0.419
       170  -9.5740    120.7515    186.1548   7.7966190683e+01   1.8847525326e+01     0.522903    0.3002285 -72.63  0.001958813    2.857    0.650
       171  -8.8978     34.2401    188.0954   1.0238534673e+02   3.0265869695e+01    0.3753145    0.2079989  70.03   0.00163225    2.100    0.524
       172  -8.1951    237.2682    188.0678   5.4095044008e+01   1.2708334204e+00    0.1758405    0.1219739 -33.75 0.0006220838    1.160    0.138
       173  -8.9448    216.5536    187.6352   5.7445821974e+01   3.9486281441e+00    0.2382874    0.1811117 -45.68 0.0008298726    1.395    0.283
       174  -8.8923    191.5085    187.2298   6.2001083453e+01   7.4974683486e+00    0.2807359    0.2125464 -66.69  0.001143113    1.996    0.499
       175  -9.2340    156.0090    187.2586   6.9546059829e+01   1.2922414293e+01    0.3317442    0.2274111 -58.30 0.0009020953    1.745    0.427
       176  -9.1303     54.7468    186.7335   9.6383728706e+01   2.8302784747e+01    0.4219612    0.2456714  67.12  0.001261272    2.152    0.535
       177  -8.2677    230.5141    187.0659   5.4997335030e+01   2.2565911616e+00     0.184829    0.1002133 -39.67  0.000655056    1.536    0.349
       178  -8.7577    164.9896    186.7132   6.7426248849e+01   1.1616124332e+01    0.2624748    0.2295839 -71.69  0.001175629    1.504    0.335
       179  -9.1631    109.6100    185.7924   8.0841215144e+01   2.0711127548e+01    0.4053868    0.2924864  78.43  0.001332944    2.024    0.506
       180  -8.4261    202.8863    184.4421   5.9315516478e+01   6.3751781968e+00    0.2258266    0.1690644 -51.47 0.0006118257    1.524    0.344
       181  -8.6639    182.9512    184.6279   6.3224658956e+01   9.2583584962e+00    0.2563277    0.1862474 -48.71 0.0007569573    1.444    0.307
       182  -9.1582     66.8039    184.3700   9.2598323609e+01   2.7369898137e+01    0.4176749    0.2562744  57.30  0.001079825    1.868    0.465
       183  -8.7171    224.0734    183.3432   5.5390105045e+01   3.6919282614e+00    0.2640359    0.1460579 -46.05  0.000854995    1.734    0.423
       184  -8.8347    210.0980    183.9215   5.7907306704e+01   5.4620798858e+00    0.2255119    0.1576014 -37.94 0.0006366468    1.254    0.202
       185  -8.9840    174.2836    183.4766   6.4807234090e+01   1.0812426361e+01     0.259661    0.2292855 -72.05 0.0004514339    1.507    0.336
       186  -8.2767    197.1536    183.1971   6.0159999259e+01   7.4222022736e+00    0.1687806    0.1554304 -53.32 0.0004476253    1.348    0.258
       187  -9.1902     44.3535    182.1956   9.8838603245e+01   3.0696180139e+01    0.3723781    0.2398364  66.60   0.00104998    1.730    0.422
       188  -8.0551      1.7977    183.5547   1.1102200686e+02   3.4271081891e+01    0.1853589    0.1049918  40.08 0.0009382507    1.683    0.406
       189  -7.5449     19.3386    182.6406   1.0608528990e+02   3.3098027891e+01    0.1545223   0.08735734  59.89 0.0007037576    1.820    0.450
       190  -8.3306    235.4070    181.2474   5.3183070545e+01   2.5973448607e+00    0.1727439   0.09733409 -45.90  0.000949379    1.685    0.406
       191  -9.0998    147.4679    180.2917   7.0224811549e+01   1.5787585214e+01    0.3361488    0.2764331  86.45  0.001127146    1.746    0.427
       192  -9.4041     25.4082    178.3706   1.0394838670e+02   3.3651877389e+01    0.6922373    0.2758325  75.76  0.002121714    4.341    0.770
       193  -8.5319    148.3286    188.8412   7.1622302655e+01   1.3812247799e+01    0.2541356    0.2183915 -78.38 0.0009465483    1.542    0.352
       194  -8.6711    137.6820    179.2848   7.2405831438e+01   1.7633006270e+01    0.2965436     0.238913  77.24  0.001299536    1.743    0.426
       195  -8.7424    250.5690    172.6926   4.9407160076e+01   2.1121997376e+00    0.2447574    0.1667322 -33.35 0.0005687856    1.122    0.109
       196  -9.2597    248.9179    177.3076   5.0451608111e+01   1.5860863741e+00    0.2799121    0.2012494 -48.39  0.001110138    1.500    0.333
       197  -8.5654    247.2827    173.6395   5.0044919472e+01   2.3588421120e+00    0.2039628   0.09810074 -45.74 0.0005606242    1.876    0.467
       198  -9.4426    191.4680    178.0336   6.0279157429e+01   9.2253014287e+00    0.2812745    0.2450302 -67.15 0.0006796079    1.521    0.342
       199  -8.5628    217.4716    176.9914   5.5341864321e+01   5.6577380850e+00    0.2510195    0.1857402 -59.67  0.001119751    1.824    0.452
       200  -8.6885    205.0457    177.4764   5.7619541951e+01   7.3215831977e+00    0.2360088    0.1665857 -49.64 0.0005698143    1.502    0.334
       201  -7.7759    169.4818    178.5106   6.4884782942e+01   1.2566089475e+01    0.1387591    0.1309115 -23.45 4.433059e-05    1.105    0.095
       202  -8.6548    129.3786    177.2830   7.4113019039e+01   1.9473714275e+01    0.3585725    0.2454141  81.21  0.001229053    2.688    0.628
       203  -8.2741     96.8770    177.7114   8.2941168117e+01   2.4679222411e+01    0.2626098    0.1544633 -20.29 0.0009461851    2.772    0.639
       204  -9.1650     35.9897    176.5303   1.0064422742e+02   3.3084971938e+01    0.5825617    0.2556689  70.47  0.001880379    3.796    0.737
       205  -9.0353    183.1269    175.8994   6.1524490645e+01   1.0917908822e+01    0.2743376    0.2126988 -56.50 0.0007104694    1.511    0.338
       206  -9.0909     89.1987    176.6844   8.4948033218e+01   2.6122378677e+01    0.3232292    0.2303179  64.03 0.0009388337    1.723    0.419
       207  -9.3462     58.3282    174.9888   9.3771856323e+01   3.0900102218e+01    0.5414971    0.2677625  65.79    0.0018199    3.320    0.699
       208  -9.2803     55.9972    170.7490   9.3874579110e+01   3.2308273247e+01    0.9171974    0.4084841  66.74  0.002459237    5.282    0.811
       209  -8.4943     12.9828    176.3932   1.0736363156e+02   3.5250770583e+01    0.2553573    0.1610695  66.01 0.0006903656    1.594    0.373
       210  -9.2248    158.6400    174.6701   6.6539010743e+01   1.5134566913e+01    0.3957718    0.2883493 -78.28  0.001010638    2.237    0.553
       211  -9.3633    104.3112    174.5637   8.0302645085e+01   2.4269610970e+01    0.5882781    0.3079289  58.07  0.001860377    3.097    0.677
       212 -10.9150     75.9659    170.2899   8.7761443608e+01   2.9724218774e+01     1.480619    0.6086941 -73.27  0.004427115    3.894    0.743
       213  -9.6482     81.9915    154.9998   8.3226931547e+01   3.2783722276e+01    0.5766524    0.5254457 -45.49  0.001830425    1.095    0.087
       214  -8.4008    224.4367    173.9564   5.3619430746e+01   5.2306296874e+00    0.2273574    0.1559937 -47.53 0.0009674188    1.463    0.316
       215  -8.1039    241.5037    173.5207   5.0873620469e+01   3.0880356738e+00    0.1209813   0.09504853 -31.55 -3.811328e-06    1.050    0.047
       216  -9.5062    175.8018    172.0297   6.2276392128e+01   1.2849453590e+01    0.3619234    0.2631024 -52.51 0.0009867941    1.476    0.323
       217  -8.2691    143.0117    172.3221   6.9750819480e+01   1.8283291542e+01    0.2041204    0.1922886  25.75 0.0005235235    1.094    0.086
       218  -8.6663    134.8659    171.6042   7.1625119017e+01   1.9839801005e+01    0.2800588    0.2202856 -59.02 0.0007312139    1.395    0.283
       219  -9.1698     45.0087    170.6426   9.7214161434e+01   3.3653178266e+01    0.4036651    0.2311917  87.30   0.00147374    2.179    0.541
       220  -9.2001    230.4312    169.0181   5.1752320781e+01   5.2584378960e+00    0.4188329    0.1628239 -48.25  0.001804762    2.632    0.620
       221  -8.6034    198.4989    170.1430   5.7425288068e+01   9.6350837170e+00    0.2877966    0.2002458 -60.79  0.001015183    1.916    0.478
       222  -9.5660    121.4318    170.2129   7.4826343701e+01   2.2463704873e+01     0.387186    0.3032375 -88.82 0.0009827765    1.740    0.425
       223  -8.6718    237.2105    169.3273   5.0765196846e+01   4.3146205707e+00     0.206848    0.1444072 -37.31 0.0006476727    1.159    0.137
       224  -8.3759    205.7921    169.9612   5.6059414480e+01   8.5720050561e+00     0.235377    0.1635052 -53.88 0.0005908614    1.634    0.388
       225  -8.6311    149.9425    169.4229   6.7513071233e+01   1.7731772538e+01    0.2648839     0.208469 -68.81 0.0008507349    1.606    0.377
       226  -8.7565    244.4221    168.9767   4.9633065605e+01   3.4531241689e+00    0.2156643     0.141833 -46.49 0.0007426437    1.443    0.307
       227  -8.6644    218.9407    168.4211   5.3497218438e+01   6.9411882491e+00    0.2270961     0.157181 -49.34 0.0004780338    1.479    0.324
       228  -9.0391    167.0949    168.4730   6.3428534101e+01   1.5011379595e+01    0.3161111    0.2402028  65.94  0.001192212    1.913    0.477
       229  -8.3477     88.8279    168.6976   8.3674881423e+01   2.8199207039e+01    0.2827535    0.1979147  81.05  0.001203271    1.986    0.497
       230  -8.8102    111.5750    167.3627   7.6941608247e+01   2.4822492747e+01    0.3270785    0.2387837  76.78  0.001226531    1.974    0.493
       231  -9.1628    191.8423    166.2043   5.7913307101e+01   1.1410591524e+01    0.3468721    0.1734791 -45.89 0.0009554809    1.859    0.462
       232  -8.7323    185.1965    166.5803   5.9283581948e+01   1.2401934832e+01    0.2732009    0.2027955 -63.72 0.0007338217    1.764    0.433
       233  -8.7961    231.1021    176.3916   5.2990420530e+01   3.9409405178e+00    0.2782713    0.1426902 -43.12 0.0009481642    1.677    0.404
       234  -7.6867     13.4756    167.5001   1.0644336888e+02   3.7533856527e+01     0.139087    0.1222489  78.30 0.0008093993    1.063    0.059
       235  -9.6823    137.3656    164.5573   6.9588895216e+01   2.1005476269e+01    0.7108692    0.3306445  53.55  0.002322212    3.437    0.709
       236  -9.9681     94.9569    162.1778   8.0679223778e+01   2.8874913051e+01    0.9550591    0.6202382  84.20  0.003259958    2.550    0.608
       237  -8.6497     20.2095    165.6794   1.0423051419e+02   3.7457554260e+01    0.3453176    0.1643224  59.71  0.001379741    2.470    0.595
       238  -8.3019    233.9869    164.7449   5.0418782815e+01   5.4952755102e+00     0.220122    0.1340722 -48.90 0.0007160036    1.620    0.383
       239  -8.5903    159.6878    164.2297   6.4211961832e+01   1.7163632985e+01    0.2361631     0.218178 -73.24   0.00069976    1.282    0.220
       240  -9.5256     33.4827    163.1635   9.9836306555e+01   3.6885122088e+01    0.5908413    0.2696314  53.16  0.002052323    2.578    0.612
       241  -8.2638    240.0342    163.9839   4.9375811326e+01   4.8210900680e+00    0.1739882    0.1366422 -60.64 0.0005302959    1.653    0.395
       242  -8.6237    212.9520    163.4121   5.3554541273e+01   8.6884906454e+00    0.2324373    0.1603989 -50.45 0.0005470314    1.489    0.328
       243  -8.6897    246.0699    162.7927   4.8290143065e+01   4.2356542985e+00    0.2116455    0.1357131 -38.95 0.0004611626    1.228    0.186
       244  -8.0870    242.4556    159.5505   4.8219856523e+01   5.2253727290e+00    0.1716093    0.1415997 -24.95  0.000623066    1.099    0.090
       245  -8.3461    245.2662    158.6301   4.7654379739e+01   5.0071607559e+00    0.1662143    0.1237607 -42.21 0.0004173169    1.171    0.146
       246  -8.4868    204.9911    162.5388   5.4769094430e+01   1.0044582904e+01    0.2438135    0.1653078 -51.03 0.0006115609    1.525    0.344
       247  -8.8864    151.9043    160.8388   6.5302404501e+01   1.9256938890e+01    0.3177737    0.2573474 -77.65  0.001096034    1.636    0.389
       248  -9.0809    177.4882    160.3230   5.9580147052e+01   1.4913690143e+01    0.2913036    0.2348288 -62.85 0.0008301071    1.483    0.326
       249  -9.0589     61.0576    160.2062   9.0702089625e+01   3.4445240512e+01    0.4013752    0.2318427  62.56  0.001220817    2.325    0.570
       250  -8.7966    227.2951    158.8082   5.0345429289e+01   7.4149700667e+00    0.2791821    0.1670165 -54.83  0.001175096    1.966    0.491
       251  -9.7334    250.1909    157.5349   4.6775661158e+01   4.5488186098e+00    0.3122504    0.1329055 -41.28 0.0008504815    1.826    0.452
       252  -8.4966    246.7280    155.3172   4.6852178823e+01   5.3488719071e+00    0.1649109    0.1400947 -27.10 0.0004841834    1.114    0.102
       253  -8.6118    236.9754    158.5454   4.8831775098e+01   6.1200453862e+00    0.2018319    0.1317135 -38.92 0.0005398921    1.228    0.185
       254  -8.2936    128.3291    158.8191   7.0719855401e+01   2.3932775605e+01     0.279984    0.2310576 -88.85 0.0009190483    1.568    0.362
       255  -9.6629    105.6504    157.6696   7.6695827978e+01   2.8208863849e+01    0.5103661    0.3494043  72.64  0.001247699    2.209    0.547
       256  -8.6507    196.5614    157.8172   5.5361515670e+01   1.2245202238e+01    0.2364431    0.2030064 -71.51  0.000720689    1.490    0.329
       257  -9.2134    167.6480    157.1452   6.0994708917e+01   1.7258067359e+01    0.3207505     0.247363 -78.47  0.001015596    1.882    0.469
       258  -8.6314    217.9514    156.4331   5.1380920666e+01   9.1810013775e+00    0.2509543    0.1544953 -50.90 0.0008733869    1.648    0.393
       259  -8.8730    157.8703    156.0978   6.2936917255e+01   1.9213724250e+01    0.3372359    0.2056393 -57.56  0.001064229    1.906    0.475
       260  -9.2552    119.6128    154.9014   7.2226017876e+01   2.6422586817e+01     0.439204    0.3185953 -84.57  0.001373658    2.018    0.505
       261  -9.3357     49.7897    154.9352   9.3481676691e+01   3.7283667658e+01    0.4991018    0.3010768  70.07  0.001766588    2.208    0.547
       262  -9.1656    241.6616    153.9292   4.7307660347e+01   6.2449445408e+00    0.3149554    0.2342328  76.79  0.001852192    2.418    0.586
       263  -9.5240    242.7195    149.7357   4.6390320677e+01   6.7841514935e+00    0.2867944    0.2360663 -47.60  0.001978886    1.211    0.175
       264  -9.1740      3.4787    162.3596   1.0900121030e+02   3.9614802045e+01    0.4222464    0.1922014  51.18  0.001632607    2.289    0.563
       265  -8.8653    144.4766    154.5461   6.5749912777e+01   2.1978755738e+01    0.2837956    0.2438909  82.29 0.0008434669    1.476    0.322
       266  -9.6329     67.9864    153.4874   8.7359971625e+01   3.5271626520e+01    0.4878787    0.3027939  77.44  0.001445855    2.439    0.590
       267  -8.3882    233.0069    153.9956   4.8574851986e+01   7.4232339606e+00    0.1851069    0.1376614 -60.78 0.0005717533    1.668    0.401
       268  -9.6021    132.8176    152.7639   6.8279383404e+01   2.4520534479e+01    0.4580825    0.3208579  68.78  0.001160466    2.116    0.527
       269  -8.8794    133.5911    148.1966   6.7091872358e+01   2.5425456480e+01    0.3567035     0.221834 -36.59  0.001136539    1.701    0.412
       270  -8.2178    182.7638    151.4301   5.6688047827e+01   1.5777658821e+01    0.2550903    0.1777843 -74.39  0.001116853    2.338    0.572
       271  -9.6161     29.4329    150.6184   9.9553042929e+01   4.0650274807e+01    0.5120962    0.2379166  59.89  0.001850817    2.958    0.662
       272  -8.9045     20.1073    152.0857   1.0279429403e+02   4.1091468562e+01    0.2365163     0.150746  62.64   0.00111778    1.721    0.419
       273  -9.6462    248.8860    149.2383   4.5459601987e+01   6.0373530851e+00    0.3188032    0.1369342 -40.10 0.0007632914    1.809    0.447
       274  -8.8176    189.5731    150.1221   5.5104126636e+01   1.4866336573e+01    0.2881455     0.210595 -63.66 0.0008424863    1.709    0.415
       275  -8.8544     98.4365    150.7419   7.7388951833e+01   3.1173890997e+01    0.3045071    0.2399181  66.47 0.0008780683    1.531    0.347
       276  -7.4473    237.3007    150.2878   4.7256745951e+01   7.4396776085e+00    0.1184029    0.0842486 -16.72 0.0001925112    1.559    0.359
       277  -8.3517    213.0757    149.7790   5.0885064980e+01   1.1100909142e+01    0.1848353     0.163036 -53.09 0.0004550967    1.218    0.179
       278  -8.1583    162.6283    150.3216   6.0647624932e+01   1.9577143464e+01    0.2175886    0.1753617 -82.67 0.0007536562    1.693    0.409
       279  -8.8184      3.3747    150.1825   1.0799521816e+02   4.2827231310e+01    0.1992277    0.1155467  88.24 0.0005426853    1.697    0.411
       280  -8.6212    198.9139    148.5490   5.3067214961e+01   1.3598902375e+01    0.2456764    0.1709599 -54.25 0.0005961695    1.516    0.340
       281 -10.0476     89.3245    146.0741   7.9190174954e+01   3.3896201406e+01    0.7761803    0.4589061 -88.44  0.002536679    3.442    0.709
       282  -9.6158     39.9196    147.6304   9.5634037844e+01   4.0383679882e+01    0.6024535    0.3108998  61.27  0.001917296    2.683    0.627
       283  -9.3302    233.6522    147.3835   4.7239741606e+01   8.4377677037e+00    0.3328226     0.146188 -36.76  0.001204751    1.949    0.487
       284  -8.3165    223.1226    146.6006   4.8664541693e+01   1.0118932176e+01    0.2139747    0.1453565 -45.33 0.0005781995    1.283    0.221
       285 -10.4039    148.9392    144.8510   6.2577828751e+01   2.3286565006e+01    0.5604728    0.3931172 -86.10  0.001857527    2.451    0.592
       286 -10.2626    106.5313    143.7659   7.3522985160e+01   3.1479346694e+01    0.8272761    0.5506397 -89.88  0.002460255    2.596    0.615
       287  -8.8886     77.9988    146.6601   8.2874426261e+01   3.5571463980e+01    0.2881846    0.2178388 -85.38 0.0007923096    1.607    0.378
       288  -7.8023    207.0888    146.1986   5.1172874948e+01   1.2695108324e+01    0.1752623    0.1483374 -62.32  0.000716266    1.347    0.257
       289  -8.2134    175.6670    146.0033   5.6965763167e+01   1.8106354358e+01    0.2275917    0.1664485 -57.95 0.0006958903    1.507    0.336
       290  -9.8797    139.0291    144.8095   6.4971725140e+01   2.5170443759e+01    0.4092578    0.2861124 -74.23  0.001272825    2.060    0.514
       291  -9.0795     13.1937    145.8243   1.0436366560e+02   4.3313717052e+01    0.3079765    0.2155701  62.97  0.001430825    1.521    0.342
       292  -8.9340    240.3912    145.2180   4.5879248894e+01   7.8417834083e+00    0.1828948    0.1238065 -41.14  0.000424074    1.180    0.152
       293  -9.0728    247.0303    143.5811   4.4677954522e+01   7.1906121014e+00    0.2375914    0.1395399 -40.14 0.0006046183    1.326    0.246
       294  -8.5929    165.8299    143.8559   5.8556587852e+01   2.0337372550e+01    0.2487147    0.1900986 -53.36 0.0006803282    1.330    0.248
       295  -9.7263    125.0101    142.4408   6.8062651484e+01   2.8370623838e+01    0.5280973    0.3740448 -89.59  0.001635779    2.277    0.561
       296  -7.6722    194.3303    143.7059   5.2897981650e+01   1.5279108969e+01    0.1315765    0.1062355 -76.61 0.0003432772    1.632    0.387
       297 -11.0388     69.2297    139.2178   8.4266475395e+01   3.8850125851e+01    0.9956806    0.5187736 -60.82  0.003034391    1.927    0.481
       298 -10.1421     73.2012    128.9407   8.0774452960e+01   4.0909316253e+01     0.522594    0.3595751 -83.53     0.001333    1.972    0.493
       299  -9.5043      2.7290    141.1325   1.0735989516e+02   4.5262584368e+01    0.5348459    0.2446811  78.04  0.001953101    2.677    0.626
       300 -10.8650     54.9018    143.1369   8.9833835024e+01   3.9804696636e+01     1.134384    0.6572551 -77.83   0.00372263    2.071    0.517
       301  -8.5557    181.9922    141.4715   5.4742628800e+01   1.7870865264e+01    0.2676297    0.1819208 -56.78 0.0006961277    1.608    0.378
       302  -8.3947    250.4967    140.5385   4.3671357914e+01   7.2048953852e+00    0.2030499   0.08826746 -47.77 0.0007112892    2.019    0.505
       303  -9.3602    242.7651    142.9916   4.5141431552e+01   7.8731596758e+00    0.3745418    0.1492236 -33.42  0.001665716    2.499    0.600
       304  -9.7180     23.4610    137.8251   9.9875401644e+01   4.4636869266e+01    0.5631445    0.2739145  61.88  0.001912272    2.871    0.652
       305  -9.2394    139.3209    137.6789   6.3292828397e+01   2.6709449448e+01    0.4283723    0.2588167 -16.17  0.001499396    3.067    0.674
       306  -7.6293    218.5677    138.4652   4.7776636250e+01   1.2234771001e+01    0.1298373    0.1078404 -43.14 0.0001788316    1.058    0.055
       307  -8.5678    207.6470    137.3556   4.9293432000e+01   1.4203863722e+01    0.3050002    0.1399893 -43.05   0.00136441    1.875    0.467
       308  -8.6615    197.4588    137.1548   5.0979604771e+01   1.5969056854e+01    0.2863666    0.1879569 -59.97 0.0009425133    1.799    0.444
       309  -9.2696    151.4186    135.8799   5.9987252397e+01   2.4751456209e+01    0.5167125    0.2720324  27.75  0.001914056    2.701    0.630
       310 -10.3952     83.3827    133.0398   7.8289611418e+01   3.8207849569e+01    0.6821968     0.399887 -62.95  0.001349365    1.879    0.468
       311  -8.8585     85.0960    122.4165   7.5284528206e+01   4.0577488531e+01    0.5970445    0.3210023  14.86   0.00198476    3.098    0.677
       312  -8.5291    246.9884    130.0017   4.2187806526e+01   9.3654928865e+00    0.2182476    0.1398158 -48.18 0.0006044505    1.316    0.240
       313  -9.2322    250.7812    129.8452   4.1687319265e+01   8.8542486781e+00    0.4284801   0.09151706 -40.32  0.001538985    3.710    0.730
       314  -8.5720    172.0670    137.7001   5.5904590266e+01   2.0435771796e+01    0.2763164    0.1876831 -58.57 0.0009288135    1.653    0.395
       315  -8.1016    162.6749    136.1894   5.7543734980e+01   2.2517156920e+01     0.226961    0.1766817 -62.33 0.0006874701    1.432    0.302
       316  -9.1093     39.1903    135.8693   9.4033944624e+01   4.3626812415e+01    0.2989562    0.2320623  62.32 0.0007364448    1.440    0.306
       317  -7.9329    231.4894    134.0624   4.5014928156e+01   1.0983718338e+01    0.1889481    0.1021423 -41.33 0.0004096439    1.500    0.334
       318  -8.5138    179.4372    133.6464   5.3549254020e+01   1.9870458810e+01    0.2843218    0.2017363 -68.42 0.0007972062    1.837    0.456
       319  -8.7931    112.8573    133.0236   6.9265639431e+01   3.2898893298e+01    0.3383524    0.2521238  81.19 0.0007024549    1.922    0.480
       320  -8.1233    237.4320    133.2044   4.4032753477e+01   1.0236123730e+01    0.1805508   0.09382894 -49.37 0.0008547644    1.736    0.424
       321 -10.1412    132.2428    131.1008   6.3552145198e+01   2.9567405887e+01    0.5816506    0.3450022 -68.50 0.0009948927    2.655    0.623
       322 -10.1433    131.3277    118.7918   6.0809044164e+01   3.2475608654e+01    0.6405795    0.4097954  85.75  0.001982861    3.339    0.701
       323  -9.3311    143.1479    131.3969   6.0905539045e+01   2.7341632736e+01    0.3521091    0.2611226 -63.28 0.0009155509    1.542    0.352
       324 -10.0862     97.8452    129.5124   7.2898864156e+01   3.6552188243e+01     0.666198    0.2694001 -48.89  0.002146318    2.420    0.587
       325  -9.5224    153.0002    128.8882   5.8017826205e+01   2.5924785158e+01    0.4704548     0.254126 -57.07 0.0009943392    2.199    0.545
       326 -10.0243     12.8254    128.4521   1.0241650486e+02   4.7978630805e+01    0.6375381    0.3226264  80.09  0.002283183    2.622    0.619
       327  -7.9734    204.5968    129.8568   4.8253855643e+01   1.6072386409e+01    0.1908518    0.1098935 -51.23 0.0004699278    1.678    0.404
       328  -8.2337    192.9699    130.0060   5.0260151173e+01   1.8093655044e+01    0.2068888    0.1577815 -70.25 0.0004501249    1.609    0.378
       329  -9.3891    168.3733    129.2061   5.4771847621e+01   2.2846635992e+01    0.3138995    0.2279312 -67.78 0.0007783834    1.708    0.415
       330  -8.3336     25.3066    129.7043   9.8048673182e+01   4.6652003674e+01    0.2955015     0.159118 -17.08  0.001175752    2.553    0.608
       331  -8.0328      1.6673    130.2837   1.0662346080e+02   4.8193546795e+01    0.1383637   0.09388089  58.10 0.0003262486    1.616    0.381
       332  -7.6447    220.4869    129.5737   4.5723508911e+01   1.3467212587e+01      0.12794    0.1078365 -42.21 7.518419e-05    1.012    0.012
       333  -8.1994    211.5820    128.8372   4.6928010925e+01   1.5064162453e+01    0.1927496    0.1062727 -50.82 0.0009075367    1.729    0.422
       334  -7.7919    186.4895    129.4914   5.1314561023e+01   1.9369730910e+01     0.139748     0.125902 -44.71 0.0008104614    1.020    0.019
       335  -8.7633    161.6259    128.8880   5.6116757905e+01   2.4224166966e+01    0.3050455    0.1786828 -56.84  0.001293819    1.940    0.485
       336 -10.8048     45.0200    123.3871   8.9675139885e+01   4.6281881121e+01     1.205533    0.6462094  75.47  0.003880392    3.870    0.742
       337 -10.4802     60.0765    124.8368   8.4472064489e+01   4.3934546879e+01    0.7982202     0.477584  73.13  0.002549141    2.962    0.662
       338  -9.7727    117.8482    124.7566   6.5882204084e+01   3.3861822473e+01    0.6080979    0.4281583 -86.70  0.001506172    2.253    0.556
       339  -7.6753    228.5089    125.4964   4.3771610342e+01   1.2875866052e+01    0.1272114     0.102878 -47.93 0.0008094311    1.077    0.072
       340  -8.8487    179.2621    124.5601   5.1577576081e+01   2.1668880182e+01    0.2736509    0.2122376 -78.04 0.0005337373    1.638    0.389
       341 -10.3375     28.5192    122.1193   9.5642730893e+01   4.8377594781e+01    0.8225902    0.4214489  69.55  0.002902991    3.335    0.700
       342  -9.1637    248.5524    134.9261   4.2895991964e+01   8.3622915117e+00    0.2696972    0.1662336 -38.24  0.000779743    1.282    0.220
       343  -7.7907    188.5812    123.8059   4.9699580422e+01   2.0055881977e+01    0.1948972    0.1186156 -52.30 0.0004169696    1.620    0.383
       344  -7.5005    195.0000    121.9117   4.8174115226e+01   1.9221913806e+01    0.2236495   0.07001375 -42.15 0.0006304772    2.834    0.647
       345  -9.3306    158.6627    121.2664   5.4984617429e+01   2.6368102403e+01    0.3428961    0.2460495 -76.53  0.001041385    1.933    0.483
       346  -7.7898    203.2634    121.6424   4.6753855093e+01   1.7779896655e+01    0.1353382   0.09458411 -63.27 0.0002656992    1.629    0.386
       347  -8.5758    171.9541    121.2068   5.2233080393e+01   2.3734360692e+01    0.2161446    0.1853013 -71.25 0.0005110252    1.270    0.213
       348  -8.4515     99.0924    120.3015   7.0293464192e+01   3.8543231225e+01    0.3477764     0.224748  -6.68  0.001262821    2.718    0.632
       349  -9.7127     71.1285    119.6251   7.9382731708e+01   4.3606716794e+01      0.42303    0.2985253 -87.46  0.001103599    2.006    0.501
       350 -10.0276    140.9024    117.4680   5.8108290198e+01   3.0785860894e+01    0.7000338    0.4418473 -71.63  0.002145689    2.509    0.601
       351  -9.7968    133.4818    108.4909   5.7664574100e+01   3.4223346842e+01    0.5955864    0.2896692 -49.23  0.001426071    2.099    0.524
       352 -10.0954    128.6908    101.9632   5.7164509463e+01   3.6594751407e+01    0.3862093    0.2910016 -84.26  0.001035353    1.787    0.440
       353  -9.7014      2.9292    117.1751   1.0465642643e+02   5.1569770616e+01    0.5315049    0.2628341  71.76  0.002148824    2.753    0.637
       354  -8.0813    231.5187    117.4772   4.1801832881e+01   1.3723230446e+01    0.1259623    0.1006279 -49.71 0.0008088563    1.074    0.069
       355  -9.9465    109.3523    114.1418   6.5648264858e+01   3.7980124621e+01    0.5447836    0.3543004 -67.63  0.001510935    2.059    0.514
       356  -8.7068    109.5185    107.2240   6.3790298127e+01   3.9496819507e+01     0.422748    0.2527133  12.82  0.001392127    3.426    0.708
       357  -8.0466    185.6241    115.7845   4.8455117241e+01   2.2108917983e+01    0.1998873    0.1173219 -50.85 0.0004932933    1.636    0.389
       358  -8.8868     59.3852    115.0099   8.2551400109e+01   4.6555834543e+01      0.39375    0.2394607  -8.86  0.001505011    2.511    0.602
       359  -8.4857    250.1177    114.6904   3.8984376331e+01   1.1315444223e+01     0.152291    0.1364458 -47.74  0.001129218    1.160    0.138
       360  -8.1552    193.0559    115.2782   4.7063616283e+01   2.0790269872e+01    0.1851709    0.1660731 -60.13 0.0004685484    1.082    0.076
       361 -10.0815     92.7946    112.3623   7.0272184638e+01   4.1608463379e+01    0.5411757    0.3687004 -69.82   0.00121901    1.909    0.476
       362  -8.7424     93.0471    104.9344   6.8231233727e+01   4.3280550682e+01    0.5200142    0.3063523  11.00  0.001739623    3.281    0.695
       363  -9.9374     79.0497    112.5776   7.4911376711e+01   4.4037385408e+01    0.5909048    0.4089709  80.33  0.001783952    2.342    0.573
       364  -8.4600     78.7454    104.8230   7.3012254199e+01   4.5945367043e+01    0.3955515    0.2514947  -3.10  0.001483242    2.621    0.618
       365  -8.3773    167.3326    114.1626   5.1517934756e+01   2.6027558232e+01    0.2198051    0.1743156 -29.61 0.0005387174    1.339    0.253
       366  -8.8930    242.5362    113.4717   3.9649392977e+01   1.2643777692e+01    0.1212128   0.09561985 -45.42 0.0001342848    1.007    0.007
       367 -10.0976    122.0954    112.2310   6.1575914448e+01   3.5810414935e+01    0.3859629    0.2582223 -56.42 0.0005432923    1.617    0.382
       368  -8.4274    174.7776    111.8327   4.9534373651e+01   2.4975336035e+01    0.2601562    0.1778853 -59.22 0.0006048231    1.566    0.361
       369  -8.7093    159.1705    111.6843   5.2595726983e+01   2.8181482022e+01    0.2487016    0.1869011 -53.86 0.0005377494    1.318    0.241
       370 -10.2459     66.2473    109.9146   7.8804505988e+01   4.6798624687e+01    0.6371559    0.3243854 -56.70  0.002302515    1.987    0.497
       371  -9.9832     14.3759    111.0684   9.9330326057e+01   5.2448117299e+01    0.4563554     0.265407  58.27  0.002040274    2.220    0.550
       372 -10.1904    248.8035    107.5975   3.7823168252e+01   1.2604026329e+01    0.3635333    0.2220714 -52.44  0.002231543    1.404    0.288
       373 -10.3707    248.8324    102.1273   3.6806210200e+01   1.3433986559e+01    0.3413101    0.2177576 -39.01  0.002150873    1.316    0.240
       374  -7.8038    182.7397    109.3669   4.7520513668e+01   2.3852907167e+01    0.1429632    0.1003477 -66.04 0.0002978828    1.643    0.391
       375  -8.0599    189.3368    107.5673   4.5983519564e+01   2.2889528477e+01    0.2346523     0.116646 -41.83 0.0008158889    1.820    0.451
       376  -8.4628     43.5324    108.7090   8.7205578727e+01   5.0262634270e+01    0.2611722    0.1318939  24.59  0.001066728    2.050    0.512
       377 -10.8085    109.2409     98.7579   6.1573920424e+01   4.1388680870e+01      1.01888    0.5964308  71.16  0.001670465    3.456    0.711
       378  -8.8009    107.7252     92.4056   6.0229617371e+01   4.3035079380e+01    0.5196677    0.2471454  32.49  0.001805852    2.787    0.641
       379 -10.5238     45.8421    102.1778   8.4786779020e+01   5.1618302664e+01     0.830672    0.4730472  65.59  0.002954072    3.365    0.703
       380 -10.7402     22.8668    102.2707   9.4301231411e+01   5.4046523381e+01    0.8521265    0.4850323  70.71   0.00255828    2.858    0.650
       381  -9.5202    150.6376    102.9927   5.2276127280e+01   3.1678258582e+01    0.4639397    0.2682682 -62.42  0.001276625    2.314    0.568
       382  -9.4033    139.7491    103.9585   5.4983033378e+01   3.3817298276e+01     0.435417    0.2668235 -53.51  0.001361909    1.726    0.421
       383  -8.5574    166.7852    103.9213   4.9194850234e+01   2.8095146400e+01    0.2623224    0.1822992 -61.15 0.0007284178    1.567    0.362
       384  -9.2621      6.7063    102.9234   1.0117384712e+02   5.5045382671e+01    0.2886346    0.1957847  46.47 0.0009069568    1.724    0.420
       385  -8.1291    175.6071    101.8262   4.7050784233e+01   2.6662939518e+01    0.2028237    0.1197102 -51.91 0.0006325403    1.664    0.399
       386  -8.5431    159.8750    100.6578   4.9764747761e+01   3.0159446385e+01    0.2795571    0.1729592 -58.05 0.0005300873    1.797    0.443
       387  -9.2476     82.0142     99.7131   7.0491840215e+01   4.6543974196e+01    0.3820331     0.290931 -81.93  0.001055107    1.817    0.450
       388 -10.1504     63.9822     95.9974   7.6039701921e+01   5.0503996423e+01     0.682543    0.4669114 -77.41  0.001831215    2.138    0.532
       389  -9.2744     95.0579     96.8580   6.5357068521e+01   4.4688850794e+01    0.3402328    0.2781081 -62.93 0.0008585847    1.372    0.271
       390  -8.1861    236.3342    111.3298   3.9997636195e+01   1.3950208929e+01     0.116829   0.09020764 -13.23 0.0007052069    1.725    0.420
       391  -8.5407    164.9442     93.8040   4.7090675456e+01   3.0345726576e+01     0.254948    0.1657743 -56.36 0.0005209456    1.593    0.372
       392  -7.4693    188.4996     93.4865   4.2947273578e+01   2.5519743454e+01    0.1372779    0.1187175 -63.03 0.0001041817    1.065    0.061
       393  -8.1481    176.4915     92.9933   4.4813201945e+01   2.8057863809e+01    0.2112176    0.1264467 -44.58 0.0005090649    1.550    0.355
       394  -9.1679    139.2408     92.2894   5.2046368706e+01   3.6213897179e+01    0.3354772    0.2364795 -70.55 0.0007063252    1.798    0.444
       395 -10.2803    124.0087     90.8050   5.5329755456e+01   3.9848938931e+01    0.5653616    0.4993821  10.34  0.001334098    1.313    0.238
       396  -8.7889     47.9968     92.0000   8.1348453398e+01   5.3808443367e+01     0.342062    0.1442532  34.18  0.001316918    2.339    0.572
       397  -8.1912    157.8486     91.5589   4.7901182569e+01   3.2277684673e+01     0.235565    0.1592026 -48.22  0.000536306    1.432    0.301
       398  -9.5915     35.0408     89.7926   8.6310012612e+01   5.5937982844e+01    0.4908557    0.3146469  89.65   0.00138794    2.550    0.608
       399  -9.6876      4.9308     91.6135   1.0008855906e+02   5.7997786104e+01    0.3276595    0.2276604  54.71  0.001133471    1.791    0.442
       400  -8.9618     23.0286     89.7592   9.1624852740e+01   5.7154145586e+01    0.3400358    0.2132513   5.23  0.001215878    1.731    0.422
       401  -8.1621    151.0381     88.9860   4.8617096088e+01   3.4232115446e+01    0.2292386    0.1685867 -74.50 0.0006293306    1.633    0.388
       402  -9.9157     86.6069     86.4105   6.5088979384e+01   4.8590865366e+01    0.5036383    0.3787719 -89.20  0.001371667    2.024    0.506
       403  -8.3847     86.9874     80.6880   6.3218171389e+01   4.9692459684e+01    0.3158824    0.1414375  31.52  0.001081649    2.855    0.650
       404  -8.8198     65.5123     87.0269   7.2908275469e+01   5.2300494773e+01    0.3853922    0.1972964  16.89  0.001330598    3.079    0.675
       405  -9.9399     48.4159     83.6879   7.8884529108e+01   5.5682163566e+01    0.6043264    0.4243154 -82.34  0.002267346    2.205    0.547
       406  -7.6814    179.2978     85.6033   4.2595415112e+01   2.8741489223e+01    0.1479188   0.09591251 -67.85 0.0007003404    1.807    0.447
       407  -8.4689    157.9938     83.7941   4.5903484057e+01   3.3627127536e+01    0.2433373    0.1913641 -47.03 0.0004085384    1.234    0.189
       408  -9.8037    104.8546     82.9982   5.8323269003e+01   4.5533522748e+01    0.4228777    0.3181023 -77.90 0.0009986791    1.827    0.453
       409  -8.7678    105.4882     76.9894   5.6327124984e+01   4.6546377252e+01     0.407808     0.234124  20.27  0.001385711    3.481    0.713
       410  -7.6423    170.6470     83.3204   4.3493862118e+01   3.0959248006e+01    0.1469845    0.1012335 -75.25 0.0007047209    1.750    0.429
       411  -9.3108    140.8867     81.9474   4.8899585873e+01   3.7756259938e+01     0.414427    0.2307141 -40.30  0.001141418    1.821    0.451
       412  -8.1686     35.3799     82.8119   8.4357136395e+01   5.7550943561e+01    0.2157162    0.1129435 -45.41 0.0009499509    1.770    0.435
       413  -7.8330    185.4751     82.4747   4.0890504526e+01   2.7977451953e+01    0.1349881    0.1184193 -65.44 5.211556e-05    1.024    0.023
       414  -8.1332     64.0855     82.3560   7.2069201190e+01   5.3564705057e+01    0.2006699     0.186782  29.46 0.0006735708    1.095    0.087
       415  -9.6331     24.5991     80.2608   8.8650115655e+01   5.9284177835e+01    0.4721399    0.2963586 -86.39  0.001409931    2.483    0.597
       416  -9.5686      9.7897     80.8629   9.5801816433e+01   6.0331005026e+01    0.3724255    0.2031058  53.01  0.001603059    2.698    0.629
       417  -8.6763    119.4992     79.8895   5.3382527705e+01   4.2922921925e+01    0.3247421    0.2370016 -53.75  0.001106224    1.470    0.320
       418  -8.9705     74.4926     80.0640   6.7408989696e+01   5.2219256352e+01    0.3763675    0.2568869 -64.43  0.001226025    1.955    0.488
       419  -8.3205    150.4266     80.2421   4.6457724551e+01   3.5920640769e+01    0.2032047     0.126563 -52.40 0.0009423991    1.649    0.394
       420  -9.3780    248.9896     78.2671   3.2376671282e+01   1.6922498688e+01    0.2574711   0.09802133 -55.73  0.001180775    2.728    0.633
       421  -8.1130    166.7653     79.3748   4.3192851857e+01   3.2461473458e+01    0.1841642    0.1564472 -62.74 0.0004242405    1.113    0.101
       422  -7.7994    184.2048     78.0687   4.0058942800e+01   2.8955236206e+01    0.1761953   0.09934173 -39.78 0.0007121153    1.688    0.408
       423  -7.7807    157.2116     76.0177   4.4052956997e+01   3.5125285532e+01    0.1804388    0.1094051 -40.43 0.0004243032    1.639    0.390
       424  -8.6161    140.6283     75.2396   4.7122960661e+01   3.8986912161e+01    0.2469182    0.2055134 -72.92 0.0007983276    1.267    0.211
       425  -9.2779    128.0504     75.0882   4.9886729900e+01   4.1865416050e+01    0.3385684    0.2351318 -63.24 0.0006340846    1.715    0.417
       426  -9.9952     63.1454     73.2784   6.9592871382e+01   5.5637214782e+01    0.4796092    0.3119122 -61.71  0.001307657    2.034    0.508
       427  -9.7232     82.4239     72.3564   6.2125899103e+01   5.2240100973e+01    0.4247443    0.3085141 -65.67   0.00104759    1.860    0.462
       428  -8.1384    163.5200     73.0935   4.2178996465e+01   3.4206026205e+01    0.2049787    0.1285902 -43.38  0.001012123    1.543    0.352
       429  -8.1855    151.4210     73.1711   4.4394926298e+01   3.6894462912e+01    0.2001076    0.1227991 -52.29 0.0008501515    1.673    0.402
       430  -8.4849    115.7395     72.8672   5.2276783750e+01   4.5032683532e+01    0.2593997    0.1936122 -60.83 0.0006573012    1.542    0.351
       431  -8.3813     42.8461     72.7397   7.8074525570e+01   5.8876769059e+01    0.2444957     0.188601 -89.44 0.0009877146    2.010    0.503
       432  -9.2284     28.7858     70.6007   8.4029026409e+01   6.1060976233e+01    0.6940886    0.3059371 -13.26  0.001896371    5.998    0.833
       433  -7.7583    175.4704     72.4745   4.0066716816e+01   3.1697530550e+01    0.1336677    0.1214468 -71.88 0.0003501342    1.024    0.024
       434  -9.1109    105.5763     71.7050   5.4674442937e+01   4.7495773326e+01    0.2776979    0.2556898  57.63 0.0007668929    1.064    0.060
       435  -9.2379     95.2667     70.9967   5.7495783097e+01   4.9852033313e+01    0.3472679    0.2424598 -57.29  0.000875799    1.724    0.420
       436  -9.6003     51.5481     69.3221   7.3125990046e+01   5.8337481478e+01    0.4566874    0.2751287 -66.96  0.001386389    2.658    0.624
       437  -9.0174     16.7206     69.7492   8.9770561372e+01   6.2407642806e+01    0.3022978    0.2390464  84.51 0.0009118072    1.750    0.429
       438  -7.4277    209.2803     69.3205   3.4775010863e+01   2.5254699900e+01    0.1099975   0.09847887  -3.38 0.0002308008    1.584    0.369
       439  -8.7280    147.0497     67.6277   4.3745806940e+01   3.8787279690e+01    0.2659294     0.176364 -56.12 0.0006540202    1.590    0.371
       440  -8.8067    121.7719     65.9607   4.8697036807e+01   4.4848757588e+01    0.3222532    0.2061406 -56.83 0.0008309046    1.835    0.455
       441  -8.7736    138.7030     65.9194   4.4932189681e+01   4.0970687230e+01    0.2531293    0.1773471 -57.50 0.0005781993    1.530    0.347
       442  -9.4290     37.2297     64.0628   7.7925139217e+01   6.1457919384e+01     0.297311     0.228372 -65.26  0.001099374    1.653    0.395
       443  -8.9585    110.0178     63.4397   5.0873207187e+01   4.7934786209e+01    0.2629304    0.1942967 -58.50 0.0006647032    1.568    0.362
       444  -8.3446     95.3151     64.3548   5.5326246505e+01   5.1025313685e+01    0.1492421    0.1113322  11.38 0.0007045439    1.741    0.426
       445  -8.6401     64.5369     63.0313   6.5590059856e+01   5.7403333253e+01    0.3811096    0.2269488   7.91   0.00147807    2.848    0.649
       446  -8.0487    158.0740     61.5047   4.0128982554e+01   3.7236511745e+01    0.1949663     0.127335  63.05 0.0004459995    1.483    0.326
       447  -9.1897     97.5571     60.3691   5.3342684777e+01   5.1214190225e+01    0.3041193    0.2403184  66.96 0.0008370448    1.384    0.277
       448  -9.7193     73.4007     59.1723   6.0854948635e+01   5.6442791760e+01    0.3928381    0.2482556 -54.24  0.001176883    2.014    0.503
       449  -8.0479     89.3392     59.2139   5.5450927830e+01   5.3180861692e+01    0.1935329    0.1298324 -49.47 0.0004236191    1.706    0.414
       450  -7.7299    147.2904     58.6667   4.1258145268e+01   4.0120766967e+01    0.1422026   0.09932053 -71.88 0.0003567314    1.631    0.387
       451  -8.2388    130.8369     57.5602   4.4164388084e+01   4.4090589339e+01    0.2474087    0.1625358 -74.01 0.0006014915    2.041    0.510
       452  -7.5343    130.7160     64.3506   4.6175393532e+01   4.3058912251e+01    0.1454554    0.1061483 -73.73 0.0005088153    1.656    0.396
       453  -9.8923     23.3713     56.1129   8.2283324975e+01   6.4726917546e+01    0.4495416    0.3129041  82.65  0.002079559    2.936    0.659
       454  -9.5823      7.4747     56.7319   9.1121314789e+01   6.5983874475e+01    0.3057184    0.2238325 -86.33  0.001238252    1.943    0.485
       455  -7.4991    193.6792     56.6628   3.3865702392e+01   3.0205625566e+01    0.1163952    0.1000657  23.77 0.0007050094    1.710    0.415
       456  -8.2094    140.0528     56.0324   4.1875170829e+01   4.2182455884e+01     0.221288    0.1537841 -71.29 0.0005638125    1.680    0.405
       457  -8.8343    119.3104     55.6764   4.6144985038e+01   4.7045065713e+01    0.2789294    0.2093294 -76.67 0.0006508857    1.628    0.386
       458  -8.8065     44.2568     55.3179   7.1562211804e+01   6.2208809755e+01    0.2651786    0.2170677 -55.43 0.0008845739    1.491    0.329
       459  -9.2415     62.6340     53.2795   6.2832249004e+01   5.9506026913e+01    0.6159657    0.2249496 -44.89  0.002189046    3.028    0.670
       460  -9.1524     54.1190     53.5618   6.6479088488e+01   6.0957307353e+01    0.4228442     0.235268 -57.53  0.001648146    2.734    0.634
       461  -8.4983    105.9100     53.1072   4.8629173234e+01   5.0504176738e+01    0.2162769    0.1834546 -84.00 0.0006226019    1.357    0.263
       462  -9.3573     92.4959     50.3818   5.1436575544e+01   5.3911836854e+01    0.3749636    0.2343762 -53.00   0.00109897    2.007    0.502
       463  -8.3319     74.4985     51.4850   5.7682881538e+01   5.7526736738e+01    0.1414849    0.1247281  23.94 6.929306e-05    1.060    0.057
       464  -8.5006    144.6568     48.8547   3.9019041268e+01   4.2141391500e+01    0.1880187    0.1141357 -47.84 0.0005157086    1.681    0.405
       465  -7.9437    129.8322     48.8267   4.1786484535e+01   4.5598145240e+01    0.1872602     0.151537 -72.90 0.0004472503    1.315    0.239
       466  -8.3697    120.8308     47.1785   4.3165909437e+01   4.7928793895e+01    0.2032812     0.177394 -84.36  0.000569932    1.185    0.156
       467  -8.2236    112.3410     46.8833   4.4997576261e+01   4.9940724179e+01    0.2070712    0.1587259 -57.60  0.000734147    1.474    0.321
       468  -9.1143     82.2202     46.1779   5.3106750909e+01   5.6760678161e+01    0.3068794     0.230026 -59.19 0.0007811405    1.740    0.425
       469  -8.4942     45.0155     44.4645   6.7053147406e+01   6.4038036941e+01    0.2206694    0.1855984 -53.09 0.0005887655    1.520    0.342
       470  -8.9521     16.6635     44.5807   8.2002887724e+01   6.7703914471e+01     0.225289    0.2047817  -0.48 0.0006555953    1.180    0.153
       471  -8.0066    102.3330     44.6625   4.6738308942e+01   5.2547040273e+01     0.140487    0.1054869 -80.70 0.0002902269    1.742    0.426
       472  -8.3138    132.8500     43.0649   3.9491849613e+01   4.5676377444e+01    0.2053807    0.1679624 -75.48 0.0004315129    1.258    0.205
       473  -8.7601     93.0034     42.2883   4.8435396892e+01   5.4976652487e+01     0.269944    0.1719285   3.98  0.001175727    2.617    0.618
       474  -9.3934     69.6201     41.2673   5.5556735376e+01   6.0086511481e+01    0.3889215     0.272433 -62.14  0.001299134    2.202    0.546
       475  -9.0151     58.0916     42.2485   6.0406783410e+01   6.2152173375e+01    0.3055797    0.2109634 -55.88  0.001023539    2.055    0.513
       476  -9.7680      5.3229     41.7683   8.7776547511e+01   6.9226549803e+01    0.3437513    0.2295326 -78.82  0.001766502    2.391    0.582
       477  -7.5075    140.4775     41.4361   3.7653451367e+01   4.4106285491e+01    0.1337689    0.1177045  83.30 9.079561e-05    1.017    0.017
       478  -8.6386    105.9283     41.1493   4.4645551850e+01   5.2204403648e+01    0.2039967    0.1760601 -88.58 0.0006034264    1.263    0.208
       479  -8.4993     36.8277     40.4076   6.9388112236e+01   6.5978962579e+01    0.2006108    0.1771654 -39.26 0.0006665867    1.335    0.251
       480  -8.8764     95.5507     38.0051   4.6209251386e+01   5.4983624312e+01    0.2434515    0.1826952  73.93 0.0005585329    1.469    0.319
       481  -7.9000     80.7904     36.7593   5.0031318581e+01   5.8399951491e+01     0.172972    0.1552589  88.02 0.0004525988    1.340    0.254
       482  -9.4127     26.2438     35.2220   7.2841458664e+01   6.8314788157e+01    0.2817327    0.2163955 -57.74 0.0008897696    1.827    0.453
       483  -7.9240    125.9980     35.3261   3.8453472884e+01   4.8267758905e+01    0.1905105     0.151657  68.32 0.0003712973    1.118    0.106
       484  -8.4562    111.9462     34.4675   4.1030333796e+01   5.1663901804e+01    0.2471342    0.1732498 -57.05 0.0008076163    1.659    0.397
       485  -7.6621    153.5184     34.5064   3.3702649286e+01   4.1950322793e+01    0.1293869    0.1126529  87.92  0.000810318    1.016    0.016
       486  -8.8043    119.0556     32.4066   3.8885421809e+01   5.0249143970e+01     0.285574    0.1693476 -43.00  0.001040593    1.832    0.454
       487  -8.6111     60.8080     32.3066   5.5219129830e+01   6.3092274022e+01     0.201876    0.1777213 -42.94 0.0006016033    1.381    0.276
       488  -8.7206     48.5675     33.1764   6.0699614778e+01   6.5228699822e+01    0.2246736    0.1682421  37.89 0.0007039864    1.234    0.190
       489  -8.6554     72.1444     30.7902   5.0492122990e+01   6.1007883464e+01    0.2051601    0.1801457 -45.33 0.0006784327    1.364    0.267
       490  -9.3149     12.9055     29.8315   7.8467883902e+01   7.0779899382e+01    0.3367029    0.1850682 -59.90  0.001650184    2.725    0.633
       491  -8.5781    101.8170     29.1618   4.1516546663e+01   5.4643459875e+01    0.2011477    0.1684678 -84.57   0.00072406    1.330    0.248
       492  -7.7610     42.3126     29.6925   6.2046428083e+01   6.6801965700e+01    0.1153427    0.1027798  66.63 0.0004444892    1.623    0.384
       493  -8.9719     81.4595     27.0337   4.6065482312e+01   5.9474331864e+01    0.2848645    0.2073777 -63.26 0.0008898679    1.907    0.476
       494  -9.0856      3.8236     27.4595   8.3410266216e+01   7.2030769011e+01     0.243223    0.1892215  47.05 0.0009508269    1.923    0.480
       495  -8.9303     91.8736     26.3022   4.2926203554e+01   5.7240682388e+01    0.2561329    0.1740061 -49.52 0.0007448514    1.780    0.438
       496  -8.4938    104.3524     22.8144   3.8739573799e+01   5.4759199765e+01    0.1828083    0.1485782  73.91 0.0007554552    1.156    0.135
       497  -7.9612     34.7874     23.1721   6.2741521536e+01   6.8946730816e+01     0.179263    0.1390039  77.17 0.0009314189    2.757    0.637
       498  -8.9871     48.4523     21.3740   5.5418734423e+01   6.6843036693e+01    0.2358564    0.2155832 -42.79 0.0008667072    1.429    0.300
       499  -8.0510    120.9979     20.9885   3.4908996322e+01   5.1056943690e+01    0.1535552    0.1358658  75.17 0.0004986759    1.036    0.035
       500  -8.9512     63.6075     20.6222   4.9151339887e+01   6.3988971967e+01    0.2349466    0.2166878 -84.69 0.0008079623    1.409    0.290
       501  -8.1886     19.6745     21.3236   7.0341889554e+01   7.1379586918e+01    0.1634382    0.1448216  52.74 0.0007810768    1.740    0.425
       502  -9.0213     74.1390     19.3567   4.5161808757e+01   6.1918064461e+01    0.2197358    0.1805524 -40.62 0.0007166433    1.456    0.313
       503  -8.0350     39.1430     18.1517   5.8118498250e+01   6.8892074743e+01    0.1537224    0.1455041  32.78  0.000531667    1.328    0.247
       504  -7.7329    112.8461     16.7953   3.5017027372e+01   5.3387437608e+01    0.1701568    0.1370166 -81.54 0.0004280616    1.293    0.227
       505  -7.9385     88.0024     17.2683   4.0506638529e+01   5.9072131636e+01    0.1715678    0.1314545 -59.42 0.0004352638    1.621    0.383
       506  -8.2379     30.0252     15.7530   6.1561220449e+01   7.0686132842e+01    0.1894522    0.1570277 -42.50 0.0007657239    1.637    0.389
       507  -9.3315    233.0616    246.4354   6.4389736692e+01  -7.0203690870e+00    0.4081065    0.1771412 -31.46  0.001356338    1.928    0.481
       508  -7.8122      7.6783     15.3393   7.5195338693e+01   7.3683989654e+01    0.1046868   0.09154483  42.57 0.0007050495    1.718    0.418
       509  -8.0130     17.1922     14.0876   6.8205287748e+01   7.2748355627e+01    0.1472766    0.1318068  13.21 0.0005199141    1.315    0.239
       510  -7.9421    191.5131    249.5133   7.2427669998e+01  -3.1487263772e+00    0.1196677   0.09649327   0.33 4.301675e-05    1.091    0.084
       511  -8.1110    184.0394    250.0000   7.3970603200e+01  -2.3763629399e+00    0.1937395   0.06000003  28.53 0.0007992859    2.921    0.658
       512  -9.0858    175.7188    247.4340   7.5267192082e+01  -9.9726353468e-01     0.293997    0.2386777  67.61  0.001408073    2.392    0.582
       513  -9.2105    156.3955    248.1261   7.9408052804e+01   1.2411464764e+00    0.2818987     0.215437  51.34  0.001517897    1.850    0.459
       514  -9.0947    132.5022    247.7992   8.4602479570e+01   4.3299149320e+00    0.3261387    0.2272958  56.95 0.0009147048    2.045    0.511
       515  -8.3038    113.2504    248.5303   8.9067052071e+01   6.6793118970e+00    0.2129054    0.1612207 -75.98  0.001101513    1.812    0.448
