#   1 NUMBER                 Running object number                                     
#   2 MAG_AUTO               Kron-like elliptical aperture magnitude                    [mag]
#   3 X_IMAGE                Object position along x                                    [pixel]
#   4 Y_IMAGE                Object position along y                                    [pixel]
#   5 X_WORLD                Barycenter position along world x axis                     [deg]
#   6 Y_WORLD                Barycenter position along world y axis                     [deg]
#   7 A_WORLD                Profile RMS along major axis (world units)                 [deg]
#   8 B_WORLD                Profile RMS along minor axis (world units)                 [deg]
#   9 THETA_WORLD            Position angle (CCW/world-x)                               [deg]
#  10 FWHM_WORLD             FWHM assuming a gaussian core                              [deg]
#  11 ELONGATION             A_IMAGE/B_IMAGE                                           
#  12 ELLIPTICITY            1 - B_IMAGE/A_IMAGE                                       
         1 -12.9065    119.5462     38.9890   3.6712941519e+01   4.8806942765e+01    0.8662975    0.5429362 -32.71  0.004642156    1.833    0.454
         2 -12.2285    105.8951     20.8863   3.3831482332e+01   5.3957540278e+01    0.3567359    0.2800626 -85.91 0.0007766096    1.327    0.246
         3 -12.3727    160.0633     29.7240   2.7989617873e+01   4.0891455401e+01    0.3671036    0.3468107  79.40 0.0003863126    1.252    0.202
         4 -11.7551     26.4443     28.2883   6.4100501284e+01   6.8931208596e+01     0.483685    0.3245852 -34.94  0.001990359    1.598    0.374
         5 -12.0447     20.2022     22.0690   6.4780574033e+01   7.0720849765e+01    0.5429176    0.3419874 -21.61  0.001941921    1.661    0.398
         6 -11.3229    188.7960     27.9294   2.4569941471e+01   3.5139553719e+01    0.3831724    0.2384487 -43.21  0.002024472    1.544    0.352
         7 -11.7753    135.5679     22.2514   2.9292632999e+01   4.7103619294e+01    0.8204679     0.257897  57.73  0.003487026    2.678    0.627
         8 -10.3381    127.3434     11.6516   2.7534527317e+01   4.9992534394e+01    0.3189881     0.187638 -71.10  0.001747302    1.892    0.472
         9 -10.1347    127.3331     16.2988   2.8838768115e+01   4.9555625336e+01      0.32233    0.1672171  55.22 0.0009594594    1.771    0.435
        10 -11.3534    134.7584     14.7727   2.7388316050e+01   4.8036971642e+01    0.5420179    0.2280652  62.60   0.00269866    1.970    0.493
        11 -11.0570    179.0376     20.7259   2.3936180652e+01   3.7907130225e+01    0.4210056    0.2225273  45.29  0.002148328    3.010    0.668
        12 -11.7104     35.4814     18.3491   5.4835801316e+01   6.8845600775e+01     0.528976    0.3008803 -19.47  0.002187064    2.127    0.530
        13 -12.7729    164.3032     18.5046   2.4874528398e+01   4.1211439807e+01    0.4223881    0.2614773  47.87  0.002000262    2.073    0.518
        14 -10.9310      6.0050     10.3680   6.8032673395e+01   7.4174802010e+01    0.5085472    0.2979811  16.65  0.002757668    1.460    0.315
        15 -10.2032     12.1448      8.2165   6.2728436824e+01   7.3683137919e+01    0.4049215    0.2977423 -58.36  0.002394476    2.707    0.631
        16 -11.9898     15.6581     14.7802   6.3951284104e+01   7.2353776604e+01    0.6318274     0.370033  -5.22  0.003428502    2.042    0.510
        17 -11.6609     22.5797     11.3071   5.8058317599e+01   7.1794134866e+01    0.4472747    0.2621624  17.00   0.00217129    1.752    0.429
        18 -11.4387    228.6790     15.9659   1.9351273670e+01   2.9069129289e+01    0.2728692    0.1796447 -89.32  0.001114562    1.338    0.253
        19 -10.7891    225.5037     14.0043   1.9195580512e+01   2.9827465567e+01    0.2400305    0.1196708 -48.09 0.0008631889    1.588    0.370
        20 -10.2619    147.9646     16.2367   2.6123270796e+01   4.4969050136e+01    0.3317265    0.1649477  51.29  0.001720303    2.226    0.551
        21 -11.3253     85.9550     13.7384   3.5646019356e+01   5.9129430215e+01    0.3509416    0.2658166  -4.31  0.001920275    1.700    0.412
        22 -10.7630    186.8136     15.0316   2.2058629087e+01   3.6941222112e+01    0.1887414    0.1525971 -81.64 0.0003249796    1.082    0.076
        23  -9.8927     87.7658      7.7030   3.3077088314e+01   5.9257766891e+01    0.4484892    0.1650494  54.56   0.00185946    2.090    0.522
        24 -11.2847     68.1870     18.5065   4.2225702416e+01   6.2517013536e+01     0.387865    0.3514492  29.50  0.001841586    1.137    0.121
        25 -11.9751    104.8909     13.2209   3.1570907057e+01   5.4924465240e+01    0.3565864    0.3289051 -34.52  0.001475213    1.312    0.238
        26 -11.9012     48.5374     12.9782   4.6649525114e+01   6.7062139752e+01    0.5791176    0.2546598  53.08  0.002803736    2.012    0.503
        27 -11.9683    192.3600      8.8105   2.0370794604e+01   3.6481439810e+01    0.4618293    0.3326276  -2.95  0.002909359    2.738    0.635
        28 -11.6201    206.2101      2.8241   1.8314160482e+01   3.4435407784e+01    0.4167545    0.2109109  87.35  0.002542241    1.708    0.414
        29 -11.7649    212.0920      8.7695   1.9059492372e+01   3.2761957845e+01    0.4503418    0.3020995 -15.97  0.002886364    2.725    0.633
        30 -10.8175    218.4675      3.7952   1.7795215071e+01   3.2112670657e+01    0.2199096    0.1582511  86.40 0.0006125055    1.294    0.227
        31 -11.0122    224.0450      2.7265   1.7313042302e+01   3.1236459617e+01    0.1903525      0.14457 -80.47 0.0003573894    1.161    0.138
        32 -10.1683    121.1662     11.8368   2.8471770229e+01   5.1367090970e+01    0.3045723     0.144467  70.66 0.0007968471    1.775    0.437
        33 -11.8031    169.7173      9.3778   2.2286630874e+01   4.0990238800e+01    0.4709606    0.1625828  64.55  0.002317805    2.508    0.601
        34 -11.2740    163.3876      6.0695   2.2102099781e+01   4.2628750196e+01    0.3300055    0.2536211   0.63  0.001787294    2.160    0.537
        35 -10.3301    145.1472      9.7563   2.4814599456e+01   4.6210873973e+01    0.1752208    0.1690213 -80.81 0.0004108658    1.281    0.219
        36 -10.1517      1.0000      8.2787   7.0541700533e+01   7.5025830065e+01    0.3365795    0.1114685 -42.83   0.00157781    3.149    0.682
        37 -10.9726      2.5682      1.9416   6.5827814627e+01   7.5691272922e+01      0.34681    0.1842894  15.87  0.002001036    1.732    0.423
        38 -11.2126    176.9525      5.8918   2.0924400384e+01   3.9835824323e+01    0.4013757    0.1512977  81.73  0.001163717    2.465    0.594
        39 -11.7682    184.6938      6.0567   2.0368960777e+01   3.8261755336e+01    0.3879917    0.2438976 -61.00  0.001656614    1.338    0.252
        40 -11.7310    151.0643      7.0616   2.3513327318e+01   4.5169776917e+01    0.4895485    0.2043311  85.30  0.002329771    2.422    0.587
        41 -10.9629    157.2905      7.5696   2.3017151676e+01   4.3783515499e+01    0.2251785    0.1679167 -27.34  0.001523184    1.713    0.416
        42  -9.7523     62.1375      7.8350   3.9674601403e+01   6.4806509385e+01    0.2018645    0.1574388  25.22 0.0006399851    1.322    0.243
        43  -9.7169    232.9677      7.5027   1.7669215505e+01   2.9225225528e+01    0.1433804    0.0811079  86.26 0.0009067198    1.585    0.369
        44 -11.3945    234.1953      3.0538   1.6864279607e+01   2.9468216394e+01     0.369723    0.1468015 -68.16  0.002220236    2.170    0.539
        45 -11.1627    122.4181      5.1898   2.6381193583e+01   5.1666839083e+01    0.2126586    0.1802097  78.37  0.000299287    1.067    0.063
        46  -9.1655     77.6895      7.3556   3.5241233453e+01   6.1513696056e+01    0.1196224    0.0881965 -76.73 0.0007043544    1.731    0.422
        47 -11.8136    133.2424      2.7199   2.4343747616e+01   4.9456920877e+01    0.5027313    0.2359771  76.88  0.002672149    1.796    0.443
        48 -10.6696    141.5658      3.3876   2.3590171381e+01   4.7564918109e+01     0.232459     0.175143  71.92  0.001589076    1.172    0.147
        49 -10.1103     41.7439      3.8617   4.5014201229e+01   6.9244401881e+01    0.2269862    0.1418999  27.93 0.0006503116    1.528    0.346
        50  -9.3198     25.8626      3.8029   5.2284606867e+01   7.2101561143e+01    0.1583374    0.1182945  30.90  0.001066162    1.050    0.048
        51 -10.6731     22.0510      3.1286   5.3960432226e+01   7.2797513412e+01    0.2031096     0.157754  26.60 0.0004773201    1.048    0.046
        52 -10.5096    113.4216      2.5434   2.6863486163e+01   5.3906078731e+01    0.2386816    0.1833435 -77.11  0.001588924    1.296    0.228
        53 -10.4869    105.2956      1.9937   2.7925822675e+01   5.5779547782e+01    0.2731589    0.1664413 -85.83  0.001543221    1.757    0.431
        54  -9.1337     76.8358      3.3930   3.3927100808e+01   6.2021154130e+01    0.2445809   0.08830602  57.14  0.001137681    2.047    0.511
        55  -9.7417     72.9975      3.2474   3.4798126375e+01   6.2869241893e+01     0.237407    0.1299217  52.91 0.0007514601    1.435    0.303
        56  -9.7167     12.9844      2.0044   5.8699693484e+01   7.4306258558e+01    0.1446859    0.1080798  19.56 0.0006489954    1.017    0.016
        57 -10.4059    152.6625      1.4139   2.1992778190e+01   4.5326727927e+01    0.2469755   0.08967196  73.06 0.0006086013    2.244    0.554
        58 -10.6999     44.6221    119.8164   8.3738537231e+01   4.7201836703e+01    0.3209416    0.2574572  84.75 0.0007994378    1.529    0.346
        59 -11.0651     50.8166    249.8529   9.9087696134e+01   1.3362491471e+01     0.242855    0.1705943  33.37  0.001392195    1.222    0.182
        60 -10.2443     43.5475    116.4798   8.3456294496e+01   4.8196279440e+01    0.2470236    0.2277614  31.50 0.0006422556    1.136    0.119
        61 -12.5846      2.5757    111.5411   9.9224528897e+01   5.3125498326e+01    0.6909258    0.4345948  73.76 0.0006812932    2.001    0.500
        62 -11.3581      4.8445    105.2028   9.7325501885e+01   5.4636818011e+01    0.4556684    0.3346625   7.73   0.00204855    1.433    0.302
        63  -9.7732     79.0413    114.6540   6.9920846034e+01   4.3347023648e+01      0.29594    0.2222536 -42.73 0.0009414614    1.336    0.252
        64 -10.3853     35.2851    103.2181   8.3911493990e+01   5.2533822676e+01    0.7450261    0.3370664   8.40  0.002606651    3.062    0.673
        65 -11.4558     25.5874    107.1711   8.8841808742e+01   5.2545147297e+01    0.7557129    0.4068899 -33.38  0.003207976    1.972    0.493
        66 -11.2337     21.5014    114.5525   9.1929137608e+01   5.1006554598e+01    0.6989365    0.3146002   4.33  0.002069124    2.810    0.644
        67 -11.1185     28.2709    113.1972   8.8911154212e+01   5.0735165181e+01    0.4120421    0.3231459 -12.88 0.0008530428    1.312    0.238
        68  -9.2696     57.6472    114.3250   7.7544710772e+01   4.6849217782e+01    0.1585658    0.1169887  63.35  0.000704744    1.762    0.432
        69  -9.3046     93.4084    112.2242   6.4586837895e+01   4.1318938758e+01    0.2172511    0.1480265 -62.96 0.0009459026    1.724    0.420
        70 -10.1626     67.3668    110.0855   7.2909183779e+01   4.6399084653e+01    0.3679528    0.2576596 -39.24  0.001331142    1.455    0.313
        71  -9.6254    101.8499    109.3915   6.1269614477e+01   4.0338236098e+01    0.2170621    0.1426911  28.46 0.0006019038    1.696    0.410
        72 -11.2109     79.9750    108.2312   6.7975351322e+01   4.4699462610e+01    0.5215788     0.315707  28.26 0.0009769108    1.739    0.425
        73 -10.4855     15.8499    108.8013   9.3254347351e+01   5.2963596727e+01    0.2579957    0.2292221 -29.23 0.0005459582    1.058    0.055
        74  -8.8907    118.2556    105.6270   5.5677319186e+01   3.7860363160e+01    0.1500646    0.1163393 -79.84 0.0006967556    1.647    0.393
        75  -9.4773    182.8590    104.4775   4.1821478242e+01   2.5118188651e+01    0.1742024    0.1306369  57.91 0.0003925583    1.458    0.314
        76 -10.1057     85.7940    103.8087   6.4854942253e+01   4.4652480500e+01    0.2268069    0.2034327  -5.09 0.0006118086    1.172    0.147
        77 -11.8600     27.7161     84.8427   8.2854149366e+01   5.7802116236e+01    0.8463016    0.5076295   9.17  0.003972349    1.761    0.432
        78 -10.8456     35.4205     92.8723   8.1402995413e+01   5.5042966910e+01    0.3772433    0.2978599 -61.49  0.001216051    1.352    0.261
        79 -12.0996     42.5858     85.3371   7.6283096526e+01   5.5890373013e+01     1.088538    0.3805881  21.76  0.002915869    3.608    0.723
        80 -12.7226     17.6356    100.2941   9.0900657054e+01   5.4992234000e+01    0.4157714    0.3170484   2.06 0.0005732522    1.332    0.249
        81 -11.6004      9.6155     97.5045   9.3927162416e+01   5.6292500530e+01    0.6441818    0.4783072   3.91  0.001647617    1.379    0.275
        82 -11.4236     23.1217     94.6885   8.7292115109e+01   5.5904547701e+01    0.4332277    0.3052822  14.46  0.001161031    1.429    0.300
        83 -11.2036     17.7731     90.6135   8.8830090924e+01   5.7376698710e+01    0.4945278    0.3365636 -75.34  0.002005047    1.710    0.415
        84 -10.7720     51.7717     99.5493   7.6222350871e+01   5.1308945855e+01    0.6606444    0.2293562 -43.28  0.002176024    3.057    0.673
        85  -9.2101     64.9308    101.7488   7.1677900833e+01   4.8774458039e+01    0.2214518    0.1919463 -58.02 0.0002937677    1.237    0.192
        86 -12.1447     68.6232     95.7783   6.8693287968e+01   4.9529065544e+01    0.3954337    0.3077487  19.21 0.0004127922    1.315    0.240
        87  -9.8792     28.6480     99.6695   8.5955495393e+01   5.4133101554e+01    0.2983143    0.1825244 -34.83 0.0008416907    1.631    0.387
        88 -10.4099     30.5460     96.5188   8.4414844097e+01   5.4710233887e+01    0.3127603    0.2582056 -68.40 0.0009159686    1.331    0.249
        89 -10.6937     81.0107     98.2165   6.4953018824e+01   4.6783768660e+01    0.6159114    0.2647317  51.43  0.002025915    3.162    0.684
        90 -10.2688     82.5399     93.4872   6.3117421127e+01   4.7527325530e+01    0.5195423    0.3507877  85.41  0.002002768    2.881    0.653
        91 -10.9674     78.4443     93.3008   6.4470994905e+01   4.8330843078e+01    0.4696983    0.4468252 -76.35  0.002608432    1.181    0.153
        92 -10.7082     42.7875     94.7576   7.8704545283e+01   5.3679506813e+01    0.4241972    0.3279569 -46.58  0.002202339    1.257    0.204
        93 -11.3483    249.0006     94.1214   3.1382870929e+01   1.5730613193e+01      0.38945    0.1018801 -36.36  0.001321226    5.238    0.809
        94 -12.0991    125.8000     94.7971   5.0947967509e+01   3.8468681402e+01    0.2672228      0.25752  59.23 0.0003034542    1.032    0.031
        95 -10.1027    121.7696     93.9393   5.1721253837e+01   3.9485502603e+01    0.5905045    0.2312026 -53.30  0.001968196    3.251    0.692
        96 -11.1916     89.8562     89.6866   5.9627546137e+01   4.6911329073e+01    0.5549987    0.3400661 -31.45  0.002394385    1.962    0.490
        97 -10.4608     49.1001     91.3955   7.5168736290e+01   5.3601964812e+01    0.3506328    0.2696517  16.60   0.00135398    1.286    0.222
        98 -10.3952     98.4173     90.9828   5.7340021064e+01   4.4930685428e+01     0.278114    0.2097766  46.01 0.0004337608    1.288    0.223
        99 -11.7484      6.9577     88.8512   9.3507293106e+01   5.8609610991e+01    0.6277721    0.3844548   8.06  0.002190018    1.676    0.403
       100 -10.1246     65.9182     89.0889   6.7824973532e+01   5.1471764207e+01    0.4060316    0.2619776   3.28  0.001443265    2.231    0.552
       101  -9.6862    104.3355     87.1350   5.4525524779e+01   4.4475206273e+01    0.2509603    0.1926491  34.07 0.0005784386    1.348    0.258
       102 -10.3313     72.3498     77.8165   6.2068095762e+01   5.2672318861e+01    0.3164901    0.2825579  47.56  0.001712299    1.164    0.141
       103 -10.7091     79.8663     84.1222   6.1320962549e+01   4.9989612271e+01    0.4023099    0.3499166   8.38   0.00204412    1.205    0.170
       104 -11.1845     76.2860     79.7929   6.1265680554e+01   5.1541215977e+01    0.6187254    0.3307015 -51.38  0.001699467    2.103    0.525
       105 -10.9762    143.1966     84.6164   4.4427377999e+01   3.6639948330e+01    0.2351258    0.2172765 -63.91 0.0002559523    1.055    0.052
       106  -9.0156    133.3302     84.7028   4.6551150621e+01   3.8742037282e+01     0.144339    0.1083802 -85.52 0.0002695292    1.639    0.390
       107 -10.3355    113.0245     82.5403   5.0860753462e+01   4.3508281112e+01    0.2475544    0.2350229 -18.43 0.0003741111    1.146    0.128
       108 -10.3113     67.1537     81.6694   6.5171528584e+01   5.2833484878e+01    0.3434719    0.2662475  -7.91  0.001727923    1.487    0.327
       109 -11.3364     53.4956     76.4580   6.9005946522e+01   5.6212669059e+01    0.5643445    0.3727711 -55.79  0.002723624    1.738    0.425
       110 -11.3157     58.7065     77.7989   6.7284277708e+01   5.5085489515e+01    0.4722709    0.4068154 -45.67  0.002177537    1.240    0.193
       111  -9.5304      1.3447     80.7601   9.4616706309e+01   6.0893329783e+01    0.1856418    0.1013723 -52.99 0.0003214863    1.551    0.355
       112 -11.5950    248.8907     76.9779   2.8436738924e+01   1.8191201948e+01    0.2272218     0.163301 -36.77  0.001623407    1.475    0.322
       113 -11.6555     13.1701     73.8978   8.7142227941e+01   6.1691061942e+01    0.5509953    0.4393889 -82.22  0.002631039    1.611    0.379
       114  -9.9284     14.3184     67.6638   8.4915838105e+01   6.2985689183e+01    0.4777823    0.1632535  17.60  0.001818511    2.958    0.662
       115 -10.8684     78.6246     67.6556   5.6641019164e+01   5.3387276090e+01    0.4799414    0.3458196  75.89  0.002237187    2.116    0.527
       116 -11.8006     85.6278     73.2731   5.6096455233e+01   5.0960199833e+01    0.7681766    0.4879616  40.44  0.003662486    1.489    0.329
       117  -9.7061     91.9881     71.9841   5.3699806133e+01   4.9889163324e+01    0.2185193    0.2052142  49.22  0.000929377    1.038    0.036
       118  -8.9907     19.3423     76.2607   8.4653983460e+01   6.0614681841e+01    0.1440334   0.09150436 -21.77 0.0006968415    1.592    0.372
       119 -10.4231     94.2424     76.8423   5.4491353453e+01   4.8533667093e+01    0.5457246    0.2621855  42.63  0.001670451    1.996    0.499
       120  -9.7336    103.3965     74.6830   5.1194369240e+01   4.6997044436e+01    0.2905424    0.2175824  81.49  0.001415075    1.748    0.428
       121 -11.0171      2.0301     71.7638   9.2373366834e+01   6.2957052832e+01    0.3867809    0.1913756 -55.36  0.001445998    1.742    0.426
       122  -9.7155     24.5120     74.0789   8.1519574069e+01   6.0590247830e+01     0.204376     0.129588 -53.42 0.0007896702    1.560    0.359
       123 -10.2883    187.1013     71.1800   3.3985516574e+01   2.9749783093e+01    0.3101953    0.1570623 -45.97  0.001323687    1.762    0.432
       124 -11.1257     35.2512     71.9732   7.5734710370e+01   5.9789965507e+01    0.5378275    0.2303059  36.31  0.002206878    2.331    0.571
       125 -10.3187     41.0210     73.0235   7.3384955327e+01   5.8794893294e+01    0.2181122    0.1947243  -5.58 0.0006874834    1.015    0.015
       126 -11.2786     40.5166     69.0869   7.2386170087e+01   5.9683494798e+01    0.3438188    0.2406181  27.49 0.0009104082    1.350    0.259
       127  -8.9994    153.6575     72.6662   3.9447904237e+01   3.6400362157e+01    0.1312986    0.1063379  21.16 0.0007050734    1.758    0.431
       128  -8.9239     19.3118     72.2614   8.3606077963e+01   6.1515869751e+01    0.1401476   0.09088925 -21.79 0.0003173057    1.534    0.348
       129 -11.2565    122.9082     68.7755   4.4580399366e+01   4.3750211890e+01    0.4655249    0.2470524  49.87  0.001669546    1.798    0.444
       130 -10.3543    219.6791     66.9448   2.9364959799e+01   2.4332320621e+01    0.3387121    0.1517718  70.33  0.001762799    2.600    0.615
       131  -9.4210     52.1493     65.8329   6.6164132726e+01   5.8556859059e+01    0.1949475    0.1518449   8.39 0.0006545419    1.303    0.232
       132 -12.2972      4.9414     62.1033   8.8459452184e+01   6.4929893412e+01    0.4505428    0.3966343 -10.37  0.001637476    1.099    0.090
       133 -11.6271      9.5573     62.5168   8.6040386311e+01   6.4499057284e+01    0.5190118    0.2999013 -40.07  0.001292123    1.533    0.348
       134  -9.4810     96.3316     64.6977   5.0158072515e+01   5.0234704233e+01    0.1972021    0.1806941  76.75 0.0009410983    1.159    0.137
       135 -10.9345     91.7769     62.6064   5.0827514298e+01   5.1553362876e+01    0.3797125    0.2613284  67.21  0.001597584    1.740    0.425
       136  -9.4992     25.7782     65.5940   7.8410263046e+01   6.2282752433e+01      0.17959    0.1183114  30.67 0.0004983151    1.521    0.343
       137 -10.0345     58.4991     63.0952   6.2604239115e+01   5.7994534252e+01    0.3371933    0.2581859  88.48  0.001551609    2.241    0.554
       138 -10.0137    157.4589     63.4984   3.6554174060e+01   3.7001729461e+01    0.3573869    0.1468251  50.10  0.001499119    2.627    0.619
       139  -9.3435    154.9796     60.9393   3.6326594125e+01   3.7914489861e+01    0.1900164     0.154789 -78.77 -0.001877172    1.171    0.146
       140  -9.6560    105.9824     63.5067   4.7158677715e+01   4.8338217058e+01    0.2250813    0.1287125  51.71  0.001041043    1.616    0.381
       141 -11.0707     40.5399     56.9667   6.8317351814e+01   6.2053835570e+01    0.3944487    0.2017882  38.39 0.0009956403    1.898    0.473
       142 -10.2826     50.8008     61.5645   6.5296965471e+01   5.9587077524e+01    0.3550646     0.225633  43.86  0.001406845    1.627    0.385
       143 -11.3366     43.1752     62.2644   6.8926004323e+01   6.0654681477e+01      0.28788    0.2441108 -12.09 0.0004783503    1.126    0.112
       144 -11.0216     45.9978     58.9974   6.6521675200e+01   6.0838404602e+01    0.2920955    0.2765037  11.74  0.001077332    1.142    0.124
       145  -9.7285     85.0312     61.7006   5.2602059084e+01   5.3119423854e+01    0.2128597    0.1710954  46.09  0.001166939    1.144    0.126
       146 -12.4873     74.1298     50.9141   5.2522003749e+01   5.7093630723e+01    0.8944057    0.3791917 -49.13  0.002135151    3.192    0.687
       147 -11.0341     72.5332     47.5214   5.1860730358e+01   5.7934898845e+01    0.2424284    0.1945915  29.13 0.0001984875    1.195    0.163
       148  -9.8265     64.4440     61.7078   5.9789095584e+01   5.7173926422e+01    0.3602713    0.1541203  40.70  0.001458526    2.154    0.536
       149  -9.3097    113.6281     60.8106   4.4450055861e+01   4.7078452833e+01    0.1936104    0.1253402 -49.87 0.0009556858    1.686    0.407
       150 -10.2488    109.8277     40.5154   3.9186213140e+01   5.0812675839e+01    0.4629738    0.3839853 -24.20  0.001888417    1.443    0.307
       151 -10.7465    118.2937     56.3017   4.2053673666e+01   4.6723100669e+01    0.6881428    0.3904237 -80.95  0.002478238    3.804    0.737
       152 -10.4910    112.3932     50.7900   4.1749261027e+01   4.8846207176e+01    0.2784866      0.23375 -36.70 0.0006419271    1.329    0.247
       153 -11.2579    116.0073     49.0250   4.0415265096e+01   4.8282031615e+01    0.3324752    0.2875572 -33.38  0.000394795    1.315    0.240
       154  -9.6120    174.5124    246.4710   6.9961720684e+01  -4.8423701114e-01    0.1282366   0.09880296  -7.25 2.912243e-05    1.049    0.046
       155 -11.1234     24.9601     59.5382   7.6916383296e+01   6.3621431355e+01    0.7263244    0.2103715  30.24  0.002665397    3.109    0.678
       156 -10.5017     25.2074     56.1823   7.5675581355e+01   6.4260252090e+01    0.4324939    0.2365717  -8.95  0.001745531    2.469    0.595
       157  -9.7790    106.4108     58.6449   4.5572847451e+01   4.9013280500e+01    0.2901716    0.1865374 -79.88  0.001237251    2.611    0.617
       158 -10.2051     87.7716     56.7654   5.0136979491e+01   5.3349022008e+01    0.3584984    0.2123444 -30.41  0.001466916    2.005    0.501
       159  -9.8958     91.8739     57.3247   4.9103078505e+01   5.2386950121e+01    0.2782609    0.2010876  61.30 0.0009263696    1.416    0.294
       160  -9.7484     51.0817     56.6480   6.3455456924e+01   6.0437671765e+01    0.4355933    0.2481996  56.46  0.001809799    2.773    0.639
       161 -10.8224     51.8762     48.2302   6.0030393166e+01   6.1741213312e+01    0.7628889    0.2145488  40.05  0.002649678    3.219    0.689
       162 -10.4786     44.5515     52.4885   6.4846437696e+01   6.2245533519e+01    0.4456158    0.2532189 -42.90  0.001266256    1.879    0.468
       163 -11.5247     44.0398     43.9788   6.1856140831e+01   6.3766736982e+01     0.426142    0.3311467 -46.94  0.002486659    1.559    0.359
       164 -10.6614     39.3957     44.3905   6.4192603391e+01   6.4446308350e+01    0.3896235    0.2460194  12.43  0.001720619    1.774    0.436
       165  -9.6997    237.9951     56.0247   2.5713326708e+01   2.2727126504e+01    0.1317061   0.09717981 -60.03            0    1.014    0.014
       166 -11.1588     32.8278     52.6875   7.0540371843e+01   6.3953083564e+01     1.723761    0.5428228  22.32  0.004741669    5.692    0.824
       167 -10.0949    158.3090     54.8145   3.4301359210e+01   3.8076187689e+01    0.4142255     0.213746 -88.09  0.001654594    3.204    0.688
       168  -9.9136    247.3140     54.3195   2.4693271356e+01   2.1461203154e+01   0.08841196   0.08104245 -26.48 0.0007038428    1.652    0.395
       169 -11.3053     60.7938     48.2589   5.6415069435e+01   6.0116053588e+01    0.7141859     0.328892 -35.07  0.003105271    2.476    0.596
       170 -10.3912    240.4919     50.8378   2.4611052266e+01   2.2990789493e+01    0.1524897     0.139309 -76.03  0.001059156    1.363    0.266
       171  -9.6295      7.6181     55.0626   8.4980100006e+01   6.6226293352e+01    0.2178796    0.1629207  20.74 0.0008869062    1.359    0.264
       172  -9.2474     81.6681     50.3427   4.9857184788e+01   5.5627907452e+01    0.2139146    0.1655872  68.82  0.001157459    1.486    0.327
       173 -10.7151     83.1891     46.9496   4.8217187258e+01   5.5808683324e+01     0.278685    0.2075682  35.02 0.0005161086    1.317    0.241
       174  -9.7508      1.8806     49.1059   8.6554722786e+01   6.7871782416e+01    0.1806275    0.1626758   5.67 0.0007650706    1.222    0.182
       175  -9.7766    146.4619     47.2742   3.4248670403e+01   4.1693460452e+01     0.209792    0.1280139 -32.66 0.0006123607    1.883    0.469
       176 -10.8249     20.6250     45.7102   7.4459656147e+01   6.6788350768e+01    0.4344206    0.2501016 -17.60  0.001094365    1.986    0.496
       177 -10.6916     26.3250     42.9692   7.0290952676e+01   6.6573305283e+01    0.2276351    0.1900784  10.10 0.0005994937    1.051    0.048
       178 -10.3775     22.9114     37.8406   7.0133492240e+01   6.7896628323e+01    0.5196454    0.3172714  51.30  0.002504415    2.671    0.626
       179 -10.3148    200.6048     45.0177   2.6960877559e+01   3.0765401810e+01    0.2989397    0.1502012  85.75  0.001434673    2.259    0.557
       180  -9.7546    136.0088     46.0000   3.5654036558e+01   4.4189310096e+01    0.2907641   0.08499438  56.83 0.0009937817    2.956    0.662
       181  -9.6062    139.5147     43.5309   3.4395586326e+01   4.3728460610e+01    0.2526744    0.1577177  45.97 0.0007094597    1.808    0.447
       182 -10.0112     13.5008     46.5967   7.8842065907e+01   6.7389602910e+01    0.2637667    0.1342326 -27.79  0.001004673    2.067    0.516
       183 -10.2606    155.9571     42.2808   3.1572650015e+01   4.0262255319e+01    0.2183815     0.188141 -29.24  0.001352636    1.435    0.303
       184 -10.0865     92.3374     41.7993   4.3844143884e+01   5.4548191392e+01    0.3143265    0.1820388  63.15  0.001520229    1.741    0.426
       185  -9.5546     17.2795     41.8126   7.4904267328e+01   6.7879681767e+01    0.2645391    0.1202556 -30.38  0.001160889    2.496    0.599
       186  -9.6968     57.0506     41.6867   5.5397325592e+01   6.1826388021e+01    0.2606096    0.1099877  49.32  0.001074703    2.376    0.579
       187 -10.2546     79.3943     38.7897   4.6496112054e+01   5.7747396528e+01    0.4656485    0.2831272  76.72  0.002025046    2.720    0.632
       188 -10.7521     77.7857     34.4039   4.5391730442e+01   5.8658014783e+01    0.3709696    0.2403877  45.11  0.001446895    1.344    0.256
       189 -10.6661     81.8319     32.0318   4.3339424304e+01   5.8084165506e+01    0.3103499      0.25154 -83.93  0.001830705    1.558    0.358
       190 -10.2458    231.5293     38.4413   2.3106313445e+01   2.6015496952e+01     0.224307   0.08593301 -40.34   0.00122655    2.227    0.551
       191 -11.1736     60.9619     36.3347   5.1800412629e+01   6.1844483947e+01    0.3973728    0.2932171  -2.42  0.001593075    1.623    0.384
       192  -9.7143     67.5295     31.9568   4.7752610416e+01   6.1107851271e+01    0.3533746    0.1821302  32.40  0.001229919    2.231    0.552
       193  -9.0441    194.3504     38.3401   2.6206589847e+01   3.2809409664e+01     0.105922   0.08875279  38.84 0.0007044309    1.798    0.444
       194 -11.2909      4.9115     35.7994   8.0179567622e+01   7.0200581740e+01    0.3959888     0.283019   8.02   0.00208712    1.224    0.183
       195 -10.2768     11.9323     30.2051   7.3480032826e+01   7.0484666709e+01     0.277132    0.1772992 -25.17 0.0009616302    1.489    0.328
       196 -10.0621      7.1659     30.5865   7.6681059104e+01   7.0914767865e+01    0.3442327    0.1815053   2.97  0.001442911    2.004    0.501
       197  -8.6281    206.3104     37.3018   2.4900587029e+01   3.0649876684e+01   0.09566907   0.08753365  47.43 0.0004972602    1.606    0.377
       198 -10.9733    176.1605     34.1404   2.7170223820e+01   3.6976197245e+01    0.4858751    0.1945675 -44.81  0.001874567    2.250    0.556
       199  -9.3713     94.0306     35.9272   4.1426126208e+01   5.4931803406e+01    0.1958992    0.1501421 -83.08  0.000593466    1.619    0.382
       200 -11.4303    126.3791    241.8514   7.9901122800e+01   6.0343908503e+00    0.3410211    0.2760364  55.82  0.001537448    1.638    0.389
       201 -11.3240    106.3784     32.7574   3.7507507099e+01   5.2546454649e+01    0.5204089    0.3017792  24.33  0.002236221    3.035    0.671
       202 -12.0898    114.0343     24.9547   3.3557300437e+01   5.1686489261e+01    0.6879959    0.2501519  55.09  0.002086686    2.299    0.565
       203  -9.4156     70.7315     34.4288   4.7631571798e+01   6.0133736046e+01    0.1835503    0.1069365  42.22 0.0004555821    1.514    0.340
       204 -10.1401    240.4138     32.5875   2.1482233442e+01   2.5232594970e+01    0.1892839     0.153521  33.45  0.001382744    2.415    0.586
       205 -11.4903     67.8000    240.7889   9.4082179482e+01   1.3421022040e+01    0.4163502    0.2575903  -6.62  0.001802065    2.198    0.545
       206 -12.1358    164.3543     27.6727   2.7003230907e+01   4.0205991824e+01     0.278418    0.2093596 -85.50 0.0004394402    1.140    0.123
       207 -11.0820     57.3446     30.6679   5.0898092783e+01   6.3303654984e+01    0.3827187    0.2844082  -0.62  0.001378952    1.570    0.363
       208 -11.5439     48.6918     30.4961   5.4305266930e+01   6.4955689489e+01    0.6457834    0.2224094  42.32  0.001594307    2.489    0.598
       209 -10.4593     43.1149     28.1316   5.5726979868e+01   6.6271426786e+01    0.2051554     0.153146  31.86 0.0002533009    1.125    0.111
       210 -11.0572     32.4727     30.9934   6.2100769924e+01   6.7627480498e+01    0.2328172    0.1993027  -9.04 0.0003230176    1.166    0.142
       211  -9.3430    230.1231     30.8839   2.1870057341e+01   2.7152323861e+01     0.126764    0.1101488 -74.49 0.0004057822    1.285    0.222
       212  -9.4499    167.4004    238.2509   7.0204362983e+01   1.7448613202e+00    0.1590167    0.1191362 -48.38 0.0009037164    1.560    0.359
       213 -11.0962    147.0468    238.1337   7.4622589780e+01   4.1995474041e+00    0.3831782    0.3218876  44.75  0.001879242    1.520    0.342
       214 -10.5578    131.0411    240.7248   7.8656058700e+01   5.6764534868e+00    0.1971864    0.1561384  11.26  0.001157363    1.101    0.092
       215 -11.4968    182.8173     25.8897   2.4694501237e+01   3.6570104434e+01    0.2989252    0.2424554  76.57  0.001186162    1.243    0.195
       216 -12.1394    126.3292     28.7092   3.2506962561e+01   4.8486362538e+01    0.4748006    0.3215788  81.19  0.002722935    1.404    0.288
       217 -10.1828     88.6178     29.0977   4.0459890730e+01   5.6947372190e+01    0.3328653    0.1824734  54.25  0.001699398    1.533    0.348
       218 -10.4970    197.7250     28.4061   2.3877738515e+01   3.3335829153e+01    0.2626367    0.2015042  54.23  0.001323488    1.709    0.415
       219  -9.6928    150.2324     27.5842   2.8691703213e+01   4.3271171871e+01    0.1711276    0.0982494  61.04 0.0004673562    1.606    0.377
       220 -10.9244    155.3828     24.4798   2.7283803111e+01   4.2489544904e+01     0.312135    0.1484607  85.22  0.001189595    2.289    0.563
       221 -11.6412    144.6653     25.0687   2.8783249811e+01   4.4775947834e+01    0.4497015    0.2282854  57.57    0.0023661    1.839    0.456
       222  -9.7039    164.5081    211.9525   6.6610613661e+01   7.0084082051e+00    0.2002958    0.1684247   7.38 0.0005753753    1.116    0.104
       223  -9.9391    152.3556    206.8567   6.8447672341e+01   9.6707439486e+00    0.2874679    0.1717815 -58.70  0.001319729    2.098    0.523
       224  -8.9084     61.5158    206.5181   9.1930160112e+01   2.2199703919e+01     0.142628    0.1360286  33.82 0.0001465223    1.003    0.003
       225  -9.2892     78.5077    203.5572   8.6811086458e+01   2.0779851449e+01    0.1457007    0.1376907  19.46  0.000123945    1.007    0.007
       226  -9.9304     59.8250     23.6326   4.7088099325e+01   6.3676047721e+01     0.184616    0.1592101  10.51 0.0004275008    1.214    0.176
       227  -9.9954    139.3188    198.6550   7.0086283209e+01   1.3257801355e+01    0.2150474     0.176882  68.25  0.001110524    1.717    0.418
       228 -10.1650     90.8923     22.3037   3.7525004239e+01   5.7188216969e+01    0.2490019    0.2211409 -11.97  0.001646127    1.357    0.263
       229 -10.4412     38.6161     22.2550   5.5168100118e+01   6.7821471351e+01    0.2042998    0.1709462   1.12 0.0004468503    1.184    0.156
       230 -11.2694      6.2113    198.2220   1.0656249776e+02   2.9858896511e+01    0.3444321    0.1375399 -69.02   0.00144533    2.279    0.561
       231  -9.3444    223.7160     22.3962   2.0791683208e+01   2.9228423867e+01    0.1277779   0.08656623  75.79 0.0005035976    1.508    0.337
       232  -9.9189      5.9925     21.8198   7.3672637980e+01   7.2479839535e+01    0.2769282    0.1415023  12.20  0.001043121    1.890    0.471
       233  -9.6359     16.1006    190.8596   1.0322910152e+02   3.0955003441e+01     0.303503    0.1437286  70.02   0.00119012    2.582    0.613
       234 -10.3397    156.4744     20.5313   2.6198983224e+01   4.2675926228e+01    0.2575651    0.1012174  70.70  0.001226001    2.226    0.551
       235  -9.6859     74.6750     19.7583   4.0799273118e+01   6.1007563979e+01     0.178248    0.1394599  25.95 0.0004840416    1.364    0.267
       236  -9.8141     47.0991     19.2444   5.0068591263e+01   6.6654121158e+01    0.2126243     0.160474   5.26   0.00131468    1.429    0.300
       237  -8.9079      1.4625     20.5188   7.6224784793e+01   7.3133685748e+01    0.1225839   0.09226871  -6.14 0.0003013572    1.049    0.047
       238 -12.0849      4.9285    185.7110   1.0602879704e+02   3.3178051670e+01    0.4991625    0.4532566 -39.02  0.002546564    1.212    0.175
       239 -11.5898      3.0086    181.6998   1.0628608147e+02   3.4364332976e+01    0.4012335    0.2885557 -34.46  0.002022758    1.587    0.370
       240  -8.9736     86.1723    185.5932   8.1947710720e+01   2.4208810250e+01    0.2116683    0.1437911  12.46 0.0008687188    1.627    0.385
       241  -9.8214     28.1746    175.8360   9.8159426326e+01   3.3855149459e+01    0.2034173     0.161935 -41.39 0.0005292336    1.318    0.241
       242 -10.4344     16.1111    174.4154   1.0174229035e+02   3.5302968007e+01    0.3058667    0.1743705  79.46  0.001338977    1.975    0.494
       243 -12.7959      9.6551    165.5699   1.0291379269e+02   3.8181124787e+01    0.9086108    0.4264108 -52.37  0.003874064    2.029    0.507
       244 -10.5966     13.9861    159.3029   1.0088833272e+02   3.9551351097e+01    0.2934124    0.2516155  61.88 0.0008010964    1.195    0.163
       245 -10.9544     18.4552    165.0992   1.0005589117e+02   3.7621275856e+01     0.349072    0.2430559 -28.23   0.00171276    1.631    0.387
       246 -10.2306    204.9724    163.4514   4.9951852054e+01   1.0669364288e+01     0.232873    0.1602698 -51.47 0.0006480163    1.439    0.305
       247 -10.7653     27.9256    161.9201   9.6605053384e+01   3.7646837725e+01    0.3892902    0.2498131 -68.46  0.001829441    1.479    0.324
       248 -11.1939      9.3123    155.3633   1.0201923121e+02   4.0964907664e+01    0.3335683    0.2474891 -86.94  0.001085054    1.316    0.240
       249 -11.0626      4.3514    153.5999   1.0348971319e+02   4.1776357150e+01    0.3469401    0.2109203  36.64  0.001059389    1.706    0.414
       250  -9.6356    104.2940    155.0031   7.1075117399e+01   2.9067432230e+01    0.2266654    0.2086732 -46.37  0.001176567    1.083    0.076
       251 -12.5376     22.6121    149.2015   9.6783852229e+01   4.1597774978e+01    0.8202083    0.3668619 -37.08  0.002806424    2.641    0.621
       252  -9.5036    216.5176     20.5278   2.0932519980e+01   3.0714760621e+01    0.1080593   0.08035808 -69.90 0.0001947527    1.009    0.009
       253 -11.3403     16.5095    148.0110   9.8751674575e+01   4.2427308376e+01    0.3398896    0.2663748 -78.48 0.0003834131    1.234    0.189
       254 -11.1897     47.0224    147.2966   8.7994900918e+01   3.9596942085e+01    0.7986838    0.4076378 -42.94  0.003142481    2.047    0.512
       255  -8.7560    142.6979    152.6669   6.0435558270e+01   2.2902739742e+01    0.1533917    0.1128085 -15.72 0.0004282199    1.656    0.396
       256 -10.4827     30.4423    152.0424   9.4461933613e+01   4.0101314860e+01    0.2930645    0.2055891 -12.20  0.001376977    1.661    0.398
       257 -10.8161      3.0634    147.6228   1.0333615209e+02   4.3471543495e+01    0.3164966     0.192917 -73.79 0.0008152968    1.491    0.329
       258  -9.1233     67.0363    149.0000   8.1487133444e+01   3.6504888899e+01    0.2458186   0.08795601  28.10 0.0004393521    2.810    0.644
       259 -11.8942      5.8259    142.1255   1.0180406038e+02   4.4785065805e+01    0.6328304    0.3342983  77.54 0.0002774098    2.320    0.569
       260 -11.2952      2.1825    140.1710   1.0287740873e+02   4.5534588630e+01    0.4670046    0.2338127 -74.25  0.001185385    1.819    0.450
       261  -9.4630     66.5422     10.3437   3.9405306521e+01   6.3656322071e+01    0.2302373   0.09462938  56.63  0.001085724    1.949    0.487
       262  -9.0589     74.2810    146.3044   7.8572867068e+01   3.6144978267e+01      0.15897    0.1165787 -25.32 0.0003237423    1.554    0.356
       263 -10.9813     33.1896    144.2747   9.2371291033e+01   4.1946898721e+01     0.316922     0.294478 -52.41 0.0007437906    1.026    0.025
       264 -10.9145     40.1576    138.0634   8.8862394913e+01   4.2887733371e+01      0.39004    0.2980744 -84.65 0.0008982467    1.461    0.315
       265 -11.3730     10.4114    127.7166   9.8364749351e+01   4.8367409118e+01    0.5639808    0.2951073 -60.88  0.001700765    1.663    0.399
       266 -10.1612     79.6233    138.3687   7.5186652889e+01   3.7359974062e+01    0.2913823    0.2348928  39.64  0.001410248    1.259    0.205
       267  -9.9821     32.0514    137.5218   9.1726101422e+01   4.3895111446e+01    0.3207838    0.2231747  32.03 0.0009547694    1.477    0.323
       268 -11.2536     29.9030    133.1857   9.1819607765e+01   4.5279270100e+01    0.4446844    0.2811493 -39.91 0.0008006049    1.585    0.369
       269  -9.6239     47.4547    135.0372   8.5671591172e+01   4.2842165546e+01    0.2319103     0.147221 -63.45  0.001003868    1.563    0.360
       270 -11.8822     22.5921    136.5161   9.5043328805e+01   4.5051828839e+01    0.6652707    0.4538308  33.02  0.003253431    1.527    0.345
       271  -9.7839     39.3866    133.4422   8.8338425296e+01   4.4216985637e+01    0.2514123    0.1498886  14.87  0.001073997    1.822    0.451
       272  -9.7146     92.8912    130.5069   6.9183572035e+01   3.7080684431e+01       0.4194    0.1816709 -48.61  0.001502925    2.264    0.558
       273  -9.6847    103.9225    131.3411   6.6024344716e+01   3.4889208867e+01    0.2070327     0.193248  20.71 0.0009221527    1.075    0.070
       274  -9.2631     63.0000    130.9886   7.9283634749e+01   4.1818226335e+01    0.2543457   0.08686361 -58.68 0.0007970751    2.905    0.656
       275 -10.3065     26.8243    126.7217   9.1918533793e+01   4.7309044693e+01    0.3635937     0.143905 -60.83  0.001113539    2.218    0.549
       276  -9.3856     22.7489    127.0097   9.3533343388e+01   4.7600239028e+01    0.2011382    0.1748363 -61.22 0.0004405612    1.091    0.083
       277  -9.0825    217.4881    138.5709   4.3295935061e+01   1.3281148716e+01    0.1245698    0.1029085 -43.47 0.0001620321    1.017    0.017
       278 -10.5419      2.2481    125.8293   1.0123005009e+02   4.9376698778e+01    0.2678033    0.1988437  68.98  0.001212265    1.515    0.340
       279 -12.1159    103.8183    122.4294   6.3943718329e+01   3.7002687649e+01    0.3700866    0.3458717  40.01  0.001225195    1.076    0.070
       280 -10.4578     49.6067    123.1229   8.2525242564e+01   4.5711518485e+01    0.3074731    0.2002126  -1.72  0.001310367    1.898    0.473
       281 -11.9279     12.6943    136.1689   9.8628630111e+01   4.5931207655e+01    0.6200353    0.4381202 -52.64  0.003173032    1.296    0.228
       282 -10.1495     48.6362    113.0004   8.0702475401e+01   4.8434786102e+01    0.5085514    0.2891721 -37.15  0.002121813    1.879    0.468
