#   1 NUMBER                 Running object number                                     
#   2 MAG_AUTO               Kron-like elliptical aperture magnitude                    [mag]
#   3 X_IMAGE                Object position along x                                    [pixel]
#   4 Y_IMAGE                Object position along y                                    [pixel]
#   5 X_WORLD                Barycenter position along world x axis                     [deg]
#   6 Y_WORLD                Barycenter position along world y axis                     [deg]
#   7 A_WORLD                Profile RMS along major axis (world units)                 [deg]
#   8 B_WORLD                Profile RMS along minor axis (world units)                 [deg]
#   9 THETA_WORLD            Position angle (CCW/world-x)                               [deg]
#  10 FWHM_WORLD             FWHM assuming a gaussian core                              [deg]
#  11 ELONGATION             A_IMAGE/B_IMAGE                                           
#  12 ELLIPTICITY            1 - B_IMAGE/A_IMAGE                                       
         1 -11.2037     61.1282     35.9206   4.9414533662e+01   6.5070818177e+01    0.6178322     0.421215  -9.40    0.0026535    2.321    0.569
         2 -12.2091    104.7945     13.2193   2.4893639270e+01   5.7649301047e+01    0.6064868    0.4695276 -17.98  0.002505696    1.471    0.320
         3 -11.7586     26.4660     28.3121   6.5629432457e+01   7.2805297920e+01     0.587639    0.4440123 -43.36  0.002324288    1.274    0.215
         4 -11.1424      6.1104     10.5559   7.3796721918e+01   7.8914916138e+01    0.6008805    0.4054615  27.85  0.003457994    1.519    0.342
         5 -12.0911     20.2944     22.1442   6.7071051767e+01   7.4930424057e+01    0.8859618    0.4779198 -33.28  0.003035092    2.131    0.531
         6  -9.7567     12.1091      7.8249   6.5257525162e+01   7.8813561114e+01    0.4779509    0.3185389 -75.00  0.002375075    2.476    0.596
         7 -12.1455     16.3677     13.7721   6.5309549310e+01   7.7129950601e+01     0.787902    0.4294561 -25.39  0.003516726    2.463    0.594
         8 -11.8700     22.4837     11.3754   5.8082926932e+01   7.6712543729e+01    0.5453001    0.3569494  23.26  0.002660823    1.643    0.391
         9  -9.9257    127.1868     11.8647   2.0853920587e+01   5.1926248302e+01    0.3353567    0.2000325 -69.18  0.001486258    1.708    0.415
        10 -11.3590    135.4937     22.4632   2.3689960845e+01   4.8579854243e+01    0.5781476    0.3902973  78.38  0.002686404    1.430    0.301
        11 -11.1502    135.0262     15.0685   2.1055053551e+01   4.9551416887e+01    0.6430065    0.3202291  65.08  0.002638392    1.914    0.478
        12 -10.9389    179.0001     20.8786   1.8404586590e+01   3.8070649363e+01    0.4596691    0.2661033  41.42  0.002141265    2.626    0.619
        13 -12.1112     47.7599     12.5491   4.2142094540e+01   7.1773603191e+01    0.7030017    0.3888221  57.80  0.003275958    1.852    0.460
        14 -11.5988     35.5401     18.1485   5.3083738842e+01   7.3324254297e+01    0.6407449     0.296766 -32.05  0.002341582    2.634    0.620
        15 -12.8700    164.4520     18.3034   1.8941411500e+01   4.1811470945e+01    0.5253175    0.3224034  42.97  0.001692247    2.243    0.554
        16 -10.3234    127.1383     16.4772   2.2637966640e+01   5.1439714978e+01    0.3306118     0.221411  48.09  0.000954316    1.697    0.411
        17 -11.4356     68.1013     18.8062   3.7342665272e+01   6.6275994434e+01    0.4371433     0.425539 -80.52  0.001321547    1.052    0.050
        18 -11.4115     85.8665     13.9620   2.9319512887e+01   6.2480033920e+01    0.5341932    0.3884539  -3.63  0.001992161    1.728    0.421
        19  -9.6554     87.6434      7.7418   2.5694353810e+01   6.2693714713e+01    0.5797345    0.2885137  66.97  0.002498369    1.826    0.452
        20 -10.3464    148.0864     16.2034   1.9925285513e+01   4.6094117915e+01    0.4845948    0.2139446  47.78  0.001893895    2.992    0.666
        21 -12.0346    227.5500     15.2264   1.3774440137e+01   2.8417558508e+01    0.4705545    0.2395882 -71.01  0.002644958    1.916    0.478
        22 -10.0443    218.8015     12.9023   1.3670079497e+01   3.0372215843e+01    0.2394924     0.159405 -18.41  0.001428047    1.759    0.432
        23 -11.3456    192.1483      9.0744   1.4173531381e+01   3.6377070646e+01    0.6327887    0.3326523  -7.99  0.002786881    3.121    0.680
        24 -11.2576    223.7423      2.8208   1.1072761529e+01   3.0427719279e+01    0.2455492    0.1740333 -54.53 0.0002195393    1.054    0.052
        25 -11.5159    212.1886      9.3319   1.3140913437e+01   3.2080532943e+01    0.5515302     0.331913  -6.57  0.002620096    2.584    0.613
        26 -10.8064    218.4759      3.9800   1.1558803558e+01   3.1352029067e+01    0.2785781    0.2181747 -86.66 0.0008852997    1.342    0.255
        27  -9.6147    121.0203     11.8282   2.1679879929e+01   5.3540429003e+01    0.3623161     0.172269  73.13  0.000666972    1.969    0.492
        28 -11.9997    105.7923     20.6967   2.8012991547e+01   5.6520839937e+01    0.4029179    0.3012768 -49.23 0.0006712845    1.319    0.242
        29 -11.2130    169.8883      9.2043   1.5702348218e+01   4.1483704717e+01    0.3789929    0.2157004  62.49  0.001930623    1.906    0.475
        30 -10.1598    163.8140      6.7120   1.5398383673e+01   4.3194643776e+01    0.5646965    0.2942993 -12.31  0.002523204    2.591    0.614
        31  -9.9159    145.1710      9.6921   1.8000731324e+01   4.7522290942e+01    0.2237844    0.1922188 -18.81 0.0004450219    1.355    0.262
        32 -10.4721    247.1783      5.9382   1.0896707095e+01   2.5772878212e+01    0.2085074    0.1549453 -52.62   0.00101653    1.080    0.074
        33 -10.0275      1.0000      7.5298   7.8002633771e+01   7.9971519115e+01     0.375563    0.0992604 -57.28  0.001473697    3.014    0.668
        34 -10.9493      2.6325      1.9691   7.1957256528e+01   8.0973184135e+01    0.3788638    0.2130488   5.64  0.001946683    2.026    0.507
        35 -10.6434    232.3881      7.2133   1.1732038135e+01   2.8333308076e+01    0.2366774    0.1378683 -58.28  0.001094579    1.352    0.260
        36 -12.0479    233.4385      2.8370   1.0711767547e+01   2.8573316297e+01    0.4152068    0.1732085 -56.07  0.000822574    1.833    0.454
        37 -10.9544    184.4146      6.2498   1.3865968639e+01   3.8399219214e+01    0.4068237    0.1897823 -55.25  0.001890516    1.789    0.441
        38  -9.7968    157.3757      7.8375   1.6266433042e+01   4.4656522165e+01    0.2243612     0.172964 -15.83  0.001270632    1.537    0.349
        39 -10.7994    122.1256      5.6123   1.9036877912e+01   5.3866839162e+01    0.3611677    0.1741348 -32.72  0.001205643    1.976    0.494
        40  -9.8574     62.1627      7.0168   3.2339447246e+01   6.9165349914e+01    0.2719041    0.2172223  17.24  0.001226243    1.414    0.293
        41  -9.4586     78.0441      7.5107   2.7855322642e+01   6.5177865747e+01     0.304384    0.1663101  86.84  0.001164516    2.246    0.555
        42  -9.6541     76.6813      3.6379   2.6004694614e+01   6.5904701907e+01    0.2315189    0.1753438  36.26  0.001251271    1.422    0.297
        43 -10.0855     73.1791      3.1505   2.6607908975e+01   6.6837515679e+01    0.4092242    0.2723926  49.67  0.002119079    1.443    0.307
        44 -10.2562    177.1555      6.0290   1.4258257749e+01   4.0091612868e+01    0.2861315    0.1625447  89.45  0.001048211    1.700    0.412
        45  -9.0169     18.6715      6.2824   5.7442958649e+01   7.8185395087e+01    0.1676946    0.1025828  37.40 0.0005774089    1.611    0.379
        46 -11.0906     22.5201      3.2984   5.1394519884e+01   7.8044816948e+01     0.372543    0.2237558  44.06  0.001971439    1.643    0.391
        47 -10.8836    206.0683      3.1490   1.1901217937e+01   3.3973003802e+01    0.3597902    0.2874368 -69.47  0.002450989    1.140    0.123
        48 -10.0869     41.4059      4.1500   3.9274146539e+01   7.4246257947e+01     0.301317    0.2054897  17.78   0.00147698    1.780    0.438
        49 -10.6420    241.9822      3.5043   1.0556876718e+01   2.6938973892e+01    0.2065766    0.1284056 -87.64  0.001387018    1.699    0.411
        50 -10.1586    141.5583      3.3605   1.6132291445e+01   4.9053318935e+01    0.3332469    0.2207723  85.66  0.001771055    1.395    0.283
        51 -11.4819    133.9747      2.7268   1.6618850207e+01   5.1053857044e+01    0.4404167    0.2788949  84.90  0.001729621    1.458    0.314
        52 -10.6875    105.2608      2.2331   1.9854271878e+01   5.8599269534e+01    0.3465659    0.2382391 -66.58  0.001277751    1.442    0.306
        53  -9.3209    245.7228      1.3661   9.9761119378e+00   2.6480099106e+01    0.1542538   0.09404912  69.77 0.0002916478    2.077    0.519
        54 -10.3879    153.8652      1.9967   1.4647651759e+01   4.6085036505e+01    0.5634348    0.1942131 -80.64  0.001954952    3.563    0.719
        55 -10.6493    113.3917      2.0855   1.8676342366e+01   5.6474789891e+01    0.2971563    0.2208238  84.61 0.0007110265    1.226    0.184
        56  -9.4555     64.1918      2.1465   2.8529036677e+01   6.9171952320e+01    0.1894036    0.1655163  39.35 0.0003126381    1.142    0.124
        57  -9.9490     13.4818      2.0990   5.8953828561e+01   7.9661463922e+01    0.2365851    0.1717005  22.37 0.0006517323    1.356    0.263
        58  -8.8904     33.5297      1.4999   4.1656892976e+01   7.6221046437e+01    0.1285338    0.1182342  25.93 0.0002497723    1.007    0.007
        59  -9.1179    128.5437      1.4092   1.6665883998e+01   5.2575027042e+01    0.1944549    0.1131699  70.01 0.0005351551    1.607    0.378
        60 -11.3723     47.2487    147.2057   8.5039333185e+01   3.8954193608e+01    0.7260227    0.4352182 -48.93  0.003270526    1.887    0.470
        61 -10.4228     50.7062    250.0161   9.2372924727e+01   1.5845777373e+01    0.1590239    0.1279578  43.77  0.001166706    1.083    0.077
        62  -9.5871     61.9190    151.8347   8.0957079052e+01   3.5877027420e+01    0.2196809    0.2048248 -27.32 0.0006524263    1.251    0.201
        63  -8.8397     74.2710    146.3050   7.6302609749e+01   3.5554419893e+01     0.143736    0.1142146 -30.70 0.0003934778    1.537    0.349
        64 -11.0498     33.1471    144.1824   8.9374359161e+01   4.1337059983e+01    0.3297434    0.2847472  60.28 0.0008531424    1.049    0.047
        65  -9.2786    217.6491    138.9412   4.2372991454e+01   1.3157317863e+01    0.1733956    0.1304431 -31.01 0.0005449777    1.092    0.084
        66 -10.3604     80.1733    138.4866   7.3145467532e+01   3.6650463031e+01    0.3336434    0.2464307  38.53 0.0007959494    1.319    0.242
        67 -10.8423     39.9549    137.8431   8.6357712275e+01   4.2319622700e+01     0.425836    0.2953146  52.13  0.001058427    1.360    0.264
        68  -9.7617     39.3880    133.4478   8.6016450191e+01   4.3583906892e+01     0.241567    0.1483528  18.73  0.001073561    1.836    0.455
        69 -11.3546     23.1491    136.7721   9.2099575012e+01   4.4316724589e+01    0.6881853    0.4637086  42.93  0.001992473    1.384    0.278
        70  -9.8977     32.0407    137.5176   8.9065475063e+01   4.3258168205e+01    0.3065741      0.23653  18.30 0.0008704907    1.441    0.306
        71 -10.9232     29.9753    133.1518   8.9328881075e+01   4.4663288672e+01    0.4491161    0.3454061 -40.75 0.0009378466    1.528    0.346
        72  -9.4843     47.4137    134.8179   8.3385117107e+01   4.2264158850e+01    0.2765884    0.1420025 -76.60  0.001116829    1.986    0.497
        73  -9.7453     72.7877    133.7977   7.4660957707e+01   3.9014464719e+01    0.2591824    0.1538465 -27.74 0.0009496682    2.791    0.642
        74  -9.9194    104.0563    131.0555   6.4518698086e+01   3.4447436048e+01    0.2185764    0.2164447  83.85  0.000444297    1.032    0.031
        75  -9.2228     93.0366    129.7103   6.7487240068e+01   3.6732013210e+01    0.2182295    0.2038555  51.50  0.001160681    1.059    0.055
        76  -9.9890     33.0899    126.0985   8.7384757848e+01   4.6296812576e+01    0.3393777     0.191803  68.96   0.00143439    1.899    0.474
        77  -9.0998     26.5630    127.5076   8.9964359440e+01   4.6554946024e+01    0.1464584    0.1311843  81.51 0.0001289471    1.019    0.019
        78  -9.1803     22.8256    126.8845   9.1284618570e+01   4.7071278702e+01     0.201407    0.1478836  67.24 0.0004225656    1.271    0.213
        79 -10.2436      2.4712    126.0079   9.8760037939e+01   4.8820372409e+01    0.3287018    0.1742324  56.85  0.001517725    1.725    0.420
        80  -9.4328     82.8122    124.8008   6.9674632084e+01   3.9734511360e+01     0.271125    0.1687922 -20.74 0.0009657479    2.948    0.661
        81 -11.7382    104.0039    122.5393   6.2664828083e+01   3.6511124055e+01    0.3812328    0.3470107  51.92  0.001861383    1.098    0.089
        82 -10.4079     49.4808    123.2051   8.0917496406e+01   4.5182279311e+01    0.3118425    0.2511903  15.51  0.001151265    1.427    0.299
        83  -9.6904     56.2948    122.3942   7.8302084267e+01   4.4489536280e+01    0.2162157    0.1323471  42.64   0.00093849    1.584    0.368
        84 -10.2603     44.6234    119.8207   8.2184536953e+01   4.6730328640e+01    0.3106726    0.2304901  86.19 0.0007076807    1.349    0.258
        85 -10.1591     43.5122    116.4989   8.2078218801e+01   4.7789148143e+01    0.3665856    0.2536102  26.29  0.001725596    1.532    0.347
        86 -10.2925      7.2806    115.4813   9.6256412257e+01   5.1437475101e+01    0.4556579     0.233332 -62.63  0.001383657    1.845    0.458
        87 -12.1935      2.6934    111.7591   9.7833286473e+01   5.2745326661e+01    0.5051863     0.373787 -77.85  0.001601544    1.226    0.184
        88 -11.3021      5.3246    105.6566   9.6307374852e+01   5.4300220761e+01    0.4863965    0.3825884  21.67  0.002252763    1.394    0.282
        89  -9.9085     58.0705    115.4154   7.6374620057e+01   4.6140957018e+01    0.4038608    0.1985881 -74.23  0.001182283    2.276    0.561
        90  -9.7423     37.6911    115.8562   8.4237578177e+01   4.8653589692e+01    0.2516648    0.1718236 -55.04  0.001181982    1.478    0.323
        91  -9.7453     79.0009    114.6975   6.8770843089e+01   4.3001645640e+01    0.2912414    0.2262156 -53.39 0.0008723378    1.288    0.224
        92  -9.2149     67.7966    115.0086   7.2747668008e+01   4.4774451041e+01    0.2402514    0.1602253  57.63  0.001043611    1.613    0.380
        93 -10.5407     34.8984    103.0652   8.3339105374e+01   5.2550756300e+01    0.8517292    0.3720447  13.07  0.002925133    3.208    0.688
        94 -11.3948     25.2135    107.3036   8.8073876661e+01   5.2344078552e+01    0.7183874    0.4315906 -47.46   0.00305143    1.785    0.440
        95 -11.3001     21.5026    114.5272   9.0486904576e+01   5.0642197599e+01    0.5270517    0.2970592   4.29  0.002227493    2.300    0.565
        96 -11.2988     28.2797    113.1872   8.7597727299e+01   5.0395234119e+01    0.4210368    0.3300982   9.84 0.0006964135    1.486    0.327
        97  -9.0379     86.3337    113.6996   6.6094686616e+01   4.1964479572e+01    0.1634567    0.1183349  72.37 0.0007033806    1.653    0.395
        98  -9.9446     48.9770    112.1866   7.9224240089e+01   4.8289786386e+01    0.2886821    0.2387677  40.61 0.0008273168    1.216    0.178
        99  -8.8675    104.3063    112.6698   6.0243893226e+01   3.8831591931e+01    0.1605527    0.1211155  83.76 0.0002777576    1.659    0.397
       100  -9.4819     93.5793    111.8248   6.3316400261e+01   4.1098965565e+01    0.2322552    0.1483183 -68.29 0.0009581486    1.767    0.434
       101  -9.6114     67.4297    110.5492   7.1931316416e+01   4.6025211169e+01     0.299339    0.2379685  23.94  0.001439805    1.409    0.290
       102  -9.8794    120.9844    108.7852   5.4591786518e+01   3.6385327079e+01    0.3724145    0.2716338  -0.15  0.001487376    2.211    0.548
       103 -11.1934     80.0037    108.4420   6.6986132482e+01   4.4448379312e+01     0.494608    0.3791144  29.68 0.0009460879    1.428    0.300
       104  -9.5776    102.0083    109.4923   6.0139539003e+01   4.0046724096e+01    0.2402913    0.1539821  41.85  0.000690953    1.589    0.371
       105 -10.1356     15.2240    109.1119   9.2465873310e+01   5.2673082501e+01     0.423263    0.2083822  14.18  0.001765109    2.320    0.569
       106  -9.0275    143.4882    106.0136   4.8376928132e+01   3.2310012591e+01    0.2120119    0.1234968 -64.38 0.0008080833    2.409    0.585
       107  -9.0521    182.5158    104.4747   4.0394730477e+01   2.4733521897e+01    0.1391186    0.1219799 -42.76  7.27178e-05    1.022    0.022
       108  -9.9459     85.8116    103.5849   6.3806840398e+01   4.4627186114e+01    0.2799396    0.2171343 -57.01 0.0005779664    1.259    0.206
       109 -10.4588     29.6389     98.0237   8.4775490345e+01   5.4525919637e+01    0.7784412    0.2404539 -51.94  0.002518029    3.155    0.683
       110 -10.5203     35.3459     92.6749   8.1250014108e+01   5.5402957277e+01    0.3983258    0.2967072 -72.72  0.001158727    1.262    0.207
       111 -12.0901     42.7097     85.1021   7.6232087638e+01   5.6575400399e+01     1.296821     0.753391  37.24  0.003061265    1.732    0.423
       112 -11.7169      9.5024     97.3150   9.3725534726e+01   5.6387867303e+01    0.6126242    0.4875832  41.16  0.000926837    1.286    0.222
       113 -11.4796     27.2358     85.0316   8.3572498919e+01   5.8397242945e+01    0.9403114    0.6024995  10.04  0.003522424    1.859    0.462
       114 -12.9005     17.6430    100.4068   9.0439401506e+01   5.4939173146e+01    0.3963967    0.3467259  51.80 0.0004513917    1.148    0.129
       115 -11.1275     23.0235     94.7446   8.7233379761e+01   5.6081085371e+01    0.3983628    0.3433978   6.24  0.001445217    1.324    0.245
       116 -10.9217     18.1472     91.0378   8.8951033704e+01   5.7535048207e+01    0.5653006    0.3135619  85.76  0.002292401    1.891    0.471
       117  -9.3997     64.6743    101.7056   7.0960063568e+01   4.8832682618e+01    0.2925366    0.2132292  -5.05 0.0006790707    2.018    0.504
       118 -11.6239     68.6100     95.8513   6.8011152630e+01   4.9722382197e+01    0.4831091    0.3812376  18.94 0.0007142075    1.513    0.339
       119 -10.8194     52.0691     99.2004   7.5392213034e+01   5.1438382862e+01    0.7226775    0.2532252 -51.34  0.002131873    2.808    0.644
       120  -8.8467    120.4480    101.5043   5.2821248919e+01   3.8125693488e+01    0.1540442    0.1468852 -63.64 4.622127e-05    1.015    0.015
       121 -10.3526     81.0303     98.2380   6.4068066191e+01   4.6875809806e+01    0.2476925    0.2310345 -72.92  0.000506541    1.033    0.032
       122 -11.5449     79.4599     93.2065   6.3268599912e+01   4.8442713498e+01    0.7956323    0.7014639  38.96   0.00403929    1.189    0.159
       123 -10.6136     80.2757     83.8100   6.0249104959e+01   5.0616677723e+01     0.500846    0.3849839  34.16  0.002355596    1.419    0.295
       124 -11.2014     76.5799     80.2573   6.0528113167e+01   5.2208656689e+01    0.6649711    0.4122921 -56.78  0.002019006    1.602    0.376
       125 -10.3844     72.8233     77.8432   6.1213812841e+01   5.3525536751e+01    0.3599966    0.3210061 -47.35  0.001540566    1.142    0.124
       126  -8.6415    120.3817     83.5360   4.7704837939e+01   4.2036806706e+01     1.706806    0.5302943 -35.70  0.004212349    5.188    0.807
       127 -10.2895    120.4810     90.4735   4.9731745996e+01   4.0536918132e+01    0.2973412    0.2438286 -31.41 0.0006402635    1.349    0.259
       128 -11.7062    125.9007     94.6731   4.9529518102e+01   3.8444119114e+01    0.3022922    0.2627886 -52.32 0.0001896464    1.098    0.090
       129 -10.1899    121.7637     93.9842   5.0399526226e+01   3.9495703910e+01    0.2977678     0.263062 -66.94 0.0006881874    1.113    0.102
       130 -11.0922     42.5001     93.7515   7.8278832543e+01   5.4235423668e+01    0.5418041    0.3782402  55.98   0.00202431    1.507    0.336
       131 -11.2390     99.5178     91.4114   5.6017535128e+01   4.4862447430e+01    0.7110711    0.3031464  52.89  0.002381095    2.720    0.632
       132 -11.3675     90.0446     88.3275   5.8180531861e+01   4.7558971644e+01    0.7711099    0.4040146 -43.36  0.002368517    2.014    0.504
       133 -11.5297      7.1232     88.8939   9.3945815968e+01   5.8890892094e+01    0.6111248    0.4240743  12.17  0.001923636    1.623    0.384
       134 -10.0368     66.2059     88.8637   6.7095443921e+01   5.1957292398e+01    0.4094701    0.2937146  -1.76  0.001494846    2.151    0.535
       135  -9.8687    104.3018     87.3465   5.3354801004e+01   4.4777928825e+01    0.2661384      0.24537 -12.79 0.0008149949    1.278    0.217
       136 -10.4470    143.2533     84.5550   4.2606374693e+01   3.6645405000e+01     0.262189     0.240454 -51.44 0.0003123903    1.038    0.036
       137  -8.8872    133.3014     84.6785   4.4863287558e+01   3.8870704914e+01    0.1575416    0.1158104 -75.11 0.0003192843    1.629    0.386
       138 -10.4927    113.2757     83.0285   4.9456650405e+01   4.3749506968e+01     0.361558    0.2911258 -56.33  0.001311493    1.206    0.171
       139  -9.9659     66.8477     81.8024   6.4817705866e+01   5.3652405216e+01    0.4346395    0.3293536  28.44  0.002040767    1.475    0.322
       140 -11.2717     59.4116     77.8728   6.6759056991e+01   5.5951505801e+01    0.6426674    0.4738235 -37.25   0.00299243    1.526    0.345
       141 -11.4748     53.1002     75.6351   6.8897290805e+01   5.7565822126e+01    0.7645045    0.4545499 -70.62  0.003166237    1.882    0.469
       142  -9.7676      1.3511     81.0182   9.5996055674e+01   6.1373117333e+01    0.2069383    0.1181093 -78.96 0.0004381074    1.545    0.353
       143  -8.9978    103.2589     79.9882   5.1399438807e+01   4.6654618444e+01    0.2044657    0.1324628 -47.99 0.0003934438    1.505    0.335
       144  -9.5452     88.6517     73.7610   5.4057419731e+01   5.1250914981e+01    0.2835148    0.2266165 -28.88 0.0003174276    1.479    0.324
       145  -9.6821     91.7015     71.6844   5.2323341244e+01   5.1050714452e+01    0.2714665    0.2338139 -80.79  0.001025638    1.215    0.177
       146 -10.8305     88.7986     77.6442   5.5290634288e+01   5.0332819981e+01     0.739012    0.3764477  52.28  0.002805166    2.100    0.524
       147 -10.3389     94.1787     76.5995   5.3152207997e+01   4.9411843250e+01    0.4715884    0.3124382  54.09  0.001565248    1.557    0.358
       148 -11.4810     13.1642     73.9936   8.8824467329e+01   6.2646896022e+01    0.6294858    0.4596854 -82.95   0.00287644    1.287    0.223
       149  -9.3322     46.7912     75.9247   7.1922700520e+01   5.8457070764e+01    0.2978667    0.1648636 -52.10  0.001243053    1.731    0.422
       150  -9.1264    112.4706     75.5007   4.7309172858e+01   4.5529639986e+01    0.1583612    0.1450511 -76.33 0.0002181025    1.056    0.053
       151  -9.9974    103.5959     74.6499   4.9572193824e+01   4.7741652942e+01    0.3762944    0.2673688  71.67  0.001659745    1.659    0.397
       152 -11.8736     40.5655     69.9064   7.3254403545e+01   6.0914229144e+01    0.5031867    0.3669466 -69.89  0.001501003    1.362    0.266
       153 -11.3486     35.1873     71.9215   7.6581868262e+01   6.1083112805e+01     1.324714    0.4422308  20.69  0.003995092    4.076    0.755
       154 -10.5109    186.7706     72.3641   3.1705798672e+01   2.9225274188e+01    0.4540682    0.2973734 -38.45  0.002372865    1.324    0.244
       155 -11.0077      2.0036     71.6715   9.4642022081e+01   6.3916846340e+01    0.3935122    0.2074246 -71.50  0.001407149    1.646    0.392
       156  -9.8982    153.5010     72.8540   3.7175792258e+01   3.6476003103e+01    0.3813981    0.1819231  43.16  0.001439876    2.740    0.635
       157  -9.8506     14.8396     67.4560   8.6696625785e+01   6.4309740334e+01    0.4585151    0.1721007  13.51  0.001668103    3.097    0.677
       158 -11.3641    122.8453     68.8487   4.2454938529e+01   4.4430116592e+01     0.556558    0.3148157  51.08   0.00229877    1.827    0.453
       159 -11.2345     79.0159     67.9739   5.5515103384e+01   5.4610263276e+01     1.695862    0.6836941 -61.89  0.004425311    4.822    0.793
       160 -10.8834     83.2253     46.6959   4.5664616644e+01   5.8119089778e+01    0.3167737    0.2836792  60.62 0.0005010394    1.101    0.092
       161 -12.3528     74.1638     50.8695   5.0781048694e+01   5.9343220756e+01    0.8062592    0.4172353 -56.79  0.001974246    2.337    0.572
       162 -10.9984     72.5148     47.4724   4.9981288051e+01   6.0388039182e+01    0.2644827    0.2285423  58.30 8.332941e-05    1.158    0.137
       163  -9.6903     81.7778     50.6047   4.7818565867e+01   5.7699103073e+01    0.3803999    0.2545502  52.64 0.0009286064    1.490    0.329
       164 -10.2117    219.7630     66.9226   2.6442312794e+01   2.3513491662e+01    0.3835845    0.1838008  69.80  0.001882819    2.681    0.627
       165  -9.3337     52.0343     65.7422   6.6249953024e+01   6.0238908476e+01    0.2104562    0.1885906  35.95 0.0005928443    1.158    0.136
       166 -12.7286      6.6752     61.3404   9.0416053564e+01   6.6490226254e+01    0.8633621    0.5721161 -31.67  0.004392785    1.607    0.378
       167  -9.4607     65.9842     74.5184   6.2913400179e+01   5.5628291869e+01    0.2325658    0.1517333  41.63 0.0004314318    1.557    0.358
       168  -9.6962     96.4969     64.5687   4.8275026187e+01   5.1495173380e+01    0.3425175    0.2637684  11.33  0.001516692    1.937    0.484
       169 -10.9937     91.9385     62.4466   4.8965234533e+01   5.2980861639e+01    0.4463028    0.3009803  65.21 0.0007562868    1.665    0.399
       170  -9.9404     91.8142     57.3146   4.7076499426e+01   5.4057167862e+01    0.3703232    0.2384571  59.94 0.0007814931    1.628    0.386
       171 -10.1401     87.7470     56.1735   4.7982303925e+01   5.5225050714e+01    0.5378488    0.2279335 -37.70  0.001558711    2.617    0.618
       172  -9.2136    233.0350     77.7593   2.7550715642e+01   1.9664114166e+01    0.1307644    0.1049671  71.95 0.0003693324    1.572    0.364
       173 -10.5207     58.4824     63.1787   6.2325583277e+01   5.9747051344e+01    0.4471281     0.325805  84.11   0.00116735    1.835    0.455
       174  -9.7175     64.6349     61.5860   5.8994317068e+01   5.8971375132e+01    0.5157523    0.2670599  37.16  0.002038847    2.069    0.517
       175 -10.2905     51.9958     48.2966   5.9600604957e+01   6.4345563671e+01    0.3459046    0.2687183  58.49  0.000523973    1.426    0.299
       176 -10.9861     40.5518     56.8987   6.9063381547e+01   6.4215199923e+01    0.4699582     0.284565  31.18 0.0008381673    1.723    0.420
       177 -11.2730     60.8141     47.8810   5.5162486610e+01   6.2754188816e+01     1.006202    0.5158179 -50.33  0.004111713    1.981    0.495
       178 -11.2246     45.6638     49.0783   6.3253444246e+01   6.5272316310e+01     0.589246    0.4066604 -49.01  0.002561069    1.411    0.291
       179 -11.2921     43.2104     62.2119   6.9478361125e+01   6.2504484684e+01    0.3245821    0.2760384 -53.92 0.0005068174    1.131    0.116
       180 -10.4055     50.5322     61.4976   6.5508093924e+01   6.1528877589e+01    0.3856608    0.2530712  44.33  0.001541925    1.569    0.362
       181 -10.7679     46.1558     59.1545   6.6884565690e+01   6.2808215266e+01    0.3141003     0.284961  89.60 0.0009270095    1.161    0.139
       182 -11.1358     44.0367     43.9574   6.1946789564e+01   6.6698271388e+01      0.31728    0.2466701  32.11  0.000298313    1.327    0.246
       183 -11.2155     39.7777     44.1120   6.4460283949e+01   6.7357044406e+01    0.6187521      0.38694  14.11  0.002115343    2.208    0.547
       184 -10.2429    158.3416     63.1686   3.3476698201e+01   3.7010754319e+01     0.433959    0.1843037  52.29  0.001260504    2.569    0.611
       185  -9.9166    154.8434     60.8375   3.3370053154e+01   3.8215218075e+01    0.2227839    0.1876203 -60.14 0.0002352041    1.084    0.077
       186  -9.7616    106.5052     63.4893   4.4910625571e+01   4.9371922807e+01    0.3013669    0.1468524  48.92 0.0007453904    2.103    0.524
       187  -9.8686    107.0228     59.1061   4.3194833293e+01   5.0101961407e+01    0.4697964    0.2514094 -58.68  0.001756259    2.321    0.569
       188 -10.7708    234.9301     61.4363   2.3770076800e+01   2.1525697911e+01    0.3149605    0.2199805  81.67  0.002014715    1.777    0.437
       189  -9.6885     84.3744     61.4930   5.1190080537e+01   5.4882388343e+01    0.3163312    0.2556742  74.89  0.001535705    1.362    0.266
       190  -9.9429    125.1910     56.7101   3.7823311883e+01   4.6103862373e+01    0.4717381    0.3187715 -19.51  0.002048226    1.989    0.497
       191 -10.1021    109.7824     40.2607   3.5299888590e+01   5.2725652361e+01    0.8392344    0.5927138   8.30  0.003616033    2.300    0.565
       192 -11.4496    117.3446     54.8673   3.8997947005e+01   4.8365573945e+01      1.09916    0.5130691 -60.09  0.003539808    3.308    0.698
       193 -10.3722    112.4064     50.7893   3.8715904435e+01   5.0308386559e+01    0.3391335    0.2849897 -41.32 0.0008582516    1.199    0.166
       194 -10.5953    116.1634     48.8568   3.7087329690e+01   4.9704950347e+01    0.3186903    0.2980173  84.69 0.0006634377    1.051    0.048
       195 -11.5343    117.5939     44.4518   3.5113963729e+01   5.0075490388e+01    0.8482214    0.4804981  75.92  0.003468669    2.077    0.519
       196 -11.4005    120.3677     40.7988   3.3138010866e+01   4.9949675149e+01    0.4087426    0.3269397 -53.38 0.0008268725    1.195    0.163
       197 -12.3589    120.0157     36.7515   3.1675917872e+01   5.0652027612e+01     0.633193    0.4060504 -66.74 0.0005875372    1.750    0.429
       198  -9.4269    113.7438     61.2085   4.2149807139e+01   4.8079027741e+01    0.2560938    0.1857605 -59.75   0.00118604    1.422    0.297
       199 -10.7548     32.5449     52.7952   7.2187349349e+01   6.6335450638e+01     1.434443    0.7152347  16.06  0.005531812    2.713    0.631
       200 -10.7814     25.0434     56.0050   7.7783674284e+01   6.6415597419e+01    0.5907397     0.348877  14.50  0.001996382    1.951    0.487
       201  -9.2278    135.3297     59.2974   3.6524803996e+01   4.3165816554e+01    0.2300014    0.1823505  14.96  0.001090959    1.811    0.448
       202  -9.5088     79.8919     58.4142   5.1640465461e+01   5.6522763706e+01    0.2839188    0.2045779  -6.00 0.0009897811    2.310    0.567
       203 -10.5184    157.9184     55.5135   3.1255079912e+01   3.8345335540e+01    0.5153026    0.3556494 -71.65  0.002519533    1.567    0.362
       204  -9.9422    154.1111     51.3615   3.0586233419e+01   3.9903342083e+01    0.2555507    0.1970626 -19.46 0.0005222842    1.548    0.354
       205  -9.6354     50.1328     56.1648   6.3739287880e+01   6.2873632421e+01    0.4763614    0.2636708  57.92  0.001836284    2.495    0.599
       206 -10.6054     24.8206     59.6146   7.8968761171e+01   6.5505785363e+01    0.8753116     0.151498  30.49   0.00253776    4.456    0.776
       207  -8.5207    188.2723     55.6785   2.7114957494e+01   3.1429240839e+01    0.1426324   0.08666641 -57.02 0.0002323545    1.571    0.363
       208  -9.6465     55.5495     50.5314   5.8786180750e+01   6.3197185104e+01      0.23171    0.1744453  30.92 7.491108e-05    1.435    0.303
       209  -9.1539    201.4597     53.4713   2.5062932878e+01   2.8960602376e+01    0.1311851    0.1107489 -45.72  0.000162164    1.069    0.065
       210 -10.4734    145.5885     49.1299   3.1280134106e+01   4.2323813644e+01    0.5588871    0.2851218 -18.98  0.002001322    3.122    0.680
       211 -10.2844    240.2904     50.8899   2.1010641439e+01   2.1936385881e+01    0.1835539    0.1720566 -86.13 0.0006667906    1.338    0.253
       212  -8.8916    175.6545     49.3105   2.6915205079e+01   3.5151436742e+01    0.1510821   0.09096184 -62.50 0.0004304092    1.705    0.414
       213  -9.6281     26.4456     48.8141   7.4558290229e+01   6.8070553731e+01    0.3548108    0.1700017 -35.64  0.001357362    2.637    0.621
       214 -10.9065     20.9156     45.6530   7.7119174987e+01   6.9458406230e+01    0.5380702    0.2666207 -43.01  0.001137837    2.038    0.509
       215 -10.6518     26.0174     42.6236   7.2528990744e+01   6.9624588689e+01    0.6636049    0.3195085  52.05  0.002318892    2.969    0.663
       216 -10.0781     22.4898     37.1713   7.2771461845e+01   7.1329554191e+01    0.4802993    0.1864586  40.70  0.001766654    2.814    0.645
       217  -9.7498      1.8035     49.0509   9.1401211116e+01   6.9979743016e+01     0.233954    0.1764615  78.09 0.0008448342    1.392    0.282
       218  -9.6856    171.9944     48.2322   2.7074955287e+01   3.6146907416e+01    0.1765617    0.1143097  71.44 0.0008808006    1.642    0.391
       219  -9.7979     13.6453     46.4475   8.2422121112e+01   6.9923843234e+01     0.324881    0.1387891 -42.04  0.001299783    2.397    0.583
       220 -10.2878    200.2504     45.1596   2.3060478233e+01   3.0339196851e+01    0.3180664    0.1820045  89.09  0.001405251    2.082    0.520
       221  -9.7981    160.2277     43.3728   2.7202723966e+01   3.9620851694e+01    0.3469812    0.1865198  88.66 0.0002548482    2.348    0.574
       222 -10.3574    155.9870     42.2286   2.7444076250e+01   4.0810299029e+01    0.2899496    0.2611363  10.65 0.0009758896    1.434    0.303
       223  -9.8013     92.0468     42.2897   4.0915721157e+01   5.6812534757e+01    0.4107613     0.252865 -89.05  0.001562891    2.601    0.616
       224 -10.3764     10.0171     29.9034   7.9636064998e+01   7.4268646236e+01    0.5679966    0.3739076   1.06  0.002989664    1.667    0.400
       225  -9.5359      5.3324     42.5235   8.7418194013e+01   7.1485559276e+01    0.3411757    0.1273297 -74.77  0.001143098    2.597    0.615
       226 -11.2603      4.7815     36.2058   8.6161224914e+01   7.3101825814e+01     0.469698    0.3877847 -13.25  0.002110068    1.246    0.197
       227 -10.8458    137.5307     44.7242   3.1218755191e+01   4.5004142141e+01     0.683723    0.2891153  47.46  0.001993262    2.922    0.658
       228  -9.6129    231.5085     38.4755   1.8870587925e+01   2.5027339576e+01    0.2658373   0.09442109 -32.18  0.001225822    2.217    0.549
       229 -11.6422     79.3896     35.2857   4.1869420422e+01   6.1058092606e+01    0.7933374    0.6121998 -35.79  0.004037139    1.344    0.256
       230  -9.3741    194.1409     38.7954   2.1984498082e+01   3.2475526227e+01    0.1638007    0.1507289 -11.56 0.0005165188    1.362    0.266
       231  -8.8639    189.2311     39.6296   2.2688527770e+01   3.3438724813e+01    0.1433854   0.07814821 -52.16 0.0003510478    1.600    0.375
       232  -9.4936    183.7773     38.0801   2.2820007628e+01   3.4856576210e+01     0.207891    0.1473952 -56.43 0.0005064784    1.218    0.179
       233  -9.6678    132.7004     37.1329   2.9421940624e+01   4.7353006192e+01    0.3923122    0.2054943 -81.24  0.001435968    2.820    0.645
       234  -9.0170    113.3100    249.3399   7.9184835315e+01   9.2851213489e+00    0.1122164   0.07725432  -5.05 0.0006402291    1.690    0.408
       235  -9.2519     70.5639     34.4626   4.4718887299e+01   6.3254442025e+01    0.2371871    0.2208118  85.48  0.000799389    1.100    0.091
       236 -10.1683     67.8519     31.8377   4.4476490497e+01   6.4322239847e+01    0.3304417    0.2997546  40.29 0.0009402258    1.116    0.104
       237 -11.0009     56.9890     31.1565   4.8865149842e+01   6.6816412810e+01     0.490605    0.4267494  -9.87  0.001570522    1.287    0.223
       238 -10.3593     43.0292     28.0645   5.4515116525e+01   7.0151432635e+01    0.2192892    0.2095312  78.47 0.0002946256    1.158    0.137
       239 -11.2276     50.1638     30.1611   5.1730296164e+01   6.8391593825e+01    0.3728754    0.2911953  50.23  0.001282014    1.294    0.227
       240 -10.6275     46.6535     30.7113   5.3924139346e+01   6.8969240939e+01    0.2668664    0.2358862  19.49 0.0007780358    1.178    0.151
       241  -9.4599    206.1136     37.4940   2.0575170810e+01   3.0109491986e+01    0.1664054    0.1207969  85.30 0.0004856331    1.486    0.327
       242 -11.2316    175.5050     33.8758   2.2495673543e+01   3.7296331679e+01    0.7140651    0.3258575 -52.94   0.00312385    2.029    0.507
       243  -9.4361     13.0253     36.7680   7.9756059042e+01   7.2376931972e+01    0.2662244    0.1721037 -58.76 0.0008774303    1.412    0.292
       244  -9.3328     94.1161     35.7976   3.7497659586e+01   5.7380978819e+01    0.2258633    0.1895818 -77.20 0.0005669988    1.238    0.192
       245 -12.3984    160.0177     29.7360   2.2983364986e+01   4.1517663669e+01    0.4041246    0.3526977 -46.42 0.0005097063    1.122    0.109
       246 -11.8833    164.3810     27.6526   2.1837953188e+01   4.0720651393e+01    0.2981067    0.2496557 -68.97 0.0004642665    1.053    0.050
       247  -9.3742    213.5047    248.5311   6.0848482766e+01  -1.0070486147e+00    0.1023855   0.07080884   0.33 4.652945e-05    1.035    0.034
       248 -11.7348    106.8460     32.1946   3.2702192702e+01   5.4702158434e+01    0.6516529    0.4358056  19.43  0.002355954    2.392    0.582
       249 -12.0630    113.6616     24.9507   2.8257527436e+01   5.3933280126e+01    0.7050049    0.3332587  64.03  0.001858348    1.987    0.497
       250 -10.1767    240.3529     32.6557   1.6997909682e+01   2.4110685614e+01    0.2455612    0.1920864  51.10   0.00166238    1.813    0.448
       251  -9.3428    183.3132     32.3004   2.1253080070e+01   3.5704865486e+01    0.1215056     0.103761  28.52 0.0003069574    1.609    0.378
       252  -9.1556      5.7952     21.9855   8.0195168161e+01   7.6434727678e+01    0.4317477    0.2160836 -17.80  0.001894623    2.518    0.603
       253 -11.0669     32.4690     30.9732   6.2785311825e+01   7.1363331832e+01    0.2859243    0.2254559 -48.64 0.0003273613    1.250    0.200
       254 -10.2286     96.0049    249.0000   8.2717809960e+01   1.1243272372e+01    0.1984168   0.05186082  28.26 0.0008057406    2.965    0.663
       255  -9.6580    174.9545    246.4799   6.7056355967e+01   3.0080033795e+00    0.1657311   0.08449054  25.34  0.001034934    1.598    0.374
       256 -11.7366    126.2676    241.5634   7.5767007859e+01   9.0203478377e+00    0.3194664    0.2474543  48.17   0.00151375    1.490    0.329
       257 -11.5422     67.3016    240.5338   8.8202794789e+01   1.5791482191e+01    0.4770753    0.2095894  27.37  0.002162189    1.841    0.457
       258 -11.3562    147.2807    237.9000   7.1172952490e+01   7.1802380064e+00    0.3847571    0.2793538  36.23  0.002055867    1.388    0.280
       259  -9.2575     98.6792    237.6647   8.1140233040e+01   1.2801490312e+01    0.1163819   0.08337756  -7.32 0.0007049908    1.705    0.414
       260 -11.0008    188.9954     28.4514   1.9666328771e+01   3.4903951501e+01    0.4285534    0.2905848 -14.32  0.001941177    1.877    0.467
       261  -8.7245    148.6519     31.7302   2.5076930781e+01   4.4067165124e+01    0.1371039    0.1063953  40.73 0.0003410647    1.621    0.383
       262 -10.2858    198.1664     28.2791   1.8856780744e+01   3.2917205370e+01    0.3102787    0.2858303 -50.29  0.001848851    1.199    0.166
       263 -12.0573    126.1533     28.4303   2.7357554786e+01   5.0235878007e+01    0.5291508    0.3989185 -83.00   0.00273184    1.314    0.239
       264  -9.5005     87.8861     29.4548   3.6404085673e+01   5.9913277879e+01    0.4844959    0.2080644  49.38  0.001841964    2.339    0.573
       265 -11.0407    183.3094     25.4405   1.9328461736e+01   3.6546711954e+01    0.4056529    0.3202036 -19.69   0.00214383    1.473    0.321
       266  -9.5019    187.3942     22.8564   1.8264454815e+01   3.5927060321e+01    0.2285795     0.178178 -16.55 0.0006431122    1.543    0.352
       267  -9.2245     97.1587     26.9123   3.2726387140e+01   5.7937158071e+01    0.3651223    0.1155222 -27.20  0.001119634    3.844    0.740
       268  -9.0965    149.6520     27.7142   2.3607857303e+01   4.4335718149e+01    0.1371004     0.105475  40.11 0.0007020594    1.654    0.395
       269 -10.5073    155.6337     24.7142   2.1894394465e+01   4.3219379909e+01    0.3900454    0.1937283 -79.12   0.00130508    2.414    0.586
       270 -10.8833    143.3945     25.2682   2.3599164166e+01   4.6218358052e+01    0.3698195    0.2573749 -87.69  0.001709059    1.415    0.293
       271 -10.9864    147.9292     23.0000   2.2244158413e+01   4.5349232155e+01    0.3678657    0.1592317  60.92  0.001399343    2.290    0.563
       272  -9.3122    199.5776    234.5268   6.1257987425e+01   1.9690810811e+00    0.1063689   0.07918347   0.14 4.932602e-05    1.011    0.011
       273  -9.8787    167.3098    238.0035   6.7387615782e+01   4.9345897739e+00    0.1511855     0.121713  -4.79 0.0006593639    1.127    0.113
       274  -8.6107    205.6966    233.6788   6.0130828222e+01   1.4540139381e+00    0.1091722   0.06354116  -5.19 0.0005925167    1.632    0.387
       275 -10.1114     90.9518     22.7678   3.2381454482e+01   6.0086067370e+01     0.296162    0.2568018 -13.92  0.001622251    1.318    0.241
       276  -9.9062     59.7601     23.5768   4.3404348167e+01   6.7496701964e+01    0.2367527     0.187911 -37.11 0.0003517638    1.296    0.228
       277  -8.9904     15.5256    233.5055   9.9338094440e+01   2.2183627179e+01    0.1171687   0.08958183  46.07 7.711454e-05    1.033    0.032
       278  -9.4922    247.3184    231.2886   5.3476311033e+01  -2.1687095846e+00     0.100488   0.05474577  -5.10 0.0003712237    1.596    0.373
       279 -11.1460     38.9172     22.2261   5.3535793686e+01   7.1986764872e+01    0.2448868    0.2370607  37.64 0.0003862971    1.076    0.071
       280  -8.7845     98.6828    226.6340   8.0069112387e+01   1.4708547557e+01    0.1221472   0.08711626 -12.27 0.0007038974    1.776    0.437
       281  -9.7612    223.4754     22.0941   1.5592738838e+01   2.8452997042e+01    0.2201287     0.132369 -65.62 0.0006693114    1.506    0.336
       282  -9.5589    216.5129     20.8958   1.5719453335e+01   2.9960016131e+01    0.1820643    0.1004637 -33.10 0.0005028285    1.525    0.344
       283  -9.0121     75.5170    224.5081   8.5118887628e+01   1.7815750134e+01    0.1240379    0.1020628  35.60 0.0005576015    1.017    0.017
       284  -8.9756    234.1763    223.3829   5.4245546806e+01  -1.1551014274e-01     0.122853   0.08268626  26.65 0.0004045277    1.622    0.384
       285 -10.6218    131.2248    240.7218   7.4675125207e+01   8.5848944487e+00    0.2067224    0.1162698  28.55  0.000867657    1.423    0.297
       286 -10.0198    246.2226     19.7991   1.3891254596e+01   2.4504715883e+01    0.1434309     0.122239 -29.95 0.0009433198    1.348    0.258
       287 -10.0088     74.7035     19.5436   3.5477736875e+01   6.4581109363e+01    0.2629556    0.2144665  34.22 0.0006570573    1.330    0.248
       288  -9.7619     47.0479     19.5692   4.7145700116e+01   7.0860052112e+01    0.2659031    0.2045387 -24.14  0.001433844    1.398    0.284
       289  -8.8715      1.4723     20.5319   8.3900902877e+01   7.7051374108e+01     0.130633    0.1105618 -38.79 0.0002364658    1.057    0.054
       290  -9.2934     81.2419     19.4004   3.3382741770e+01   6.2982195405e+01     0.229382     0.136076  63.50  0.001049065    1.606    0.377
       291  -9.6860     65.6898    222.3550   8.7225229941e+01   1.9343644079e+01    0.1339349   0.07512794  54.10 0.0007043591    1.728    0.421
       292  -9.7142     89.5225     16.5185   2.9701493727e+01   6.1242590976e+01    0.2431895    0.2027786  39.72  0.001325665    1.300    0.231
       293  -9.1191    153.2806    219.3587   6.7644734712e+01   9.2638332959e+00    0.1207665   0.07992426  -9.54 0.0005370737    1.667    0.400
       294  -8.9245     44.7087    215.3226   9.1723563083e+01   2.3031288689e+01     0.133775   0.07361104  53.87 0.0007013255    1.610    0.379
       295  -9.6149    164.6263    212.0785   6.4407194843e+01   8.9969449572e+00    0.1867427    0.1442218  28.69  0.000445299    1.255    0.203
       296  -9.6602    120.0462     16.1056   2.3545482494e+01   5.3332327562e+01    0.2335504    0.1843848  -1.14 0.0008931346    1.615    0.381
       297 -10.9235    238.9281     16.1984   1.3447788116e+01   2.6191505119e+01    0.2424317    0.1287627 -72.24  0.001441897    1.857    0.461
       298 -10.0407    186.7742     15.1393   1.6179733720e+01   3.6935639171e+01    0.2137643    0.1906784 -74.15 0.0006044231    1.158    0.137
       299  -9.4334    152.5076    207.0125   6.6081206070e+01   1.1332778612e+01    0.1735458    0.1181898 -45.76  0.001038036    1.623    0.384
       300  -9.9808     16.8660    205.9799   9.8079392257e+01   2.7711229485e+01    0.2777421    0.1283826  82.58  0.001363146    2.204    0.546
       301  -9.6845     74.3692     13.4216   3.2206807872e+01   6.5443080778e+01    0.2337793    0.1648964  77.09  0.000647591    1.475    0.322
       302  -9.0683     61.5298    206.5100   8.6942497898e+01   2.3028707131e+01     0.130041    0.1096516  43.59 6.443419e-05    1.008    0.008
       303 -10.6013      4.2134    204.9399   1.0116992951e+02   2.8999150727e+01    0.2741889    0.1502676 -69.46  0.001502662    2.058    0.514
       304 -11.2648      6.0941    198.3752   1.0051936809e+02   3.0300454803e+01    0.3220591    0.2064691 -72.88  0.001875807    1.711    0.416
       305  -9.1778     78.5672    203.7527   8.2457373414e+01   2.1568528537e+01    0.1614334    0.1223983  83.97 0.0005383372    1.526    0.345
       306  -9.6972    139.4544    198.9526   6.7643707179e+01   1.4441080179e+01    0.1602452    0.1151395 -86.30 0.0008087355    2.547    0.607
       307  -9.2255    233.5641    196.9913   5.0338356966e+01   3.0934944841e+00    0.1609478   0.08479924 -31.86 0.0007381681    1.585    0.369
       308  -9.8405     16.4431    190.5551   9.7549961124e+01   3.1219957113e+01    0.2858686    0.1672398  56.59  0.001545245    1.429    0.300
       309  -8.9541     53.0416    190.4475   8.7754610328e+01   2.7538409553e+01    0.1762105    0.1126786  -6.92 0.0008063854    2.406    0.584
       310  -9.2747     66.3570     10.4102   3.3017500843e+01   6.7765957289e+01    0.2803648    0.1153708  56.92   0.00113357    2.163    0.538
       311 -12.4538      4.8056    184.0974   1.0041854982e+02   3.3691124605e+01     0.650523    0.5237594  69.99  0.003231804    1.094    0.086
       312  -9.8289     27.9528    176.2561   9.3600874425e+01   3.3578924468e+01     0.255514    0.1870154 -72.96  0.000989167    1.424    0.298
       313  -8.8663    250.5098    176.5025   4.4622156361e+01   3.8313003989e+00    0.1085164   0.07893435 -17.95 0.0008106038    1.006    0.006
       314 -10.1939     15.9856    174.4770   9.6919958391e+01   3.5106806115e+01    0.2777783    0.1549478  70.48  0.001380344    1.646    0.392
       315 -10.0841      3.0648    175.3125   1.0061578642e+02   3.5931198241e+01    0.1863902     0.144643  49.98 0.0005196921    1.090    0.083
       316  -9.1603     52.1377    174.1336   8.6490096435e+01   3.1500373787e+01    0.2077464    0.1420288  55.68  0.000755332    1.355    0.262
       317  -9.3626     39.5359    173.5196   9.0064446839e+01   3.3071887478e+01    0.1380048    0.1214931  58.50 9.582734e-05    1.025    0.024
       318  -8.9801    170.3259    172.2865   5.6896337772e+01   1.4753587323e+01    0.1305228   0.09187665  -4.36 0.0004244892    1.607    0.378
       319 -11.6431      9.2301    155.4958   9.7990445155e+01   4.0462538994e+01    0.7303365    0.2637329  87.90  0.002788797    2.729    0.634
       320 -11.2055     11.0405    126.5883   9.5633104667e+01   4.8100020098e+01     0.775663    0.3221031 -61.26  0.002794235    2.299    0.565
       321 -10.7619      4.1562    153.6566   9.9496123963e+01   4.1309540254e+01    0.3633386    0.1811981  41.77  0.001091396    1.720    0.419
       322 -11.3388      3.0478    147.9201   9.9606984715e+01   4.2886234531e+01    0.6906548    0.3263057 -79.14  0.003126035    1.949    0.487
       323 -11.9247     13.1773    136.9972   9.5603238420e+01   4.5087027241e+01     1.197971    0.6310079 -63.71  0.005461767    1.860    0.462
       324 -12.6427      9.8502    165.3610   9.8270740534e+01   3.7885412890e+01    0.7336102    0.6951532 -11.17  0.003631606    1.319    0.242
       325 -10.6232     14.0608    159.0831   9.6678236763e+01   3.9152887758e+01    0.3470439    0.2380173  75.83   0.00124961    1.304    0.233
       326 -11.2675      5.8403    142.1776   9.8420298531e+01   4.4221594301e+01    0.3336229     0.215104  61.49 0.0003523728    1.364    0.267
       327 -10.7583      2.0182    140.0348   9.9604184411e+01   4.5046673569e+01    0.3867645    0.2104617 -81.26  0.001415056    1.673    0.402
       328  -8.9792    198.4745    167.5400   5.0877989716e+01   1.1494732536e+01    0.1237129    0.1018511 -13.70 0.0002806518    1.032    0.031
       329 -10.5147     18.8800    164.8969   9.5545672862e+01   3.7254935613e+01    0.3410629    0.2741824  -8.25  0.001844382    1.598    0.374
       330 -10.2119    204.9223    163.2262   4.9008153078e+01   1.1267440984e+01    0.2100249    0.1497058 -30.59 0.0006078958    1.207    0.172
       331 -10.6171     27.9733    161.8590   9.2579222655e+01   3.7195207381e+01    0.3593306    0.3104768 -83.51  0.001792766    1.169    0.145
       332  -9.4377     38.3266    160.0789   8.9243090229e+01   3.6595535768e+01     0.204032    0.1715475  77.04 0.0007417763    1.099    0.090
       333  -9.0563    169.3276    159.6831   5.4768126195e+01   1.7127011851e+01    0.1235565    0.1068274  89.67 0.0003853431    1.677    0.404
       334  -9.5003    104.1663    155.1785   6.9145258094e+01   2.8713599202e+01    0.2223629    0.2030224  -8.75  0.001232618    1.207    0.172
       335 -12.5582     22.4995    149.6268   9.3379923649e+01   4.0907802984e+01    0.7695006    0.4368861 -44.70  0.001886674    2.192    0.544
       336 -10.8768     16.5465    147.9132   9.5205273363e+01   4.1878746281e+01    0.2973532    0.2326963  83.03 0.0003966303    1.151    0.131
       337 -10.7191     30.7454    152.4336   9.0939280326e+01   3.9379871633e+01    0.3910424    0.2795022  70.13  0.002004189    1.299    0.230
