#   1 NUMBER                 Running object number                                     
#   2 MAG_AUTO               Kron-like elliptical aperture magnitude                    [mag]
#   3 X_IMAGE                Object position along x                                    [pixel]
#   4 Y_IMAGE                Object position along y                                    [pixel]
#   5 X_WORLD                Barycenter position along world x axis                     [deg]
#   6 Y_WORLD                Barycenter position along world y axis                     [deg]
#   7 A_WORLD                Profile RMS along major axis (world units)                 [deg]
#   8 B_WORLD                Profile RMS along minor axis (world units)                 [deg]
#   9 THETA_WORLD            Position angle (CCW/world-x)                               [deg]
#  10 FWHM_WORLD             FWHM assuming a gaussian core                              [deg]
#  11 ELONGATION             A_IMAGE/B_IMAGE                                           
#  12 ELLIPTICITY            1 - B_IMAGE/A_IMAGE                                       
         1 -15.2416    244.2519    105.3189   5.0939116234e+01   1.1187788655e+01     6.361061     1.284612 -36.39   0.01819773    4.735    0.789
         2 -10.6627    124.7705     87.3429   6.9492293602e+01   4.0622384809e+01     0.820379    0.3896334 -26.44    0.0026061    3.378    0.704
         3  -9.8583     40.8482     13.9619   7.0639272475e+01   6.8308536796e+01     0.183022    0.1311768   5.34 0.0002672005    1.205    0.170
         4 -10.1598     92.5848    230.7743   1.0662420376e+02   1.3762553745e+01    0.1727636    0.1189878 -84.64 0.0009521144    1.684    0.406
         5  -9.7291     72.4094    228.2263   1.1064789356e+02   1.7106562146e+01    0.1738141    0.1119092 -88.42 0.0009023273    1.694    0.410
         6 -11.0044    162.7897    225.4589   9.0804323546e+01   3.8522613855e+00    0.3763314    0.2979931  -5.16  0.001821987    1.363    0.266
         7 -10.3998     99.0239    225.9445   1.0466292672e+02   1.3791287069e+01     0.391499    0.1769114  38.16  0.001784798    1.948    0.487
         8  -8.9834    171.2567    225.6627   8.9066889280e+01   2.4694449544e+00     0.118462    0.1042662  72.67 0.0002879467    1.575    0.365
         9 -10.4566    184.2210    223.7397   8.6083788663e+01   7.5604818678e-01     0.244396    0.1480038  36.07  0.001278621    1.523    0.344
        10 -11.8492    125.3518    221.3552   9.8268456336e+01   1.0642216503e+01    0.4126888    0.3074766 -16.98  0.001746779    1.817    0.450
        11 -10.4154    148.8401    222.5055   9.3311942190e+01   6.6348583781e+00    0.3042756    0.1899375 -55.62   0.00153853    1.908    0.476
        12 -10.4957    114.5211    222.5522   1.0082515217e+02   1.2112814296e+01    0.2654831    0.1329668 -57.57   0.00122376    2.213    0.548
        13 -11.1013    193.7278    222.1465   8.3897108246e+01  -4.5450181376e-01    0.2324838      0.16503  38.20 0.0009733462    1.423    0.297
        14 -10.4077     84.5898    226.8141   1.0789388209e+02   1.5712404393e+01    0.1759394    0.1173056 -85.67 0.0009512053    1.701    0.412
        15 -10.1367     83.1455    219.8939   1.0742496999e+02   1.7362061706e+01    0.2108296    0.1581388  66.52 0.0006848905    1.292    0.226
        16  -9.8600     74.0201    219.5017   1.0938689248e+02   1.8720298845e+01    0.1985186    0.0813416  53.19 0.0008102425    2.555    0.609
        17  -9.2933    108.9971    222.4800   1.0203432920e+02   1.2983556581e+01    0.2038237    0.1192001  37.62  0.000745144    1.539    0.350
        18 -10.4154    143.8656    216.6792   9.3481841123e+01   8.5522140725e+00    0.2454549    0.2068907 -58.16 0.0009419668    1.359    0.264
        19 -10.6609    199.7192    215.9766   8.1628684742e+01  -3.6657957544e-01    0.1872549    0.1594503  -7.71 0.0006937716    1.071    0.066
        20  -9.4354    112.3288    216.7006   1.0050893999e+02   1.3647952828e+01    0.1400611   0.09685254  63.47 0.0004730138    1.640    0.390
        21 -10.3870    154.4355    215.2961   9.0947608803e+01   7.0708864189e+00    0.2389513    0.1543481  51.59  0.001041519    1.756    0.431
        22 -11.0025    131.5040    213.1224   9.5672835726e+01   1.1290142305e+01    0.4196365    0.1291206 -50.47  0.001482815    3.433    0.709
        23  -9.1155     92.6556    213.3165   1.0449876684e+02   1.7381406689e+01    0.1441552   0.09292579  64.42 0.0007048461    1.717    0.418
        24 -10.5584     76.5697    212.7708   1.0806708473e+02   1.9823117413e+01    0.2450581     0.119602 -61.29  0.001145381    2.079    0.519
        25 -10.7362    177.6627    210.6425   8.5182854187e+01   4.0834277895e+00    0.2553583    0.2333859  35.32  0.001043266    1.193    0.162
        26 -10.9822    116.5160    209.6205   9.8542297384e+01   1.4458119313e+01    0.3742625    0.2488122 -73.55  0.001580646    1.879    0.468
        27 -10.3180    148.2466    209.5912   9.1364672138e+01   9.2040438367e+00    0.2383776    0.1767315 -63.80 0.0008604443    1.673    0.402
        28  -9.6593    157.2886    207.6598   8.9040621375e+01   8.0526762716e+00    0.1336703    0.1101144  74.31 0.0004045692    1.642    0.391
        29 -10.5337    139.4843    207.0610   9.2909169938e+01   1.1186693594e+01    0.2072858    0.1391473 -50.67  0.001037651    1.605    0.377
        30 -10.6311     99.0115    205.1236   1.0194103742e+02   1.8199870976e+01    0.3637393    0.1897087 -66.72  0.001607702    2.177    0.541
        31 -10.2712    199.3885    205.1342   7.9730224386e+01   1.5098343957e+00    0.2241906    0.1523135  36.96  0.001200508    1.471    0.320
        32 -11.7225    186.2740    204.7975   8.2335694805e+01   3.7102276442e+00    0.3461487    0.2274868  40.94  0.001242384    1.545    0.353
        33 -12.3930    177.1867    197.4591   8.2887996969e+01   6.5981684768e+00    0.3471386    0.3198574  -9.62  0.001570373    1.060    0.057
        34 -12.9000    164.8114    201.8729   8.6373513341e+01   7.8865302023e+00    0.6117929    0.4417475 -50.32  0.002579471    1.535    0.348
        35 -12.7927    162.6053    193.9615   8.5412743507e+01   9.8249892795e+00    0.6450549    0.4569237  57.45  0.002754468    1.782    0.439
        36 -13.1261    172.6187    195.7289   8.3546124621e+01   7.7203281932e+00    0.5110306    0.4268793  28.15  0.001946516    1.136    0.120
        37 -11.8147    173.0500    191.5186   8.2655850880e+01   8.4611140714e+00     0.342264    0.2605969  50.57  0.001079996    1.494    0.331
        38  -9.7042     56.4921    205.0045   1.1174698204e+02   2.4224109678e+01    0.1918568   0.09759255  80.34 0.0008104439    2.577    0.612
        39 -11.4593    130.8608    202.2464   9.4088892954e+01   1.3639053753e+01    0.3638271    0.2023201 -51.66  0.001654249    1.907    0.476
        40 -10.8398    140.1549    200.0485   9.1580978695e+01   1.2510963295e+01     0.299967    0.1965049 -70.14  0.001359061    2.133    0.531
        41 -12.0808    149.0426    197.0114   8.9019980381e+01   1.1594096578e+01    0.5930001    0.2925484 -53.88  0.002455187    2.300    0.565
        42 -12.3670    124.7311    196.6181   9.4591489865e+01   1.5881462136e+01    0.5417013    0.3448668 -56.79  0.002594892    1.681    0.405
        43 -10.7172     88.5374    198.3005   1.0346271473e+02   2.1325848776e+01    0.3816992    0.2238116 -87.73  0.001649998    2.358    0.576
        44 -11.7477    112.4815    196.1512   9.7423140780e+01   1.8034535895e+01    0.5053898    0.2485471 -60.08  0.002114736    2.224    0.550
        45 -11.1581    193.6388    196.2856   7.9228765587e+01   4.0125953018e+00    0.2229936    0.2208859   5.65 0.0007569952    1.258    0.205
        46 -10.5923    132.8322    195.3123   9.2466457652e+01   1.4774543080e+01    0.2423475    0.2031365 -68.52 0.0009247484    1.343    0.256
        47 -10.0928     66.3791    194.5532   1.0826513997e+02   2.5343397914e+01     0.264984    0.1185976 -83.30 0.0009535046    3.328    0.700
        48 -12.0590    186.4329    193.1074   8.0108327560e+01   5.8212268391e+00    0.3578111    0.2499685 -47.11  0.001389322    1.555    0.357
        49  -9.7366     43.4941    193.0087   1.1349659406e+02   2.8555180726e+01    0.1956798   0.09507305  80.17 0.0008104857    2.625    0.619
        50 -11.9306    211.0326    183.5435   7.3274960799e+01   3.3719808715e+00    0.3439773    0.2452381 -10.31  0.001504738    1.484    0.326
        51 -10.9162    210.7889    189.7820   7.4557743291e+01   2.3168853955e+00    0.2730018    0.2208888 -87.11  0.001271202    2.268    0.559
        52 -12.5368    204.4347    185.8438   7.5022268826e+01   4.0723421803e+00    0.5102937    0.3651822 -52.58  0.002636077    1.714    0.417
        53 -11.4382    199.9314    191.6982   7.7070937476e+01   3.7806881706e+00    0.2654133    0.1991845 -41.60 0.0009721864    1.383    0.277
        54 -10.7163    179.5134    190.9804   8.1160342364e+01   7.4267598372e+00    0.2126164    0.1365197 -41.90 0.0005835471    1.572    0.364
        55 -12.0637    138.9971    187.8033   8.9686678593e+01   1.5308792028e+01    0.5931858     0.222407 -49.50  0.002136879    2.737    0.635
        56 -11.4953    192.6793    188.0587   7.7830852518e+01   5.6811661616e+00    0.2717782     0.212758 -40.27   0.00101441    1.302    0.232
        57 -11.6111    129.3634    187.5215   9.1927679455e+01   1.7075109254e+01    0.4585734    0.2715441 -56.16  0.002051365    1.807    0.447
        58 -10.9068    217.1914    187.8996   7.2964117166e+01   1.6000997367e+00    0.2680061    0.1779114  38.17  0.001422114    1.594    0.373
        59 -11.7353    165.4679    185.7134   8.3206336265e+01   1.0972467736e+01    0.5345168    0.3027177 -55.96  0.002265347    2.173    0.540
        60 -11.6454    156.0039    185.4026   8.5283926752e+01   1.2753784999e+01    0.6387969    0.2163744 -47.07  0.002185488    3.010    0.668
        61 -11.4562    148.8341    186.8407   8.7207545292e+01   1.3750068130e+01    0.2604538    0.2445781   7.25  0.001036838    1.044    0.042
        62 -12.0377    120.2157    183.2077   9.3382573274e+01   1.9640785869e+01     0.832855    0.2542168 -56.80  0.002564576    3.737    0.732
        63 -12.0986     94.9202    186.2328   1.0014367367e+02   2.3136751917e+01    0.4844115    0.3017631 -72.98  0.002231014    1.820    0.451
        64 -11.3353     15.3823    185.6761   1.1930799251e+02   3.3153429292e+01    0.3758005    0.2343158 -41.77  0.001543148    2.183    0.542
        65 -11.5334    108.8755    184.0746   9.6330651334e+01   2.1375009097e+01    0.5941895    0.2674465 -60.49  0.002291457    2.430    0.589
        66 -11.8034    183.1923    183.4514   7.8899356461e+01   8.2242863362e+00    0.4579348    0.1946557 -42.88  0.001795892    2.331    0.571
        67 -12.3621    174.4128    183.9196   8.0881377320e+01   9.7127189518e+00    0.4171399     0.334989  28.29  0.001325794    1.213    0.176
        68 -11.1949    197.1349    182.6920   7.5853347569e+01   5.9024933435e+00    0.2429624    0.1895216 -43.33 0.0008365772    1.338    0.252
        69 -12.7142    147.9051    178.7689   8.5878350937e+01   1.5646464168e+01    0.7159668    0.3550725 -42.30     0.002877    2.099    0.524
        70 -11.6386    137.9165    178.4522   8.8196009913e+01   1.7551707290e+01    0.4582014    0.2636557 -45.95  0.001696237    1.773    0.436
        71 -11.4828    205.0116    177.4150   7.3208897361e+01   5.5030487452e+00     0.364785    0.2215718 -54.74  0.001477159    2.188    0.543
        72 -11.5346    192.3467    177.6520   7.5810288505e+01   7.6972033725e+00    0.2869752    0.2711666 -26.77 0.0009900391    1.131    0.116
        73 -11.7917    183.1222    176.0779   7.7421032257e+01   9.6759253030e+00    0.3284391    0.3054886  -4.49   0.00102801    1.019    0.018
        74 -10.8077    170.9935    177.0096   8.0246754689e+01   1.1728785634e+01    0.2319204    0.1884448  80.90  0.001137741    1.774    0.436
        75 -10.2360     55.0029    186.9905   1.1009706166e+02   2.8600160752e+01    0.2519687    0.1291168  81.19  0.001020037    2.671    0.626
        76  -9.7623     59.3492    176.6567   1.0772730459e+02   3.0546602032e+01     0.151344   0.09426219  68.11 0.0007043284    1.804    0.446
        77 -11.0381    159.3904    173.6938   8.2190099326e+01   1.4589598958e+01    0.4693907     0.174455 -46.45  0.001634125    2.702    0.630
        78 -11.2505    105.5467    173.8353   9.5402592811e+01   2.4338248751e+01    0.4492559    0.2264705 -64.14  0.001760207    2.267    0.559
        79 -11.9636    177.4336    170.6568   7.7520836821e+01   1.1815187163e+01     0.434636    0.2906595 -48.57  0.001542168    1.560    0.359
        80 -10.7849    142.4477    171.9740   8.5834331146e+01   1.8151958393e+01    0.2349169    0.1470502 -48.71 0.0006850791    1.617    0.382
        81 -11.6971    206.3137    169.8132   7.1381127438e+01   6.6746104216e+00    0.3469568    0.2613423 -49.94  0.001160656    1.477    0.323
        82  -9.8059    199.1987    170.7797   7.2992187668e+01   7.7688006515e+00    0.2037442    0.1597023  -7.34 0.0006323459    1.337    0.252
        83 -10.7949    134.6138    169.8909   8.7328251073e+01   2.0082964589e+01    0.4210996    0.1753709 -46.39  0.001521573    2.423    0.587
        84 -12.3524    211.5882    168.4422   7.0076280445e+01   5.9943556508e+00    0.5362877    0.3440926 -66.67  0.002167987    3.095    0.677
        85 -12.2202    213.0423    163.6848   6.8798457183e+01   6.6073262958e+00    0.3333474    0.2788169 -71.55  0.001325249    1.680    0.405
        86 -12.2218    121.8601    166.5039   8.9855635239e+01   2.3212838814e+01    0.8047889    0.3559615 -49.04  0.003019726    2.246    0.555
        87 -11.0322    168.0613    167.5657   7.8943980124e+01   1.4231911265e+01    0.4421276    0.2216321 -44.58  0.001783817    1.974    0.494
        88 -11.8544    149.6633    167.4827   8.3188513693e+01   1.7779021555e+01    0.5556486    0.2579493 -43.35  0.002116549    2.181    0.542
        89 -10.1391     54.8552    169.0496   1.0787080061e+02   3.2984433338e+01     0.241404    0.1435411  78.81  0.001067297    2.048    0.512
        90 -11.9662     77.0723    175.2884   1.0298625482e+02   2.8460715121e+01    0.4344494    0.3327484 -86.46  0.002005793    1.346    0.257
        91 -12.0703    192.3428    164.4635   7.3048215716e+01   1.0244260018e+01    0.6499895    0.2608018 -44.43  0.002422651    2.440    0.590
        92 -10.6274    185.1918    166.9034   7.5062373738e+01   1.1107083261e+01      0.21866    0.2057292 -60.56 0.0007719864    1.232    0.189
        93 -12.3419    139.0537    162.6460   8.4753286936e+01   2.0891607956e+01    0.7487525    0.3433993 -49.90   0.00281278    2.197    0.545
        94 -11.4141     99.0306    165.4525   9.5593044723e+01   2.7447417431e+01    0.4057717    0.2614837 -62.89  0.001673352    1.585    0.369
        95 -10.7334     79.5007    163.4841   1.0046881645e+02   3.1012374650e+01    0.4406096    0.2305143  88.04  0.001383193    4.072    0.754
        96 -12.0237    205.3978    161.7179   6.9844659012e+01   8.3514006697e+00    0.4918417     0.265285 -41.25  0.002128983    1.738    0.425
        97 -11.6734    204.4923    154.4943   6.8454978618e+01   9.8856640009e+00    0.3830235    0.2401968 -36.90  0.001279997    1.477    0.323
        98  -9.6289     69.4809    162.9612   1.0308862661e+02   3.2582929900e+01    0.2092984    0.1187095  87.78 0.0008099598    2.569    0.611
        99 -11.2915    177.5661    158.7294   7.4933429667e+01   1.4224707270e+01    0.5458355    0.2844305 -39.77  0.002239661    1.876    0.467
       100 -11.1475    151.5383    159.2626   8.0998759268e+01   1.9228781746e+01    0.4276922    0.2435485 -39.31  0.001765047    1.811    0.448
       101 -11.2787     92.7233    159.3833   9.6169350465e+01   2.9971768707e+01    0.4541296    0.2181715 -63.63  0.001738404    2.246    0.555
       102 -12.5606    218.0507    156.7585   6.6390909190e+01   6.9785853729e+00    0.4493837    0.2948277 -39.01  0.001642151    1.387    0.279
       103 -11.9158    196.4743    156.5816   7.0497555747e+01   1.1000560169e+01    0.5001555    0.3107725 -44.05  0.001518629    1.559    0.358
       104 -11.0211    188.3351    156.6402   7.2178145488e+01   1.2551950087e+01    0.4080938    0.2212903 -35.41  0.001405535    1.835    0.455
       105 -10.1525    128.4548    157.5304   8.6343373303e+01   2.4090481307e+01    0.3352108    0.1494435 -50.29  0.001223594    2.227    0.551
       106 -11.5623    105.2169    156.4475   9.2229600635e+01   2.8589089163e+01    0.5827188    0.2804596 -60.14  0.002199803    2.231    0.552
       107 -10.3784    157.5384    154.8041   7.8599290536e+01   1.9021093518e+01    0.3771456     0.149279 -47.86  0.001293811    2.545    0.607
       108 -11.1696    119.3769    153.6893   8.7891087569e+01   2.6702336881e+01    0.6137239    0.2883824 -54.34  0.002294119    2.170    0.539
       109 -11.3383     81.3426    153.0390   9.8138198174e+01   3.3342890729e+01    0.4752348    0.2628273 -68.00  0.001982788    1.935    0.483
       110 -10.7110    144.6272    153.3378   8.1377149574e+01   2.1915841060e+01    0.3367908    0.1880729 -40.52  0.001165622    1.836    0.455
       111 -11.7246    133.0381    150.5812   8.3672300594e+01   2.4828280335e+01    0.6397893    0.3102973 -49.90  0.002427365    2.051    0.512
       112 -10.2608     67.6237    153.2946   1.0202717049e+02   3.5266592796e+01    0.2393665     0.163443  73.88  0.001116282    1.770    0.435
       113 -11.1782    159.5853    162.7142   7.9847647791e+01   1.6900986765e+01    0.4653155    0.2682399 -41.92  0.001932401    1.724    0.420
       114 -10.8217    197.9657    135.4695   6.5434221610e+01   1.4824154825e+01    0.7050788    0.2274018 -39.11  0.002303848    2.949    0.661
       115 -11.6812    189.8779    148.8380   7.0117938519e+01   1.3806763110e+01    0.6471814    0.2823611 -39.32  0.002349479    2.198    0.545
       116 -11.5465    200.0815    147.4021   6.7743351011e+01   1.2088619304e+01    0.6949531    0.2680753 -39.58   0.00253557    2.431    0.589
       117 -11.7822    196.5895    142.9539   6.7426016574e+01   1.3639637090e+01    0.5169107    0.3476155  48.76 0.0007590391    1.635    0.388
       118 -10.2104    247.1990    247.4176   7.8230044997e+01  -1.1341084164e+01     0.149492   0.09434422  34.47 0.0009508402    1.762    0.433
       119 -10.2498    165.6722    142.1452   7.3824568861e+01   2.0105343243e+01    0.3958812    0.1796176 -38.35  0.001428857    2.270    0.559
       120 -11.5369    124.3443    140.5983   8.3691112699e+01   2.8865502955e+01    0.7466372    0.2869519 -55.23  0.002364578    2.975    0.664
       121 -10.0880    162.4570    149.4410   7.6247354575e+01   1.9196168596e+01    0.3270485    0.1480519 -44.42  0.001198388    2.158    0.537
       122 -11.1573    224.8568    139.7036   6.1478782548e+01   8.8312478954e+00    0.3578921    0.1719022 -37.54   0.00154554    1.852    0.460
       123 -10.5473    203.3232    141.1090   6.5694541043e+01   1.2668184561e+01    0.2393308    0.1724402 -23.22 0.0006520965    1.455    0.313
       124 -10.2239    181.9785    140.1806   6.9779762633e+01   1.7147623261e+01     0.289601    0.2138063 -38.22  0.001393155    1.290    0.225
       125 -11.0823    167.8111    155.0369   7.6282614719e+01   1.6922034878e+01    0.5785148    0.3144756 -36.18   0.00233884    1.919    0.479
       126 -10.1835     23.2439    138.0077   1.1242137384e+02   4.4072080806e+01    0.3554892    0.1621576  74.61  0.001289785    3.628    0.724
       127 -10.1862    209.1064    137.7650   6.3848243438e+01   1.2172650547e+01    0.2860698    0.1820018 -16.14  0.001232828    2.090    0.521
       128  -9.9445    171.9706    136.2704   7.1021638391e+01   2.0035808782e+01    0.3909347    0.1871587 -42.82  0.001488343    2.008    0.502
       129 -10.2444    138.4709    136.9749   7.9161924307e+01   2.6878916321e+01    0.2515465    0.1523769 -46.28 0.0007537621    1.617    0.382
       130 -10.7387    219.8241    135.5425   6.1425943038e+01   1.0524079714e+01    0.3827188    0.1516562 -29.08  0.001247962    3.435    0.709
       131  -9.2933    192.5100    135.9791   6.6629484224e+01   1.5832728251e+01    0.2233857    0.1268837 -20.01  0.000810403    2.672    0.626
       132 -10.0456     68.4071    135.3779   9.8560463871e+01   3.9688442941e+01    0.3130841   0.09076497 -48.06 0.0009596866    3.405    0.706
       133 -12.1000    233.9908    147.3438   6.1589119164e+01   5.8460247422e+00    0.3764761    0.1791534 -40.46  0.001279812    1.839    0.456
       134  -9.8844    187.6166    134.3211   6.7230258559e+01   1.7168852979e+01    0.2954256    0.1364113 -44.32  0.001123894    2.070    0.517
       135 -12.0197    225.8331    133.0379   5.9842874198e+01   9.8462452009e+00    0.4109853    0.2421459 -24.10  0.001854263    1.930    0.482
       136  -9.6219    162.5877    134.1869   7.2638567416e+01   2.2455919945e+01    0.2286643    0.1436217 -32.47 0.0009486733    1.711    0.415
       137 -10.1273    179.4030    132.1510   6.8425565434e+01   1.9324497578e+01    0.3606568    0.2286169 -31.86  0.001555335    1.641    0.391
       138 -10.5121    112.4934    133.0040   8.5156978801e+01   3.2955094047e+01    0.2459956    0.1512866 -52.41  0.001031966    1.598    0.374
       139 -11.7125    131.7363    129.2222   7.9025426281e+01   3.0035657476e+01    0.8079153    0.2763746 -47.59  0.002534405    2.870    0.652
       140 -11.0646     83.6785    123.8715   9.1474994606e+01   4.0264111755e+01    0.6092349     0.308251 -31.67  0.002090733    3.034    0.670
       141 -10.7648    142.8383    128.9476   7.6106544060e+01   2.7786681852e+01    0.5535331    0.1992527 -39.49  0.001696984    3.053    0.672
       142 -10.2250    204.5969    129.2593   6.2730455683e+01   1.4676905203e+01    0.2939789    0.2490056 -44.14  0.001076688    1.118    0.106
       143  -9.7415     12.8098    129.4323   1.1437147140e+02   4.7016391469e+01    0.2827015    0.1191758  75.88 0.0009514118    4.349    0.770
       144 -11.3929    221.1423    128.3715   5.9590607485e+01   1.1575341678e+01    0.3753865    0.1852955 -22.26  0.001311256    3.274    0.695
       145  -9.7228    211.8560    128.4759   6.1228762577e+01   1.3370501257e+01    0.2570453    0.1575995 -35.57  0.001192895    1.507    0.337
       146 -11.0510     72.5184    127.8296   9.5778519976e+01   4.0998416629e+01    0.4561071    0.1444573 -59.73  0.001439568    3.162    0.684
       147 -10.0962    215.4888    148.0127   6.4961951323e+01   9.0475559844e+00    0.2260097    0.1284601 -39.60 0.0008284737    1.592    0.372
       148  -9.8733    168.4356    126.8888   6.9530442360e+01   2.2752381818e+01    0.3852803    0.1426987 -34.60  0.001144851    3.378    0.704
       149 -11.0544     98.4052    126.8097   8.7735522620e+01   3.7042823460e+01     0.556093    0.2909321 -65.99  0.001984933    2.594    0.614
       150 -10.7036     98.6414    120.6691   8.6187239272e+01   3.8483239159e+01    0.3514329    0.2401694 -21.46  0.001483344    1.954    0.488
       151 -10.8163    117.1348    124.6900   8.1852926222e+01   3.4029946045e+01    0.2867499    0.2154317 -60.51  0.001303857    1.424    0.298
       152 -11.0182     58.8866    123.2702   9.9095268188e+01   4.4015850551e+01    0.5363687    0.2641174 -80.80  0.001733515    3.815    0.738
       153 -10.9776     43.7148    122.7657   1.0382269337e+02   4.5938313331e+01    0.5395508    0.2913567  85.31  0.002015256    3.206    0.688
       154  -9.8985    206.0000    147.9190   6.6713169756e+01   1.0850132562e+01    0.2432138   0.07693782 -40.66 0.0007980164    2.912    0.657
       155  -9.6308    188.4158    122.3051   6.4189511598e+01   1.9387122122e+01    0.2923839    0.1408427 -36.21  0.001116186    2.060    0.515
       156 -10.1846    180.0620    122.3355   6.5899901733e+01   2.1175399487e+01     0.348373    0.2373271 -11.27  0.001443432    2.124    0.529
       157 -10.0023    192.9516    128.5561   6.4792929797e+01   1.7202993422e+01    0.2977626    0.2045041 -23.22  0.001354098    1.648    0.393
       158 -10.6548    152.4768    126.8099   7.3206128087e+01   2.6207491758e+01    0.5873042    0.1518114 -43.66   0.00160244    3.777    0.735
       159  -9.5795    194.6515    120.5319   6.2540495106e+01   1.8406753404e+01    0.2784137    0.1322703 -40.87  0.001092005    1.955    0.488
       160  -9.9279    158.3139    118.9180   6.9829573294e+01   2.6632471168e+01    0.4209295    0.1349548 -35.10  0.001090611    4.361    0.771
       161 -10.7876    141.8000    119.3316   7.3934619044e+01   3.0141660790e+01    0.3970281     0.211123 -58.15  0.001416222    2.434    0.589
       162 -11.2803     83.0319    131.2357   9.3310740163e+01   3.8543509022e+01    0.4776094    0.2939855 -74.38  0.001840266    2.080    0.519
       163  -9.8824     70.5109    116.9773   9.4027641841e+01   4.3986008715e+01    0.2260228    0.1048318 -38.25 0.0008104352    2.585    0.613
       164  -9.6602      3.3234    117.6698   1.1576493180e+02   5.0508734889e+01    0.1276969   0.08433506  70.78 0.0007049906    1.699    0.412
       165 -10.5776     29.2573    123.2999   1.0848745117e+02   4.7229477547e+01    0.3547408    0.1853735  78.53  0.001402059    3.037    0.671
       166  -9.7533    185.6910    114.3987   6.2788026835e+01   2.1524329411e+01    0.2814792    0.1325747 -39.20  0.001075694    2.021    0.505
       167 -11.2597    108.6901    111.1053   8.0771665216e+01   3.8844288171e+01    0.7915614    0.2841575 -45.46  0.002592241    2.697    0.629
       168 -10.1347     92.3036    112.0412   8.5944900558e+01   4.1670595331e+01    0.4076165    0.2626037 -79.13  0.001562773    2.578    0.612
       169 -10.8090     92.4041    105.8150   8.4284765829e+01   4.3112435404e+01    0.5805029    0.2822263 -33.13  0.002019088    2.754    0.637
       170 -10.5129     79.0129    112.5134   9.0246173173e+01   4.3781799425e+01    0.3870705    0.2534724  83.64  0.001495449    2.765    0.638
       171 -10.9577    121.7906    110.6864   7.6935862420e+01   3.6301183214e+01    0.4670525    0.1796814 -40.02  0.001506174    2.768    0.639
       172 -10.5181     14.0460    109.7912   1.1125679450e+02   5.1760884439e+01    0.3918809    0.2196017 -86.95  0.001910818    1.990    0.497
       173 -10.0841     66.3237    110.0077   9.3773654570e+01   4.6290884644e+01    0.2343019    0.1218174 -78.57 0.0007042895    4.236    0.764
       174  -9.2251    174.5173    108.9879   6.3696847318e+01   2.5059603968e+01    0.2184904    0.1353194 -16.38 0.0008100645    2.524    0.604
       175 -11.0704     22.8878    102.4243   1.0701979334e+02   5.2905774204e+01     0.596673    0.3124542  71.53  0.002313174    3.620    0.724
       176 -11.2947     45.1484    101.8916   9.9119039994e+01   5.0930014529e+01    0.5288596    0.3017077  74.16  0.001896135    3.879    0.742
       177 -10.2155    150.0000    103.0031   6.7579173304e+01   3.1800837198e+01    0.2638594   0.08741042 -41.51 0.0008046413    2.958    0.662
       178 -10.0844    129.0247     98.4760   7.1593958382e+01   3.7410710767e+01    0.3166233    0.1951708  -7.40  0.001030574    3.419    0.708
       179 -10.2215    107.8988     97.8144   7.7339727313e+01   4.1981171342e+01    0.2925407    0.2070239 -73.13  0.001042387    2.055    0.513
       180 -10.2441     39.4222    147.5610   1.0909776692e+02   4.0136684625e+01     0.340772    0.1744027  66.84  0.001376847    2.745    0.636
       181 -10.6044     63.4709     95.6569   9.1166624147e+01   5.0107635716e+01     0.335737    0.2071923 -86.85  0.001212423    3.488    0.713
       182 -10.3179    108.2629     92.1195   7.5578371936e+01   4.3133017199e+01    0.3482705    0.2387803  10.01  0.001449981    2.095    0.523
       183 -10.3108     43.6255     92.6454   9.7512266585e+01   5.3297827086e+01    0.2258562    0.1444401 -30.64  0.001116331    1.643    0.392
       184 -10.0538     96.2565     91.2997   7.8997643314e+01   4.5661809240e+01    0.3692597    0.2173507  -7.14  0.001152945    3.984    0.749
       185  -9.3811    138.3286     91.6666   6.7245805420e+01   3.6732539007e+01    0.1592992    0.1236208 -80.75 0.0007051863    1.720    0.419
       186 -10.4267     34.7888     89.6887   1.0007377486e+02   5.4902567057e+01    0.3810252    0.1884437 -78.93  0.001365522    3.676    0.728
       187  -9.5643     92.6462    238.3269   1.0745369926e+02   1.2265263682e+01    0.1369245   0.08263472  61.89 0.0007046746    1.770    0.435
       188 -11.0810     55.5564    144.9066   1.0407007033e+02   3.8965787204e+01    0.5052287    0.2762456  84.48  0.001920227    2.889    0.654
       189 -10.3915     48.2550     84.1546   9.3621898986e+01   5.4722639471e+01    0.2586961    0.1746181  56.71  0.001245412    2.157    0.536
       190  -9.5712    172.4165    118.8235   6.6646796429e+01   2.3551719786e+01    0.2287819    0.1431023 -29.56 0.0009484066    1.773    0.436
       191 -10.1230    140.6644     81.8490   6.3807006147e+01   3.8092213900e+01    0.3169521    0.1432402 -31.54   0.00110606    2.607    0.616
       192 -10.2179     24.3199     80.6310   1.0195520293e+02   5.7922890519e+01     0.274431     0.185719  88.90  0.001223856    2.146    0.534
       193 -10.3353     87.4959     80.4982   7.8541974662e+01   4.9571504832e+01    0.3256587    0.1298521  25.75 0.0008106333    5.861    0.829
       194 -10.1131    175.5502    145.2248   7.2334437371e+01   1.7424305107e+01    0.3026161    0.1439162 -46.55  0.001146623    2.085    0.520
       195  -9.4987     86.3299     86.6735   8.0817459900e+01   4.8479839574e+01    0.1463258    0.1202997  86.03 0.0007050865    1.706    0.414
       196 -12.3111    148.7056    141.3960   7.7655151081e+01   2.3777645436e+01     1.010854     0.377568 -46.35  0.003353165    2.629    0.620
       197 -10.1849     51.8084     70.2253   8.8207107335e+01   5.7309714575e+01    0.2099883     0.150867  78.90 0.0009446589    2.761    0.638
       198 -11.4078    106.8530    144.5602   8.9326288034e+01   3.1199939765e+01    0.5573649    0.3466501  88.48  0.001935371    3.145    0.682
       199 -10.5057    106.8162    138.1954   8.7938034713e+01   3.2756924288e+01    0.2906014    0.1869632 -33.71  0.001161981    1.820    0.451
       200  -9.7322     73.4015     60.2140   7.6677579039e+01   5.6024696058e+01    0.1972869     0.128437 -49.64 0.0009535915    1.726    0.421
       201 -10.2048     49.3171    154.7514   1.0736022595e+02   3.7225778376e+01    0.3389563    0.1563622  66.56  0.001131784    3.862    0.741
       202  -9.2641    100.5272     54.4782   6.5698921995e+01   5.1830797529e+01    0.1443152    0.1304935  14.29 6.079773e-06    1.046    0.044
       203  -9.4957     31.2983     51.6801   9.0765374693e+01   6.3430385726e+01    0.1113956    0.1022317  84.94 0.0002978729    1.619    0.382
       204  -9.7859     45.2410     49.5419   8.3894188017e+01   6.2215313598e+01    0.1745702    0.1157098  11.05 0.0005165981    1.590    0.371
       205  -9.8722    208.5224    144.1921   6.5404398221e+01   1.1073564425e+01    0.2509677     0.212424  38.85 0.0009430477    1.279    0.218
       206  -9.4330      5.3370     42.6611   1.0008569603e+02   6.7295999959e+01    0.1051313   0.09164201  70.49 0.0007051125    1.757    0.431
       207  -9.6812    113.9264     41.5195   5.7428030261e+01   5.0840634119e+01    0.2092647    0.1291436  51.75 0.0004307977    1.508    0.337
       208  -9.4844     84.1979     39.6393   6.5282636890e+01   5.7420814358e+01    0.1903461    0.1141112  36.62 0.0003550926    1.586    0.369
       209 -11.1043     87.8686    141.9146   9.4134073339e+01   3.5103620384e+01    0.6637588    0.1969129 -56.63  0.002041568    3.237    0.691
       210 -10.3523    182.0735    149.8082   7.1972684675e+01   1.5162373601e+01    0.3403708    0.2069056 -36.88  0.001083541    1.603    0.376
       211  -9.5020    118.4849     24.5425   5.0377175963e+01   5.1884223891e+01    0.1348592    0.1201654  47.76 8.216042e-05    1.003    0.003
